Data from Zn(NO3)2Standard.Agarose3%.GreenCap.LampEnergy10E.O_HRD10591_15-06-56-942.txt Node
Date: Mon Jul 22 15:06:56 EDT 2019
User: cochatt
Spectrometer: HR+D1059
Trigger mode: 1
Integration Time (sec): 1.000000E-1
Scans to average: 1
Electric dark correction enabled: true
Nonlinearity correction enabled: false
Boxcar width: 0
XAxis mode: Wavelengths
Number of Pixels in Spectrum: 2048
>>>>>Begin Spectral Data<<<<<
223.165	-11.62
223.4	-11.62
223.635	-11.62
223.869	-13.62
224.104	-9.62
224.338	-18.62
224.573	-10.62
224.808	-19.62
225.042	2.38
225.277	-16.62
225.511	4.38
225.746	-7.62
225.98	-2.62
226.215	16.38
226.449	14.38
226.683	20.38
226.918	20.38
227.152	32.38
227.387	30.38
227.621	42.38
227.856	52.38
228.09	57.38
228.324	42.38
228.559	61.38
228.793	71.38
229.027	61.38
229.262	68.38
229.496	74.38
229.73	75.38
229.964	82.38
230.199	88.38
230.433	75.38
230.667	78.38
230.901	80.38
231.136	78.38
231.37	70.38
231.604	77.38
231.838	78.38
232.072	90.38
232.306	87.38
232.541	83.38
232.775	101.38
233.009	80.38
233.243	79.38
233.477	74.38
233.711	74.38
233.945	79.38
234.179	80.38
234.413	95.38
234.647	84.38
234.881	91.38
235.115	84.38
235.349	83.38
235.583	91.38
235.817	78.38
236.051	67.38
236.285	95.38
236.519	76.38
236.753	75.38
236.987	86.38
237.221	86.38
237.455	97.38
237.689	85.38
237.922	70.38
238.156	70.38
238.39	83.38
238.624	86.38
238.858	79.38
239.091	70.38
239.325	81.38
239.559	68.38
239.793	73.38
240.027	80.38
240.26	70.38
240.494	82.38
240.728	82.38
240.961	79.38
241.195	78.38
241.429	86.38
241.662	71.38
241.896	80.38
242.13	78.38
242.363	83.38
242.597	77.38
242.83	80.38
243.064	89.38
243.298	74.38
243.531	71.38
243.765	78.38
243.998	79.38
244.232	82.38
244.465	88.38
244.699	89.38
244.932	91.38
245.166	74.38
245.399	83.38
245.633	87.38
245.866	74.38
246.099	80.38
246.333	81.38
246.566	64.38
246.8	80.38
247.033	76.38
247.266	75.38
247.5	72.38
247.733	72.38
247.966	89.38
248.2	66.38
248.433	71.38
248.666	80.38
248.899	70.38
249.133	75.38
249.366	78.38
249.599	69.38
249.832	66.38
250.066	90.38
250.299	73.38
250.532	89.38
250.765	80.38
250.998	79.38
251.231	85.38
251.465	80.38
251.698	70.38
251.931	75.38
252.164	80.38
252.397	87.38
252.63	95.38
252.863	64.38
253.096	77.38
253.329	86.38
253.562	90.38
253.795	74.38
254.028	84.38
254.261	85.38
254.494	78.38
254.727	97.38
254.96	81.38
255.193	78.38
255.426	72.38
255.659	78.38
255.892	84.38
256.124	83.38
256.357	86.38
256.59	85.38
256.823	85.38
257.056	81.38
257.289	88.38
257.521	93.38
257.754	74.38
257.987	77.38
258.22	80.38
258.452	89.38
258.685	81.38
258.918	87.38
259.151	75.38
259.383	95.38
259.616	89.38
259.849	82.38
260.081	92.38
260.314	78.38
260.547	83.38
260.779	85.38
261.012	76.38
261.244	76.38
261.477	91.38
261.71	90.38
261.942	92.38
262.175	91.38
262.407	87.38
262.64	83.38
262.872	68.38
263.105	72.38
263.337	90.38
263.57	86.38
263.802	78.38
264.035	76.38
264.267	80.38
264.499	86.38
264.732	85.38
264.964	89.38
265.197	73.38
265.429	92.38
265.661	93.38
265.894	80.38
266.126	90.38
266.358	88.38
266.591	90.38
266.823	79.38
267.055	80.38
267.287	72.38
267.52	85.38
267.752	89.38
267.984	86.38
268.216	92.38
268.448	93.38
268.681	77.38
268.913	97.38
269.145	105.38
269.377	85.38
269.609	94.38
269.841	91.38
270.073	75.38
270.306	84.38
270.538	79.38
270.77	86.38
271.002	98.38
271.234	84.38
271.466	77.38
271.698	82.38
271.93	92.38
272.162	86.38
272.394	85.38
272.626	90.38
272.858	90.38
273.09	80.38
273.322	73.38
273.553	82.38
273.785	84.38
274.017	88.38
274.249	80.38
274.481	76.38
274.713	82.38
274.945	82.38
275.176	95.38
275.408	73.38
275.64	90.38
275.872	106.38
276.104	99.38
276.335	96.38
276.567	87.38
276.799	72.38
277.031	84.38
277.262	87.38
277.494	97.38
277.726	86.38
277.957	92.38
278.189	87.38
278.421	92.38
278.652	93.38
278.884	75.38
279.115	84.38
279.347	85.38
279.579	86.38
279.81	90.38
280.042	91.38
280.273	86.38
280.505	90.38
280.736	86.38
280.968	92.38
281.199	80.38
281.431	95.38
281.662	87.38
281.894	92.38
282.125	90.38
282.356	83.38
282.588	69.38
282.819	70.38
283.051	88.38
283.282	88.38
283.513	90.38
283.745	93.38
283.976	91.38
284.207	95.38
284.439	79.38
284.67	75.38
284.901	90.38
285.132	91.38
285.364	91.38
285.595	76.38
285.826	90.38
286.057	70.38
286.288	86.38
286.52	99.38
286.751	93.38
286.982	74.38
287.213	76.38
287.444	100.38
287.675	94.38
287.906	91.38
288.138	88.38
288.369	96.38
288.6	90.38
288.831	87.38
289.062	90.38
289.293	79.38
289.524	82.38
289.755	84.38
289.986	93.38
290.217	84.38
290.448	95.38
290.679	108.38
290.91	84.38
291.141	95.38
291.371	91.38
291.602	87.38
291.833	93.38
292.064	101.38
292.295	86.38
292.526	90.38
292.757	79.38
292.987	91.38
293.218	92.38
293.449	105.38
293.68	96.38
293.91	83.38
294.141	95.38
294.372	95.38
294.603	95.38
294.833	76.38
295.064	89.38
295.295	77.38
295.525	79.38
295.756	79.38
295.987	75.38
296.217	74.38
296.448	103.38
296.679	102.38
296.909	99.38
297.14	86.38
297.37	87.38
297.601	72.38
297.831	85.38
298.062	80.38
298.292	82.38
298.523	92.38
298.753	95.38
298.984	84.38
299.214	77.38
299.445	94.38
299.675	95.38
299.905	92.38
300.136	79.38
300.366	93.38
300.597	87.38
300.827	96.38
301.057	100.38
301.288	87.38
301.518	86.38
301.748	75.38
301.979	84.38
302.209	88.38
302.439	81.38
302.669	88.38
302.9	83.38
303.13	86.38
303.36	77.38
303.59	96.38
303.82	95.38
304.051	89.38
304.281	91.38
304.511	100.38
304.741	93.38
304.971	80.38
305.201	90.38
305.431	85.38
305.661	82.38
305.891	86.38
306.121	84.38
306.352	87.38
306.582	88.38
306.812	97.38
307.042	88.38
307.272	74.38
307.502	87.38
307.731	91.38
307.961	87.38
308.191	82.38
308.421	85.38
308.651	80.38
308.881	83.38
309.111	98.38
309.341	78.38
309.571	100.38
309.8	79.38
310.03	79.38
310.26	80.38
310.49	75.38
310.72	81.38
310.949	88.38
311.179	93.38
311.409	92.38
311.639	87.38
311.868	89.38
312.098	114.38
312.328	102.38
312.557	87.38
312.787	72.38
313.017	97.38
313.246	95.38
313.476	98.38
313.706	102.38
313.935	67.38
314.165	95.38
314.394	91.38
314.624	93.38
314.853	90.38
315.083	74.38
315.312	81.38
315.542	73.38
315.771	89.38
316.001	107.38
316.23	103.38
316.46	82.38
316.689	82.38
316.919	96.38
317.148	94.38
317.377	86.38
317.607	93.38
317.836	91.38
318.065	72.38
318.295	82.38
318.524	84.38
318.753	88.38
318.983	80.38
319.212	88.38
319.441	85.38
319.67	99.38
319.9	89.38
320.129	74.38
320.358	86.38
320.587	89.38
320.816	87.38
321.046	86.38
321.275	99.38
321.504	91.38
321.733	83.38
321.962	92.38
322.191	87.38
322.42	82.38
322.649	96.38
322.878	93.38
323.108	89.38
323.337	92.38
323.566	85.38
323.795	87.38
324.024	87.38
324.253	81.38
324.482	80.38
324.71	79.38
324.939	93.38
325.168	76.38
325.397	79.38
325.626	86.38
325.855	86.38
326.084	86.38
326.313	66.38
326.542	76.38
326.77	79.38
326.999	86.38
327.228	85.38
327.457	83.38
327.686	82.38
327.914	76.38
328.143	87.38
328.372	82.38
328.6	97.38
328.829	92.38
329.058	99.38
329.287	77.38
329.515	92.38
329.744	82.38
329.972	87.38
330.201	106.38
330.43	77.38
330.658	84.38
330.887	74.38
331.115	94.38
331.344	92.38
331.572	86.38
331.801	100.38
332.03	84.38
332.258	90.38
332.486	79.38
332.715	76.38
332.943	74.38
333.172	87.38
333.4	92.38
333.629	87.38
333.857	74.38
334.085	83.38
334.314	82.38
334.542	84.38
334.771	86.38
334.999	91.38
335.227	86.38
335.455	88.38
335.684	90.38
335.912	87.38
336.14	63.38
336.369	90.38
336.597	89.38
336.825	77.38
337.053	87.38
337.281	97.38
337.51	95.38
337.738	84.38
337.966	87.38
338.194	90.38
338.422	86.38
338.65	95.38
338.878	76.38
339.106	103.38
339.334	97.38
339.562	82.38
339.79	95.38
340.018	84.38
340.246	67.38
340.474	83.38
340.702	63.38
340.93	90.38
341.158	67.38
341.386	78.38
341.614	93.38
341.842	80.38
342.07	81.38
342.298	83.38
342.526	91.38
342.754	88.38
342.981	98.38
343.209	76.38
343.437	96.38
343.665	77.38
343.893	83.38
344.12	77.38
344.348	78.38
344.576	91.38
344.804	85.38
345.031	80.38
345.259	80.38
345.487	79.38
345.714	82.38
345.942	91.38
346.17	106.38
346.397	94.38
346.625	80.38
346.853	82.38
347.08	80.38
347.308	73.38
347.535	78.38
347.763	80.38
347.99	95.38
348.218	94.38
348.445	91.38
348.673	88.38
348.9	88.38
349.128	94.38
349.355	85.38
349.583	91.38
349.81	89.38
350.037	95.38
350.265	98.38
350.492	83.38
350.72	88.38
350.947	94.38
351.174	92.38
351.402	76.38
351.629	86.38
351.856	78.38
352.083	84.38
352.311	102.38
352.538	78.38
352.765	73.38
352.992	88.38
353.22	100.38
353.447	89.38
353.674	86.38
353.901	86.38
354.128	80.38
354.355	87.38
354.583	72.38
354.81	82.38
355.037	77.38
355.264	86.38
355.491	91.38
355.718	84.38
355.945	88.38
356.172	80.38
356.399	89.38
356.626	77.38
356.853	80.38
357.08	74.38
357.307	98.38
357.534	79.38
357.761	91.38
357.988	84.38
358.215	87.38
358.441	92.38
358.668	87.38
358.895	91.38
359.122	77.38
359.349	81.38
359.576	80.38
359.802	92.38
360.029	93.38
360.256	83.38
360.483	94.38
360.709	90.38
360.936	93.38
361.163	78.38
361.39	88.38
361.616	79.38
361.843	80.38
362.07	90.38
362.296	79.38
362.523	84.38
362.749	86.38
362.976	83.38
363.203	92.38
363.429	96.38
363.656	95.38
363.882	77.38
364.109	82.38
364.335	75.38
364.562	86.38
364.788	89.38
365.015	85.38
365.241	72.38
365.468	93.38
365.694	88.38
365.92	94.38
366.147	87.38
366.373	85.38
366.599	89.38
366.826	81.38
367.052	92.38
367.278	87.38
367.505	89.38
367.731	93.38
367.957	88.38
368.184	79.38
368.41	80.38
368.636	83.38
368.862	94.38
369.089	86.38
369.315	75.38
369.541	90.38
369.767	86.38
369.993	87.38
370.219	86.38
370.445	82.38
370.672	81.38
370.898	78.38
371.124	103.38
371.35	97.38
371.576	91.38
371.802	73.38
372.028	88.38
372.254	75.38
372.48	83.38
372.706	85.38
372.932	84.38
373.158	100.38
373.384	97.38
373.61	93.38
373.835	85.38
374.061	82.38
374.287	97.38
374.513	88.38
374.739	86.38
374.965	88.38
375.191	97.38
375.416	93.38
375.642	101.38
375.868	83.38
376.094	85.38
376.319	95.38
376.545	87.38
376.771	91.38
376.997	89.38
377.222	95.38
377.448	97.38
377.674	100.38
377.899	88.38
378.125	80.38
378.35	90.38
378.576	66.38
378.802	80.38
379.027	83.38
379.253	99.38
379.478	82.38
379.704	85.38
379.929	96.38
380.155	98.38
380.38	81.38
380.606	83.38
380.831	95.38
381.057	95.38
381.282	91.38
381.507	92.38
381.733	86.38
381.958	82.38
382.184	92.38
382.409	87.38
382.634	88.38
382.86	79.38
383.085	101.38
383.31	94.38
383.535	90.38
383.761	84.38
383.986	89.38
384.211	84.38
384.436	102.38
384.662	94.38
384.887	100.38
385.112	90.38
385.337	96.38
385.562	94.38
385.787	87.38
386.013	88.38
386.238	82.38
386.463	86.38
386.688	91.38
386.913	85.38
387.138	91.38
387.363	100.38
387.588	87.38
387.813	102.38
388.038	94.38
388.263	105.38
388.488	93.38
388.713	90.38
388.938	94.38
389.163	78.38
389.387	87.38
389.612	90.38
389.837	89.38
390.062	97.38
390.287	86.38
390.512	101.38
390.736	70.38
390.961	88.38
391.186	83.38
391.411	77.38
391.636	94.38
391.86	98.38
392.085	78.38
392.31	107.38
392.534	91.38
392.759	79.38
392.984	94.38
393.208	104.38
393.433	98.38
393.658	84.38
393.882	94.38
394.107	82.38
394.331	94.38
394.556	76.38
394.78	95.38
395.005	96.38
395.229	91.38
395.454	102.38
395.678	95.38
395.903	83.38
396.127	95.38
396.352	95.38
396.576	92.38
396.801	90.38
397.025	100.38
397.249	104.38
397.474	91.38
397.698	85.38
397.922	103.38
398.147	101.38
398.371	94.38
398.595	101.38
398.82	95.38
399.044	99.38
399.268	90.38
399.492	90.38
399.717	102.38
399.941	92.38
400.165	100.38
400.389	100.38
400.613	94.38
400.837	92.38
401.062	102.38
401.286	95.38
401.51	93.38
401.734	100.38
401.958	98.38
402.182	101.38
402.406	93.38
402.63	104.38
402.854	99.38
403.078	87.38
403.302	88.38
403.526	91.38
403.75	88.38
403.974	107.38
404.198	82.38
404.422	86.38
404.645	84.38
404.869	92.38
405.093	94.38
405.317	94.38
405.541	93.38
405.765	98.38
405.988	119.38
406.212	102.38
406.436	102.38
406.66	82.38
406.883	108.38
407.107	108.38
407.331	98.38
407.555	100.38
407.778	118.38
408.002	102.38
408.226	108.38
408.449	90.38
408.673	101.38
408.896	102.38
409.12	99.38
409.344	90.38
409.567	104.38
409.791	99.38
410.014	93.38
410.238	94.38
410.461	93.38
410.685	100.38
410.908	91.38
411.132	119.38
411.355	90.38
411.578	104.38
411.802	100.38
412.025	107.38
412.249	99.38
412.472	89.38
412.695	98.38
412.919	104.38
413.142	93.38
413.365	104.38
413.589	104.38
413.812	99.38
414.035	117.38
414.258	107.38
414.482	99.38
414.705	95.38
414.928	102.38
415.151	95.38
415.374	105.38
415.597	102.38
415.821	123.38
416.044	108.38
416.267	111.38
416.49	114.38
416.713	103.38
416.936	96.38
417.159	103.38
417.382	119.38
417.605	93.38
417.828	119.38
418.051	103.38
418.274	103.38
418.497	101.38
418.72	104.38
418.943	111.38
419.166	103.38
419.389	117.38
419.611	96.38
419.834	104.38
420.057	102.38
420.28	101.38
420.503	99.38
420.726	103.38
420.948	105.38
421.171	107.38
421.394	107.38
421.617	100.38
421.839	100.38
422.062	116.38
422.285	107.38
422.507	118.38
422.73	103.38
422.953	103.38
423.175	101.38
423.398	99.38
423.621	103.38
423.843	119.38
424.066	106.38
424.288	111.38
424.511	103.38
424.733	112.38
424.956	110.38
425.178	124.38
425.401	115.38
425.623	102.38
425.846	96.38
426.068	112.38
426.291	102.38
426.513	102.38
426.735	91.38
426.958	110.38
427.18	91.38
427.402	108.38
427.625	114.38
427.847	99.38
428.069	101.38
428.292	88.38
428.514	95.38
428.736	107.38
428.958	112.38
429.181	92.38
429.403	105.38
429.625	104.38
429.847	101.38
430.069	110.38
430.292	115.38
430.514	97.38
430.736	106.38
430.958	100.38
431.18	106.38
431.402	107.38
431.624	98.38
431.846	87.38
432.068	90.38
432.29	77.38
432.512	96.38
432.734	99.38
432.956	94.38
433.178	123.38
433.4	112.38
433.622	117.38
433.844	106.38
434.066	109.38
434.287	98.38
434.509	94.38
434.731	97.38
434.953	103.38
435.175	102.38
435.397	97.38
435.618	103.38
435.84	100.38
436.062	91.38
436.284	84.38
436.505	97.38
436.727	97.38
436.949	104.38
437.17	100.38
437.392	103.38
437.614	95.38
437.835	94.38
438.057	99.38
438.278	89.38
438.5	97.38
438.721	103.38
438.943	100.38
439.165	115.38
439.386	101.38
439.608	111.38
439.829	114.38
440.05	101.38
440.272	119.38
440.493	95.38
440.715	103.38
440.936	123.38
441.158	110.38
441.379	112.38
441.6	114.38
441.822	118.38
442.043	117.38
442.264	101.38
442.486	102.38
442.707	127.38
442.928	127.38
443.149	111.38
443.371	125.38
443.592	124.38
443.813	118.38
444.034	116.38
444.255	103.38
444.476	100.38
444.698	111.38
444.919	117.38
445.14	228.38
445.361	159.38
445.582	120.38
445.803	118.38
446.024	99.38
446.245	112.38
446.466	113.38
446.687	114.38
446.908	121.38
447.129	126.38
447.35	113.38
447.571	111.38
447.792	108.38
448.013	111.38
448.234	112.38
448.455	112.38
448.675	105.38
448.896	120.38
449.117	91.38
449.338	105.38
449.559	91.38
449.779	107.38
450	116.38
450.221	102.38
450.442	103.38
450.662	117.38
450.883	95.38
451.104	108.38
451.324	113.38
451.545	114.38
451.766	120.38
451.986	103.38
452.207	108.38
452.428	105.38
452.648	110.38
452.869	103.38
453.089	96.38
453.31	97.38
453.53	94.38
453.751	93.38
453.971	87.38
454.192	93.38
454.412	93.38
454.633	112.38
454.853	94.38
455.073	108.38
455.294	90.38
455.514	107.38
455.734	97.38
455.955	88.38
456.175	98.38
456.395	99.38
456.616	86.38
456.836	88.38
457.056	100.38
457.276	103.38
457.497	86.38
457.717	93.38
457.937	91.38
458.157	82.38
458.377	74.38
458.598	94.38
458.818	91.38
459.038	82.38
459.258	85.38
459.478	104.38
459.698	85.38
459.918	92.38
460.138	103.38
460.358	94.38
460.578	112.38
460.798	89.38
461.018	106.38
461.238	104.38
461.458	93.38
461.678	90.38
461.898	105.38
462.118	96.38
462.338	100.38
462.558	101.38
462.777	102.38
462.997	106.38
463.217	88.38
463.437	102.38
463.657	106.38
463.876	102.38
464.096	98.38
464.316	87.38
464.536	90.38
464.755	95.38
464.975	99.38
465.195	104.38
465.414	97.38
465.634	98.38
465.854	101.38
466.073	115.38
466.293	103.38
466.512	102.38
466.732	103.38
466.951	109.38
467.171	110.38
467.391	98.38
467.61	105.38
467.829	116.38
468.049	113.38
468.268	102.38
468.488	102.38
468.707	96.38
468.927	106.38
469.146	107.38
469.365	117.38
469.585	102.38
469.804	116.38
470.023	107.38
470.243	114.38
470.462	98.38
470.681	117.38
470.901	110.38
471.12	110.38
471.339	107.38
471.558	114.38
471.777	115.38
471.997	113.38
472.216	108.38
472.435	99.38
472.654	91.38
472.873	102.38
473.092	111.38
473.311	106.38
473.53	115.38
473.749	108.38
473.968	103.38
474.187	109.38
474.406	97.38
474.625	109.38
474.844	112.38
475.063	100.38
475.282	96.38
475.501	106.38
475.72	109.38
475.939	103.38
476.158	101.38
476.377	100.38
476.596	121.38
476.814	95.38
477.033	87.38
477.252	89.38
477.471	102.38
477.69	111.38
477.908	112.38
478.127	111.38
478.346	104.38
478.564	115.38
478.783	120.38
479.002	100.38
479.22	110.38
479.439	127.38
479.658	107.38
479.876	106.38
480.095	100.38
480.313	115.38
480.532	88.38
480.751	100.38
480.969	104.38
481.188	96.38
481.406	76.38
481.624	80.38
481.843	82.38
482.061	106.38
482.28	102.38
482.498	83.38
482.717	93.38
482.935	89.38
483.153	105.38
483.372	117.38
483.59	109.38
483.808	107.38
484.027	109.38
484.245	107.38
484.463	117.38
484.681	135.38
484.9	121.38
485.118	114.38
485.336	106.38
485.554	107.38
485.772	84.38
485.99	92.38
486.209	96.38
486.427	100.38
486.645	104.38
486.863	110.38
487.081	117.38
487.299	104.38
487.517	119.38
487.735	127.38
487.953	132.38
488.171	136.38
488.389	138.38
488.607	125.38
488.825	118.38
489.043	114.38
489.261	106.38
489.479	108.38
489.696	112.38
489.914	100.38
490.132	111.38
490.35	126.38
490.568	109.38
490.786	136.38
491.003	136.38
491.221	133.38
491.439	130.38
491.657	149.38
491.874	138.38
492.092	140.38
492.31	161.38
492.527	150.38
492.745	143.38
492.963	146.38
493.18	138.38
493.398	130.38
493.615	138.38
493.833	122.38
494.05	127.38
494.268	132.38
494.485	126.38
494.703	125.38
494.92	118.38
495.138	122.38
495.355	123.38
495.573	119.38
495.79	121.38
496.008	129.38
496.225	124.38
496.442	117.38
496.66	127.38
496.877	112.38
497.094	127.38
497.312	125.38
497.529	107.38
497.746	118.38
497.963	121.38
498.181	109.38
498.398	103.38
498.615	119.38
498.832	95.38
499.049	93.38
499.267	103.38
499.484	111.38
499.701	111.38
499.918	110.38
500.135	114.38
500.352	102.38
500.569	101.38
500.786	115.38
501.003	120.38
501.22	117.38
501.437	113.38
501.654	103.38
501.871	116.38
502.088	113.38
502.305	111.38
502.522	116.38
502.739	111.38
502.956	111.38
503.172	121.38
503.389	114.38
503.606	101.38
503.823	107.38
504.04	108.38
504.256	115.38
504.473	98.38
504.69	111.38
504.907	105.38
505.123	116.38
505.34	104.38
505.557	98.38
505.773	93.38
505.99	101.38
506.207	109.38
506.423	91.38
506.64	99.38
506.856	97.38
507.073	102.38
507.289	101.38
507.506	107.38
507.722	107.38
507.939	108.38
508.155	99.38
508.372	103.38
508.588	92.38
508.805	96.38
509.021	111.38
509.238	119.38
509.454	96.38
509.67	87.38
509.887	84.38
510.103	100.38
510.319	100.38
510.536	96.38
510.752	98.38
510.968	93.38
511.184	76.38
511.401	84.38
511.617	73.38
511.833	92.38
512.049	93.38
512.265	92.38
512.481	94.38
512.698	91.38
512.914	102.38
513.13	92.38
513.346	93.38
513.562	106.38
513.778	93.38
