Data from Zn(NO3)2Standard.Agarose3%.GreenCap.LampEnergy5.5.E.O_HRD10591_15-03-44-768.txt Node
Date: Mon Jul 22 15:03:44 EDT 2019
User: cochatt
Spectrometer: HR+D1059
Trigger mode: 1
Integration Time (sec): 1.000000E-1
Scans to average: 1
Electric dark correction enabled: true
Nonlinearity correction enabled: false
Boxcar width: 0
XAxis mode: Wavelengths
Number of Pixels in Spectrum: 2048
>>>>>Begin Spectral Data<<<<<
223.165	-17.19
223.4	-17.19
223.635	-17.19
223.869	-8.19
224.104	-15.19
224.338	-17.19
224.573	-15.19
224.808	1.81
225.042	-22.19
225.277	-19.19
225.511	-1.19
225.746	2.81
225.98	1.81
226.215	12.81
226.449	17.81
226.683	25.81
226.918	26.81
227.152	25.81
227.387	20.81
227.621	32.81
227.856	37.81
228.09	57.81
228.324	52.81
228.559	58.81
228.793	55.81
229.027	61.81
229.262	78.81
229.496	66.81
229.73	66.81
229.964	73.81
230.199	62.81
230.433	86.81
230.667	83.81
230.901	68.81
231.136	71.81
231.37	91.81
231.604	94.81
231.838	86.81
232.072	91.81
232.306	86.81
232.541	89.81
232.775	81.81
233.009	74.81
233.243	73.81
233.477	86.81
233.711	81.81
233.945	91.81
234.179	89.81
234.413	87.81
234.647	73.81
234.881	84.81
235.115	77.81
235.349	91.81
235.583	86.81
235.817	74.81
236.051	92.81
236.285	92.81
236.519	72.81
236.753	81.81
236.987	79.81
237.221	86.81
237.455	82.81
237.689	70.81
237.922	68.81
238.156	89.81
238.39	75.81
238.624	84.81
238.858	75.81
239.091	67.81
239.325	78.81
239.559	82.81
239.793	90.81
240.027	77.81
240.26	66.81
240.494	86.81
240.728	81.81
240.961	75.81
241.195	71.81
241.429	69.81
241.662	75.81
241.896	82.81
242.13	82.81
242.363	86.81
242.597	82.81
242.83	67.81
243.064	78.81
243.298	81.81
243.531	87.81
243.765	68.81
243.998	86.81
244.232	79.81
244.465	79.81
244.699	82.81
244.932	67.81
245.166	59.81
245.399	80.81
245.633	71.81
245.866	75.81
246.099	67.81
246.333	81.81
246.566	79.81
246.8	78.81
247.033	91.81
247.266	81.81
247.5	84.81
247.733	65.81
247.966	70.81
248.2	67.81
248.433	71.81
248.666	86.81
248.899	91.81
249.133	77.81
249.366	82.81
249.599	91.81
249.832	82.81
250.066	78.81
250.299	86.81
250.532	73.81
250.765	80.81
250.998	68.81
251.231	97.81
251.465	75.81
251.698	79.81
251.931	79.81
252.164	74.81
252.397	88.81
252.63	82.81
252.863	85.81
253.096	88.81
253.329	76.81
253.562	83.81
253.795	87.81
254.028	73.81
254.261	84.81
254.494	79.81
254.727	83.81
254.96	87.81
255.193	90.81
255.426	85.81
255.659	71.81
255.892	98.81
256.124	78.81
256.357	80.81
256.59	92.81
256.823	98.81
257.056	89.81
257.289	91.81
257.521	82.81
257.754	64.81
257.987	71.81
258.22	80.81
258.452	84.81
258.685	84.81
258.918	88.81
259.151	71.81
259.383	74.81
259.616	69.81
259.849	80.81
260.081	94.81
260.314	82.81
260.547	86.81
260.779	82.81
261.012	84.81
261.244	72.81
261.477	73.81
261.71	80.81
261.942	68.81
262.175	78.81
262.407	73.81
262.64	86.81
262.872	85.81
263.105	79.81
263.337	89.81
263.57	76.81
263.802	82.81
264.035	78.81
264.267	82.81
264.499	83.81
264.732	92.81
264.964	63.81
265.197	88.81
265.429	102.81
265.661	83.81
265.894	85.81
266.126	81.81
266.358	95.81
266.591	97.81
266.823	78.81
267.055	98.81
267.287	99.81
267.52	81.81
267.752	79.81
267.984	78.81
268.216	79.81
268.448	91.81
268.681	79.81
268.913	87.81
269.145	82.81
269.377	95.81
269.609	102.81
269.841	96.81
270.073	85.81
270.306	77.81
270.538	70.81
270.77	82.81
271.002	95.81
271.234	91.81
271.466	84.81
271.698	87.81
271.93	82.81
272.162	83.81
272.394	81.81
272.626	83.81
272.858	89.81
273.09	92.81
273.322	89.81
273.553	93.81
273.785	73.81
274.017	79.81
274.249	93.81
274.481	94.81
274.713	86.81
274.945	86.81
275.176	94.81
275.408	79.81
275.64	91.81
275.872	72.81
276.104	76.81
276.335	89.81
276.567	69.81
276.799	78.81
277.031	82.81
277.262	87.81
277.494	89.81
277.726	86.81
277.957	77.81
278.189	85.81
278.421	73.81
278.652	79.81
278.884	74.81
279.115	79.81
279.347	85.81
279.579	92.81
279.81	75.81
280.042	85.81
280.273	71.81
280.505	74.81
280.736	81.81
280.968	70.81
281.199	86.81
281.431	85.81
281.662	87.81
281.894	76.81
282.125	83.81
282.356	91.81
282.588	84.81
282.819	86.81
283.051	83.81
283.282	71.81
283.513	91.81
283.745	90.81
283.976	97.81
284.207	89.81
284.439	91.81
284.67	84.81
284.901	92.81
285.132	93.81
285.364	90.81
285.595	90.81
285.826	90.81
286.057	88.81
286.288	93.81
286.52	74.81
286.751	89.81
286.982	86.81
287.213	67.81
287.444	78.81
287.675	96.81
287.906	90.81
288.138	97.81
288.369	85.81
288.6	82.81
288.831	67.81
289.062	80.81
289.293	92.81
289.524	86.81
289.755	94.81
289.986	85.81
290.217	87.81
290.448	81.81
290.679	89.81
290.91	100.81
291.141	95.81
291.371	70.81
291.602	82.81
291.833	81.81
292.064	91.81
292.295	76.81
292.526	88.81
292.757	71.81
292.987	88.81
293.218	74.81
293.449	61.81
293.68	95.81
293.91	84.81
294.141	93.81
294.372	76.81
294.603	78.81
294.833	93.81
295.064	90.81
295.295	93.81
295.525	99.81
295.756	100.81
295.987	95.81
296.217	93.81
296.448	87.81
296.679	79.81
296.909	90.81
297.14	87.81
297.37	85.81
297.601	86.81
297.831	78.81
298.062	69.81
298.292	89.81
298.523	91.81
298.753	97.81
298.984	83.81
299.214	84.81
299.445	91.81
299.675	96.81
299.905	86.81
300.136	94.81
300.366	78.81
300.597	85.81
300.827	95.81
301.057	83.81
301.288	85.81
301.518	85.81
301.748	85.81
301.979	87.81
302.209	85.81
302.439	89.81
302.669	95.81
302.9	83.81
303.13	90.81
303.36	73.81
303.59	94.81
303.82	86.81
304.051	80.81
304.281	99.81
304.511	90.81
304.741	82.81
304.971	78.81
305.201	89.81
305.431	78.81
305.661	90.81
305.891	93.81
306.121	97.81
306.352	73.81
306.582	87.81
306.812	77.81
307.042	96.81
307.272	83.81
307.502	83.81
307.731	95.81
307.961	77.81
308.191	79.81
308.421	90.81
308.651	73.81
308.881	94.81
309.111	86.81
309.341	82.81
309.571	92.81
309.8	95.81
310.03	93.81
310.26	91.81
310.49	92.81
310.72	90.81
310.949	89.81
311.179	88.81
311.409	87.81
311.639	86.81
311.868	90.81
312.098	90.81
312.328	98.81
312.557	87.81
312.787	81.81
313.017	80.81
313.246	78.81
313.476	81.81
313.706	73.81
313.935	89.81
314.165	83.81
314.394	92.81
314.624	92.81
314.853	97.81
315.083	83.81
315.312	98.81
315.542	93.81
315.771	82.81
316.001	76.81
316.23	97.81
316.46	74.81
316.689	83.81
316.919	85.81
317.148	84.81
317.377	91.81
317.607	90.81
317.836	90.81
318.065	92.81
318.295	103.81
318.524	75.81
318.753	84.81
318.983	86.81
319.212	94.81
319.441	91.81
319.67	99.81
319.9	86.81
320.129	79.81
320.358	89.81
320.587	74.81
320.816	87.81
321.046	90.81
321.275	86.81
321.504	74.81
321.733	81.81
321.962	90.81
322.191	86.81
322.42	81.81
322.649	81.81
322.878	80.81
323.108	77.81
323.337	80.81
323.566	86.81
323.795	85.81
324.024	84.81
324.253	84.81
324.482	84.81
324.71	85.81
324.939	84.81
325.168	87.81
325.397	91.81
325.626	84.81
325.855	77.81
326.084	84.81
326.313	89.81
326.542	83.81
326.77	97.81
326.999	87.81
327.228	80.81
327.457	76.81
327.686	101.81
327.914	89.81
328.143	83.81
328.372	90.81
328.6	84.81
328.829	84.81
329.058	93.81
329.287	103.81
329.515	79.81
329.744	98.81
329.972	88.81
330.201	96.81
330.43	96.81
330.658	91.81
330.887	94.81
331.115	87.81
331.344	80.81
331.572	66.81
331.801	61.81
332.03	83.81
332.258	89.81
332.486	94.81
332.715	89.81
332.943	87.81
333.172	105.81
333.4	90.81
333.629	93.81
333.857	84.81
334.085	73.81
334.314	96.81
334.542	89.81
334.771	86.81
334.999	95.81
335.227	91.81
335.455	85.81
335.684	83.81
335.912	71.81
336.14	86.81
336.369	79.81
336.597	85.81
336.825	92.81
337.053	75.81
337.281	70.81
337.51	74.81
337.738	81.81
337.966	79.81
338.194	87.81
338.422	92.81
338.65	73.81
338.878	81.81
339.106	94.81
339.334	97.81
339.562	88.81
339.79	95.81
340.018	71.81
340.246	73.81
340.474	83.81
340.702	88.81
340.93	71.81
341.158	85.81
341.386	86.81
341.614	90.81
341.842	86.81
342.07	87.81
342.298	80.81
342.526	86.81
342.754	91.81
342.981	71.81
343.209	81.81
343.437	95.81
343.665	73.81
343.893	92.81
344.12	84.81
344.348	86.81
344.576	92.81
344.804	93.81
345.031	74.81
345.259	86.81
345.487	82.81
345.714	67.81
345.942	76.81
346.17	100.81
346.397	93.81
346.625	80.81
346.853	91.81
347.08	90.81
347.308	94.81
347.535	71.81
347.763	85.81
347.99	89.81
348.218	95.81
348.445	74.81
348.673	85.81
348.9	93.81
349.128	92.81
349.355	82.81
349.583	76.81
349.81	80.81
350.037	76.81
350.265	77.81
350.492	81.81
350.72	83.81
350.947	88.81
351.174	100.81
351.402	82.81
351.629	87.81
351.856	80.81
352.083	86.81
352.311	76.81
352.538	91.81
352.765	94.81
352.992	77.81
353.22	85.81
353.447	85.81
353.674	88.81
353.901	73.81
354.128	90.81
354.355	77.81
354.583	96.81
354.81	91.81
355.037	76.81
355.264	69.81
355.491	83.81
355.718	74.81
355.945	89.81
356.172	90.81
356.399	85.81
356.626	80.81
356.853	75.81
357.08	90.81
357.307	85.81
357.534	88.81
357.761	83.81
357.988	93.81
358.215	85.81
358.441	99.81
358.668	89.81
358.895	86.81
359.122	89.81
359.349	78.81
359.576	81.81
359.802	69.81
360.029	99.81
360.256	93.81
360.483	90.81
360.709	90.81
360.936	83.81
361.163	89.81
361.39	94.81
361.616	80.81
361.843	63.81
362.07	91.81
362.296	97.81
362.523	81.81
362.749	74.81
362.976	80.81
363.203	90.81
363.429	89.81
363.656	91.81
363.882	85.81
364.109	79.81
364.335	74.81
364.562	77.81
364.788	81.81
365.015	99.81
365.241	85.81
365.468	96.81
365.694	89.81
365.92	75.81
366.147	60.81
366.373	69.81
366.599	92.81
366.826	86.81
367.052	91.81
367.278	88.81
367.505	92.81
367.731	87.81
367.957	84.81
368.184	90.81
368.41	84.81
368.636	87.81
368.862	82.81
369.089	86.81
369.315	84.81
369.541	76.81
369.767	71.81
369.993	94.81
370.219	88.81
370.445	81.81
370.672	89.81
370.898	77.81
371.124	90.81
371.35	89.81
371.576	80.81
371.802	88.81
372.028	95.81
372.254	83.81
372.48	78.81
372.706	87.81
372.932	83.81
373.158	81.81
373.384	84.81
373.61	77.81
373.835	82.81
374.061	94.81
374.287	95.81
374.513	85.81
374.739	69.81
374.965	85.81
375.191	92.81
375.416	73.81
375.642	80.81
375.868	87.81
376.094	80.81
376.319	87.81
376.545	88.81
376.771	78.81
376.997	87.81
377.222	97.81
377.448	73.81
377.674	74.81
377.899	92.81
378.125	79.81
378.35	98.81
378.576	85.81
378.802	74.81
379.027	99.81
379.253	91.81
379.478	79.81
379.704	90.81
379.929	82.81
380.155	83.81
380.38	83.81
380.606	82.81
380.831	94.81
381.057	84.81
381.282	78.81
381.507	84.81
381.733	88.81
381.958	83.81
382.184	88.81
382.409	78.81
382.634	84.81
382.86	95.81
383.085	90.81
383.31	89.81
383.535	83.81
383.761	83.81
383.986	86.81
384.211	86.81
384.436	94.81
384.662	86.81
384.887	85.81
385.112	87.81
385.337	82.81
385.562	89.81
385.787	89.81
386.013	88.81
386.238	77.81
386.463	76.81
386.688	78.81
386.913	83.81
387.138	81.81
387.363	76.81
387.588	78.81
387.813	80.81
388.038	79.81
388.263	78.81
388.488	79.81
388.713	101.81
388.938	86.81
389.163	87.81
389.387	90.81
389.612	85.81
389.837	74.81
390.062	84.81
390.287	78.81
390.512	86.81
390.736	91.81
390.961	85.81
391.186	100.81
391.411	81.81
391.636	95.81
391.86	86.81
392.085	87.81
392.31	78.81
392.534	86.81
392.759	98.81
392.984	85.81
393.208	70.81
393.433	97.81
393.658	75.81
393.882	75.81
394.107	88.81
394.331	86.81
394.556	82.81
394.78	85.81
395.005	95.81
395.229	94.81
395.454	89.81
395.678	93.81
395.903	81.81
396.127	71.81
396.352	81.81
396.576	80.81
396.801	97.81
397.025	87.81
397.249	93.81
397.474	83.81
397.698	78.81
397.922	87.81
398.147	86.81
398.371	88.81
398.595	86.81
398.82	72.81
399.044	87.81
399.268	92.81
399.492	97.81
399.717	80.81
399.941	75.81
400.165	79.81
400.389	88.81
400.613	89.81
400.837	81.81
401.062	72.81
401.286	94.81
401.51	87.81
401.734	98.81
401.958	86.81
402.182	76.81
402.406	88.81
402.63	85.81
402.854	73.81
403.078	65.81
403.302	93.81
403.526	94.81
403.75	83.81
403.974	65.81
404.198	78.81
404.422	77.81
404.645	83.81
404.869	76.81
405.093	85.81
405.317	83.81
405.541	85.81
405.765	96.81
405.988	86.81
406.212	77.81
406.436	73.81
406.66	96.81
406.883	85.81
407.107	93.81
407.331	85.81
407.555	80.81
407.778	85.81
408.002	99.81
408.226	76.81
408.449	87.81
408.673	83.81
408.896	93.81
409.12	90.81
409.344	86.81
409.567	83.81
409.791	76.81
410.014	73.81
410.238	92.81
410.461	83.81
410.685	70.81
410.908	73.81
411.132	87.81
411.355	105.81
411.578	86.81
411.802	83.81
412.025	75.81
412.249	86.81
412.472	77.81
412.695	83.81
412.919	84.81
413.142	98.81
413.365	76.81
413.589	87.81
413.812	105.81
414.035	93.81
414.258	90.81
414.482	87.81
414.705	88.81
414.928	87.81
415.151	90.81
415.374	104.81
415.597	107.81
415.821	77.81
416.044	78.81
416.267	101.81
416.49	91.81
416.713	74.81
416.936	91.81
417.159	78.81
417.382	79.81
417.605	86.81
417.828	80.81
418.051	81.81
418.274	100.81
418.497	96.81
418.72	76.81
418.943	72.81
419.166	80.81
419.389	84.81
419.611	92.81
419.834	96.81
420.057	86.81
420.28	82.81
420.503	74.81
420.726	88.81
420.948	86.81
421.171	88.81
421.394	84.81
421.617	88.81
421.839	79.81
422.062	86.81
422.285	91.81
422.507	77.81
422.73	85.81
422.953	78.81
423.175	81.81
423.398	79.81
423.621	83.81
423.843	92.81
424.066	86.81
424.288	97.81
424.511	100.81
424.733	100.81
424.956	84.81
425.178	86.81
425.401	95.81
425.623	86.81
425.846	86.81
426.068	93.81
426.291	99.81
426.513	83.81
426.735	105.81
426.958	98.81
427.18	99.81
427.402	100.81
427.625	88.81
427.847	90.81
428.069	88.81
428.292	86.81
428.514	87.81
428.736	93.81
428.958	79.81
429.181	100.81
429.403	99.81
429.625	85.81
429.847	98.81
430.069	84.81
430.292	95.81
430.514	82.81
430.736	78.81
430.958	78.81
431.18	93.81
431.402	93.81
431.624	93.81
431.846	81.81
432.068	84.81
432.29	85.81
432.512	87.81
432.734	90.81
432.956	77.81
433.178	93.81
433.4	81.81
433.622	87.81
433.844	88.81
434.066	81.81
434.287	78.81
434.509	85.81
434.731	83.81
434.953	77.81
435.175	95.81
435.397	96.81
435.618	79.81
435.84	69.81
436.062	87.81
436.284	78.81
436.505	86.81
436.727	89.81
436.949	97.81
437.17	97.81
437.392	86.81
437.614	85.81
437.835	94.81
438.057	85.81
438.278	86.81
438.5	98.81
438.721	99.81
438.943	99.81
439.165	102.81
439.386	96.81
439.608	89.81
439.829	87.81
440.05	93.81
440.272	81.81
440.493	91.81
440.715	94.81
440.936	102.81
441.158	87.81
441.379	85.81
441.6	99.81
441.822	81.81
442.043	87.81
442.264	97.81
442.486	85.81
442.707	93.81
442.928	88.81
443.149	87.81
443.371	78.81
443.592	103.81
443.813	107.81
444.034	85.81
444.255	92.81
444.476	105.81
444.698	94.81
444.919	92.81
445.14	221.81
445.361	156.81
445.582	99.81
445.803	89.81
446.024	99.81
446.245	91.81
446.466	91.81
446.687	89.81
446.908	85.81
447.129	101.81
447.35	100.81
447.571	96.81
447.792	89.81
448.013	85.81
448.234	86.81
448.455	84.81
448.675	99.81
448.896	90.81
449.117	84.81
449.338	98.81
449.559	78.81
449.779	101.81
450	86.81
450.221	87.81
450.442	101.81
450.662	90.81
450.883	88.81
451.104	84.81
451.324	94.81
451.545	93.81
451.766	80.81
451.986	89.81
452.207	95.81
452.428	79.81
452.648	89.81
452.869	92.81
453.089	92.81
453.31	72.81
453.53	88.81
453.751	85.81
453.971	91.81
454.192	79.81
454.412	91.81
454.633	77.81
454.853	78.81
455.073	91.81
455.294	87.81
455.514	96.81
455.734	87.81
455.955	91.81
456.175	90.81
456.395	82.81
456.616	78.81
456.836	86.81
457.056	73.81
457.276	83.81
457.497	99.81
457.717	75.81
457.937	89.81
458.157	90.81
458.377	80.81
458.598	85.81
458.818	77.81
459.038	76.81
459.258	74.81
459.478	91.81
459.698	91.81
459.918	82.81
460.138	73.81
460.358	92.81
460.578	87.81
460.798	85.81
461.018	86.81
461.238	95.81
461.458	78.81
461.678	97.81
461.898	83.81
462.118	91.81
462.338	92.81
462.558	85.81
462.777	82.81
462.997	84.81
463.217	84.81
463.437	84.81
463.657	109.81
463.876	93.81
464.096	85.81
464.316	83.81
464.536	86.81
464.755	95.81
464.975	79.81
465.195	79.81
465.414	86.81
465.634	95.81
465.854	102.81
466.073	83.81
466.293	95.81
466.512	93.81
466.732	97.81
466.951	95.81
467.171	93.81
467.391	101.81
467.61	98.81
467.829	103.81
468.049	92.81
468.268	102.81
468.488	92.81
468.707	90.81
468.927	97.81
469.146	100.81
469.365	91.81
469.585	110.81
469.804	93.81
470.023	94.81
470.243	103.81
470.462	86.81
470.681	95.81
470.901	85.81
471.12	87.81
471.339	89.81
471.558	85.81
471.777	87.81
471.997	86.81
472.216	95.81
472.435	91.81
472.654	90.81
472.873	85.81
473.092	94.81
473.311	104.81
473.53	87.81
473.749	95.81
473.968	91.81
474.187	82.81
474.406	74.81
474.625	96.81
474.844	102.81
475.063	105.81
475.282	82.81
475.501	81.81
475.72	91.81
475.939	97.81
476.158	75.81
476.377	79.81
476.596	76.81
476.814	89.81
477.033	89.81
477.252	79.81
477.471	94.81
477.69	95.81
477.908	91.81
478.127	94.81
478.346	86.81
478.564	95.81
478.783	95.81
479.002	80.81
479.22	94.81
479.439	84.81
479.658	84.81
479.876	93.81
480.095	91.81
480.313	82.81
480.532	84.81
480.751	78.81
480.969	74.81
481.188	73.81
481.406	88.81
481.624	74.81
481.843	86.81
482.061	81.81
482.28	84.81
482.498	87.81
482.717	89.81
482.935	79.81
483.153	98.81
483.372	101.81
483.59	94.81
483.808	93.81
484.027	91.81
484.245	94.81
484.463	113.81
484.681	89.81
484.9	97.81
485.118	94.81
485.336	100.81
485.554	84.81
485.772	96.81
485.99	86.81
486.209	82.81
486.427	88.81
486.645	101.81
486.863	93.81
487.081	91.81
487.299	92.81
487.517	87.81
487.735	104.81
487.953	97.81
488.171	103.81
488.389	99.81
488.607	97.81
488.825	99.81
489.043	86.81
489.261	87.81
489.479	80.81
489.696	86.81
489.914	96.81
490.132	95.81
490.35	67.81
490.568	97.81
490.786	95.81
491.003	98.81
491.221	109.81
491.439	112.81
491.657	96.81
491.874	108.81
492.092	114.81
492.31	120.81
492.527	101.81
492.745	100.81
492.963	108.81
493.18	110.81
493.398	106.81
493.615	100.81
493.833	105.81
494.05	93.81
494.268	92.81
494.485	106.81
494.703	105.81
494.92	98.81
495.138	104.81
495.355	106.81
495.573	92.81
495.79	103.81
496.008	85.81
496.225	114.81
496.442	105.81
496.66	88.81
496.877	102.81
497.094	97.81
497.312	101.81
497.529	92.81
497.746	102.81
497.963	87.81
498.181	83.81
498.398	91.81
498.615	74.81
498.832	90.81
499.049	91.81
499.267	86.81
499.484	99.81
499.701	81.81
499.918	79.81
500.135	96.81
500.352	94.81
500.569	99.81
500.786	98.81
501.003	95.81
501.22	98.81
501.437	101.81
501.654	95.81
501.871	81.81
502.088	93.81
502.305	94.81
502.522	88.81
502.739	107.81
502.956	89.81
503.172	103.81
503.389	96.81
503.606	89.81
503.823	96.81
504.04	92.81
504.256	79.81
504.473	90.81
504.69	104.81
504.907	104.81
505.123	98.81
505.34	98.81
505.557	95.81
505.773	87.81
505.99	100.81
506.207	90.81
506.423	89.81
506.64	93.81
506.856	88.81
507.073	94.81
507.289	83.81
507.506	66.81
507.722	91.81
507.939	79.81
508.155	97.81
508.372	93.81
508.588	88.81
508.805	86.81
509.021	87.81
509.238	76.81
509.454	86.81
509.67	85.81
509.887	84.81
510.103	102.81
510.319	91.81
510.536	94.81
510.752	85.81
510.968	82.81
511.184	71.81
511.401	93.81
511.617	83.81
511.833	74.81
512.049	102.81
512.265	86.81
512.481	101.81
512.698	75.81
512.914	84.81
513.13	93.81
513.346	79.81
513.562	82.81
513.778	81.81
513.994	77.81
514.21	84.81
514.426	98.81
514.642	89.81
514.858	85.81
515.074	86.81
515.29	100.81
515.506	79.81
515.721	85.81
515.937	93.81
516.153	77.81
516.369	96.81
516.585	84.81
516.801	89.81
517.016	73.81
517.232	81.81
517.448	82.81
517.664	74.81
517.879	83.81
518.095	79.81
518.311	94.81
