Data from Zn(NO3)2Standard.Agarose3%.GreenCap.LampEnergy5.5.E.O_HRD10591_15-01-12-767.txt Node
Date: Mon Jul 22 15:01:12 EDT 2019
User: cochatt
Spectrometer: HR+D1059
Trigger mode: 1
Integration Time (sec): 1.000000E-1
Scans to average: 1
Electric dark correction enabled: true
Nonlinearity correction enabled: false
Boxcar width: 0
XAxis mode: Wavelengths
Number of Pixels in Spectrum: 2048
>>>>>Begin Spectral Data<<<<<
223.165	-24.06
223.4	-24.06
223.635	-24.06
223.869	-20.06
224.104	-20.06
224.338	-10.06
224.573	-15.06
224.808	-22.06
225.042	-6.06
225.277	10.94
225.511	0.94
225.746	14.94
225.98	-6.06
226.215	9.94
226.449	8.94
226.683	13.94
226.918	25.94
227.152	37.94
227.387	35.94
227.621	31.94
227.856	44.94
228.09	48.94
228.324	50.94
228.559	38.94
228.793	66.94
229.027	61.94
229.262	70.94
229.496	63.94
229.73	65.94
229.964	52.94
230.199	64.94
230.433	75.94
230.667	81.94
230.901	81.94
231.136	82.94
231.37	81.94
231.604	90.94
231.838	85.94
232.072	85.94
232.306	96.94
232.541	100.94
232.775	71.94
233.009	61.94
233.243	76.94
233.477	78.94
233.711	90.94
233.945	82.94
234.179	85.94
234.413	65.94
234.647	91.94
234.881	88.94
235.115	93.94
235.349	81.94
235.583	81.94
235.817	73.94
236.051	66.94
236.285	84.94
236.519	76.94
236.753	67.94
236.987	76.94
237.221	85.94
237.455	65.94
237.689	82.94
237.922	77.94
238.156	96.94
238.39	72.94
238.624	63.94
238.858	62.94
239.091	85.94
239.325	81.94
239.559	69.94
239.793	86.94
240.027	96.94
240.26	79.94
240.494	86.94
240.728	75.94
240.961	74.94
241.195	79.94
241.429	71.94
241.662	77.94
241.896	77.94
242.13	60.94
242.363	73.94
242.597	81.94
242.83	71.94
243.064	77.94
243.298	81.94
243.531	74.94
243.765	81.94
243.998	86.94
244.232	78.94
244.465	78.94
244.699	72.94
244.932	80.94
245.166	75.94
245.399	78.94
245.633	86.94
245.866	65.94
246.099	68.94
246.333	67.94
246.566	82.94
246.8	75.94
247.033	72.94
247.266	86.94
247.5	83.94
247.733	69.94
247.966	75.94
248.2	79.94
248.433	89.94
248.666	66.94
248.899	87.94
249.133	83.94
249.366	75.94
249.599	68.94
249.832	80.94
250.066	72.94
250.299	88.94
250.532	80.94
250.765	77.94
250.998	71.94
251.231	76.94
251.465	72.94
251.698	87.94
251.931	79.94
252.164	83.94
252.397	84.94
252.63	82.94
252.863	77.94
253.096	85.94
253.329	80.94
253.562	74.94
253.795	86.94
254.028	77.94
254.261	73.94
254.494	76.94
254.727	77.94
254.96	88.94
255.193	87.94
255.426	69.94
255.659	84.94
255.892	78.94
256.124	87.94
256.357	75.94
256.59	91.94
256.823	90.94
257.056	64.94
257.289	92.94
257.521	78.94
257.754	85.94
257.987	74.94
258.22	83.94
258.452	75.94
258.685	72.94
258.918	75.94
259.151	85.94
259.383	75.94
259.616	85.94
259.849	82.94
260.081	83.94
260.314	80.94
260.547	82.94
260.779	83.94
261.012	81.94
261.244	83.94
261.477	86.94
261.71	86.94
261.942	67.94
262.175	77.94
262.407	83.94
262.64	66.94
262.872	79.94
263.105	61.94
263.337	77.94
263.57	83.94
263.802	78.94
264.035	81.94
264.267	87.94
264.499	81.94
264.732	94.94
264.964	81.94
265.197	73.94
265.429	69.94
265.661	87.94
265.894	89.94
266.126	73.94
266.358	85.94
266.591	77.94
266.823	78.94
267.055	74.94
267.287	85.94
267.52	66.94
267.752	90.94
267.984	87.94
268.216	80.94
268.448	95.94
268.681	79.94
268.913	90.94
269.145	99.94
269.377	74.94
269.609	85.94
269.841	89.94
270.073	75.94
270.306	78.94
270.538	80.94
270.77	85.94
271.002	84.94
271.234	92.94
271.466	81.94
271.698	92.94
271.93	82.94
272.162	82.94
272.394	83.94
272.626	83.94
272.858	84.94
273.09	95.94
273.322	107.94
273.553	76.94
273.785	83.94
274.017	83.94
274.249	88.94
274.481	76.94
274.713	82.94
274.945	82.94
275.176	82.94
275.408	83.94
275.64	70.94
275.872	89.94
276.104	100.94
276.335	84.94
276.567	78.94
276.799	81.94
277.031	90.94
277.262	88.94
277.494	77.94
277.726	76.94
277.957	86.94
278.189	80.94
278.421	92.94
278.652	93.94
278.884	81.94
279.115	84.94
279.347	95.94
279.579	92.94
279.81	86.94
280.042	77.94
280.273	83.94
280.505	102.94
280.736	76.94
280.968	96.94
281.199	79.94
281.431	85.94
281.662	105.94
281.894	90.94
282.125	81.94
282.356	71.94
282.588	90.94
282.819	91.94
283.051	83.94
283.282	87.94
283.513	78.94
283.745	73.94
283.976	86.94
284.207	88.94
284.439	72.94
284.67	83.94
284.901	82.94
285.132	66.94
285.364	84.94
285.595	83.94
285.826	75.94
286.057	88.94
286.288	83.94
286.52	86.94
286.751	75.94
286.982	94.94
287.213	84.94
287.444	81.94
287.675	84.94
287.906	83.94
288.138	78.94
288.369	93.94
288.6	72.94
288.831	76.94
289.062	88.94
289.293	69.94
289.524	75.94
289.755	92.94
289.986	78.94
290.217	88.94
290.448	91.94
290.679	92.94
290.91	90.94
291.141	77.94
291.371	83.94
291.602	90.94
291.833	70.94
292.064	76.94
292.295	82.94
292.526	90.94
292.757	86.94
292.987	86.94
293.218	85.94
293.449	87.94
293.68	83.94
293.91	83.94
294.141	80.94
294.372	85.94
294.603	87.94
294.833	66.94
295.064	89.94
295.295	82.94
295.525	81.94
295.756	76.94
295.987	80.94
296.217	81.94
296.448	91.94
296.679	84.94
296.909	77.94
297.14	74.94
297.37	98.94
297.601	81.94
297.831	82.94
298.062	87.94
298.292	85.94
298.523	84.94
298.753	93.94
298.984	78.94
299.214	92.94
299.445	83.94
299.675	78.94
299.905	90.94
300.136	90.94
300.366	86.94
300.597	75.94
300.827	82.94
301.057	82.94
301.288	80.94
301.518	87.94
301.748	88.94
301.979	85.94
302.209	82.94
302.439	83.94
302.669	92.94
302.9	90.94
303.13	87.94
303.36	79.94
303.59	81.94
303.82	84.94
304.051	89.94
304.281	98.94
304.511	93.94
304.741	97.94
304.971	79.94
305.201	78.94
305.431	80.94
305.661	89.94
305.891	84.94
306.121	77.94
306.352	100.94
306.582	92.94
306.812	79.94
307.042	82.94
307.272	84.94
307.502	76.94
307.731	93.94
307.961	81.94
308.191	76.94
308.421	85.94
308.651	91.94
308.881	72.94
309.111	98.94
309.341	83.94
309.571	88.94
309.8	87.94
310.03	88.94
310.26	94.94
310.49	79.94
310.72	85.94
310.949	82.94
311.179	84.94
311.409	86.94
311.639	84.94
311.868	70.94
312.098	87.94
312.328	80.94
312.557	81.94
312.787	78.94
313.017	92.94
313.246	77.94
313.476	84.94
313.706	82.94
313.935	79.94
314.165	86.94
314.394	84.94
314.624	91.94
314.853	85.94
315.083	90.94
315.312	89.94
315.542	75.94
315.771	77.94
316.001	96.94
316.23	94.94
316.46	86.94
316.689	81.94
316.919	87.94
317.148	89.94
317.377	89.94
317.607	86.94
317.836	84.94
318.065	84.94
318.295	94.94
318.524	79.94
318.753	82.94
318.983	68.94
319.212	79.94
319.441	67.94
319.67	85.94
319.9	80.94
320.129	79.94
320.358	96.94
320.587	89.94
320.816	88.94
321.046	72.94
321.275	97.94
321.504	90.94
321.733	88.94
321.962	85.94
322.191	83.94
322.42	97.94
322.649	71.94
322.878	99.94
323.108	95.94
323.337	86.94
323.566	80.94
323.795	89.94
324.024	74.94
324.253	77.94
324.482	86.94
324.71	79.94
324.939	98.94
325.168	91.94
325.397	92.94
325.626	74.94
325.855	83.94
326.084	90.94
326.313	76.94
326.542	88.94
326.77	90.94
326.999	88.94
327.228	87.94
327.457	91.94
327.686	85.94
327.914	90.94
328.143	80.94
328.372	90.94
328.6	76.94
328.829	83.94
329.058	82.94
329.287	80.94
329.515	80.94
329.744	95.94
329.972	76.94
330.201	87.94
330.43	94.94
330.658	82.94
330.887	76.94
331.115	93.94
331.344	79.94
331.572	81.94
331.801	84.94
332.03	93.94
332.258	73.94
332.486	80.94
332.715	93.94
332.943	65.94
333.172	95.94
333.4	82.94
333.629	84.94
333.857	88.94
334.085	84.94
334.314	78.94
334.542	81.94
334.771	79.94
334.999	91.94
335.227	72.94
335.455	99.94
335.684	81.94
335.912	83.94
336.14	74.94
336.369	84.94
336.597	89.94
336.825	66.94
337.053	87.94
337.281	92.94
337.51	84.94
337.738	93.94
337.966	72.94
338.194	99.94
338.422	86.94
338.65	70.94
338.878	82.94
339.106	89.94
339.334	74.94
339.562	106.94
339.79	95.94
340.018	94.94
340.246	74.94
340.474	82.94
340.702	77.94
340.93	79.94
341.158	79.94
341.386	84.94
341.614	90.94
341.842	78.94
342.07	74.94
342.298	91.94
342.526	100.94
342.754	93.94
342.981	79.94
343.209	62.94
343.437	94.94
343.665	89.94
343.893	80.94
344.12	69.94
344.348	79.94
344.576	87.94
344.804	73.94
345.031	82.94
345.259	87.94
345.487	76.94
345.714	85.94
345.942	85.94
346.17	80.94
346.397	84.94
346.625	99.94
346.853	71.94
347.08	68.94
347.308	76.94
347.535	81.94
347.763	90.94
347.99	86.94
348.218	79.94
348.445	63.94
348.673	85.94
348.9	91.94
349.128	93.94
349.355	93.94
349.583	84.94
349.81	79.94
350.037	83.94
350.265	88.94
350.492	90.94
350.72	83.94
350.947	81.94
351.174	85.94
351.402	91.94
351.629	77.94
351.856	91.94
352.083	99.94
352.311	75.94
352.538	92.94
352.765	83.94
352.992	98.94
353.22	78.94
353.447	94.94
353.674	90.94
353.901	80.94
354.128	87.94
354.355	79.94
354.583	83.94
354.81	91.94
355.037	91.94
355.264	83.94
355.491	85.94
355.718	85.94
355.945	80.94
356.172	83.94
356.399	82.94
356.626	93.94
356.853	98.94
357.08	83.94
357.307	81.94
357.534	71.94
357.761	86.94
357.988	82.94
358.215	90.94
358.441	72.94
358.668	69.94
358.895	85.94
359.122	86.94
359.349	87.94
359.576	74.94
359.802	90.94
360.029	85.94
360.256	81.94
360.483	81.94
360.709	81.94
360.936	91.94
361.163	81.94
361.39	75.94
361.616	80.94
361.843	86.94
362.07	88.94
362.296	71.94
362.523	77.94
362.749	77.94
362.976	88.94
363.203	80.94
363.429	76.94
363.656	98.94
363.882	79.94
364.109	86.94
364.335	88.94
364.562	93.94
364.788	89.94
365.015	91.94
365.241	77.94
365.468	78.94
365.694	90.94
365.92	86.94
366.147	74.94
366.373	80.94
366.599	84.94
366.826	75.94
367.052	79.94
367.278	74.94
367.505	75.94
367.731	93.94
367.957	65.94
368.184	66.94
368.41	79.94
368.636	79.94
368.862	87.94
369.089	81.94
369.315	100.94
369.541	85.94
369.767	92.94
369.993	73.94
370.219	84.94
370.445	87.94
370.672	85.94
370.898	70.94
371.124	92.94
371.35	87.94
371.576	75.94
371.802	80.94
372.028	85.94
372.254	90.94
372.48	91.94
372.706	88.94
372.932	81.94
373.158	105.94
373.384	79.94
373.61	81.94
373.835	92.94
374.061	86.94
374.287	81.94
374.513	72.94
374.739	69.94
374.965	82.94
375.191	82.94
375.416	86.94
375.642	87.94
375.868	90.94
376.094	87.94
376.319	82.94
376.545	74.94
376.771	79.94
376.997	83.94
377.222	77.94
377.448	80.94
377.674	80.94
377.899	92.94
378.125	97.94
378.35	88.94
378.576	75.94
378.802	84.94
379.027	81.94
379.253	99.94
379.478	90.94
379.704	84.94
379.929	87.94
380.155	72.94
380.38	84.94
380.606	87.94
380.831	83.94
381.057	90.94
381.282	77.94
381.507	90.94
381.733	87.94
381.958	76.94
382.184	89.94
382.409	84.94
382.634	75.94
382.86	74.94
383.085	73.94
383.31	90.94
383.535	83.94
383.761	98.94
383.986	87.94
384.211	75.94
384.436	77.94
384.662	85.94
384.887	73.94
385.112	83.94
385.337	77.94
385.562	86.94
385.787	81.94
386.013	81.94
386.238	84.94
386.463	82.94
386.688	90.94
386.913	77.94
387.138	90.94
387.363	81.94
387.588	85.94
387.813	85.94
388.038	81.94
388.263	78.94
388.488	83.94
388.713	85.94
388.938	63.94
389.163	87.94
389.387	88.94
389.612	67.94
389.837	86.94
390.062	93.94
390.287	79.94
390.512	81.94
390.736	73.94
390.961	70.94
391.186	76.94
391.411	73.94
391.636	80.94
391.86	91.94
392.085	84.94
392.31	88.94
392.534	91.94
392.759	87.94
392.984	84.94
393.208	83.94
393.433	81.94
393.658	84.94
393.882	89.94
394.107	78.94
394.331	73.94
394.556	72.94
394.78	72.94
395.005	70.94
395.229	88.94
395.454	74.94
395.678	67.94
395.903	77.94
396.127	100.94
396.352	84.94
396.576	86.94
396.801	99.94
397.025	78.94
397.249	65.94
397.474	89.94
397.698	90.94
397.922	95.94
398.147	87.94
398.371	88.94
398.595	93.94
398.82	99.94
399.044	87.94
399.268	85.94
399.492	74.94
399.717	84.94
399.941	77.94
400.165	83.94
400.389	91.94
400.613	86.94
400.837	84.94
401.062	87.94
401.286	90.94
401.51	77.94
401.734	80.94
401.958	92.94
402.182	77.94
402.406	83.94
402.63	62.94
402.854	76.94
403.078	71.94
403.302	79.94
403.526	82.94
403.75	80.94
403.974	86.94
404.198	75.94
404.422	84.94
404.645	97.94
404.869	82.94
405.093	75.94
405.317	82.94
405.541	88.94
405.765	81.94
405.988	94.94
406.212	83.94
406.436	83.94
406.66	89.94
406.883	102.94
407.107	84.94
407.331	82.94
407.555	75.94
407.778	76.94
408.002	79.94
408.226	73.94
408.449	95.94
408.673	71.94
408.896	89.94
409.12	87.94
409.344	91.94
409.567	82.94
409.791	91.94
410.014	93.94
410.238	77.94
410.461	88.94
410.685	79.94
410.908	89.94
411.132	85.94
411.355	85.94
411.578	83.94
411.802	91.94
412.025	84.94
412.249	86.94
412.472	71.94
412.695	77.94
412.919	78.94
413.142	81.94
413.365	81.94
413.589	92.94
413.812	87.94
414.035	88.94
414.258	89.94
414.482	78.94
414.705	73.94
414.928	86.94
415.151	77.94
415.374	90.94
415.597	81.94
415.821	91.94
416.044	81.94
416.267	82.94
416.49	87.94
416.713	87.94
416.936	91.94
417.159	85.94
417.382	83.94
417.605	77.94
417.828	79.94
418.051	83.94
418.274	90.94
418.497	77.94
418.72	86.94
418.943	74.94
419.166	73.94
419.389	85.94
419.611	81.94
419.834	76.94
420.057	95.94
420.28	78.94
420.503	96.94
420.726	89.94
420.948	88.94
421.171	89.94
421.394	96.94
421.617	91.94
421.839	104.94
422.062	83.94
422.285	82.94
422.507	80.94
422.73	87.94
422.953	91.94
423.175	84.94
423.398	102.94
423.621	86.94
423.843	92.94
424.066	65.94
424.288	92.94
424.511	96.94
424.733	101.94
424.956	87.94
425.178	75.94
425.401	88.94
425.623	77.94
425.846	77.94
426.068	87.94
426.291	93.94
426.513	80.94
426.735	101.94
426.958	76.94
427.18	104.94
427.402	90.94
427.625	80.94
427.847	86.94
428.069	91.94
428.292	99.94
428.514	77.94
428.736	86.94
428.958	83.94
429.181	91.94
429.403	97.94
429.625	72.94
429.847	74.94
430.069	76.94
430.292	86.94
430.514	88.94
430.736	91.94
430.958	83.94
431.18	77.94
431.402	93.94
431.624	86.94
431.846	75.94
432.068	79.94
432.29	81.94
432.512	90.94
432.734	81.94
432.956	80.94
433.178	84.94
433.4	82.94
433.622	96.94
433.844	100.94
434.066	95.94
434.287	83.94
434.509	84.94
434.731	85.94
434.953	80.94
435.175	88.94
435.397	88.94
435.618	96.94
435.84	90.94
436.062	91.94
436.284	85.94
436.505	94.94
436.727	88.94
436.949	93.94
437.17	90.94
437.392	91.94
437.614	92.94
437.835	82.94
438.057	90.94
438.278	97.94
438.5	99.94
438.721	96.94
438.943	91.94
439.165	85.94
439.386	82.94
439.608	93.94
439.829	74.94
440.05	87.94
440.272	86.94
440.493	89.94
440.715	75.94
440.936	94.94
441.158	83.94
441.379	100.94
441.6	92.94
441.822	84.94
442.043	93.94
442.264	89.94
442.486	83.94
442.707	94.94
442.928	93.94
443.149	102.94
443.371	90.94
443.592	69.94
443.813	86.94
444.034	84.94
444.255	96.94
444.476	96.94
444.698	92.94
444.919	86.94
445.14	200.94
445.361	130.94
445.582	93.94
445.803	71.94
446.024	81.94
446.245	87.94
446.466	100.94
446.687	97.94
446.908	98.94
447.129	82.94
447.35	99.94
447.571	77.94
447.792	96.94
448.013	90.94
448.234	78.94
448.455	77.94
448.675	83.94
448.896	88.94
449.117	78.94
449.338	83.94
449.559	86.94
449.779	77.94
450	86.94
450.221	97.94
450.442	92.94
450.662	97.94
450.883	102.94
451.104	86.94
451.324	85.94
451.545	83.94
451.766	91.94
451.986	95.94
452.207	103.94
452.428	76.94
452.648	82.94
452.869	79.94
453.089	80.94
453.31	82.94
453.53	75.94
453.751	84.94
453.971	83.94
454.192	78.94
454.412	76.94
454.633	92.94
454.853	89.94
455.073	91.94
455.294	92.94
455.514	75.94
455.734	76.94
455.955	89.94
456.175	86.94
456.395	88.94
456.616	84.94
456.836	86.94
457.056	86.94
457.276	96.94
457.497	80.94
457.717	88.94
457.937	86.94
458.157	71.94
458.377	72.94
458.598	73.94
458.818	74.94
459.038	83.94
459.258	75.94
459.478	73.94
459.698	73.94
459.918	66.94
460.138	74.94
460.358	82.94
460.578	83.94
460.798	92.94
461.018	73.94
461.238	100.94
461.458	76.94
461.678	89.94
461.898	78.94
462.118	76.94
462.338	85.94
462.558	85.94
462.777	90.94
462.997	77.94
463.217	80.94
463.437	91.94
463.657	87.94
463.876	76.94
464.096	90.94
464.316	97.94
464.536	98.94
464.755	90.94
464.975	98.94
465.195	72.94
465.414	81.94
465.634	77.94
465.854	90.94
466.073	71.94
466.293	93.94
466.512	85.94
466.732	82.94
466.951	89.94
467.171	97.94
467.391	91.94
467.61	87.94
467.829	85.94
468.049	91.94
468.268	90.94
468.488	95.94
468.707	76.94
468.927	84.94
469.146	90.94
469.365	87.94
469.585	88.94
469.804	92.94
470.023	92.94
470.243	76.94
470.462	83.94
470.681	91.94
470.901	103.94
471.12	98.94
471.339	88.94
471.558	70.94
471.777	90.94
471.997	90.94
472.216	80.94
472.435	92.94
472.654	87.94
472.873	88.94
473.092	83.94
473.311	94.94
473.53	79.94
473.749	93.94
473.968	95.94
474.187	84.94
474.406	84.94
474.625	90.94
474.844	101.94
475.063	91.94
475.282	96.94
475.501	101.94
475.72	87.94
475.939	103.94
476.158	86.94
476.377	93.94
476.596	87.94
476.814	82.94
477.033	95.94
477.252	88.94
477.471	81.94
477.69	81.94
477.908	95.94
478.127	98.94
478.346	83.94
478.564	87.94
478.783	98.94
479.002	101.94
479.22	96.94
479.439	91.94
479.658	76.94
479.876	77.94
480.095	84.94
480.313	104.94
480.532	95.94
480.751	71.94
480.969	92.94
481.188	75.94
481.406	80.94
481.624	79.94
481.843	99.94
482.061	83.94
482.28	82.94
482.498	105.94
482.717	92.94
482.935	79.94
483.153	87.94
483.372	79.94
483.59	78.94
483.808	76.94
484.027	86.94
484.245	99.94
484.463	95.94
484.681	89.94
484.9	71.94
485.118	85.94
485.336	95.94
485.554	90.94
485.772	84.94
485.99	86.94
486.209	86.94
486.427	77.94
486.645	90.94
486.863	91.94
487.081	90.94
487.299	77.94
487.517	84.94
487.735	97.94
487.953	92.94
488.171	79.94
488.389	108.94
488.607	91.94
488.825	72.94
489.043	76.94
489.261	89.94
489.479	89.94
489.696	88.94
489.914	109.94
490.132	95.94
490.35	99.94
490.568	97.94
490.786	89.94
491.003	89.94
491.221	102.94
491.439	93.94
491.657	99.94
491.874	120.94
492.092	87.94
492.31	96.94
492.527	106.94
492.745	111.94
492.963	88.94
493.18	85.94
493.398	87.94
493.615	95.94
493.833	100.94
494.05	105.94
494.268	104.94
494.485	101.94
494.703	96.94
494.92	98.94
495.138	106.94
495.355	104.94
495.573	100.94
495.79	109.94
496.008	77.94
496.225	105.94
496.442	99.94
496.66	107.94
496.877	97.94
497.094	93.94
497.312	94.94
497.529	101.94
497.746	99.94
497.963	93.94
498.181	91.94
498.398	96.94
498.615	67.94
498.832	80.94
499.049	88.94
499.267	96.94
499.484	91.94
499.701	88.94
499.918	85.94
500.135	101.94
500.352	77.94
500.569	76.94
500.786	90.94
501.003	71.94
501.22	93.94
501.437	85.94
501.654	93.94
501.871	103.94
502.088	101.94
502.305	99.94
502.522	89.94
502.739	91.94
502.956	94.94
503.172	101.94
503.389	97.94
503.606	83.94
503.823	71.94
504.04	89.94
504.256	111.94
504.473	94.94
504.69	82.94
504.907	92.94
505.123	91.94
505.34	97.94
505.557	87.94
505.773	77.94
505.99	85.94
506.207	92.94
506.423	88.94
506.64	85.94
506.856	89.94
507.073	92.94
507.289	99.94
507.506	90.94
507.722	93.94
507.939	88.94
508.155	104.94
508.372	90.94
508.588	90.94
508.805	87.94
509.021	91.94
509.238	85.94
509.454	91.94
509.67	82.94
509.887	76.94
510.103	85.94
510.319	80.94
510.536	81.94
510.752	77.94
510.968	87.94
511.184	84.94
511.401	72.94
511.617	77.94
511.833	88.94
512.049	94.94
512.265	87.94
512.481	96.94
512.698	95.94
512.914	83.94
513.13	88.94
513.346	93.94
513.562	78.94
513.778	86.94
513.994	89.94
514.21	95.94
514.426	81.94
514.642	92.94
514.858	81.94
515.074	89.94
515.29	79.94
515.506	81.94
515.721	79.94
515.937	90.94
516.153	83.94
516.369	74.94
516.585	72.94
516.801	82.94
517.016	76.94
517.232	86.94
517.448	90.94
517.664	79.94
517.879	83.94
518.095	85.94
518.311	75.94
518.527	90.94
518.742	83.94
