Data from Zn(NO3)2Standard.Agarose3%.GreenCap.LampEnergy10E.O_HRD10591_15-07-01-942.txt Node
Date: Mon Jul 22 15:07:01 EDT 2019
User: cochatt
Spectrometer: HR+D1059
Trigger mode: 1
Integration Time (sec): 1.000000E-1
Scans to average: 1
Electric dark correction enabled: true
Nonlinearity correction enabled: false
Boxcar width: 0
XAxis mode: Wavelengths
Number of Pixels in Spectrum: 2048
>>>>>Begin Spectral Data<<<<<
223.165	-16.69
223.4	-16.69
223.635	-16.69
223.869	-25.69
224.104	-28.69
224.338	-9.69
224.573	-6.69
224.808	-18.69
225.042	-15.69
225.277	10.31
225.511	8.31
225.746	12.31
225.98	-10.69
226.215	7.31
226.449	9.31
226.683	5.31
226.918	43.31
227.152	36.31
227.387	35.31
227.621	39.31
227.856	43.31
228.09	30.31
228.324	53.31
228.559	52.31
228.793	55.31
229.027	73.31
229.262	66.31
229.496	69.31
229.73	76.31
229.964	60.31
230.199	68.31
230.433	82.31
230.667	76.31
230.901	82.31
231.136	61.31
231.37	90.31
231.604	84.31
231.838	75.31
232.072	84.31
232.306	82.31
232.541	83.31
232.775	85.31
233.009	77.31
233.243	81.31
233.477	89.31
233.711	81.31
233.945	78.31
234.179	97.31
234.413	90.31
234.647	69.31
234.881	72.31
235.115	83.31
235.349	85.31
235.583	88.31
235.817	95.31
236.051	74.31
236.285	84.31
236.519	81.31
236.753	64.31
236.987	77.31
237.221	80.31
237.455	73.31
237.689	75.31
237.922	88.31
238.156	91.31
238.39	80.31
238.624	82.31
238.858	74.31
239.091	90.31
239.325	69.31
239.559	75.31
239.793	74.31
240.027	97.31
240.26	71.31
240.494	84.31
240.728	69.31
240.961	73.31
241.195	79.31
241.429	75.31
241.662	68.31
241.896	79.31
242.13	76.31
242.363	77.31
242.597	77.31
242.83	83.31
243.064	62.31
243.298	70.31
243.531	89.31
243.765	82.31
243.998	70.31
244.232	82.31
244.465	81.31
244.699	84.31
244.932	74.31
245.166	72.31
245.399	84.31
245.633	96.31
245.866	90.31
246.099	81.31
246.333	83.31
246.566	69.31
246.8	76.31
247.033	71.31
247.266	83.31
247.5	72.31
247.733	77.31
247.966	77.31
248.2	81.31
248.433	79.31
248.666	90.31
248.899	84.31
249.133	68.31
249.366	80.31
249.599	92.31
249.832	80.31
250.066	69.31
250.299	68.31
250.532	81.31
250.765	70.31
250.998	74.31
251.231	82.31
251.465	68.31
251.698	83.31
251.931	99.31
252.164	69.31
252.397	78.31
252.63	82.31
252.863	81.31
253.096	80.31
253.329	90.31
253.562	84.31
253.795	92.31
254.028	91.31
254.261	85.31
254.494	81.31
254.727	86.31
254.96	78.31
255.193	85.31
255.426	84.31
255.659	83.31
255.892	92.31
256.124	89.31
256.357	78.31
256.59	83.31
256.823	74.31
257.056	85.31
257.289	86.31
257.521	76.31
257.754	74.31
257.987	87.31
258.22	90.31
258.452	89.31
258.685	81.31
258.918	88.31
259.151	71.31
259.383	80.31
259.616	84.31
259.849	73.31
260.081	90.31
260.314	88.31
260.547	92.31
260.779	90.31
261.012	85.31
261.244	75.31
261.477	84.31
261.71	88.31
261.942	78.31
262.175	91.31
262.407	96.31
262.64	77.31
262.872	78.31
263.105	79.31
263.337	79.31
263.57	81.31
263.802	87.31
264.035	82.31
264.267	93.31
264.499	85.31
264.732	76.31
264.964	84.31
265.197	82.31
265.429	81.31
265.661	83.31
265.894	85.31
266.126	89.31
266.358	79.31
266.591	79.31
266.823	93.31
267.055	78.31
267.287	91.31
267.52	90.31
267.752	94.31
267.984	90.31
268.216	91.31
268.448	78.31
268.681	75.31
268.913	89.31
269.145	76.31
269.377	75.31
269.609	86.31
269.841	82.31
270.073	101.31
270.306	93.31
270.538	82.31
270.77	81.31
271.002	79.31
271.234	92.31
271.466	88.31
271.698	74.31
271.93	92.31
272.162	76.31
272.394	78.31
272.626	76.31
272.858	83.31
273.09	81.31
273.322	75.31
273.553	80.31
273.785	79.31
274.017	84.31
274.249	82.31
274.481	81.31
274.713	72.31
274.945	87.31
275.176	83.31
275.408	96.31
275.64	84.31
275.872	89.31
276.104	85.31
276.335	77.31
276.567	84.31
276.799	86.31
277.031	86.31
277.262	79.31
277.494	79.31
277.726	85.31
277.957	94.31
278.189	95.31
278.421	82.31
278.652	77.31
278.884	85.31
279.115	85.31
279.347	83.31
279.579	98.31
279.81	81.31
280.042	96.31
280.273	87.31
280.505	80.31
280.736	74.31
280.968	102.31
281.199	89.31
281.431	84.31
281.662	85.31
281.894	77.31
282.125	82.31
282.356	89.31
282.588	77.31
282.819	86.31
283.051	88.31
283.282	80.31
283.513	82.31
283.745	91.31
283.976	78.31
284.207	87.31
284.439	92.31
284.67	76.31
284.901	81.31
285.132	101.31
285.364	76.31
285.595	90.31
285.826	77.31
286.057	85.31
286.288	78.31
286.52	79.31
286.751	78.31
286.982	88.31
287.213	85.31
287.444	90.31
287.675	82.31
287.906	89.31
288.138	73.31
288.369	84.31
288.6	83.31
288.831	92.31
289.062	95.31
289.293	83.31
289.524	86.31
289.755	86.31
289.986	65.31
290.217	67.31
290.448	89.31
290.679	83.31
290.91	81.31
291.141	87.31
291.371	92.31
291.602	89.31
291.833	93.31
292.064	74.31
292.295	91.31
292.526	94.31
292.757	96.31
292.987	83.31
293.218	88.31
293.449	84.31
293.68	96.31
293.91	96.31
294.141	68.31
294.372	77.31
294.603	78.31
294.833	94.31
295.064	84.31
295.295	85.31
295.525	81.31
295.756	92.31
295.987	90.31
296.217	76.31
296.448	91.31
296.679	77.31
296.909	88.31
297.14	84.31
297.37	104.31
297.601	70.31
297.831	92.31
298.062	85.31
298.292	77.31
298.523	86.31
298.753	86.31
298.984	89.31
299.214	84.31
299.445	88.31
299.675	90.31
299.905	85.31
300.136	81.31
300.366	76.31
300.597	84.31
300.827	81.31
301.057	77.31
301.288	94.31
301.518	84.31
301.748	85.31
301.979	80.31
302.209	92.31
302.439	82.31
302.669	82.31
302.9	88.31
303.13	72.31
303.36	78.31
303.59	87.31
303.82	84.31
304.051	92.31
304.281	89.31
304.511	81.31
304.741	93.31
304.971	87.31
305.201	108.31
305.431	77.31
305.661	87.31
305.891	94.31
306.121	79.31
306.352	78.31
306.582	88.31
306.812	90.31
307.042	98.31
307.272	91.31
307.502	84.31
307.731	90.31
307.961	86.31
308.191	82.31
308.421	90.31
308.651	80.31
308.881	85.31
309.111	92.31
309.341	82.31
309.571	91.31
309.8	74.31
310.03	80.31
310.26	88.31
310.49	80.31
310.72	73.31
310.949	85.31
311.179	81.31
311.409	90.31
311.639	85.31
311.868	93.31
312.098	77.31
312.328	93.31
312.557	74.31
312.787	78.31
313.017	83.31
313.246	88.31
313.476	89.31
313.706	90.31
313.935	70.31
314.165	81.31
314.394	83.31
314.624	84.31
314.853	87.31
315.083	82.31
315.312	87.31
315.542	75.31
315.771	95.31
316.001	72.31
316.23	88.31
316.46	75.31
316.689	96.31
316.919	84.31
317.148	81.31
317.377	91.31
317.607	95.31
317.836	88.31
318.065	106.31
318.295	80.31
318.524	78.31
318.753	97.31
318.983	82.31
319.212	81.31
319.441	96.31
319.67	84.31
319.9	90.31
320.129	80.31
320.358	91.31
320.587	84.31
320.816	94.31
321.046	93.31
321.275	95.31
321.504	100.31
321.733	86.31
321.962	81.31
322.191	103.31
322.42	93.31
322.649	78.31
322.878	95.31
323.108	100.31
323.337	90.31
323.566	110.31
323.795	75.31
324.024	91.31
324.253	82.31
324.482	86.31
324.71	74.31
324.939	77.31
325.168	93.31
325.397	86.31
325.626	92.31
325.855	96.31
326.084	83.31
326.313	87.31
326.542	94.31
326.77	90.31
326.999	78.31
327.228	87.31
327.457	85.31
327.686	80.31
327.914	89.31
328.143	90.31
328.372	85.31
328.6	90.31
328.829	87.31
329.058	102.31
329.287	81.31
329.515	88.31
329.744	88.31
329.972	78.31
330.201	91.31
330.43	93.31
330.658	81.31
330.887	83.31
331.115	68.31
331.344	84.31
331.572	99.31
331.801	89.31
332.03	89.31
332.258	85.31
332.486	84.31
332.715	69.31
332.943	84.31
333.172	83.31
333.4	77.31
333.629	101.31
333.857	84.31
334.085	83.31
334.314	77.31
334.542	99.31
334.771	83.31
334.999	100.31
335.227	79.31
335.455	86.31
335.684	103.31
335.912	90.31
336.14	87.31
336.369	98.31
336.597	106.31
336.825	94.31
337.053	82.31
337.281	76.31
337.51	93.31
337.738	97.31
337.966	91.31
338.194	92.31
338.422	86.31
338.65	93.31
338.878	99.31
339.106	90.31
339.334	68.31
339.562	92.31
339.79	75.31
340.018	77.31
340.246	78.31
340.474	86.31
340.702	80.31
340.93	93.31
341.158	74.31
341.386	90.31
341.614	80.31
341.842	93.31
342.07	87.31
342.298	82.31
342.526	86.31
342.754	76.31
342.981	82.31
343.209	84.31
343.437	91.31
343.665	81.31
343.893	80.31
344.12	76.31
344.348	88.31
344.576	85.31
344.804	85.31
345.031	75.31
345.259	74.31
345.487	94.31
345.714	78.31
345.942	75.31
346.17	85.31
346.397	92.31
346.625	90.31
346.853	79.31
347.08	86.31
347.308	93.31
347.535	91.31
347.763	101.31
347.99	97.31
348.218	84.31
348.445	86.31
348.673	83.31
348.9	85.31
349.128	86.31
349.355	81.31
349.583	86.31
349.81	84.31
350.037	82.31
350.265	85.31
350.492	83.31
350.72	85.31
350.947	80.31
351.174	88.31
351.402	88.31
351.629	84.31
351.856	81.31
352.083	81.31
352.311	84.31
352.538	83.31
352.765	91.31
352.992	88.31
353.22	73.31
353.447	88.31
353.674	81.31
353.901	85.31
354.128	88.31
354.355	81.31
354.583	98.31
354.81	95.31
355.037	83.31
355.264	91.31
355.491	92.31
355.718	91.31
355.945	90.31
356.172	96.31
356.399	83.31
356.626	92.31
356.853	68.31
357.08	74.31
357.307	78.31
357.534	69.31
357.761	80.31
357.988	90.31
358.215	91.31
358.441	91.31
358.668	96.31
358.895	95.31
359.122	62.31
359.349	74.31
359.576	85.31
359.802	94.31
360.029	80.31
360.256	78.31
360.483	79.31
360.709	85.31
360.936	78.31
361.163	86.31
361.39	73.31
361.616	91.31
361.843	86.31
362.07	77.31
362.296	83.31
362.523	104.31
362.749	89.31
362.976	79.31
363.203	73.31
363.429	82.31
363.656	92.31
363.882	83.31
364.109	86.31
364.335	97.31
364.562	92.31
364.788	80.31
365.015	106.31
365.241	99.31
365.468	91.31
365.694	84.31
365.92	84.31
366.147	92.31
366.373	93.31
366.599	101.31
366.826	92.31
367.052	95.31
367.278	76.31
367.505	84.31
367.731	83.31
367.957	84.31
368.184	93.31
368.41	95.31
368.636	68.31
368.862	76.31
369.089	81.31
369.315	92.31
369.541	91.31
369.767	83.31
369.993	84.31
370.219	93.31
370.445	83.31
370.672	85.31
370.898	97.31
371.124	81.31
371.35	87.31
371.576	93.31
371.802	81.31
372.028	88.31
372.254	85.31
372.48	101.31
372.706	98.31
372.932	96.31
373.158	79.31
373.384	87.31
373.61	79.31
373.835	78.31
374.061	78.31
374.287	105.31
374.513	85.31
374.739	90.31
374.965	97.31
375.191	94.31
375.416	95.31
375.642	94.31
375.868	88.31
376.094	81.31
376.319	88.31
376.545	97.31
376.771	84.31
376.997	90.31
377.222	86.31
377.448	75.31
377.674	85.31
377.899	85.31
378.125	93.31
378.35	85.31
378.576	88.31
378.802	84.31
379.027	89.31
379.253	90.31
379.478	93.31
379.704	88.31
379.929	89.31
380.155	85.31
380.38	87.31
380.606	91.31
380.831	96.31
381.057	96.31
381.282	75.31
381.507	80.31
381.733	84.31
381.958	94.31
382.184	93.31
382.409	98.31
382.634	103.31
382.86	101.31
383.085	93.31
383.31	100.31
383.535	82.31
383.761	102.31
383.986	85.31
384.211	73.31
384.436	83.31
384.662	98.31
384.887	89.31
385.112	95.31
385.337	82.31
385.562	95.31
385.787	72.31
386.013	89.31
386.238	86.31
386.463	104.31
386.688	93.31
386.913	95.31
387.138	94.31
387.363	90.31
387.588	86.31
387.813	103.31
388.038	100.31
388.263	94.31
388.488	87.31
388.713	106.31
388.938	75.31
389.163	89.31
389.387	93.31
389.612	75.31
389.837	104.31
390.062	101.31
390.287	99.31
390.512	90.31
390.736	97.31
390.961	105.31
391.186	99.31
391.411	92.31
391.636	98.31
391.86	77.31
392.085	103.31
392.31	86.31
392.534	103.31
392.759	115.31
392.984	92.31
393.208	88.31
393.433	97.31
393.658	93.31
393.882	99.31
394.107	85.31
394.331	103.31
394.556	91.31
394.78	93.31
395.005	83.31
395.229	103.31
395.454	100.31
395.678	85.31
395.903	86.31
396.127	110.31
396.352	103.31
396.576	103.31
396.801	92.31
397.025	95.31
397.249	92.31
397.474	99.31
397.698	98.31
397.922	117.31
398.147	88.31
398.371	90.31
398.595	97.31
398.82	100.31
399.044	91.31
399.268	99.31
399.492	88.31
399.717	99.31
399.941	97.31
400.165	107.31
400.389	100.31
400.613	93.31
400.837	104.31
401.062	99.31
401.286	80.31
401.51	94.31
401.734	116.31
401.958	94.31
402.182	82.31
402.406	93.31
402.63	82.31
402.854	96.31
403.078	116.31
403.302	99.31
403.526	105.31
403.75	79.31
403.974	99.31
404.198	91.31
404.422	96.31
404.645	89.31
404.869	102.31
405.093	91.31
405.317	100.31
405.541	100.31
405.765	97.31
405.988	93.31
406.212	106.31
406.436	103.31
406.66	89.31
406.883	104.31
407.107	98.31
407.331	102.31
407.555	92.31
407.778	109.31
408.002	106.31
408.226	103.31
408.449	112.31
408.673	97.31
408.896	104.31
409.12	92.31
409.344	92.31
409.567	118.31
409.791	104.31
410.014	93.31
410.238	96.31
410.461	98.31
410.685	103.31
410.908	97.31
411.132	113.31
411.355	84.31
411.578	108.31
411.802	111.31
412.025	98.31
412.249	107.31
412.472	107.31
412.695	98.31
412.919	105.31
413.142	105.31
413.365	103.31
413.589	99.31
413.812	114.31
414.035	104.31
414.258	91.31
414.482	106.31
414.705	97.31
414.928	88.31
415.151	99.31
415.374	118.31
415.597	106.31
415.821	100.31
416.044	93.31
416.267	94.31
416.49	104.31
416.713	105.31
416.936	104.31
417.159	103.31
417.382	102.31
417.605	96.31
417.828	88.31
418.051	105.31
418.274	108.31
418.497	104.31
418.72	103.31
418.943	106.31
419.166	104.31
419.389	102.31
419.611	93.31
419.834	116.31
420.057	100.31
420.28	104.31
420.503	102.31
420.726	102.31
420.948	102.31
421.171	116.31
421.394	114.31
421.617	108.31
421.839	100.31
422.062	117.31
422.285	118.31
422.507	118.31
422.73	101.31
422.953	92.31
423.175	109.31
423.398	106.31
423.621	113.31
423.843	95.31
424.066	112.31
424.288	130.31
424.511	120.31
424.733	113.31
424.956	131.31
425.178	106.31
425.401	116.31
425.623	122.31
425.846	115.31
426.068	110.31
426.291	118.31
426.513	109.31
426.735	113.31
426.958	103.31
427.18	112.31
427.402	90.31
427.625	98.31
427.847	108.31
428.069	115.31
428.292	101.31
428.514	107.31
428.736	119.31
428.958	104.31
429.181	106.31
429.403	118.31
429.625	96.31
429.847	108.31
430.069	107.31
430.292	103.31
430.514	97.31
430.736	99.31
430.958	108.31
431.18	101.31
431.402	110.31
431.624	109.31
431.846	89.31
432.068	90.31
432.29	107.31
432.512	104.31
432.734	108.31
432.956	102.31
433.178	105.31
433.4	90.31
433.622	111.31
433.844	109.31
434.066	107.31
434.287	113.31
434.509	81.31
434.731	88.31
434.953	102.31
435.175	113.31
435.397	96.31
435.618	100.31
435.84	103.31
436.062	105.31
436.284	105.31
436.505	106.31
436.727	105.31
436.949	99.31
437.17	116.31
437.392	98.31
437.614	99.31
437.835	95.31
438.057	90.31
438.278	91.31
438.5	99.31
438.721	91.31
438.943	105.31
439.165	118.31
439.386	99.31
439.608	130.31
439.829	121.31
440.05	124.31
440.272	113.31
440.493	117.31
440.715	124.31
440.936	133.31
441.158	115.31
441.379	114.31
441.6	105.31
441.822	109.31
442.043	122.31
442.264	121.31
442.486	116.31
442.707	114.31
442.928	102.31
443.149	103.31
443.371	108.31
443.592	99.31
443.813	103.31
444.034	114.31
444.255	110.31
444.476	116.31
444.698	113.31
444.919	113.31
445.14	235.31
445.361	198.31
445.582	119.31
445.803	114.31
446.024	120.31
446.245	116.31
446.466	112.31
446.687	109.31
446.908	109.31
447.129	120.31
447.35	106.31
447.571	128.31
447.792	109.31
448.013	118.31
448.234	103.31
448.455	107.31
448.675	114.31
448.896	108.31
449.117	113.31
449.338	111.31
449.559	113.31
449.779	112.31
450	104.31
450.221	90.31
450.442	109.31
450.662	105.31
450.883	113.31
451.104	100.31
451.324	101.31
451.545	93.31
451.766	106.31
451.986	109.31
452.207	96.31
452.428	90.31
452.648	88.31
452.869	98.31
453.089	89.31
453.31	98.31
453.53	84.31
453.751	90.31
453.971	101.31
454.192	101.31
454.412	89.31
454.633	95.31
454.853	96.31
455.073	101.31
455.294	95.31
455.514	98.31
455.734	97.31
455.955	92.31
456.175	102.31
456.395	84.31
456.616	88.31
456.836	102.31
457.056	98.31
457.276	108.31
457.497	90.31
457.717	96.31
457.937	104.31
458.157	88.31
458.377	98.31
458.598	101.31
458.818	81.31
459.038	84.31
459.258	85.31
459.478	88.31
459.698	102.31
459.918	105.31
460.138	94.31
460.358	89.31
460.578	117.31
460.798	92.31
461.018	91.31
461.238	93.31
461.458	101.31
461.678	109.31
461.898	91.31
462.118	99.31
462.338	105.31
462.558	105.31
462.777	103.31
462.997	97.31
463.217	109.31
463.437	90.31
463.657	95.31
463.876	81.31
464.096	90.31
464.316	95.31
464.536	91.31
464.755	75.31
464.975	87.31
465.195	96.31
465.414	97.31
465.634	84.31
465.854	99.31
466.073	112.31
466.293	92.31
466.512	108.31
466.732	99.31
466.951	98.31
467.171	106.31
467.391	105.31
467.61	114.31
467.829	111.31
468.049	115.31
468.268	118.31
468.488	91.31
468.707	121.31
468.927	99.31
469.146	105.31
469.365	108.31
469.585	124.31
469.804	112.31
470.023	116.31
470.243	113.31
470.462	114.31
470.681	107.31
470.901	119.31
471.12	128.31
471.339	114.31
471.558	108.31
471.777	112.31
471.997	99.31
472.216	99.31
472.435	113.31
472.654	93.31
472.873	93.31
473.092	107.31
473.311	114.31
473.53	98.31
473.749	100.31
473.968	122.31
474.187	94.31
474.406	96.31
474.625	105.31
474.844	113.31
475.063	102.31
475.282	100.31
475.501	110.31
475.72	103.31
475.939	105.31
476.158	94.31
476.377	93.31
476.596	97.31
476.814	101.31
477.033	83.31
477.252	97.31
477.471	98.31
477.69	110.31
477.908	116.31
478.127	116.31
478.346	115.31
478.564	113.31
478.783	107.31
479.002	113.31
479.22	119.31
479.439	107.31
479.658	103.31
479.876	94.31
480.095	91.31
480.313	100.31
480.532	100.31
480.751	98.31
480.969	80.31
481.188	98.31
481.406	93.31
481.624	91.31
481.843	91.31
482.061	85.31
482.28	108.31
482.498	104.31
482.717	98.31
482.935	101.31
483.153	112.31
483.372	107.31
483.59	99.31
483.808	135.31
484.027	102.31
484.245	110.31
484.463	109.31
484.681	124.31
484.9	112.31
485.118	109.31
485.336	104.31
485.554	98.31
485.772	89.31
485.99	99.31
486.209	107.31
486.427	103.31
486.645	111.31
486.863	109.31
487.081	119.31
487.299	101.31
487.517	112.31
487.735	108.31
487.953	138.31
488.171	152.31
488.389	121.31
488.607	123.31
488.825	118.31
489.043	105.31
489.261	102.31
489.479	105.31
489.696	106.31
489.914	104.31
490.132	114.31
490.35	111.31
490.568	123.31
490.786	116.31
491.003	107.31
491.221	142.31
491.439	130.31
491.657	143.31
491.874	154.31
492.092	143.31
492.31	154.31
492.527	161.31
492.745	152.31
492.963	139.31
493.18	138.31
493.398	140.31
493.615	129.31
493.833	142.31
494.05	117.31
494.268	148.31
494.485	144.31
494.703	128.31
494.92	137.31
495.138	124.31
495.355	130.31
495.573	142.31
495.79	130.31
496.008	142.31
496.225	120.31
496.442	132.31
496.66	128.31
496.877	125.31
497.094	123.31
497.312	112.31
497.529	128.31
497.746	114.31
497.963	108.31
498.181	101.31
498.398	105.31
498.615	98.31
498.832	97.31
499.049	95.31
499.267	113.31
499.484	106.31
499.701	110.31
499.918	109.31
500.135	119.31
500.352	112.31
500.569	113.31
500.786	105.31
501.003	112.31
501.22	104.31
501.437	110.31
501.654	105.31
501.871	107.31
502.088	101.31
502.305	105.31
502.522	104.31
502.739	101.31
502.956	106.31
503.172	114.31
503.389	102.31
503.606	90.31
503.823	85.31
504.04	100.31
504.256	93.31
504.473	103.31
504.69	96.31
504.907	91.31
505.123	93.31
505.34	104.31
505.557	93.31
505.773	105.31
505.99	100.31
506.207	110.31
506.423	113.31
506.64	97.31
506.856	103.31
507.073	100.31
507.289	113.31
507.506	105.31
507.722	109.31
507.939	105.31
508.155	94.31
508.372	97.31
508.588	103.31
508.805	101.31
509.021	87.31
509.238	97.31
509.454	96.31
509.67	76.31
509.887	94.31
510.103	79.31
510.319	84.31
510.536	86.31
510.752	87.31
510.968	81.31
511.184	76.31
511.401	92.31
511.617	93.31
511.833	92.31
512.049	75.31
512.265	96.31
512.481	92.31
512.698	87.31
512.914	103.31
513.13	105.31
513.346	104.31
513.562	76.31
513.778	103.31
513.994	91.31
