Data from Zn(NO3)2Standard.Agarose3%.GreenCap.LampEnergy5.5.E.O_HRD10591_15-02-17-767.txt Node
Date: Mon Jul 22 15:02:17 EDT 2019
User: cochatt
Spectrometer: HR+D1059
Trigger mode: 1
Integration Time (sec): 1.000000E-1
Scans to average: 1
Electric dark correction enabled: true
Nonlinearity correction enabled: false
Boxcar width: 0
XAxis mode: Wavelengths
Number of Pixels in Spectrum: 2048
>>>>>Begin Spectral Data<<<<<
223.165	-12.12
223.4	-12.12
223.635	-12.12
223.869	-17.12
224.104	-5.12
224.338	-23.12
224.573	-20.12
224.808	-5.12
225.042	-1.12
225.277	-24.12
225.511	-4.12
225.746	8.88
225.98	11.88
226.215	10.88
226.449	15.88
226.683	22.88
226.918	16.88
227.152	24.88
227.387	38.88
227.621	43.88
227.856	48.88
228.09	44.88
228.324	46.88
228.559	42.88
228.793	58.88
229.027	56.88
229.262	70.88
229.496	74.88
229.73	63.88
229.964	74.88
230.199	78.88
230.433	75.88
230.667	81.88
230.901	75.88
231.136	81.88
231.37	81.88
231.604	79.88
231.838	86.88
232.072	75.88
232.306	71.88
232.541	91.88
232.775	98.88
233.009	71.88
233.243	79.88
233.477	79.88
233.711	82.88
233.945	76.88
234.179	75.88
234.413	70.88
234.647	89.88
234.881	67.88
235.115	67.88
235.349	82.88
235.583	78.88
235.817	75.88
236.051	83.88
236.285	85.88
236.519	66.88
236.753	81.88
236.987	78.88
237.221	73.88
237.455	76.88
237.689	71.88
237.922	68.88
238.156	81.88
238.39	75.88
238.624	63.88
238.858	71.88
239.091	82.88
239.325	79.88
239.559	72.88
239.793	78.88
240.027	71.88
240.26	70.88
240.494	70.88
240.728	80.88
240.961	74.88
241.195	65.88
241.429	77.88
241.662	75.88
241.896	62.88
242.13	78.88
242.363	77.88
242.597	92.88
242.83	72.88
243.064	64.88
243.298	81.88
243.531	76.88
243.765	86.88
243.998	74.88
244.232	74.88
244.465	86.88
244.699	90.88
244.932	80.88
245.166	70.88
245.399	70.88
245.633	71.88
245.866	82.88
246.099	72.88
246.333	81.88
246.566	65.88
246.8	76.88
247.033	68.88
247.266	73.88
247.5	74.88
247.733	81.88
247.966	78.88
248.2	68.88
248.433	65.88
248.666	68.88
248.899	72.88
249.133	72.88
249.366	81.88
249.599	84.88
249.832	71.88
250.066	77.88
250.299	74.88
250.532	88.88
250.765	64.88
250.998	74.88
251.231	85.88
251.465	85.88
251.698	96.88
251.931	85.88
252.164	76.88
252.397	72.88
252.63	79.88
252.863	74.88
253.096	84.88
253.329	83.88
253.562	74.88
253.795	64.88
254.028	81.88
254.261	86.88
254.494	67.88
254.727	79.88
254.96	79.88
255.193	70.88
255.426	73.88
255.659	79.88
255.892	82.88
256.124	56.88
256.357	86.88
256.59	75.88
256.823	71.88
257.056	72.88
257.289	79.88
257.521	87.88
257.754	64.88
257.987	84.88
258.22	95.88
258.452	75.88
258.685	94.88
258.918	74.88
259.151	83.88
259.383	73.88
259.616	96.88
259.849	75.88
260.081	79.88
260.314	86.88
260.547	99.88
260.779	90.88
261.012	89.88
261.244	59.88
261.477	85.88
261.71	76.88
261.942	81.88
262.175	60.88
262.407	72.88
262.64	74.88
262.872	69.88
263.105	71.88
263.337	80.88
263.57	81.88
263.802	83.88
264.035	70.88
264.267	74.88
264.499	74.88
264.732	71.88
264.964	77.88
265.197	80.88
265.429	82.88
265.661	73.88
265.894	80.88
266.126	79.88
266.358	69.88
266.591	80.88
266.823	80.88
267.055	77.88
267.287	86.88
267.52	79.88
267.752	71.88
267.984	91.88
268.216	76.88
268.448	79.88
268.681	78.88
268.913	96.88
269.145	65.88
269.377	86.88
269.609	71.88
269.841	71.88
270.073	77.88
270.306	83.88
270.538	81.88
270.77	75.88
271.002	81.88
271.234	82.88
271.466	81.88
271.698	80.88
271.93	76.88
272.162	84.88
272.394	83.88
272.626	94.88
272.858	92.88
273.09	92.88
273.322	76.88
273.553	75.88
273.785	76.88
274.017	63.88
274.249	92.88
274.481	73.88
274.713	80.88
274.945	77.88
275.176	88.88
275.408	84.88
275.64	78.88
275.872	74.88
276.104	71.88
276.335	77.88
276.567	83.88
276.799	84.88
277.031	80.88
277.262	75.88
277.494	95.88
277.726	85.88
277.957	71.88
278.189	92.88
278.421	81.88
278.652	76.88
278.884	70.88
279.115	72.88
279.347	87.88
279.579	98.88
279.81	86.88
280.042	85.88
280.273	92.88
280.505	77.88
280.736	79.88
280.968	68.88
281.199	83.88
281.431	84.88
281.662	67.88
281.894	78.88
282.125	100.88
282.356	90.88
282.588	88.88
282.819	70.88
283.051	86.88
283.282	76.88
283.513	74.88
283.745	83.88
283.976	85.88
284.207	85.88
284.439	77.88
284.67	77.88
284.901	90.88
285.132	93.88
285.364	75.88
285.595	71.88
285.826	92.88
286.057	77.88
286.288	88.88
286.52	91.88
286.751	98.88
286.982	68.88
287.213	92.88
287.444	83.88
287.675	87.88
287.906	75.88
288.138	71.88
288.369	79.88
288.6	85.88
288.831	81.88
289.062	73.88
289.293	86.88
289.524	90.88
289.755	57.88
289.986	81.88
290.217	91.88
290.448	83.88
290.679	75.88
290.91	80.88
291.141	87.88
291.371	90.88
291.602	81.88
291.833	75.88
292.064	86.88
292.295	73.88
292.526	83.88
292.757	75.88
292.987	75.88
293.218	75.88
293.449	80.88
293.68	95.88
293.91	90.88
294.141	85.88
294.372	77.88
294.603	89.88
294.833	87.88
295.064	88.88
295.295	74.88
295.525	71.88
295.756	86.88
295.987	102.88
296.217	95.88
296.448	83.88
296.679	73.88
296.909	86.88
297.14	91.88
297.37	77.88
297.601	81.88
297.831	79.88
298.062	87.88
298.292	71.88
298.523	82.88
298.753	82.88
298.984	76.88
299.214	88.88
299.445	87.88
299.675	76.88
299.905	75.88
300.136	79.88
300.366	75.88
300.597	88.88
300.827	96.88
301.057	81.88
301.288	85.88
301.518	88.88
301.748	69.88
301.979	74.88
302.209	76.88
302.439	88.88
302.669	87.88
302.9	91.88
303.13	86.88
303.36	83.88
303.59	85.88
303.82	90.88
304.051	73.88
304.281	73.88
304.511	99.88
304.741	84.88
304.971	82.88
305.201	75.88
305.431	89.88
305.661	90.88
305.891	88.88
306.121	94.88
306.352	90.88
306.582	88.88
306.812	85.88
307.042	98.88
307.272	89.88
307.502	75.88
307.731	83.88
307.961	92.88
308.191	82.88
308.421	77.88
308.651	81.88
308.881	70.88
309.111	79.88
309.341	82.88
309.571	81.88
309.8	83.88
310.03	83.88
310.26	90.88
310.49	72.88
310.72	94.88
310.949	71.88
311.179	90.88
311.409	78.88
311.639	82.88
311.868	83.88
312.098	86.88
312.328	82.88
312.557	90.88
312.787	76.88
313.017	84.88
313.246	77.88
313.476	80.88
313.706	86.88
313.935	78.88
314.165	80.88
314.394	78.88
314.624	78.88
314.853	95.88
315.083	93.88
315.312	92.88
315.542	82.88
315.771	89.88
316.001	89.88
316.23	88.88
316.46	76.88
316.689	84.88
316.919	96.88
317.148	80.88
317.377	85.88
317.607	86.88
317.836	82.88
318.065	83.88
318.295	82.88
318.524	80.88
318.753	88.88
318.983	72.88
319.212	82.88
319.441	78.88
319.67	98.88
319.9	100.88
320.129	82.88
320.358	88.88
320.587	81.88
320.816	81.88
321.046	83.88
321.275	86.88
321.504	78.88
321.733	77.88
321.962	73.88
322.191	72.88
322.42	78.88
322.649	83.88
322.878	87.88
323.108	87.88
323.337	78.88
323.566	97.88
323.795	86.88
324.024	76.88
324.253	74.88
324.482	76.88
324.71	84.88
324.939	73.88
325.168	78.88
325.397	90.88
325.626	80.88
325.855	79.88
326.084	86.88
326.313	81.88
326.542	78.88
326.77	79.88
326.999	76.88
327.228	86.88
327.457	79.88
327.686	85.88
327.914	83.88
328.143	85.88
328.372	80.88
328.6	84.88
328.829	88.88
329.058	88.88
329.287	87.88
329.515	74.88
329.744	82.88
329.972	79.88
330.201	103.88
330.43	75.88
330.658	76.88
330.887	76.88
331.115	78.88
331.344	86.88
331.572	91.88
331.801	72.88
332.03	81.88
332.258	71.88
332.486	84.88
332.715	94.88
332.943	91.88
333.172	81.88
333.4	80.88
333.629	75.88
333.857	76.88
334.085	75.88
334.314	98.88
334.542	96.88
334.771	89.88
334.999	89.88
335.227	95.88
335.455	94.88
335.684	75.88
335.912	64.88
336.14	86.88
336.369	80.88
336.597	90.88
336.825	95.88
337.053	79.88
337.281	74.88
337.51	82.88
337.738	93.88
337.966	80.88
338.194	96.88
338.422	72.88
338.65	81.88
338.878	98.88
339.106	88.88
339.334	75.88
339.562	73.88
339.79	74.88
340.018	81.88
340.246	70.88
340.474	88.88
340.702	75.88
340.93	80.88
341.158	72.88
341.386	86.88
341.614	92.88
341.842	72.88
342.07	84.88
342.298	89.88
342.526	83.88
342.754	84.88
342.981	83.88
343.209	81.88
343.437	69.88
343.665	87.88
343.893	83.88
344.12	82.88
344.348	86.88
344.576	74.88
344.804	88.88
345.031	90.88
345.259	72.88
345.487	72.88
345.714	84.88
345.942	93.88
346.17	88.88
346.397	88.88
346.625	79.88
346.853	72.88
347.08	82.88
347.308	75.88
347.535	95.88
347.763	89.88
347.99	88.88
348.218	90.88
348.445	66.88
348.673	76.88
348.9	74.88
349.128	86.88
349.355	101.88
349.583	88.88
349.81	93.88
350.037	76.88
350.265	75.88
350.492	75.88
350.72	78.88
350.947	75.88
351.174	74.88
351.402	85.88
351.629	94.88
351.856	97.88
352.083	77.88
352.311	89.88
352.538	81.88
352.765	81.88
352.992	86.88
353.22	88.88
353.447	80.88
353.674	71.88
353.901	78.88
354.128	95.88
354.355	71.88
354.583	79.88
354.81	88.88
355.037	84.88
355.264	75.88
355.491	87.88
355.718	96.88
355.945	96.88
356.172	86.88
356.399	73.88
356.626	82.88
356.853	82.88
357.08	76.88
357.307	77.88
357.534	94.88
357.761	86.88
357.988	80.88
358.215	77.88
358.441	82.88
358.668	89.88
358.895	82.88
359.122	83.88
359.349	86.88
359.576	84.88
359.802	68.88
360.029	76.88
360.256	76.88
360.483	78.88
360.709	83.88
360.936	95.88
361.163	80.88
361.39	90.88
361.616	80.88
361.843	85.88
362.07	76.88
362.296	75.88
362.523	82.88
362.749	70.88
362.976	72.88
363.203	73.88
363.429	84.88
363.656	83.88
363.882	87.88
364.109	94.88
364.335	90.88
364.562	90.88
364.788	96.88
365.015	84.88
365.241	75.88
365.468	76.88
365.694	67.88
365.92	77.88
366.147	95.88
366.373	82.88
366.599	70.88
366.826	75.88
367.052	83.88
367.278	79.88
367.505	66.88
367.731	88.88
367.957	91.88
368.184	90.88
368.41	69.88
368.636	87.88
368.862	81.88
369.089	86.88
369.315	72.88
369.541	74.88
369.767	85.88
369.993	64.88
370.219	79.88
370.445	74.88
370.672	67.88
370.898	84.88
371.124	87.88
371.35	75.88
371.576	83.88
371.802	84.88
372.028	85.88
372.254	70.88
372.48	91.88
372.706	80.88
372.932	76.88
373.158	75.88
373.384	91.88
373.61	77.88
373.835	87.88
374.061	79.88
374.287	75.88
374.513	75.88
374.739	80.88
374.965	73.88
375.191	82.88
375.416	68.88
375.642	86.88
375.868	80.88
376.094	87.88
376.319	79.88
376.545	83.88
376.771	96.88
376.997	76.88
377.222	89.88
377.448	76.88
377.674	84.88
377.899	83.88
378.125	75.88
378.35	94.88
378.576	74.88
378.802	83.88
379.027	84.88
379.253	78.88
379.478	73.88
379.704	84.88
379.929	79.88
380.155	100.88
380.38	87.88
380.606	56.88
380.831	75.88
381.057	91.88
381.282	84.88
381.507	79.88
381.733	80.88
381.958	80.88
382.184	84.88
382.409	73.88
382.634	89.88
382.86	75.88
383.085	82.88
383.31	84.88
383.535	80.88
383.761	85.88
383.986	92.88
384.211	79.88
384.436	81.88
384.662	78.88
384.887	81.88
385.112	90.88
385.337	88.88
385.562	74.88
385.787	83.88
386.013	90.88
386.238	96.88
386.463	78.88
386.688	92.88
386.913	81.88
387.138	71.88
387.363	83.88
387.588	93.88
387.813	84.88
388.038	84.88
388.263	83.88
388.488	75.88
388.713	75.88
388.938	87.88
389.163	81.88
389.387	75.88
389.612	100.88
389.837	75.88
390.062	70.88
390.287	84.88
390.512	87.88
390.736	86.88
390.961	79.88
391.186	84.88
391.411	88.88
391.636	87.88
391.86	64.88
392.085	76.88
392.31	87.88
392.534	79.88
392.759	82.88
392.984	97.88
393.208	82.88
393.433	78.88
393.658	71.88
393.882	75.88
394.107	87.88
394.331	89.88
394.556	86.88
394.78	84.88
395.005	87.88
395.229	90.88
395.454	76.88
395.678	79.88
395.903	86.88
396.127	74.88
396.352	78.88
396.576	80.88
396.801	94.88
397.025	87.88
397.249	79.88
397.474	82.88
397.698	84.88
397.922	75.88
398.147	81.88
398.371	79.88
398.595	82.88
398.82	73.88
399.044	85.88
399.268	80.88
399.492	81.88
399.717	90.88
399.941	74.88
400.165	76.88
400.389	74.88
400.613	78.88
400.837	92.88
401.062	87.88
401.286	67.88
401.51	86.88
401.734	78.88
401.958	71.88
402.182	95.88
402.406	70.88
402.63	90.88
402.854	89.88
403.078	75.88
403.302	79.88
403.526	76.88
403.75	85.88
403.974	71.88
404.198	87.88
404.422	87.88
404.645	89.88
404.869	70.88
405.093	81.88
405.317	76.88
405.541	80.88
405.765	78.88
405.988	71.88
406.212	78.88
406.436	91.88
406.66	96.88
406.883	79.88
407.107	75.88
407.331	68.88
407.555	80.88
407.778	91.88
408.002	94.88
408.226	76.88
408.449	83.88
408.673	88.88
408.896	84.88
409.12	74.88
409.344	106.88
409.567	83.88
409.791	89.88
410.014	84.88
410.238	83.88
410.461	86.88
410.685	80.88
410.908	89.88
411.132	79.88
411.355	81.88
411.578	84.88
411.802	88.88
412.025	75.88
412.249	94.88
412.472	91.88
412.695	81.88
412.919	96.88
413.142	91.88
413.365	74.88
413.589	76.88
413.812	79.88
414.035	97.88
414.258	88.88
414.482	75.88
414.705	82.88
414.928	74.88
415.151	83.88
415.374	101.88
415.597	78.88
415.821	89.88
416.044	84.88
416.267	100.88
416.49	81.88
416.713	98.88
416.936	77.88
417.159	86.88
417.382	97.88
417.605	82.88
417.828	85.88
418.051	89.88
418.274	86.88
418.497	80.88
418.72	93.88
418.943	93.88
419.166	93.88
419.389	87.88
419.611	90.88
419.834	87.88
420.057	89.88
420.28	75.88
420.503	78.88
420.726	91.88
420.948	81.88
421.171	69.88
421.394	79.88
421.617	73.88
421.839	91.88
422.062	83.88
422.285	81.88
422.507	91.88
422.73	79.88
422.953	83.88
423.175	81.88
423.398	87.88
423.621	85.88
423.843	74.88
424.066	96.88
424.288	87.88
424.511	93.88
424.733	75.88
424.956	86.88
425.178	75.88
425.401	95.88
425.623	81.88
425.846	81.88
426.068	85.88
426.291	81.88
426.513	71.88
426.735	76.88
426.958	75.88
427.18	83.88
427.402	91.88
427.625	87.88
427.847	80.88
428.069	97.88
428.292	97.88
428.514	86.88
428.736	83.88
428.958	94.88
429.181	58.88
429.403	94.88
429.625	67.88
429.847	87.88
430.069	79.88
430.292	90.88
430.514	90.88
430.736	87.88
430.958	87.88
431.18	77.88
431.402	86.88
431.624	112.88
431.846	91.88
432.068	83.88
432.29	91.88
432.512	100.88
432.734	82.88
432.956	88.88
433.178	82.88
433.4	83.88
433.622	82.88
433.844	95.88
434.066	89.88
434.287	93.88
434.509	87.88
434.731	82.88
434.953	90.88
435.175	76.88
435.397	89.88
435.618	91.88
435.84	84.88
436.062	81.88
436.284	94.88
436.505	107.88
436.727	89.88
436.949	88.88
437.17	76.88
437.392	74.88
437.614	73.88
437.835	101.88
438.057	93.88
438.278	79.88
438.5	97.88
438.721	76.88
438.943	82.88
439.165	88.88
439.386	94.88
439.608	77.88
439.829	79.88
440.05	88.88
440.272	87.88
440.493	87.88
440.715	89.88
440.936	84.88
441.158	78.88
441.379	93.88
441.6	87.88
441.822	78.88
442.043	84.88
442.264	85.88
442.486	86.88
442.707	90.88
442.928	91.88
443.149	94.88
443.371	68.88
443.592	78.88
443.813	101.88
444.034	108.88
444.255	89.88
444.476	88.88
444.698	77.88
444.919	95.88
445.14	226.88
445.361	150.88
445.582	93.88
445.803	81.88
446.024	87.88
446.245	87.88
446.466	74.88
446.687	99.88
446.908	75.88
447.129	91.88
447.35	100.88
447.571	87.88
447.792	82.88
448.013	59.88
448.234	86.88
448.455	89.88
448.675	80.88
448.896	96.88
449.117	88.88
449.338	77.88
449.559	98.88
449.779	95.88
450	93.88
450.221	75.88
450.442	83.88
450.662	95.88
450.883	79.88
451.104	92.88
451.324	93.88
451.545	102.88
451.766	68.88
451.986	69.88
452.207	83.88
452.428	77.88
452.648	95.88
452.869	77.88
453.089	89.88
453.31	82.88
453.53	78.88
453.751	90.88
453.971	88.88
454.192	78.88
454.412	92.88
454.633	87.88
454.853	82.88
455.073	82.88
455.294	75.88
455.514	100.88
455.734	81.88
455.955	83.88
456.175	78.88
456.395	90.88
456.616	79.88
456.836	85.88
457.056	99.88
457.276	73.88
457.497	80.88
457.717	69.88
457.937	70.88
458.157	89.88
458.377	79.88
458.598	71.88
458.818	78.88
459.038	83.88
459.258	74.88
459.478	86.88
459.698	87.88
459.918	82.88
460.138	74.88
460.358	91.88
460.578	91.88
460.798	89.88
461.018	81.88
461.238	87.88
461.458	91.88
461.678	73.88
461.898	89.88
462.118	87.88
462.338	79.88
462.558	75.88
462.777	80.88
462.997	82.88
463.217	82.88
463.437	79.88
463.657	76.88
463.876	75.88
464.096	87.88
464.316	90.88
464.536	75.88
464.755	92.88
464.975	82.88
465.195	82.88
465.414	85.88
465.634	94.88
465.854	76.88
466.073	83.88
466.293	92.88
466.512	74.88
466.732	84.88
466.951	86.88
467.171	95.88
467.391	91.88
467.61	94.88
467.829	72.88
468.049	84.88
468.268	94.88
468.488	75.88
468.707	86.88
468.927	91.88
469.146	83.88
469.365	79.88
469.585	82.88
469.804	84.88
470.023	93.88
470.243	87.88
470.462	90.88
470.681	79.88
470.901	90.88
471.12	93.88
471.339	89.88
471.558	93.88
471.777	87.88
471.997	94.88
472.216	94.88
472.435	82.88
472.654	95.88
472.873	89.88
473.092	88.88
473.311	89.88
473.53	98.88
473.749	81.88
473.968	95.88
474.187	77.88
474.406	81.88
474.625	87.88
474.844	83.88
475.063	92.88
475.282	96.88
475.501	108.88
475.72	88.88
475.939	95.88
476.158	89.88
476.377	96.88
476.596	95.88
476.814	93.88
477.033	76.88
477.252	88.88
477.471	87.88
477.69	80.88
477.908	84.88
478.127	80.88
478.346	98.88
478.564	84.88
478.783	92.88
479.002	86.88
479.22	85.88
479.439	87.88
479.658	83.88
479.876	87.88
480.095	71.88
480.313	80.88
480.532	82.88
480.751	85.88
480.969	77.88
481.188	80.88
481.406	95.88
481.624	89.88
481.843	84.88
482.061	81.88
482.28	76.88
482.498	92.88
482.717	82.88
482.935	83.88
483.153	91.88
483.372	103.88
483.59	86.88
483.808	67.88
484.027	87.88
484.245	81.88
484.463	90.88
484.681	98.88
484.9	90.88
485.118	91.88
485.336	85.88
485.554	94.88
485.772	94.88
485.99	87.88
486.209	79.88
486.427	95.88
486.645	83.88
486.863	95.88
487.081	86.88
487.299	84.88
487.517	89.88
487.735	89.88
487.953	90.88
488.171	96.88
488.389	110.88
488.607	95.88
488.825	86.88
489.043	81.88
489.261	80.88
489.479	85.88
489.696	91.88
489.914	89.88
490.132	86.88
490.35	94.88
490.568	107.88
490.786	101.88
491.003	108.88
491.221	108.88
491.439	103.88
491.657	91.88
491.874	98.88
492.092	105.88
492.31	103.88
492.527	103.88
492.745	105.88
492.963	107.88
493.18	87.88
493.398	105.88
493.615	92.88
493.833	103.88
494.05	102.88
494.268	118.88
494.485	100.88
494.703	94.88
494.92	84.88
495.138	100.88
495.355	111.88
495.573	93.88
495.79	92.88
496.008	88.88
496.225	101.88
496.442	82.88
496.66	97.88
496.877	85.88
497.094	104.88
497.312	91.88
497.529	90.88
497.746	101.88
497.963	86.88
498.181	92.88
498.398	84.88
498.615	93.88
498.832	71.88
499.049	91.88
499.267	102.88
499.484	77.88
499.701	93.88
499.918	87.88
500.135	83.88
500.352	100.88
500.569	84.88
500.786	95.88
501.003	83.88
501.22	102.88
501.437	106.88
501.654	96.88
501.871	90.88
502.088	107.88
502.305	88.88
502.522	93.88
502.739	101.88
502.956	89.88
503.172	89.88
503.389	76.88
503.606	98.88
503.823	84.88
504.04	85.88
504.256	82.88
504.473	99.88
504.69	96.88
504.907	101.88
505.123	104.88
505.34	86.88
505.557	89.88
505.773	85.88
505.99	86.88
506.207	93.88
506.423	88.88
506.64	99.88
506.856	84.88
507.073	101.88
507.289	103.88
507.506	85.88
507.722	91.88
507.939	90.88
508.155	92.88
508.372	82.88
508.588	80.88
508.805	96.88
509.021	83.88
509.238	75.88
509.454	90.88
509.67	81.88
509.887	78.88
510.103	84.88
510.319	95.88
510.536	87.88
510.752	87.88
510.968	73.88
511.184	73.88
511.401	81.88
511.617	80.88
511.833	77.88
512.049	90.88
512.265	81.88
512.481	71.88
512.698	79.88
512.914	76.88
513.13	92.88
513.346	89.88
513.562	70.88
513.778	85.88
513.994	88.88
514.21	87.88
514.426	72.88
514.642	84.88
514.858	76.88
515.074	84.88
515.29	76.88
515.506	90.88
515.721	98.88
515.937	90.88
516.153	72.88
516.369	80.88
516.585	85.88
516.801	68.88
517.016	96.88
517.232	76.88
517.448	93.88
517.664	77.88
517.879	79.88
518.095	86.88
518.311	85.88
518.527	80.88
518.742	75.88
