Data from Zn(NO3)2Standard.Agarose3%.GreenCap.LampEnergy5.5.E.O_HRD10591_15-00-48-768.txt Node
Date: Mon Jul 22 15:00:48 EDT 2019
User: cochatt
Spectrometer: HR+D1059
Trigger mode: 1
Integration Time (sec): 1.000000E-1
Scans to average: 1
Electric dark correction enabled: true
Nonlinearity correction enabled: false
Boxcar width: 0
XAxis mode: Wavelengths
Number of Pixels in Spectrum: 2048
>>>>>Begin Spectral Data<<<<<
223.165	-8.69
223.4	-8.69
223.635	-8.69
223.869	-27.69
224.104	-21.69
224.338	-20.69
224.573	-13.69
224.808	-14.69
225.042	5.31
225.277	-12.69
225.511	-5.69
225.746	-5.69
225.98	9.31
226.215	8.31
226.449	27.31
226.683	16.31
226.918	27.31
227.152	37.31
227.387	14.31
227.621	47.31
227.856	25.31
228.09	31.31
228.324	44.31
228.559	44.31
228.793	44.31
229.027	60.31
229.262	72.31
229.496	66.31
229.73	77.31
229.964	55.31
230.199	76.31
230.433	92.31
230.667	74.31
230.901	73.31
231.136	85.31
231.37	72.31
231.604	67.31
231.838	77.31
232.072	82.31
232.306	74.31
232.541	82.31
232.775	75.31
233.009	73.31
233.243	95.31
233.477	87.31
233.711	86.31
233.945	97.31
234.179	80.31
234.413	75.31
234.647	71.31
234.881	72.31
235.115	85.31
235.349	105.31
235.583	78.31
235.817	71.31
236.051	84.31
236.285	67.31
236.519	71.31
236.753	80.31
236.987	86.31
237.221	73.31
237.455	76.31
237.689	75.31
237.922	73.31
238.156	83.31
238.39	75.31
238.624	75.31
238.858	72.31
239.091	76.31
239.325	86.31
239.559	87.31
239.793	80.31
240.027	84.31
240.26	67.31
240.494	81.31
240.728	67.31
240.961	75.31
241.195	76.31
241.429	75.31
241.662	96.31
241.896	80.31
242.13	88.31
242.363	98.31
242.597	81.31
242.83	84.31
243.064	77.31
243.298	60.31
243.531	77.31
243.765	74.31
243.998	80.31
244.232	81.31
244.465	79.31
244.699	71.31
244.932	89.31
245.166	74.31
245.399	77.31
245.633	77.31
245.866	63.31
246.099	69.31
246.333	83.31
246.566	76.31
246.8	85.31
247.033	76.31
247.266	67.31
247.5	68.31
247.733	85.31
247.966	64.31
248.2	84.31
248.433	83.31
248.666	85.31
248.899	88.31
249.133	85.31
249.366	84.31
249.599	80.31
249.832	76.31
250.066	79.31
250.299	85.31
250.532	72.31
250.765	69.31
250.998	71.31
251.231	80.31
251.465	83.31
251.698	74.31
251.931	71.31
252.164	72.31
252.397	90.31
252.63	74.31
252.863	77.31
253.096	64.31
253.329	78.31
253.562	80.31
253.795	82.31
254.028	88.31
254.261	76.31
254.494	84.31
254.727	89.31
254.96	77.31
255.193	93.31
255.426	76.31
255.659	67.31
255.892	76.31
256.124	90.31
256.357	80.31
256.59	76.31
256.823	86.31
257.056	76.31
257.289	65.31
257.521	63.31
257.754	75.31
257.987	81.31
258.22	83.31
258.452	69.31
258.685	74.31
258.918	78.31
259.151	75.31
259.383	88.31
259.616	70.31
259.849	71.31
260.081	87.31
260.314	92.31
260.547	82.31
260.779	72.31
261.012	74.31
261.244	78.31
261.477	89.31
261.71	77.31
261.942	87.31
262.175	73.31
262.407	97.31
262.64	71.31
262.872	77.31
263.105	75.31
263.337	86.31
263.57	82.31
263.802	77.31
264.035	86.31
264.267	72.31
264.499	76.31
264.732	77.31
264.964	83.31
265.197	82.31
265.429	75.31
265.661	70.31
265.894	77.31
266.126	88.31
266.358	75.31
266.591	79.31
266.823	72.31
267.055	71.31
267.287	89.31
267.52	85.31
267.752	95.31
267.984	81.31
268.216	78.31
268.448	75.31
268.681	90.31
268.913	88.31
269.145	85.31
269.377	75.31
269.609	81.31
269.841	80.31
270.073	93.31
270.306	75.31
270.538	87.31
270.77	92.31
271.002	77.31
271.234	76.31
271.466	91.31
271.698	82.31
271.93	79.31
272.162	79.31
272.394	87.31
272.626	84.31
272.858	81.31
273.09	83.31
273.322	78.31
273.553	78.31
273.785	86.31
274.017	93.31
274.249	87.31
274.481	95.31
274.713	76.31
274.945	88.31
275.176	77.31
275.408	72.31
275.64	80.31
275.872	86.31
276.104	81.31
276.335	91.31
276.567	72.31
276.799	74.31
277.031	85.31
277.262	75.31
277.494	77.31
277.726	85.31
277.957	82.31
278.189	80.31
278.421	89.31
278.652	75.31
278.884	72.31
279.115	82.31
279.347	95.31
279.579	80.31
279.81	83.31
280.042	73.31
280.273	90.31
280.505	70.31
280.736	96.31
280.968	85.31
281.199	88.31
281.431	87.31
281.662	88.31
281.894	90.31
282.125	89.31
282.356	98.31
282.588	86.31
282.819	83.31
283.051	88.31
283.282	80.31
283.513	91.31
283.745	80.31
283.976	82.31
284.207	75.31
284.439	75.31
284.67	80.31
284.901	83.31
285.132	86.31
285.364	83.31
285.595	73.31
285.826	90.31
286.057	74.31
286.288	87.31
286.52	89.31
286.751	83.31
286.982	82.31
287.213	77.31
287.444	78.31
287.675	77.31
287.906	74.31
288.138	80.31
288.369	75.31
288.6	100.31
288.831	85.31
289.062	79.31
289.293	89.31
289.524	91.31
289.755	83.31
289.986	86.31
290.217	86.31
290.448	79.31
290.679	87.31
290.91	93.31
291.141	92.31
291.371	83.31
291.602	94.31
291.833	84.31
292.064	73.31
292.295	88.31
292.526	87.31
292.757	75.31
292.987	80.31
293.218	65.31
293.449	76.31
293.68	79.31
293.91	76.31
294.141	85.31
294.372	92.31
294.603	87.31
294.833	78.31
295.064	87.31
295.295	85.31
295.525	91.31
295.756	82.31
295.987	86.31
296.217	93.31
296.448	95.31
296.679	73.31
296.909	82.31
297.14	97.31
297.37	80.31
297.601	90.31
297.831	85.31
298.062	76.31
298.292	86.31
298.523	83.31
298.753	75.31
298.984	89.31
299.214	89.31
299.445	84.31
299.675	78.31
299.905	85.31
300.136	78.31
300.366	99.31
300.597	92.31
300.827	88.31
301.057	90.31
301.288	86.31
301.518	87.31
301.748	76.31
301.979	80.31
302.209	81.31
302.439	82.31
302.669	90.31
302.9	94.31
303.13	83.31
303.36	73.31
303.59	69.31
303.82	71.31
304.051	79.31
304.281	90.31
304.511	93.31
304.741	77.31
304.971	75.31
305.201	82.31
305.431	74.31
305.661	83.31
305.891	69.31
306.121	73.31
306.352	92.31
306.582	82.31
306.812	76.31
307.042	87.31
307.272	82.31
307.502	68.31
307.731	82.31
307.961	83.31
308.191	75.31
308.421	97.31
308.651	92.31
308.881	71.31
309.111	72.31
309.341	75.31
309.571	89.31
309.8	86.31
310.03	74.31
310.26	85.31
310.49	85.31
310.72	96.31
310.949	81.31
311.179	89.31
311.409	74.31
311.639	73.31
311.868	85.31
312.098	74.31
312.328	86.31
312.557	80.31
312.787	80.31
313.017	79.31
313.246	80.31
313.476	67.31
313.706	84.31
313.935	97.31
314.165	89.31
314.394	81.31
314.624	83.31
314.853	83.31
315.083	83.31
315.312	98.31
315.542	83.31
315.771	80.31
316.001	88.31
316.23	86.31
316.46	100.31
316.689	87.31
316.919	90.31
317.148	89.31
317.377	87.31
317.607	88.31
317.836	74.31
318.065	90.31
318.295	91.31
318.524	85.31
318.753	86.31
318.983	97.31
319.212	87.31
319.441	86.31
319.67	82.31
319.9	82.31
320.129	75.31
320.358	74.31
320.587	77.31
320.816	96.31
321.046	69.31
321.275	85.31
321.504	81.31
321.733	74.31
321.962	76.31
322.191	80.31
322.42	89.31
322.649	88.31
322.878	88.31
323.108	88.31
323.337	97.31
323.566	86.31
323.795	91.31
324.024	73.31
324.253	92.31
324.482	76.31
324.71	85.31
324.939	103.31
325.168	75.31
325.397	81.31
325.626	92.31
325.855	77.31
326.084	73.31
326.313	100.31
326.542	92.31
326.77	92.31
326.999	86.31
327.228	84.31
327.457	85.31
327.686	77.31
327.914	79.31
328.143	74.31
328.372	89.31
328.6	76.31
328.829	86.31
329.058	85.31
329.287	85.31
329.515	95.31
329.744	82.31
329.972	80.31
330.201	91.31
330.43	83.31
330.658	76.31
330.887	76.31
331.115	89.31
331.344	78.31
331.572	95.31
331.801	82.31
332.03	83.31
332.258	78.31
332.486	81.31
332.715	73.31
332.943	86.31
333.172	79.31
333.4	78.31
333.629	91.31
333.857	88.31
334.085	80.31
334.314	83.31
334.542	81.31
334.771	87.31
334.999	90.31
335.227	96.31
335.455	80.31
335.684	100.31
335.912	89.31
336.14	78.31
336.369	78.31
336.597	88.31
336.825	90.31
337.053	92.31
337.281	84.31
337.51	86.31
337.738	70.31
337.966	92.31
338.194	87.31
338.422	76.31
338.65	86.31
338.878	87.31
339.106	82.31
339.334	97.31
339.562	82.31
339.79	94.31
340.018	93.31
340.246	81.31
340.474	91.31
340.702	77.31
340.93	88.31
341.158	73.31
341.386	98.31
341.614	88.31
341.842	83.31
342.07	88.31
342.298	81.31
342.526	88.31
342.754	89.31
342.981	92.31
343.209	95.31
343.437	84.31
343.665	88.31
343.893	83.31
344.12	94.31
344.348	86.31
344.576	88.31
344.804	89.31
345.031	85.31
345.259	76.31
345.487	92.31
345.714	69.31
345.942	85.31
346.17	78.31
346.397	83.31
346.625	79.31
346.853	69.31
347.08	70.31
347.308	91.31
347.535	79.31
347.763	91.31
347.99	96.31
348.218	81.31
348.445	81.31
348.673	74.31
348.9	80.31
349.128	88.31
349.355	77.31
349.583	96.31
349.81	80.31
350.037	85.31
350.265	82.31
350.492	83.31
350.72	80.31
350.947	66.31
351.174	80.31
351.402	83.31
351.629	75.31
351.856	88.31
352.083	84.31
352.311	77.31
352.538	100.31
352.765	83.31
352.992	83.31
353.22	72.31
353.447	93.31
353.674	91.31
353.901	89.31
354.128	87.31
354.355	72.31
354.583	78.31
354.81	87.31
355.037	80.31
355.264	89.31
355.491	79.31
355.718	71.31
355.945	80.31
356.172	80.31
356.399	83.31
356.626	84.31
356.853	77.31
357.08	80.31
357.307	89.31
357.534	84.31
357.761	89.31
357.988	86.31
358.215	81.31
358.441	71.31
358.668	83.31
358.895	84.31
359.122	93.31
359.349	85.31
359.576	81.31
359.802	79.31
360.029	82.31
360.256	82.31
360.483	87.31
360.709	76.31
360.936	104.31
361.163	84.31
361.39	92.31
361.616	95.31
361.843	91.31
362.07	94.31
362.296	90.31
362.523	71.31
362.749	85.31
362.976	99.31
363.203	83.31
363.429	81.31
363.656	95.31
363.882	75.31
364.109	74.31
364.335	71.31
364.562	77.31
364.788	75.31
365.015	80.31
365.241	89.31
365.468	88.31
365.694	79.31
365.92	92.31
366.147	93.31
366.373	81.31
366.599	71.31
366.826	91.31
367.052	69.31
367.278	69.31
367.505	84.31
367.731	93.31
367.957	75.31
368.184	89.31
368.41	73.31
368.636	85.31
368.862	88.31
369.089	87.31
369.315	89.31
369.541	89.31
369.767	85.31
369.993	76.31
370.219	73.31
370.445	80.31
370.672	71.31
370.898	86.31
371.124	87.31
371.35	79.31
371.576	85.31
371.802	75.31
372.028	90.31
372.254	81.31
372.48	90.31
372.706	80.31
372.932	91.31
373.158	83.31
373.384	75.31
373.61	73.31
373.835	78.31
374.061	83.31
374.287	99.31
374.513	82.31
374.739	65.31
374.965	84.31
375.191	90.31
375.416	89.31
375.642	76.31
375.868	72.31
376.094	96.31
376.319	75.31
376.545	81.31
376.771	86.31
376.997	85.31
377.222	88.31
377.448	84.31
377.674	84.31
377.899	81.31
378.125	87.31
378.35	83.31
378.576	81.31
378.802	84.31
379.027	91.31
379.253	83.31
379.478	89.31
379.704	92.31
379.929	83.31
380.155	82.31
380.38	82.31
380.606	75.31
380.831	84.31
381.057	90.31
381.282	89.31
381.507	92.31
381.733	78.31
381.958	89.31
382.184	86.31
382.409	82.31
382.634	93.31
382.86	75.31
383.085	72.31
383.31	81.31
383.535	85.31
383.761	89.31
383.986	91.31
384.211	92.31
384.436	97.31
384.662	91.31
384.887	75.31
385.112	77.31
385.337	73.31
385.562	101.31
385.787	79.31
386.013	85.31
386.238	73.31
386.463	80.31
386.688	89.31
386.913	92.31
387.138	79.31
387.363	81.31
387.588	93.31
387.813	87.31
388.038	87.31
388.263	87.31
388.488	78.31
388.713	79.31
388.938	90.31
389.163	74.31
389.387	79.31
389.612	79.31
389.837	95.31
390.062	87.31
390.287	79.31
390.512	71.31
390.736	88.31
390.961	89.31
391.186	77.31
391.411	87.31
391.636	80.31
391.86	81.31
392.085	86.31
392.31	87.31
392.534	78.31
392.759	79.31
392.984	75.31
393.208	85.31
393.433	87.31
393.658	77.31
393.882	104.31
394.107	98.31
394.331	81.31
394.556	67.31
394.78	80.31
395.005	95.31
395.229	95.31
395.454	83.31
395.678	113.31
395.903	86.31
396.127	77.31
396.352	83.31
396.576	77.31
396.801	76.31
397.025	86.31
397.249	79.31
397.474	90.31
397.698	88.31
397.922	74.31
398.147	75.31
398.371	95.31
398.595	68.31
398.82	79.31
399.044	97.31
399.268	83.31
399.492	92.31
399.717	83.31
399.941	87.31
400.165	92.31
400.389	84.31
400.613	75.31
400.837	100.31
401.062	84.31
401.286	87.31
401.51	81.31
401.734	76.31
401.958	81.31
402.182	83.31
402.406	91.31
402.63	71.31
402.854	78.31
403.078	81.31
403.302	86.31
403.526	86.31
403.75	92.31
403.974	71.31
404.198	81.31
404.422	81.31
404.645	87.31
404.869	89.31
405.093	70.31
405.317	98.31
405.541	93.31
405.765	85.31
405.988	82.31
406.212	85.31
406.436	80.31
406.66	94.31
406.883	95.31
407.107	93.31
407.331	77.31
407.555	92.31
407.778	95.31
408.002	95.31
408.226	87.31
408.449	89.31
408.673	79.31
408.896	92.31
409.12	90.31
409.344	90.31
409.567	85.31
409.791	95.31
410.014	80.31
410.238	81.31
410.461	86.31
410.685	93.31
410.908	78.31
411.132	105.31
411.355	95.31
411.578	93.31
411.802	87.31
412.025	109.31
412.249	82.31
412.472	77.31
412.695	91.31
412.919	85.31
413.142	91.31
413.365	72.31
413.589	77.31
413.812	87.31
414.035	97.31
414.258	72.31
414.482	89.31
414.705	81.31
414.928	97.31
415.151	85.31
415.374	100.31
415.597	84.31
415.821	95.31
416.044	87.31
416.267	85.31
416.49	88.31
416.713	81.31
416.936	84.31
417.159	83.31
417.382	97.31
417.605	95.31
417.828	100.31
418.051	87.31
418.274	82.31
418.497	78.31
418.72	86.31
418.943	97.31
419.166	78.31
419.389	100.31
419.611	90.31
419.834	80.31
420.057	87.31
420.28	86.31
420.503	92.31
420.726	92.31
420.948	81.31
421.171	101.31
421.394	85.31
421.617	95.31
421.839	96.31
422.062	78.31
422.285	89.31
422.507	84.31
422.73	85.31
422.953	78.31
423.175	86.31
423.398	76.31
423.621	92.31
423.843	84.31
424.066	89.31
424.288	84.31
424.511	96.31
424.733	88.31
424.956	99.31
425.178	92.31
425.401	97.31
425.623	85.31
425.846	87.31
426.068	92.31
426.291	84.31
426.513	87.31
426.735	103.31
426.958	96.31
427.18	103.31
427.402	92.31
427.625	88.31
427.847	96.31
428.069	89.31
428.292	100.31
428.514	87.31
428.736	100.31
428.958	93.31
429.181	88.31
429.403	74.31
429.625	93.31
429.847	99.31
430.069	92.31
430.292	83.31
430.514	87.31
430.736	101.31
430.958	78.31
431.18	91.31
431.402	106.31
431.624	82.31
431.846	98.31
432.068	74.31
432.29	80.31
432.512	92.31
432.734	92.31
432.956	104.31
433.178	98.31
433.4	97.31
433.622	86.31
433.844	90.31
434.066	85.31
434.287	88.31
434.509	84.31
434.731	75.31
434.953	93.31
435.175	86.31
435.397	81.31
435.618	94.31
435.84	85.31
436.062	81.31
436.284	95.31
436.505	92.31
436.727	98.31
436.949	95.31
437.17	87.31
437.392	85.31
437.614	75.31
437.835	82.31
438.057	83.31
438.278	80.31
438.5	107.31
438.721	80.31
438.943	100.31
439.165	88.31
439.386	81.31
439.608	78.31
439.829	99.31
440.05	92.31
440.272	90.31
440.493	85.31
440.715	101.31
440.936	100.31
441.158	92.31
441.379	92.31
441.6	97.31
441.822	98.31
442.043	92.31
442.264	93.31
442.486	85.31
442.707	87.31
442.928	85.31
443.149	74.31
443.371	88.31
443.592	78.31
443.813	89.31
444.034	83.31
444.255	79.31
444.476	87.31
444.698	93.31
444.919	75.31
445.14	192.31
445.361	145.31
445.582	93.31
445.803	92.31
446.024	100.31
446.245	88.31
446.466	80.31
446.687	98.31
446.908	105.31
447.129	83.31
447.35	96.31
447.571	88.31
447.792	92.31
448.013	91.31
448.234	89.31
448.455	89.31
448.675	87.31
448.896	83.31
449.117	92.31
449.338	105.31
449.559	100.31
449.779	89.31
450	90.31
450.221	98.31
450.442	82.31
450.662	83.31
450.883	100.31
451.104	92.31
451.324	91.31
451.545	84.31
451.766	81.31
451.986	94.31
452.207	84.31
452.428	74.31
452.648	79.31
452.869	85.31
453.089	98.31
453.31	73.31
453.53	85.31
453.751	87.31
453.971	90.31
454.192	82.31
454.412	74.31
454.633	89.31
454.853	83.31
455.073	81.31
455.294	91.31
455.514	84.31
455.734	82.31
455.955	88.31
456.175	82.31
456.395	93.31
456.616	72.31
456.836	74.31
457.056	77.31
457.276	88.31
457.497	81.31
457.717	88.31
457.937	91.31
458.157	98.31
458.377	95.31
458.598	81.31
458.818	82.31
459.038	74.31
459.258	76.31
459.478	84.31
459.698	81.31
459.918	80.31
460.138	78.31
460.358	101.31
460.578	103.31
460.798	91.31
461.018	73.31
461.238	76.31
461.458	76.31
461.678	75.31
461.898	93.31
462.118	91.31
462.338	101.31
462.558	101.31
462.777	80.31
462.997	90.31
463.217	98.31
463.437	96.31
463.657	72.31
463.876	93.31
464.096	67.31
464.316	87.31
464.536	90.31
464.755	90.31
464.975	80.31
465.195	91.31
465.414	98.31
465.634	90.31
465.854	103.31
466.073	85.31
466.293	85.31
466.512	96.31
466.732	95.31
466.951	85.31
467.171	80.31
467.391	95.31
467.61	79.31
467.829	84.31
468.049	83.31
468.268	99.31
468.488	70.31
468.707	88.31
468.927	91.31
469.146	92.31
469.365	92.31
469.585	100.31
469.804	96.31
470.023	93.31
470.243	87.31
470.462	79.31
470.681	97.31
470.901	97.31
471.12	102.31
471.339	89.31
471.558	96.31
471.777	97.31
471.997	97.31
472.216	90.31
472.435	81.31
472.654	85.31
472.873	99.31
473.092	75.31
473.311	93.31
473.53	87.31
473.749	64.31
473.968	85.31
474.187	79.31
474.406	75.31
474.625	89.31
474.844	82.31
475.063	89.31
475.282	86.31
475.501	85.31
475.72	95.31
475.939	88.31
476.158	83.31
476.377	92.31
476.596	98.31
476.814	92.31
477.033	80.31
477.252	83.31
477.471	98.31
477.69	97.31
477.908	88.31
478.127	85.31
478.346	91.31
478.564	83.31
478.783	84.31
479.002	76.31
479.22	82.31
479.439	95.31
479.658	77.31
479.876	79.31
480.095	78.31
480.313	74.31
480.532	101.31
480.751	95.31
480.969	73.31
481.188	82.31
481.406	85.31
481.624	101.31
481.843	79.31
482.061	71.31
482.28	90.31
482.498	83.31
482.717	87.31
482.935	102.31
483.153	96.31
483.372	89.31
483.59	105.31
483.808	75.31
484.027	107.31
484.245	98.31
484.463	96.31
484.681	101.31
484.9	98.31
485.118	88.31
485.336	88.31
485.554	95.31
485.772	77.31
485.99	83.31
486.209	85.31
486.427	76.31
486.645	96.31
486.863	86.31
487.081	85.31
487.299	91.31
487.517	91.31
487.735	95.31
487.953	98.31
488.171	99.31
488.389	82.31
488.607	96.31
488.825	102.31
489.043	83.31
489.261	81.31
489.479	92.31
489.696	85.31
489.914	98.31
490.132	78.31
490.35	88.31
490.568	81.31
490.786	99.31
491.003	92.31
491.221	111.31
491.439	95.31
491.657	96.31
491.874	98.31
492.092	108.31
492.31	116.31
492.527	100.31
492.745	105.31
492.963	103.31
493.18	96.31
493.398	103.31
493.615	99.31
493.833	97.31
494.05	113.31
494.268	105.31
494.485	103.31
494.703	88.31
494.92	89.31
495.138	103.31
495.355	87.31
495.573	108.31
495.79	99.31
496.008	91.31
496.225	93.31
496.442	102.31
496.66	95.31
496.877	104.31
497.094	101.31
497.312	102.31
497.529	97.31
497.746	96.31
497.963	75.31
498.181	91.31
498.398	104.31
498.615	89.31
498.832	82.31
499.049	82.31
499.267	92.31
499.484	91.31
499.701	98.31
499.918	98.31
500.135	96.31
500.352	91.31
500.569	78.31
500.786	98.31
501.003	91.31
501.22	83.31
501.437	83.31
501.654	98.31
501.871	77.31
502.088	77.31
502.305	93.31
502.522	95.31
502.739	87.31
502.956	98.31
503.172	80.31
503.389	92.31
503.606	84.31
503.823	89.31
504.04	93.31
504.256	95.31
504.473	69.31
504.69	87.31
504.907	77.31
505.123	87.31
505.34	109.31
505.557	104.31
505.773	99.31
505.99	84.31
506.207	88.31
506.423	75.31
506.64	90.31
506.856	85.31
507.073	82.31
507.289	91.31
507.506	89.31
507.722	86.31
507.939	76.31
508.155	89.31
508.372	88.31
508.588	87.31
508.805	81.31
509.021	99.31
509.238	90.31
509.454	85.31
509.67	88.31
509.887	89.31
510.103	86.31
510.319	74.31
510.536	82.31
510.752	94.31
510.968	89.31
511.184	88.31
511.401	96.31
511.617	99.31
511.833	87.31
512.049	88.31
512.265	74.31
512.481	88.31
512.698	92.31
512.914	76.31
513.13	92.31
513.346	89.31
513.562	86.31
513.778	77.31
513.994	86.31
514.21	73.31
514.426	81.31
514.642	73.31
514.858	86.31
515.074	90.31
515.29	80.31
515.506	77.31
515.721	84.31
515.937	85.31
516.153	83.31
516.369	77.31
516.585	85.31
516.801	86.31
517.016	89.31
517.232	99.31
517.448	70.31
517.664	101.31
517.879	85.31
518.095	83.31
518.311	95.31
518.527	96.31
