Data from Zn(NO3)2Standard.Agarose3%.GreenCap.LampEnergy10E.O_HRD10591_15-09-06-952.txt Node
Date: Mon Jul 22 15:09:06 EDT 2019
User: cochatt
Spectrometer: HR+D1059
Trigger mode: 1
Integration Time (sec): 1.000000E-1
Scans to average: 1
Electric dark correction enabled: true
Nonlinearity correction enabled: false
Boxcar width: 0
XAxis mode: Wavelengths
Number of Pixels in Spectrum: 2048
>>>>>Begin Spectral Data<<<<<
223.165	-12.38
223.4	-12.38
223.635	-12.38
223.869	-8.38
224.104	-15.38
224.338	-23.38
224.573	-14.38
224.808	-10.38
225.042	7.62
225.277	-8.38
225.511	-1.38
225.746	-11.38
225.98	-0.38
226.215	6.62
226.449	11.62
226.683	30.62
226.918	33.62
227.152	15.62
227.387	25.62
227.621	49.62
227.856	33.62
228.09	39.62
228.324	51.62
228.559	59.62
228.793	72.62
229.027	59.62
229.262	66.62
229.496	67.62
229.73	71.62
229.964	57.62
230.199	64.62
230.433	75.62
230.667	71.62
230.901	84.62
231.136	77.62
231.37	67.62
231.604	93.62
231.838	65.62
232.072	79.62
232.306	78.62
232.541	73.62
232.775	84.62
233.009	85.62
233.243	80.62
233.477	72.62
233.711	82.62
233.945	80.62
234.179	80.62
234.413	88.62
234.647	74.62
234.881	72.62
235.115	86.62
235.349	73.62
235.583	77.62
235.817	75.62
236.051	66.62
236.285	72.62
236.519	77.62
236.753	85.62
236.987	69.62
237.221	79.62
237.455	61.62
237.689	64.62
237.922	82.62
238.156	71.62
238.39	66.62
238.624	88.62
238.858	75.62
239.091	75.62
239.325	74.62
239.559	69.62
239.793	86.62
240.027	81.62
240.26	77.62
240.494	77.62
240.728	73.62
240.961	72.62
241.195	66.62
241.429	73.62
241.662	74.62
241.896	78.62
242.13	72.62
242.363	75.62
242.597	70.62
242.83	69.62
243.064	73.62
243.298	82.62
243.531	94.62
243.765	91.62
243.998	88.62
244.232	66.62
244.465	64.62
244.699	76.62
244.932	80.62
245.166	76.62
245.399	86.62
245.633	80.62
245.866	77.62
246.099	64.62
246.333	79.62
246.566	77.62
246.8	90.62
247.033	81.62
247.266	78.62
247.5	81.62
247.733	72.62
247.966	81.62
248.2	79.62
248.433	89.62
248.666	76.62
248.899	76.62
249.133	80.62
249.366	79.62
249.599	90.62
249.832	85.62
250.066	86.62
250.299	85.62
250.532	73.62
250.765	77.62
250.998	71.62
251.231	75.62
251.465	72.62
251.698	83.62
251.931	69.62
252.164	86.62
252.397	75.62
252.63	70.62
252.863	76.62
253.096	66.62
253.329	81.62
253.562	93.62
253.795	82.62
254.028	73.62
254.261	81.62
254.494	70.62
254.727	82.62
254.96	65.62
255.193	86.62
255.426	85.62
255.659	77.62
255.892	67.62
256.124	86.62
256.357	73.62
256.59	76.62
256.823	76.62
257.056	85.62
257.289	90.62
257.521	73.62
257.754	74.62
257.987	80.62
258.22	86.62
258.452	85.62
258.685	88.62
258.918	77.62
259.151	77.62
259.383	84.62
259.616	91.62
259.849	76.62
260.081	81.62
260.314	92.62
260.547	76.62
260.779	57.62
261.012	88.62
261.244	73.62
261.477	83.62
261.71	77.62
261.942	83.62
262.175	73.62
262.407	83.62
262.64	83.62
262.872	70.62
263.105	80.62
263.337	74.62
263.57	87.62
263.802	89.62
264.035	91.62
264.267	84.62
264.499	77.62
264.732	104.62
264.964	94.62
265.197	67.62
265.429	75.62
265.661	76.62
265.894	90.62
266.126	94.62
266.358	79.62
266.591	84.62
266.823	72.62
267.055	86.62
267.287	81.62
267.52	79.62
267.752	83.62
267.984	79.62
268.216	79.62
268.448	84.62
268.681	90.62
268.913	82.62
269.145	70.62
269.377	89.62
269.609	77.62
269.841	75.62
270.073	78.62
270.306	93.62
270.538	77.62
270.77	76.62
271.002	83.62
271.234	84.62
271.466	72.62
271.698	75.62
271.93	84.62
272.162	65.62
272.394	74.62
272.626	81.62
272.858	88.62
273.09	79.62
273.322	80.62
273.553	80.62
273.785	87.62
274.017	78.62
274.249	81.62
274.481	82.62
274.713	72.62
274.945	76.62
275.176	81.62
275.408	103.62
275.64	82.62
275.872	79.62
276.104	74.62
276.335	82.62
276.567	78.62
276.799	77.62
277.031	85.62
277.262	82.62
277.494	87.62
277.726	86.62
277.957	84.62
278.189	79.62
278.421	73.62
278.652	79.62
278.884	83.62
279.115	89.62
279.347	68.62
279.579	63.62
279.81	91.62
280.042	84.62
280.273	81.62
280.505	65.62
280.736	78.62
280.968	88.62
281.199	76.62
281.431	85.62
281.662	82.62
281.894	84.62
282.125	83.62
282.356	78.62
282.588	75.62
282.819	93.62
283.051	81.62
283.282	77.62
283.513	78.62
283.745	82.62
283.976	90.62
284.207	79.62
284.439	86.62
284.67	84.62
284.901	76.62
285.132	80.62
285.364	75.62
285.595	83.62
285.826	86.62
286.057	102.62
286.288	93.62
286.52	79.62
286.751	89.62
286.982	74.62
287.213	92.62
287.444	86.62
287.675	82.62
287.906	83.62
288.138	93.62
288.369	90.62
288.6	93.62
288.831	77.62
289.062	97.62
289.293	99.62
289.524	85.62
289.755	85.62
289.986	92.62
290.217	72.62
290.448	77.62
290.679	83.62
290.91	76.62
291.141	92.62
291.371	81.62
291.602	75.62
291.833	89.62
292.064	74.62
292.295	85.62
292.526	74.62
292.757	95.62
292.987	76.62
293.218	69.62
293.449	85.62
293.68	78.62
293.91	84.62
294.141	79.62
294.372	81.62
294.603	95.62
294.833	69.62
295.064	75.62
295.295	88.62
295.525	93.62
295.756	83.62
295.987	99.62
296.217	81.62
296.448	73.62
296.679	81.62
296.909	72.62
297.14	88.62
297.37	79.62
297.601	81.62
297.831	89.62
298.062	99.62
298.292	85.62
298.523	72.62
298.753	78.62
298.984	86.62
299.214	81.62
299.445	77.62
299.675	85.62
299.905	77.62
300.136	72.62
300.366	80.62
300.597	85.62
300.827	78.62
301.057	91.62
301.288	85.62
301.518	74.62
301.748	89.62
301.979	84.62
302.209	74.62
302.439	101.62
302.669	95.62
302.9	70.62
303.13	76.62
303.36	97.62
303.59	80.62
303.82	83.62
304.051	76.62
304.281	80.62
304.511	84.62
304.741	84.62
304.971	79.62
305.201	85.62
305.431	93.62
305.661	82.62
305.891	66.62
306.121	75.62
306.352	91.62
306.582	85.62
306.812	78.62
307.042	105.62
307.272	104.62
307.502	90.62
307.731	79.62
307.961	82.62
308.191	79.62
308.421	77.62
308.651	92.62
308.881	91.62
309.111	80.62
309.341	88.62
309.571	83.62
309.8	75.62
310.03	78.62
310.26	89.62
310.49	82.62
310.72	82.62
310.949	85.62
311.179	79.62
311.409	93.62
311.639	90.62
311.868	87.62
312.098	85.62
312.328	83.62
312.557	87.62
312.787	104.62
313.017	95.62
313.246	82.62
313.476	65.62
313.706	89.62
313.935	89.62
314.165	87.62
314.394	79.62
314.624	85.62
314.853	85.62
315.083	82.62
315.312	85.62
315.542	72.62
315.771	87.62
316.001	71.62
316.23	97.62
316.46	85.62
316.689	94.62
316.919	87.62
317.148	91.62
317.377	89.62
317.607	81.62
317.836	76.62
318.065	90.62
318.295	85.62
318.524	86.62
318.753	73.62
318.983	74.62
319.212	81.62
319.441	77.62
319.67	89.62
319.9	76.62
320.129	80.62
320.358	84.62
320.587	73.62
320.816	87.62
321.046	73.62
321.275	84.62
321.504	72.62
321.733	77.62
321.962	75.62
322.191	83.62
322.42	90.62
322.649	87.62
322.878	89.62
323.108	77.62
323.337	87.62
323.566	87.62
323.795	67.62
324.024	73.62
324.253	74.62
324.482	73.62
324.71	85.62
324.939	78.62
325.168	72.62
325.397	91.62
325.626	83.62
325.855	86.62
326.084	98.62
326.313	77.62
326.542	75.62
326.77	83.62
326.999	83.62
327.228	76.62
327.457	74.62
327.686	87.62
327.914	76.62
328.143	86.62
328.372	78.62
328.6	95.62
328.829	80.62
329.058	96.62
329.287	69.62
329.515	81.62
329.744	90.62
329.972	87.62
330.201	88.62
330.43	84.62
330.658	85.62
330.887	75.62
331.115	67.62
331.344	71.62
331.572	88.62
331.801	83.62
332.03	93.62
332.258	83.62
332.486	80.62
332.715	94.62
332.943	82.62
333.172	88.62
333.4	79.62
333.629	83.62
333.857	88.62
334.085	87.62
334.314	85.62
334.542	92.62
334.771	80.62
334.999	97.62
335.227	78.62
335.455	78.62
335.684	91.62
335.912	81.62
336.14	75.62
336.369	87.62
336.597	88.62
336.825	77.62
337.053	84.62
337.281	79.62
337.51	67.62
337.738	94.62
337.966	73.62
338.194	91.62
338.422	91.62
338.65	86.62
338.878	98.62
339.106	84.62
339.334	82.62
339.562	78.62
339.79	73.62
340.018	90.62
340.246	95.62
340.474	96.62
340.702	73.62
340.93	79.62
341.158	78.62
341.386	90.62
341.614	88.62
341.842	86.62
342.07	82.62
342.298	89.62
342.526	75.62
342.754	75.62
342.981	82.62
343.209	83.62
343.437	84.62
343.665	82.62
343.893	76.62
344.12	95.62
344.348	83.62
344.576	89.62
344.804	92.62
345.031	97.62
345.259	70.62
345.487	91.62
345.714	76.62
345.942	79.62
346.17	86.62
346.397	70.62
346.625	85.62
346.853	77.62
347.08	86.62
347.308	82.62
347.535	80.62
347.763	79.62
347.99	92.62
348.218	97.62
348.445	66.62
348.673	83.62
348.9	69.62
349.128	88.62
349.355	81.62
349.583	90.62
349.81	73.62
350.037	93.62
350.265	90.62
350.492	64.62
350.72	87.62
350.947	74.62
351.174	96.62
351.402	97.62
351.629	86.62
351.856	90.62
352.083	87.62
352.311	89.62
352.538	74.62
352.765	83.62
352.992	89.62
353.22	75.62
353.447	81.62
353.674	90.62
353.901	85.62
354.128	75.62
354.355	76.62
354.583	71.62
354.81	88.62
355.037	88.62
355.264	78.62
355.491	84.62
355.718	88.62
355.945	87.62
356.172	70.62
356.399	87.62
356.626	81.62
356.853	89.62
357.08	97.62
357.307	89.62
357.534	85.62
357.761	86.62
357.988	89.62
358.215	97.62
358.441	88.62
358.668	82.62
358.895	87.62
359.122	82.62
359.349	79.62
359.576	83.62
359.802	81.62
360.029	95.62
360.256	82.62
360.483	81.62
360.709	88.62
360.936	72.62
361.163	89.62
361.39	82.62
361.616	79.62
361.843	89.62
362.07	86.62
362.296	91.62
362.523	66.62
362.749	79.62
362.976	73.62
363.203	81.62
363.429	94.62
363.656	82.62
363.882	62.62
364.109	84.62
364.335	83.62
364.562	76.62
364.788	83.62
365.015	89.62
365.241	89.62
365.468	72.62
365.694	85.62
365.92	79.62
366.147	82.62
366.373	87.62
366.599	83.62
366.826	86.62
367.052	73.62
367.278	81.62
367.505	82.62
367.731	86.62
367.957	67.62
368.184	72.62
368.41	89.62
368.636	80.62
368.862	77.62
369.089	83.62
369.315	96.62
369.541	72.62
369.767	70.62
369.993	84.62
370.219	77.62
370.445	72.62
370.672	94.62
370.898	93.62
371.124	91.62
371.35	63.62
371.576	83.62
371.802	86.62
372.028	87.62
372.254	83.62
372.48	76.62
372.706	78.62
372.932	77.62
373.158	72.62
373.384	75.62
373.61	79.62
373.835	80.62
374.061	96.62
374.287	80.62
374.513	73.62
374.739	90.62
374.965	74.62
375.191	85.62
375.416	94.62
375.642	76.62
375.868	90.62
376.094	100.62
376.319	86.62
376.545	84.62
376.771	71.62
376.997	86.62
377.222	83.62
377.448	75.62
377.674	92.62
377.899	78.62
378.125	79.62
378.35	96.62
378.576	92.62
378.802	108.62
379.027	94.62
379.253	87.62
379.478	91.62
379.704	88.62
379.929	81.62
380.155	94.62
380.38	83.62
380.606	77.62
380.831	78.62
381.057	101.62
381.282	81.62
381.507	95.62
381.733	78.62
381.958	91.62
382.184	81.62
382.409	83.62
382.634	77.62
382.86	84.62
383.085	87.62
383.31	87.62
383.535	83.62
383.761	85.62
383.986	85.62
384.211	84.62
384.436	82.62
384.662	72.62
384.887	86.62
385.112	74.62
385.337	93.62
385.562	102.62
385.787	92.62
386.013	86.62
386.238	87.62
386.463	85.62
386.688	96.62
386.913	82.62
387.138	94.62
387.363	69.62
387.588	86.62
387.813	93.62
388.038	80.62
388.263	87.62
388.488	101.62
388.713	90.62
388.938	89.62
389.163	87.62
389.387	68.62
389.612	89.62
389.837	93.62
390.062	97.62
390.287	90.62
390.512	80.62
390.736	97.62
390.961	94.62
391.186	82.62
391.411	84.62
391.636	87.62
391.86	88.62
392.085	100.62
392.31	93.62
392.534	82.62
392.759	90.62
392.984	94.62
393.208	96.62
393.433	77.62
393.658	81.62
393.882	87.62
394.107	94.62
394.331	88.62
394.556	82.62
394.78	101.62
395.005	80.62
395.229	99.62
395.454	87.62
395.678	83.62
395.903	95.62
396.127	83.62
396.352	81.62
396.576	97.62
396.801	90.62
397.025	93.62
397.249	86.62
397.474	86.62
397.698	95.62
397.922	88.62
398.147	92.62
398.371	80.62
398.595	93.62
398.82	69.62
399.044	100.62
399.268	91.62
399.492	95.62
399.717	85.62
399.941	98.62
400.165	103.62
400.389	96.62
400.613	91.62
400.837	99.62
401.062	104.62
401.286	89.62
401.51	93.62
401.734	91.62
401.958	92.62
402.182	90.62
402.406	83.62
402.63	93.62
402.854	83.62
403.078	79.62
403.302	95.62
403.526	88.62
403.75	88.62
403.974	85.62
404.198	103.62
404.422	94.62
404.645	98.62
404.869	83.62
405.093	90.62
405.317	85.62
405.541	89.62
405.765	94.62
405.988	91.62
406.212	86.62
406.436	91.62
406.66	94.62
406.883	111.62
407.107	99.62
407.331	102.62
407.555	87.62
407.778	90.62
408.002	96.62
408.226	92.62
408.449	95.62
408.673	101.62
408.896	97.62
409.12	99.62
409.344	96.62
409.567	95.62
409.791	106.62
410.014	109.62
410.238	107.62
410.461	94.62
410.685	86.62
410.908	83.62
411.132	99.62
411.355	107.62
411.578	104.62
411.802	87.62
412.025	71.62
412.249	96.62
412.472	100.62
412.695	108.62
412.919	113.62
413.142	89.62
413.365	98.62
413.589	99.62
413.812	103.62
414.035	86.62
414.258	90.62
414.482	85.62
414.705	96.62
414.928	83.62
415.151	105.62
415.374	103.62
415.597	99.62
415.821	98.62
416.044	112.62
416.267	93.62
416.49	101.62
416.713	77.62
416.936	117.62
417.159	100.62
417.382	106.62
417.605	103.62
417.828	114.62
418.051	95.62
418.274	108.62
418.497	94.62
418.72	98.62
418.943	83.62
419.166	109.62
419.389	107.62
419.611	112.62
419.834	96.62
420.057	102.62
420.28	106.62
420.503	104.62
420.726	103.62
420.948	115.62
421.171	92.62
421.394	101.62
421.617	101.62
421.839	107.62
422.062	116.62
422.285	103.62
422.507	81.62
422.73	97.62
422.953	102.62
423.175	118.62
423.398	104.62
423.621	108.62
423.843	100.62
424.066	113.62
424.288	101.62
424.511	98.62
424.733	110.62
424.956	108.62
425.178	120.62
425.401	103.62
425.623	108.62
425.846	89.62
426.068	97.62
426.291	95.62
426.513	114.62
426.735	105.62
426.958	111.62
427.18	104.62
427.402	110.62
427.625	92.62
427.847	97.62
428.069	89.62
428.292	104.62
428.514	83.62
428.736	92.62
428.958	97.62
429.181	93.62
429.403	116.62
429.625	106.62
429.847	89.62
430.069	91.62
430.292	98.62
430.514	111.62
430.736	96.62
430.958	113.62
431.18	88.62
431.402	110.62
431.624	101.62
431.846	95.62
432.068	73.62
432.29	92.62
432.512	108.62
432.734	99.62
432.956	98.62
433.178	101.62
433.4	117.62
433.622	116.62
433.844	114.62
434.066	105.62
434.287	87.62
434.509	77.62
434.731	82.62
434.953	95.62
435.175	98.62
435.397	95.62
435.618	91.62
435.84	95.62
436.062	101.62
436.284	86.62
436.505	98.62
436.727	113.62
436.949	101.62
437.17	114.62
437.392	103.62
437.614	99.62
437.835	89.62
438.057	96.62
438.278	109.62
438.5	98.62
438.721	103.62
438.943	102.62
439.165	100.62
439.386	103.62
439.608	92.62
439.829	112.62
440.05	104.62
440.272	101.62
440.493	104.62
440.715	114.62
440.936	112.62
441.158	99.62
441.379	106.62
441.6	125.62
441.822	115.62
442.043	104.62
442.264	102.62
442.486	125.62
442.707	104.62
442.928	117.62
443.149	96.62
443.371	113.62
443.592	103.62
443.813	102.62
444.034	83.62
444.255	103.62
444.476	98.62
444.698	99.62
444.919	118.62
445.14	246.62
445.361	171.62
445.582	118.62
445.803	104.62
446.024	127.62
446.245	103.62
446.466	116.62
446.687	111.62
446.908	114.62
447.129	118.62
447.35	109.62
447.571	114.62
447.792	111.62
448.013	98.62
448.234	111.62
448.455	98.62
448.675	124.62
448.896	105.62
449.117	111.62
449.338	95.62
449.559	113.62
449.779	114.62
450	101.62
450.221	105.62
450.442	118.62
450.662	117.62
450.883	106.62
451.104	104.62
451.324	116.62
451.545	99.62
451.766	111.62
451.986	91.62
452.207	97.62
452.428	99.62
452.648	100.62
452.869	90.62
453.089	91.62
453.31	104.62
453.53	84.62
453.751	92.62
453.971	96.62
454.192	90.62
454.412	89.62
454.633	90.62
454.853	97.62
455.073	101.62
455.294	103.62
455.514	104.62
455.734	103.62
455.955	92.62
456.175	96.62
456.395	90.62
456.616	88.62
456.836	84.62
457.056	95.62
457.276	77.62
457.497	85.62
457.717	109.62
457.937	100.62
458.157	101.62
458.377	108.62
458.598	90.62
458.818	80.62
459.038	75.62
459.258	92.62
459.478	97.62
459.698	87.62
459.918	71.62
460.138	75.62
460.358	99.62
460.578	96.62
460.798	111.62
461.018	95.62
461.238	96.62
461.458	101.62
461.678	107.62
461.898	95.62
462.118	114.62
462.338	77.62
462.558	100.62
462.777	94.62
462.997	79.62
463.217	88.62
463.437	96.62
463.657	102.62
463.876	96.62
464.096	90.62
464.316	95.62
464.536	96.62
464.755	98.62
464.975	90.62
465.195	99.62
465.414	111.62
465.634	99.62
465.854	97.62
466.073	112.62
466.293	110.62
466.512	104.62
466.732	81.62
466.951	105.62
467.171	107.62
467.391	105.62
467.61	115.62
467.829	119.62
468.049	105.62
468.268	103.62
468.488	114.62
468.707	100.62
468.927	116.62
469.146	107.62
469.365	117.62
469.585	107.62
469.804	104.62
470.023	105.62
470.243	108.62
470.462	108.62
470.681	96.62
470.901	116.62
471.12	117.62
471.339	102.62
471.558	93.62
471.777	101.62
471.997	108.62
472.216	100.62
472.435	96.62
472.654	95.62
472.873	109.62
473.092	111.62
473.311	108.62
473.53	101.62
473.749	98.62
473.968	118.62
474.187	100.62
474.406	98.62
474.625	106.62
474.844	100.62
475.063	96.62
475.282	124.62
475.501	90.62
475.72	103.62
475.939	92.62
476.158	111.62
476.377	117.62
476.596	116.62
476.814	92.62
477.033	96.62
477.252	75.62
477.471	103.62
477.69	96.62
477.908	109.62
478.127	122.62
478.346	111.62
478.564	104.62
478.783	102.62
479.002	105.62
479.22	85.62
479.439	101.62
479.658	102.62
479.876	100.62
480.095	119.62
480.313	91.62
480.532	91.62
480.751	90.62
480.969	96.62
481.188	61.62
481.406	87.62
481.624	87.62
481.843	91.62
482.061	86.62
482.28	91.62
482.498	95.62
482.717	101.62
482.935	114.62
483.153	89.62
483.372	115.62
483.59	98.62
483.808	111.62
484.027	104.62
484.245	103.62
484.463	108.62
484.681	119.62
484.9	114.62
485.118	119.62
485.336	101.62
485.554	84.62
485.772	87.62
485.99	99.62
486.209	93.62
486.427	81.62
486.645	102.62
486.863	125.62
487.081	120.62
487.299	99.62
487.517	111.62
487.735	108.62
487.953	121.62
488.171	131.62
488.389	124.62
488.607	113.62
488.825	105.62
489.043	96.62
489.261	113.62
489.479	113.62
489.696	104.62
489.914	107.62
490.132	114.62
490.35	122.62
490.568	127.62
490.786	122.62
491.003	127.62
491.221	125.62
491.439	131.62
491.657	129.62
491.874	142.62
492.092	148.62
492.31	148.62
492.527	140.62
492.745	149.62
492.963	151.62
493.18	121.62
493.398	126.62
493.615	124.62
493.833	132.62
494.05	133.62
494.268	116.62
494.485	114.62
494.703	117.62
494.92	131.62
495.138	151.62
495.355	129.62
495.573	124.62
495.79	123.62
496.008	122.62
496.225	129.62
496.442	127.62
496.66	128.62
496.877	119.62
497.094	115.62
497.312	121.62
497.529	127.62
497.746	117.62
497.963	114.62
498.181	88.62
498.398	101.62
498.615	113.62
498.832	97.62
499.049	87.62
499.267	100.62
499.484	101.62
499.701	96.62
499.918	113.62
500.135	111.62
500.352	124.62
500.569	105.62
500.786	104.62
501.003	110.62
501.22	106.62
501.437	123.62
501.654	111.62
501.871	114.62
502.088	102.62
502.305	108.62
502.522	106.62
502.739	110.62
502.956	94.62
503.172	99.62
503.389	92.62
503.606	98.62
503.823	104.62
504.04	104.62
504.256	97.62
504.473	99.62
504.69	84.62
504.907	104.62
505.123	97.62
505.34	114.62
505.557	101.62
505.773	113.62
505.99	103.62
506.207	108.62
506.423	104.62
506.64	89.62
506.856	101.62
507.073	105.62
507.289	118.62
507.506	85.62
507.722	100.62
507.939	95.62
508.155	88.62
508.372	96.62
508.588	108.62
508.805	95.62
509.021	92.62
509.238	96.62
509.454	103.62
509.67	98.62
509.887	86.62
510.103	87.62
510.319	99.62
510.536	83.62
510.752	84.62
510.968	88.62
511.184	90.62
511.401	92.62
511.617	87.62
511.833	86.62
512.049	96.62
512.265	88.62
512.481	92.62
512.698	88.62
512.914	96.62
513.13	100.62
513.346	98.62
513.562	94.62
513.778	98.62
513.994	82.62
514.21	85.62
514.426	104.62
514.642	84.62
514.858	85.62
515.074	88.62
