Data from Zn(NO3)2Standard.Agarose3%.GreenCap.LampEnergy5.5.E.O_HRD10591_15-01-17-768.txt Node
Date: Mon Jul 22 15:01:17 EDT 2019
User: cochatt
Spectrometer: HR+D1059
Trigger mode: 1
Integration Time (sec): 1.000000E-1
Scans to average: 1
Electric dark correction enabled: true
Nonlinearity correction enabled: false
Boxcar width: 0
XAxis mode: Wavelengths
Number of Pixels in Spectrum: 2048
>>>>>Begin Spectral Data<<<<<
223.165	-12.81
223.4	-12.81
223.635	-12.81
223.869	-25.81
224.104	-29.81
224.338	-8.81
224.573	-16.81
224.808	-2.81
225.042	-5.81
225.277	2.19
225.511	-10.81
225.746	-0.81
225.98	19.19
226.215	14.19
226.449	19.19
226.683	1.19
226.918	35.19
227.152	23.19
227.387	26.19
227.621	38.19
227.856	42.19
228.09	44.19
228.324	44.19
228.559	63.19
228.793	61.19
229.027	60.19
229.262	76.19
229.496	72.19
229.73	67.19
229.964	63.19
230.199	61.19
230.433	77.19
230.667	71.19
230.901	75.19
231.136	68.19
231.37	91.19
231.604	82.19
231.838	69.19
232.072	87.19
232.306	75.19
232.541	67.19
232.775	85.19
233.009	72.19
233.243	91.19
233.477	76.19
233.711	73.19
233.945	78.19
234.179	78.19
234.413	81.19
234.647	73.19
234.881	88.19
235.115	97.19
235.349	78.19
235.583	76.19
235.817	78.19
236.051	78.19
236.285	67.19
236.519	77.19
236.753	76.19
236.987	71.19
237.221	92.19
237.455	85.19
237.689	87.19
237.922	79.19
238.156	81.19
238.39	64.19
238.624	77.19
238.858	83.19
239.091	64.19
239.325	73.19
239.559	69.19
239.793	67.19
240.027	87.19
240.26	74.19
240.494	66.19
240.728	69.19
240.961	74.19
241.195	77.19
241.429	73.19
241.662	76.19
241.896	72.19
242.13	83.19
242.363	95.19
242.597	67.19
242.83	89.19
243.064	85.19
243.298	86.19
243.531	75.19
243.765	87.19
243.998	84.19
244.232	72.19
244.465	78.19
244.699	73.19
244.932	74.19
245.166	76.19
245.399	92.19
245.633	68.19
245.866	69.19
246.099	89.19
246.333	76.19
246.566	77.19
246.8	73.19
247.033	80.19
247.266	85.19
247.5	60.19
247.733	74.19
247.966	82.19
248.2	91.19
248.433	64.19
248.666	81.19
248.899	83.19
249.133	82.19
249.366	86.19
249.599	80.19
249.832	80.19
250.066	92.19
250.299	88.19
250.532	77.19
250.765	88.19
250.998	78.19
251.231	69.19
251.465	77.19
251.698	92.19
251.931	66.19
252.164	82.19
252.397	76.19
252.63	76.19
252.863	75.19
253.096	73.19
253.329	84.19
253.562	93.19
253.795	79.19
254.028	83.19
254.261	80.19
254.494	76.19
254.727	71.19
254.96	75.19
255.193	88.19
255.426	68.19
255.659	71.19
255.892	72.19
256.124	77.19
256.357	84.19
256.59	74.19
256.823	69.19
257.056	83.19
257.289	67.19
257.521	72.19
257.754	71.19
257.987	84.19
258.22	98.19
258.452	95.19
258.685	75.19
258.918	76.19
259.151	71.19
259.383	76.19
259.616	71.19
259.849	78.19
260.081	80.19
260.314	68.19
260.547	89.19
260.779	84.19
261.012	72.19
261.244	83.19
261.477	78.19
261.71	81.19
261.942	88.19
262.175	99.19
262.407	75.19
262.64	84.19
262.872	82.19
263.105	74.19
263.337	86.19
263.57	79.19
263.802	75.19
264.035	81.19
264.267	91.19
264.499	76.19
264.732	82.19
264.964	64.19
265.197	76.19
265.429	82.19
265.661	86.19
265.894	67.19
266.126	83.19
266.358	84.19
266.591	83.19
266.823	72.19
267.055	75.19
267.287	87.19
267.52	83.19
267.752	76.19
267.984	85.19
268.216	89.19
268.448	78.19
268.681	83.19
268.913	94.19
269.145	85.19
269.377	77.19
269.609	72.19
269.841	81.19
270.073	86.19
270.306	87.19
270.538	82.19
270.77	76.19
271.002	85.19
271.234	79.19
271.466	72.19
271.698	80.19
271.93	77.19
272.162	87.19
272.394	92.19
272.626	91.19
272.858	77.19
273.09	85.19
273.322	79.19
273.553	68.19
273.785	81.19
274.017	93.19
274.249	83.19
274.481	93.19
274.713	80.19
274.945	80.19
275.176	84.19
275.408	92.19
275.64	84.19
275.872	78.19
276.104	74.19
276.335	81.19
276.567	79.19
276.799	82.19
277.031	81.19
277.262	74.19
277.494	95.19
277.726	81.19
277.957	82.19
278.189	93.19
278.421	92.19
278.652	69.19
278.884	60.19
279.115	92.19
279.347	80.19
279.579	86.19
279.81	74.19
280.042	68.19
280.273	90.19
280.505	75.19
280.736	81.19
280.968	97.19
281.199	71.19
281.431	99.19
281.662	92.19
281.894	79.19
282.125	82.19
282.356	66.19
282.588	77.19
282.819	78.19
283.051	87.19
283.282	90.19
283.513	97.19
283.745	96.19
283.976	81.19
284.207	78.19
284.439	94.19
284.67	99.19
284.901	88.19
285.132	81.19
285.364	83.19
285.595	85.19
285.826	76.19
286.057	72.19
286.288	97.19
286.52	83.19
286.751	75.19
286.982	79.19
287.213	89.19
287.444	79.19
287.675	105.19
287.906	103.19
288.138	96.19
288.369	91.19
288.6	95.19
288.831	80.19
289.062	77.19
289.293	80.19
289.524	83.19
289.755	88.19
289.986	91.19
290.217	62.19
290.448	93.19
290.679	83.19
290.91	96.19
291.141	72.19
291.371	88.19
291.602	82.19
291.833	76.19
292.064	94.19
292.295	82.19
292.526	90.19
292.757	87.19
292.987	84.19
293.218	81.19
293.449	76.19
293.68	90.19
293.91	77.19
294.141	77.19
294.372	80.19
294.603	73.19
294.833	86.19
295.064	81.19
295.295	96.19
295.525	75.19
295.756	83.19
295.987	85.19
296.217	82.19
296.448	69.19
296.679	88.19
296.909	90.19
297.14	84.19
297.37	83.19
297.601	83.19
297.831	73.19
298.062	84.19
298.292	78.19
298.523	77.19
298.753	83.19
298.984	83.19
299.214	82.19
299.445	80.19
299.675	81.19
299.905	87.19
300.136	88.19
300.366	86.19
300.597	95.19
300.827	94.19
301.057	84.19
301.288	86.19
301.518	91.19
301.748	78.19
301.979	81.19
302.209	83.19
302.439	71.19
302.669	92.19
302.9	105.19
303.13	95.19
303.36	87.19
303.59	87.19
303.82	80.19
304.051	86.19
304.281	88.19
304.511	75.19
304.741	70.19
304.971	83.19
305.201	92.19
305.431	98.19
305.661	79.19
305.891	92.19
306.121	74.19
306.352	92.19
306.582	82.19
306.812	90.19
307.042	80.19
307.272	84.19
307.502	103.19
307.731	95.19
307.961	72.19
308.191	73.19
308.421	74.19
308.651	85.19
308.881	69.19
309.111	83.19
309.341	72.19
309.571	85.19
309.8	82.19
310.03	100.19
310.26	88.19
310.49	73.19
310.72	81.19
310.949	80.19
311.179	78.19
311.409	80.19
311.639	81.19
311.868	85.19
312.098	94.19
312.328	86.19
312.557	66.19
312.787	81.19
313.017	87.19
313.246	79.19
313.476	88.19
313.706	90.19
313.935	80.19
314.165	71.19
314.394	78.19
314.624	82.19
314.853	71.19
315.083	89.19
315.312	92.19
315.542	90.19
315.771	92.19
316.001	97.19
316.23	88.19
316.46	84.19
316.689	95.19
316.919	80.19
317.148	97.19
317.377	96.19
317.607	86.19
317.836	82.19
318.065	64.19
318.295	83.19
318.524	72.19
318.753	73.19
318.983	69.19
319.212	86.19
319.441	81.19
319.67	94.19
319.9	96.19
320.129	74.19
320.358	79.19
320.587	86.19
320.816	76.19
321.046	85.19
321.275	82.19
321.504	89.19
321.733	84.19
321.962	83.19
322.191	89.19
322.42	82.19
322.649	76.19
322.878	78.19
323.108	75.19
323.337	75.19
323.566	77.19
323.795	96.19
324.024	89.19
324.253	83.19
324.482	85.19
324.71	92.19
324.939	80.19
325.168	86.19
325.397	87.19
325.626	95.19
325.855	70.19
326.084	101.19
326.313	64.19
326.542	85.19
326.77	98.19
326.999	83.19
327.228	86.19
327.457	74.19
327.686	89.19
327.914	86.19
328.143	87.19
328.372	87.19
328.6	71.19
328.829	97.19
329.058	91.19
329.287	85.19
329.515	90.19
329.744	80.19
329.972	76.19
330.201	89.19
330.43	91.19
330.658	77.19
330.887	90.19
331.115	77.19
331.344	81.19
331.572	94.19
331.801	85.19
332.03	80.19
332.258	91.19
332.486	77.19
332.715	95.19
332.943	81.19
333.172	87.19
333.4	81.19
333.629	85.19
333.857	82.19
334.085	79.19
334.314	78.19
334.542	88.19
334.771	93.19
334.999	80.19
335.227	93.19
335.455	87.19
335.684	86.19
335.912	91.19
336.14	86.19
336.369	86.19
336.597	87.19
336.825	80.19
337.053	73.19
337.281	84.19
337.51	80.19
337.738	89.19
337.966	99.19
338.194	83.19
338.422	91.19
338.65	79.19
338.878	93.19
339.106	84.19
339.334	106.19
339.562	79.19
339.79	97.19
340.018	78.19
340.246	91.19
340.474	72.19
340.702	83.19
340.93	75.19
341.158	85.19
341.386	86.19
341.614	84.19
341.842	87.19
342.07	77.19
342.298	87.19
342.526	77.19
342.754	90.19
342.981	76.19
343.209	79.19
343.437	91.19
343.665	79.19
343.893	79.19
344.12	82.19
344.348	79.19
344.576	80.19
344.804	79.19
345.031	84.19
345.259	78.19
345.487	99.19
345.714	76.19
345.942	84.19
346.17	78.19
346.397	96.19
346.625	65.19
346.853	96.19
347.08	71.19
347.308	79.19
347.535	82.19
347.763	75.19
347.99	76.19
348.218	80.19
348.445	57.19
348.673	82.19
348.9	91.19
349.128	85.19
349.355	80.19
349.583	80.19
349.81	76.19
350.037	72.19
350.265	79.19
350.492	85.19
350.72	81.19
350.947	86.19
351.174	78.19
351.402	83.19
351.629	89.19
351.856	75.19
352.083	75.19
352.311	87.19
352.538	73.19
352.765	81.19
352.992	89.19
353.22	75.19
353.447	81.19
353.674	75.19
353.901	96.19
354.128	78.19
354.355	82.19
354.583	83.19
354.81	97.19
355.037	82.19
355.264	91.19
355.491	72.19
355.718	83.19
355.945	93.19
356.172	80.19
356.399	81.19
356.626	82.19
356.853	86.19
357.08	78.19
357.307	81.19
357.534	77.19
357.761	90.19
357.988	92.19
358.215	83.19
358.441	83.19
358.668	93.19
358.895	83.19
359.122	93.19
359.349	84.19
359.576	80.19
359.802	88.19
360.029	87.19
360.256	95.19
360.483	81.19
360.709	82.19
360.936	91.19
361.163	84.19
361.39	89.19
361.616	91.19
361.843	74.19
362.07	68.19
362.296	88.19
362.523	81.19
362.749	78.19
362.976	69.19
363.203	76.19
363.429	76.19
363.656	80.19
363.882	84.19
364.109	81.19
364.335	91.19
364.562	75.19
364.788	77.19
365.015	74.19
365.241	87.19
365.468	104.19
365.694	89.19
365.92	78.19
366.147	85.19
366.373	80.19
366.599	88.19
366.826	88.19
367.052	81.19
367.278	68.19
367.505	83.19
367.731	72.19
367.957	82.19
368.184	83.19
368.41	93.19
368.636	93.19
368.862	81.19
369.089	66.19
369.315	87.19
369.541	86.19
369.767	85.19
369.993	78.19
370.219	89.19
370.445	82.19
370.672	87.19
370.898	93.19
371.124	86.19
371.35	75.19
371.576	78.19
371.802	81.19
372.028	92.19
372.254	89.19
372.48	85.19
372.706	69.19
372.932	90.19
373.158	70.19
373.384	75.19
373.61	82.19
373.835	84.19
374.061	80.19
374.287	78.19
374.513	90.19
374.739	86.19
374.965	71.19
375.191	81.19
375.416	93.19
375.642	92.19
375.868	88.19
376.094	87.19
376.319	87.19
376.545	91.19
376.771	87.19
376.997	89.19
377.222	87.19
377.448	77.19
377.674	79.19
377.899	84.19
378.125	78.19
378.35	90.19
378.576	84.19
378.802	84.19
379.027	89.19
379.253	82.19
379.478	83.19
379.704	75.19
379.929	84.19
380.155	89.19
380.38	67.19
380.606	91.19
380.831	80.19
381.057	79.19
381.282	75.19
381.507	65.19
381.733	69.19
381.958	99.19
382.184	95.19
382.409	83.19
382.634	72.19
382.86	79.19
383.085	72.19
383.31	79.19
383.535	92.19
383.761	83.19
383.986	75.19
384.211	75.19
384.436	85.19
384.662	86.19
384.887	70.19
385.112	77.19
385.337	88.19
385.562	80.19
385.787	84.19
386.013	95.19
386.238	88.19
386.463	88.19
386.688	74.19
386.913	92.19
387.138	71.19
387.363	82.19
387.588	87.19
387.813	97.19
388.038	70.19
388.263	88.19
388.488	80.19
388.713	78.19
388.938	81.19
389.163	83.19
389.387	85.19
389.612	84.19
389.837	94.19
390.062	97.19
390.287	92.19
390.512	86.19
390.736	98.19
390.961	83.19
391.186	73.19
391.411	87.19
391.636	92.19
391.86	73.19
392.085	79.19
392.31	80.19
392.534	92.19
392.759	86.19
392.984	76.19
393.208	70.19
393.433	77.19
393.658	80.19
393.882	76.19
394.107	86.19
394.331	85.19
394.556	83.19
394.78	83.19
395.005	80.19
395.229	80.19
395.454	78.19
395.678	78.19
395.903	94.19
396.127	87.19
396.352	89.19
396.576	97.19
396.801	74.19
397.025	77.19
397.249	79.19
397.474	74.19
397.698	89.19
397.922	77.19
398.147	83.19
398.371	84.19
398.595	78.19
398.82	74.19
399.044	79.19
399.268	88.19
399.492	92.19
399.717	91.19
399.941	98.19
400.165	88.19
400.389	93.19
400.613	69.19
400.837	75.19
401.062	80.19
401.286	92.19
401.51	104.19
401.734	91.19
401.958	95.19
402.182	88.19
402.406	76.19
402.63	84.19
402.854	77.19
403.078	69.19
403.302	74.19
403.526	89.19
403.75	96.19
403.974	88.19
404.198	87.19
404.422	81.19
404.645	92.19
404.869	96.19
405.093	87.19
405.317	85.19
405.541	93.19
405.765	90.19
405.988	78.19
406.212	75.19
406.436	81.19
406.66	86.19
406.883	99.19
407.107	77.19
407.331	81.19
407.555	85.19
407.778	90.19
408.002	88.19
408.226	89.19
408.449	88.19
408.673	89.19
408.896	85.19
409.12	78.19
409.344	98.19
409.567	80.19
409.791	81.19
410.014	69.19
410.238	86.19
410.461	85.19
410.685	76.19
410.908	87.19
411.132	83.19
411.355	78.19
411.578	85.19
411.802	98.19
412.025	87.19
412.249	76.19
412.472	85.19
412.695	93.19
412.919	85.19
413.142	94.19
413.365	88.19
413.589	75.19
413.812	90.19
414.035	78.19
414.258	96.19
414.482	86.19
414.705	87.19
414.928	83.19
415.151	88.19
415.374	97.19
415.597	90.19
415.821	98.19
416.044	78.19
416.267	95.19
416.49	86.19
416.713	81.19
416.936	87.19
417.159	76.19
417.382	86.19
417.605	76.19
417.828	90.19
418.051	84.19
418.274	92.19
418.497	96.19
418.72	105.19
418.943	91.19
419.166	93.19
419.389	82.19
419.611	90.19
419.834	96.19
420.057	100.19
420.28	83.19
420.503	74.19
420.726	80.19
420.948	88.19
421.171	85.19
421.394	90.19
421.617	90.19
421.839	75.19
422.062	84.19
422.285	89.19
422.507	84.19
422.73	90.19
422.953	87.19
423.175	86.19
423.398	77.19
423.621	95.19
423.843	85.19
424.066	74.19
424.288	96.19
424.511	86.19
424.733	84.19
424.956	97.19
425.178	92.19
425.401	88.19
425.623	87.19
425.846	97.19
426.068	89.19
426.291	86.19
426.513	76.19
426.735	85.19
426.958	90.19
427.18	99.19
427.402	91.19
427.625	95.19
427.847	85.19
428.069	97.19
428.292	97.19
428.514	97.19
428.736	94.19
428.958	99.19
429.181	86.19
429.403	91.19
429.625	93.19
429.847	85.19
430.069	99.19
430.292	90.19
430.514	81.19
430.736	83.19
430.958	95.19
431.18	88.19
431.402	95.19
431.624	106.19
431.846	100.19
432.068	72.19
432.29	84.19
432.512	84.19
432.734	89.19
432.956	92.19
433.178	94.19
433.4	82.19
433.622	92.19
433.844	95.19
434.066	83.19
434.287	81.19
434.509	84.19
434.731	84.19
434.953	75.19
435.175	93.19
435.397	106.19
435.618	91.19
435.84	96.19
436.062	90.19
436.284	97.19
436.505	87.19
436.727	92.19
436.949	94.19
437.17	86.19
437.392	70.19
437.614	85.19
437.835	86.19
438.057	86.19
438.278	76.19
438.5	89.19
438.721	83.19
438.943	95.19
439.165	95.19
439.386	88.19
439.608	88.19
439.829	80.19
440.05	77.19
440.272	105.19
440.493	88.19
440.715	85.19
440.936	78.19
441.158	79.19
441.379	96.19
441.6	97.19
441.822	98.19
442.043	75.19
442.264	81.19
442.486	87.19
442.707	104.19
442.928	90.19
443.149	93.19
443.371	97.19
443.592	95.19
443.813	91.19
444.034	90.19
444.255	91.19
444.476	96.19
444.698	94.19
444.919	91.19
445.14	193.19
445.361	131.19
445.582	91.19
445.803	99.19
446.024	76.19
446.245	90.19
446.466	91.19
446.687	94.19
446.908	82.19
447.129	93.19
447.35	87.19
447.571	99.19
447.792	105.19
448.013	92.19
448.234	80.19
448.455	86.19
448.675	96.19
448.896	92.19
449.117	92.19
449.338	81.19
449.559	83.19
449.779	95.19
450	96.19
450.221	88.19
450.442	83.19
450.662	80.19
450.883	95.19
451.104	97.19
451.324	93.19
451.545	95.19
451.766	87.19
451.986	77.19
452.207	93.19
452.428	82.19
452.648	85.19
452.869	81.19
453.089	77.19
453.31	92.19
453.53	92.19
453.751	80.19
453.971	81.19
454.192	83.19
454.412	86.19
454.633	93.19
454.853	97.19
455.073	96.19
455.294	81.19
455.514	100.19
455.734	94.19
455.955	87.19
456.175	96.19
456.395	89.19
456.616	77.19
456.836	77.19
457.056	90.19
457.276	78.19
457.497	84.19
457.717	90.19
457.937	88.19
458.157	81.19
458.377	95.19
458.598	88.19
458.818	88.19
459.038	107.19
459.258	88.19
459.478	81.19
459.698	81.19
459.918	82.19
460.138	74.19
460.358	74.19
460.578	95.19
460.798	80.19
461.018	88.19
461.238	81.19
461.458	94.19
461.678	95.19
461.898	88.19
462.118	78.19
462.338	80.19
462.558	78.19
462.777	99.19
462.997	96.19
463.217	89.19
463.437	82.19
463.657	84.19
463.876	93.19
464.096	86.19
464.316	85.19
464.536	95.19
464.755	77.19
464.975	104.19
465.195	89.19
465.414	86.19
465.634	86.19
465.854	75.19
466.073	77.19
466.293	93.19
466.512	81.19
466.732	82.19
466.951	88.19
467.171	95.19
467.391	82.19
467.61	91.19
467.829	88.19
468.049	97.19
468.268	96.19
468.488	88.19
468.707	90.19
468.927	99.19
469.146	99.19
469.365	88.19
469.585	103.19
469.804	101.19
470.023	89.19
470.243	93.19
470.462	88.19
470.681	93.19
470.901	98.19
471.12	92.19
471.339	102.19
471.558	87.19
471.777	86.19
471.997	91.19
472.216	84.19
472.435	96.19
472.654	92.19
472.873	97.19
473.092	100.19
473.311	87.19
473.53	93.19
473.749	108.19
473.968	90.19
474.187	89.19
474.406	98.19
474.625	71.19
474.844	103.19
475.063	106.19
475.282	90.19
475.501	91.19
475.72	96.19
475.939	86.19
476.158	83.19
476.377	100.19
476.596	93.19
476.814	69.19
477.033	78.19
477.252	94.19
477.471	90.19
477.69	101.19
477.908	79.19
478.127	91.19
478.346	110.19
478.564	83.19
478.783	93.19
479.002	95.19
479.22	92.19
479.439	92.19
479.658	82.19
479.876	79.19
480.095	83.19
480.313	87.19
480.532	96.19
480.751	87.19
480.969	74.19
481.188	81.19
481.406	103.19
481.624	79.19
481.843	83.19
482.061	89.19
482.28	74.19
482.498	82.19
482.717	89.19
482.935	83.19
483.153	80.19
483.372	100.19
483.59	99.19
483.808	89.19
484.027	80.19
484.245	86.19
484.463	88.19
484.681	93.19
484.9	90.19
485.118	104.19
485.336	81.19
485.554	91.19
485.772	81.19
485.99	85.19
486.209	95.19
486.427	79.19
486.645	96.19
486.863	97.19
487.081	90.19
487.299	86.19
487.517	74.19
487.735	99.19
487.953	107.19
488.171	107.19
488.389	101.19
488.607	92.19
488.825	81.19
489.043	85.19
489.261	90.19
489.479	80.19
489.696	104.19
489.914	93.19
490.132	104.19
490.35	96.19
490.568	87.19
490.786	106.19
491.003	98.19
491.221	100.19
491.439	101.19
491.657	89.19
491.874	119.19
492.092	98.19
492.31	109.19
492.527	112.19
492.745	109.19
492.963	106.19
493.18	90.19
493.398	107.19
493.615	106.19
493.833	91.19
494.05	108.19
494.268	96.19
494.485	105.19
494.703	97.19
494.92	96.19
495.138	77.19
495.355	100.19
495.573	103.19
495.79	84.19
496.008	87.19
496.225	99.19
496.442	91.19
496.66	110.19
496.877	95.19
497.094	85.19
497.312	77.19
497.529	78.19
497.746	84.19
497.963	98.19
498.181	89.19
498.398	96.19
498.615	91.19
498.832	92.19
499.049	69.19
499.267	85.19
499.484	98.19
499.701	102.19
499.918	90.19
500.135	95.19
500.352	103.19
500.569	105.19
500.786	96.19
501.003	86.19
501.22	93.19
501.437	75.19
501.654	91.19
501.871	88.19
502.088	90.19
502.305	111.19
502.522	94.19
502.739	98.19
502.956	97.19
503.172	96.19
503.389	83.19
503.606	85.19
503.823	103.19
504.04	76.19
504.256	78.19
504.473	104.19
504.69	93.19
504.907	87.19
505.123	87.19
505.34	96.19
505.557	104.19
505.773	87.19
505.99	97.19
506.207	83.19
506.423	84.19
506.64	96.19
506.856	87.19
507.073	94.19
507.289	87.19
507.506	92.19
507.722	85.19
507.939	95.19
508.155	79.19
508.372	91.19
508.588	86.19
508.805	96.19
509.021	81.19
509.238	101.19
509.454	85.19
509.67	72.19
509.887	81.19
510.103	91.19
510.319	86.19
510.536	84.19
510.752	71.19
510.968	81.19
511.184	75.19
511.401	98.19
511.617	102.19
511.833	85.19
512.049	89.19
512.265	86.19
512.481	101.19
512.698	93.19
512.914	91.19
513.13	90.19
513.346	80.19
513.562	90.19
513.778	101.19
513.994	79.19
514.21	84.19
514.426	80.19
514.642	81.19
514.858	85.19
515.074	105.19
515.29	87.19
515.506	88.19
515.721	80.19
515.937	84.19
516.153	84.19
516.369	93.19
516.585	105.19
516.801	88.19
517.016	76.19
517.232	94.19
517.448	79.19
517.664	85.19
517.879	88.19
518.095	97.19
518.311	99.19
518.527	80.19
