Data from Zn(NO3)2Standard.Agarose3%.GreenCap.LampEnergy5.5.E.O_HRD10591_15-03-30-768.txt Node
Date: Mon Jul 22 15:03:30 EDT 2019
User: cochatt
Spectrometer: HR+D1059
Trigger mode: 1
Integration Time (sec): 1.000000E-1
Scans to average: 1
Electric dark correction enabled: true
Nonlinearity correction enabled: false
Boxcar width: 0
XAxis mode: Wavelengths
Number of Pixels in Spectrum: 2048
>>>>>Begin Spectral Data<<<<<
223.165	-25.88
223.4	-25.88
223.635	-25.88
223.869	-22.88
224.104	-7.88
224.338	-19.88
224.573	-0.88
224.808	1.12
225.042	-1.88
225.277	-11.88
225.511	-1.88
225.746	8.12
225.98	3.12
226.215	15.12
226.449	14.12
226.683	18.12
226.918	20.12
227.152	13.12
227.387	32.12
227.621	36.12
227.856	40.12
228.09	42.12
228.324	72.12
228.559	44.12
228.793	50.12
229.027	76.12
229.262	58.12
229.496	53.12
229.73	59.12
229.964	67.12
230.199	68.12
230.433	85.12
230.667	73.12
230.901	83.12
231.136	87.12
231.37	87.12
231.604	83.12
231.838	77.12
232.072	69.12
232.306	88.12
232.541	77.12
232.775	75.12
233.009	86.12
233.243	81.12
233.477	77.12
233.711	81.12
233.945	74.12
234.179	88.12
234.413	84.12
234.647	78.12
234.881	84.12
235.115	80.12
235.349	88.12
235.583	91.12
235.817	64.12
236.051	71.12
236.285	86.12
236.519	89.12
236.753	77.12
236.987	76.12
237.221	73.12
237.455	89.12
237.689	90.12
237.922	89.12
238.156	74.12
238.39	83.12
238.624	80.12
238.858	84.12
239.091	82.12
239.325	80.12
239.559	71.12
239.793	64.12
240.027	73.12
240.26	94.12
240.494	80.12
240.728	71.12
240.961	71.12
241.195	76.12
241.429	81.12
241.662	81.12
241.896	77.12
242.13	72.12
242.363	86.12
242.597	62.12
242.83	79.12
243.064	86.12
243.298	94.12
243.531	96.12
243.765	80.12
243.998	77.12
244.232	86.12
244.465	74.12
244.699	76.12
244.932	82.12
245.166	79.12
245.399	68.12
245.633	76.12
245.866	76.12
246.099	71.12
246.333	66.12
246.566	75.12
246.8	73.12
247.033	65.12
247.266	67.12
247.5	77.12
247.733	83.12
247.966	63.12
248.2	65.12
248.433	89.12
248.666	74.12
248.899	67.12
249.133	78.12
249.366	72.12
249.599	78.12
249.832	65.12
250.066	72.12
250.299	90.12
250.532	57.12
250.765	67.12
250.998	81.12
251.231	75.12
251.465	94.12
251.698	72.12
251.931	63.12
252.164	73.12
252.397	69.12
252.63	70.12
252.863	86.12
253.096	81.12
253.329	87.12
253.562	77.12
253.795	81.12
254.028	86.12
254.261	71.12
254.494	83.12
254.727	60.12
254.96	91.12
255.193	97.12
255.426	85.12
255.659	90.12
255.892	83.12
256.124	88.12
256.357	70.12
256.59	92.12
256.823	93.12
257.056	83.12
257.289	76.12
257.521	74.12
257.754	79.12
257.987	87.12
258.22	82.12
258.452	81.12
258.685	84.12
258.918	81.12
259.151	93.12
259.383	95.12
259.616	72.12
259.849	87.12
260.081	91.12
260.314	76.12
260.547	68.12
260.779	92.12
261.012	90.12
261.244	87.12
261.477	84.12
261.71	84.12
261.942	89.12
262.175	83.12
262.407	74.12
262.64	80.12
262.872	81.12
263.105	66.12
263.337	76.12
263.57	96.12
263.802	70.12
264.035	70.12
264.267	76.12
264.499	95.12
264.732	89.12
264.964	79.12
265.197	80.12
265.429	88.12
265.661	71.12
265.894	93.12
266.126	90.12
266.358	77.12
266.591	86.12
266.823	92.12
267.055	64.12
267.287	92.12
267.52	75.12
267.752	78.12
267.984	92.12
268.216	75.12
268.448	92.12
268.681	74.12
268.913	79.12
269.145	84.12
269.377	78.12
269.609	84.12
269.841	91.12
270.073	89.12
270.306	91.12
270.538	81.12
270.77	86.12
271.002	88.12
271.234	66.12
271.466	89.12
271.698	74.12
271.93	85.12
272.162	87.12
272.394	103.12
272.626	86.12
272.858	75.12
273.09	63.12
273.322	68.12
273.553	82.12
273.785	91.12
274.017	84.12
274.249	105.12
274.481	77.12
274.713	92.12
274.945	94.12
275.176	52.12
275.408	84.12
275.64	69.12
275.872	78.12
276.104	77.12
276.335	78.12
276.567	78.12
276.799	96.12
277.031	89.12
277.262	73.12
277.494	76.12
277.726	87.12
277.957	88.12
278.189	79.12
278.421	82.12
278.652	98.12
278.884	77.12
279.115	72.12
279.347	81.12
279.579	76.12
279.81	96.12
280.042	89.12
280.273	81.12
280.505	83.12
280.736	74.12
280.968	78.12
281.199	83.12
281.431	96.12
281.662	75.12
281.894	84.12
282.125	86.12
282.356	87.12
282.588	91.12
282.819	90.12
283.051	70.12
283.282	82.12
283.513	81.12
283.745	87.12
283.976	81.12
284.207	77.12
284.439	87.12
284.67	83.12
284.901	71.12
285.132	80.12
285.364	89.12
285.595	82.12
285.826	99.12
286.057	76.12
286.288	83.12
286.52	80.12
286.751	77.12
286.982	76.12
287.213	72.12
287.444	69.12
287.675	79.12
287.906	81.12
288.138	82.12
288.369	73.12
288.6	89.12
288.831	89.12
289.062	93.12
289.293	92.12
289.524	77.12
289.755	79.12
289.986	77.12
290.217	92.12
290.448	87.12
290.679	92.12
290.91	77.12
291.141	93.12
291.371	86.12
291.602	73.12
291.833	82.12
292.064	81.12
292.295	96.12
292.526	83.12
292.757	72.12
292.987	87.12
293.218	83.12
293.449	90.12
293.68	81.12
293.91	81.12
294.141	94.12
294.372	90.12
294.603	83.12
294.833	76.12
295.064	87.12
295.295	87.12
295.525	67.12
295.756	72.12
295.987	81.12
296.217	72.12
296.448	79.12
296.679	90.12
296.909	67.12
297.14	87.12
297.37	85.12
297.601	83.12
297.831	86.12
298.062	87.12
298.292	83.12
298.523	86.12
298.753	83.12
298.984	83.12
299.214	74.12
299.445	88.12
299.675	75.12
299.905	83.12
300.136	84.12
300.366	77.12
300.597	102.12
300.827	88.12
301.057	89.12
301.288	91.12
301.518	74.12
301.748	85.12
301.979	76.12
302.209	87.12
302.439	81.12
302.669	91.12
302.9	79.12
303.13	73.12
303.36	75.12
303.59	92.12
303.82	70.12
304.051	82.12
304.281	74.12
304.511	89.12
304.741	103.12
304.971	81.12
305.201	88.12
305.431	84.12
305.661	80.12
305.891	82.12
306.121	91.12
306.352	81.12
306.582	70.12
306.812	78.12
307.042	88.12
307.272	83.12
307.502	94.12
307.731	88.12
307.961	88.12
308.191	78.12
308.421	80.12
308.651	92.12
308.881	100.12
309.111	78.12
309.341	76.12
309.571	93.12
309.8	84.12
310.03	80.12
310.26	75.12
310.49	79.12
310.72	81.12
310.949	87.12
311.179	85.12
311.409	59.12
311.639	92.12
311.868	86.12
312.098	104.12
312.328	72.12
312.557	74.12
312.787	79.12
313.017	76.12
313.246	75.12
313.476	83.12
313.706	81.12
313.935	82.12
314.165	83.12
314.394	87.12
314.624	80.12
314.853	83.12
315.083	74.12
315.312	80.12
315.542	68.12
315.771	76.12
316.001	83.12
316.23	76.12
316.46	85.12
316.689	79.12
316.919	81.12
317.148	87.12
317.377	89.12
317.607	92.12
317.836	77.12
318.065	87.12
318.295	74.12
318.524	76.12
318.753	88.12
318.983	79.12
319.212	84.12
319.441	81.12
319.67	88.12
319.9	87.12
320.129	81.12
320.358	74.12
320.587	82.12
320.816	76.12
321.046	76.12
321.275	87.12
321.504	83.12
321.733	91.12
321.962	83.12
322.191	90.12
322.42	77.12
322.649	79.12
322.878	75.12
323.108	76.12
323.337	79.12
323.566	87.12
323.795	80.12
324.024	83.12
324.253	95.12
324.482	84.12
324.71	84.12
324.939	89.12
325.168	95.12
325.397	74.12
325.626	95.12
325.855	99.12
326.084	87.12
326.313	74.12
326.542	66.12
326.77	79.12
326.999	86.12
327.228	84.12
327.457	86.12
327.686	96.12
327.914	91.12
328.143	97.12
328.372	89.12
328.6	83.12
328.829	99.12
329.058	95.12
329.287	90.12
329.515	92.12
329.744	90.12
329.972	81.12
330.201	79.12
330.43	73.12
330.658	73.12
330.887	93.12
331.115	96.12
331.344	80.12
331.572	82.12
331.801	81.12
332.03	73.12
332.258	78.12
332.486	79.12
332.715	77.12
332.943	86.12
333.172	84.12
333.4	86.12
333.629	82.12
333.857	104.12
334.085	88.12
334.314	76.12
334.542	87.12
334.771	75.12
334.999	83.12
335.227	83.12
335.455	75.12
335.684	75.12
335.912	77.12
336.14	74.12
336.369	78.12
336.597	80.12
336.825	75.12
337.053	87.12
337.281	88.12
337.51	83.12
337.738	86.12
337.966	85.12
338.194	83.12
338.422	68.12
338.65	77.12
338.878	95.12
339.106	77.12
339.334	80.12
339.562	100.12
339.79	93.12
340.018	84.12
340.246	97.12
340.474	76.12
340.702	82.12
340.93	81.12
341.158	76.12
341.386	77.12
341.614	71.12
341.842	80.12
342.07	82.12
342.298	83.12
342.526	81.12
342.754	92.12
342.981	97.12
343.209	86.12
343.437	78.12
343.665	92.12
343.893	81.12
344.12	89.12
344.348	85.12
344.576	83.12
344.804	89.12
345.031	83.12
345.259	85.12
345.487	73.12
345.714	84.12
345.942	79.12
346.17	85.12
346.397	87.12
346.625	78.12
346.853	89.12
347.08	78.12
347.308	87.12
347.535	87.12
347.763	75.12
347.99	85.12
348.218	79.12
348.445	87.12
348.673	78.12
348.9	69.12
349.128	75.12
349.355	83.12
349.583	79.12
349.81	83.12
350.037	72.12
350.265	76.12
350.492	81.12
350.72	79.12
350.947	83.12
351.174	85.12
351.402	77.12
351.629	76.12
351.856	86.12
352.083	92.12
352.311	80.12
352.538	87.12
352.765	71.12
352.992	74.12
353.22	83.12
353.447	85.12
353.674	85.12
353.901	88.12
354.128	85.12
354.355	83.12
354.583	96.12
354.81	77.12
355.037	74.12
355.264	74.12
355.491	91.12
355.718	78.12
355.945	94.12
356.172	88.12
356.399	77.12
356.626	81.12
356.853	82.12
357.08	88.12
357.307	81.12
357.534	93.12
357.761	82.12
357.988	93.12
358.215	84.12
358.441	77.12
358.668	81.12
358.895	64.12
359.122	83.12
359.349	96.12
359.576	83.12
359.802	86.12
360.029	83.12
360.256	92.12
360.483	74.12
360.709	88.12
360.936	99.12
361.163	83.12
361.39	76.12
361.616	74.12
361.843	76.12
362.07	92.12
362.296	77.12
362.523	82.12
362.749	88.12
362.976	83.12
363.203	90.12
363.429	92.12
363.656	94.12
363.882	68.12
364.109	97.12
364.335	79.12
364.562	65.12
364.788	87.12
365.015	87.12
365.241	98.12
365.468	91.12
365.694	87.12
365.92	89.12
366.147	85.12
366.373	80.12
366.599	76.12
366.826	84.12
367.052	83.12
367.278	78.12
367.505	73.12
367.731	88.12
367.957	82.12
368.184	78.12
368.41	70.12
368.636	55.12
368.862	73.12
369.089	81.12
369.315	90.12
369.541	91.12
369.767	95.12
369.993	97.12
370.219	77.12
370.445	82.12
370.672	66.12
370.898	90.12
371.124	84.12
371.35	81.12
371.576	85.12
371.802	80.12
372.028	86.12
372.254	96.12
372.48	82.12
372.706	90.12
372.932	88.12
373.158	81.12
373.384	87.12
373.61	69.12
373.835	80.12
374.061	82.12
374.287	69.12
374.513	85.12
374.739	91.12
374.965	79.12
375.191	84.12
375.416	71.12
375.642	95.12
375.868	99.12
376.094	77.12
376.319	81.12
376.545	90.12
376.771	82.12
376.997	95.12
377.222	87.12
377.448	78.12
377.674	89.12
377.899	81.12
378.125	76.12
378.35	82.12
378.576	68.12
378.802	87.12
379.027	77.12
379.253	111.12
379.478	93.12
379.704	67.12
379.929	81.12
380.155	80.12
380.38	71.12
380.606	81.12
380.831	83.12
381.057	85.12
381.282	89.12
381.507	81.12
381.733	73.12
381.958	86.12
382.184	81.12
382.409	79.12
382.634	92.12
382.86	87.12
383.085	89.12
383.31	80.12
383.535	86.12
383.761	72.12
383.986	77.12
384.211	66.12
384.436	80.12
384.662	83.12
384.887	81.12
385.112	69.12
385.337	81.12
385.562	72.12
385.787	81.12
386.013	104.12
386.238	95.12
386.463	77.12
386.688	82.12
386.913	60.12
387.138	76.12
387.363	70.12
387.588	92.12
387.813	83.12
388.038	84.12
388.263	90.12
388.488	89.12
388.713	87.12
388.938	98.12
389.163	63.12
389.387	92.12
389.612	74.12
389.837	83.12
390.062	78.12
390.287	79.12
390.512	83.12
390.736	75.12
390.961	80.12
391.186	92.12
391.411	76.12
391.636	69.12
391.86	103.12
392.085	90.12
392.31	84.12
392.534	75.12
392.759	88.12
392.984	87.12
393.208	67.12
393.433	98.12
393.658	100.12
393.882	81.12
394.107	85.12
394.331	89.12
394.556	67.12
394.78	83.12
395.005	66.12
395.229	87.12
395.454	93.12
395.678	72.12
395.903	93.12
396.127	79.12
396.352	87.12
396.576	92.12
396.801	79.12
397.025	82.12
397.249	79.12
397.474	94.12
397.698	82.12
397.922	80.12
398.147	76.12
398.371	92.12
398.595	74.12
398.82	86.12
399.044	80.12
399.268	77.12
399.492	89.12
399.717	83.12
399.941	81.12
400.165	80.12
400.389	95.12
400.613	79.12
400.837	87.12
401.062	92.12
401.286	81.12
401.51	85.12
401.734	105.12
401.958	89.12
402.182	89.12
402.406	102.12
402.63	85.12
402.854	75.12
403.078	79.12
403.302	87.12
403.526	73.12
403.75	84.12
403.974	82.12
404.198	83.12
404.422	67.12
404.645	72.12
404.869	70.12
405.093	77.12
405.317	86.12
405.541	79.12
405.765	85.12
405.988	93.12
406.212	79.12
406.436	80.12
406.66	85.12
406.883	73.12
407.107	81.12
407.331	83.12
407.555	77.12
407.778	89.12
408.002	92.12
408.226	75.12
408.449	79.12
408.673	82.12
408.896	80.12
409.12	93.12
409.344	91.12
409.567	80.12
409.791	85.12
410.014	90.12
410.238	93.12
410.461	88.12
410.685	86.12
410.908	85.12
411.132	110.12
411.355	84.12
411.578	91.12
411.802	86.12
412.025	87.12
412.249	93.12
412.472	74.12
412.695	85.12
412.919	92.12
413.142	95.12
413.365	84.12
413.589	89.12
413.812	92.12
414.035	80.12
414.258	83.12
414.482	89.12
414.705	88.12
414.928	86.12
415.151	74.12
415.374	87.12
415.597	83.12
415.821	86.12
416.044	84.12
416.267	85.12
416.49	91.12
416.713	78.12
416.936	97.12
417.159	90.12
417.382	93.12
417.605	72.12
417.828	95.12
418.051	94.12
418.274	90.12
418.497	87.12
418.72	88.12
418.943	83.12
419.166	91.12
419.389	89.12
419.611	93.12
419.834	87.12
420.057	85.12
420.28	80.12
420.503	97.12
420.726	96.12
420.948	80.12
421.171	82.12
421.394	99.12
421.617	92.12
421.839	73.12
422.062	88.12
422.285	87.12
422.507	103.12
422.73	80.12
422.953	94.12
423.175	80.12
423.398	87.12
423.621	71.12
423.843	99.12
424.066	90.12
424.288	81.12
424.511	84.12
424.733	83.12
424.956	95.12
425.178	92.12
425.401	90.12
425.623	77.12
425.846	91.12
426.068	96.12
426.291	86.12
426.513	79.12
426.735	80.12
426.958	82.12
427.18	109.12
427.402	90.12
427.625	99.12
427.847	88.12
428.069	89.12
428.292	82.12
428.514	89.12
428.736	81.12
428.958	87.12
429.181	85.12
429.403	89.12
429.625	86.12
429.847	89.12
430.069	93.12
430.292	90.12
430.514	76.12
430.736	76.12
430.958	98.12
431.18	95.12
431.402	82.12
431.624	88.12
431.846	108.12
432.068	97.12
432.29	81.12
432.512	83.12
432.734	91.12
432.956	96.12
433.178	93.12
433.4	92.12
433.622	89.12
433.844	83.12
434.066	84.12
434.287	93.12
434.509	75.12
434.731	67.12
434.953	92.12
435.175	92.12
435.397	93.12
435.618	93.12
435.84	91.12
436.062	104.12
436.284	82.12
436.505	95.12
436.727	89.12
436.949	106.12
437.17	87.12
437.392	97.12
437.614	92.12
437.835	87.12
438.057	83.12
438.278	86.12
438.5	89.12
438.721	80.12
438.943	91.12
439.165	90.12
439.386	103.12
439.608	83.12
439.829	89.12
440.05	99.12
440.272	82.12
440.493	86.12
440.715	85.12
440.936	93.12
441.158	93.12
441.379	92.12
441.6	93.12
441.822	93.12
442.043	84.12
442.264	105.12
442.486	86.12
442.707	87.12
442.928	87.12
443.149	94.12
443.371	92.12
443.592	77.12
443.813	91.12
444.034	78.12
444.255	98.12
444.476	97.12
444.698	90.12
444.919	81.12
445.14	218.12
445.361	149.12
445.582	95.12
445.803	84.12
446.024	92.12
446.245	97.12
446.466	95.12
446.687	92.12
446.908	100.12
447.129	89.12
447.35	109.12
447.571	81.12
447.792	84.12
448.013	93.12
448.234	89.12
448.455	96.12
448.675	89.12
448.896	83.12
449.117	100.12
449.338	97.12
449.559	85.12
449.779	83.12
450	77.12
450.221	87.12
450.442	90.12
450.662	81.12
450.883	92.12
451.104	85.12
451.324	96.12
451.545	76.12
451.766	85.12
451.986	88.12
452.207	87.12
452.428	93.12
452.648	88.12
452.869	72.12
453.089	96.12
453.31	78.12
453.53	70.12
453.751	94.12
453.971	91.12
454.192	91.12
454.412	89.12
454.633	77.12
454.853	81.12
455.073	76.12
455.294	88.12
455.514	86.12
455.734	86.12
455.955	86.12
456.175	82.12
456.395	90.12
456.616	81.12
456.836	85.12
457.056	83.12
457.276	89.12
457.497	80.12
457.717	95.12
457.937	79.12
458.157	83.12
458.377	81.12
458.598	80.12
458.818	80.12
459.038	83.12
459.258	77.12
459.478	87.12
459.698	84.12
459.918	82.12
460.138	86.12
460.358	71.12
460.578	92.12
460.798	96.12
461.018	97.12
461.238	91.12
461.458	85.12
461.678	88.12
461.898	82.12
462.118	88.12
462.338	90.12
462.558	95.12
462.777	94.12
462.997	75.12
463.217	99.12
463.437	101.12
463.657	80.12
463.876	81.12
464.096	82.12
464.316	87.12
464.536	90.12
464.755	85.12
464.975	86.12
465.195	90.12
465.414	87.12
465.634	64.12
465.854	85.12
466.073	88.12
466.293	83.12
466.512	87.12
466.732	96.12
466.951	102.12
467.171	91.12
467.391	95.12
467.61	99.12
467.829	88.12
468.049	82.12
468.268	86.12
468.488	90.12
468.707	85.12
468.927	103.12
469.146	101.12
469.365	79.12
469.585	75.12
469.804	90.12
470.023	85.12
470.243	100.12
470.462	99.12
470.681	73.12
470.901	89.12
471.12	99.12
471.339	103.12
471.558	83.12
471.777	85.12
471.997	99.12
472.216	94.12
472.435	87.12
472.654	93.12
472.873	73.12
473.092	83.12
473.311	86.12
473.53	80.12
473.749	86.12
473.968	74.12
474.187	82.12
474.406	84.12
474.625	79.12
474.844	97.12
475.063	90.12
475.282	91.12
475.501	86.12
475.72	97.12
475.939	72.12
476.158	91.12
476.377	86.12
476.596	80.12
476.814	96.12
477.033	86.12
477.252	85.12
477.471	89.12
477.69	88.12
477.908	87.12
478.127	93.12
478.346	89.12
478.564	101.12
478.783	99.12
479.002	83.12
479.22	72.12
479.439	101.12
479.658	92.12
479.876	83.12
480.095	92.12
480.313	80.12
480.532	78.12
480.751	97.12
480.969	80.12
481.188	88.12
481.406	91.12
481.624	73.12
481.843	80.12
482.061	84.12
482.28	78.12
482.498	91.12
482.717	85.12
482.935	94.12
483.153	87.12
483.372	91.12
483.59	89.12
483.808	83.12
484.027	79.12
484.245	93.12
484.463	101.12
484.681	82.12
484.9	91.12
485.118	88.12
485.336	95.12
485.554	77.12
485.772	98.12
485.99	83.12
486.209	84.12
486.427	79.12
486.645	86.12
486.863	87.12
487.081	89.12
487.299	94.12
487.517	92.12
487.735	89.12
487.953	107.12
488.171	96.12
488.389	100.12
488.607	85.12
488.825	82.12
489.043	90.12
489.261	106.12
489.479	85.12
489.696	97.12
489.914	95.12
490.132	81.12
490.35	96.12
490.568	94.12
490.786	85.12
491.003	95.12
491.221	102.12
491.439	105.12
491.657	106.12
491.874	107.12
492.092	104.12
492.31	119.12
492.527	109.12
492.745	103.12
492.963	117.12
493.18	101.12
493.398	90.12
493.615	111.12
493.833	96.12
494.05	94.12
494.268	103.12
494.485	100.12
494.703	90.12
494.92	108.12
495.138	97.12
495.355	86.12
495.573	107.12
495.79	98.12
496.008	109.12
496.225	95.12
496.442	88.12
496.66	105.12
496.877	112.12
497.094	95.12
497.312	97.12
497.529	109.12
497.746	84.12
497.963	99.12
498.181	90.12
498.398	96.12
498.615	93.12
498.832	98.12
499.049	91.12
499.267	95.12
499.484	84.12
499.701	97.12
499.918	95.12
500.135	82.12
500.352	88.12
500.569	92.12
500.786	103.12
501.003	102.12
501.22	102.12
501.437	86.12
501.654	103.12
501.871	91.12
502.088	81.12
502.305	96.12
502.522	81.12
502.739	83.12
502.956	76.12
503.172	92.12
503.389	87.12
503.606	91.12
503.823	84.12
504.04	67.12
504.256	97.12
504.473	89.12
504.69	73.12
504.907	90.12
505.123	100.12
505.34	71.12
505.557	94.12
505.773	89.12
505.99	92.12
506.207	93.12
506.423	85.12
506.64	77.12
506.856	93.12
507.073	72.12
507.289	90.12
507.506	81.12
507.722	90.12
507.939	88.12
508.155	85.12
508.372	90.12
508.588	90.12
508.805	86.12
509.021	90.12
509.238	88.12
509.454	95.12
509.67	72.12
509.887	78.12
510.103	100.12
510.319	75.12
510.536	83.12
510.752	84.12
510.968	85.12
511.184	94.12
511.401	78.12
511.617	73.12
511.833	96.12
512.049	96.12
512.265	81.12
512.481	78.12
512.698	82.12
512.914	75.12
513.13	80.12
513.346	87.12
513.562	81.12
513.778	76.12
513.994	72.12
514.21	84.12
514.426	81.12
514.642	78.12
514.858	83.12
515.074	94.12
515.29	74.12
515.506	73.12
515.721	84.12
515.937	83.12
516.153	76.12
516.369	80.12
516.585	83.12
516.801	100.12
517.016	76.12
517.232	94.12
517.448	89.12
517.664	93.12
517.879	87.12
518.095	90.12
518.311	78.12
518.527	84.12
