Data from Zn(NO3)2Standard.Agarose3%.GreenCap.LampEnergy10E.O_HRD10591_15-08-06-948.txt Node
Date: Mon Jul 22 15:08:06 EDT 2019
User: cochatt
Spectrometer: HR+D1059
Trigger mode: 1
Integration Time (sec): 1.000000E-1
Scans to average: 1
Electric dark correction enabled: true
Nonlinearity correction enabled: false
Boxcar width: 0
XAxis mode: Wavelengths
Number of Pixels in Spectrum: 2048
>>>>>Begin Spectral Data<<<<<
223.165	-24.31
223.4	-24.31
223.635	-24.31
223.869	-4.31
224.104	-24.31
224.338	-13.31
224.573	-23.31
224.808	-3.31
225.042	-9.31
225.277	-5.31
225.511	9.69
225.746	-0.31
225.98	-0.31
226.215	19.69
226.449	1.69
226.683	18.69
226.918	26.69
227.152	31.69
227.387	41.69
227.621	35.69
227.856	39.69
228.09	34.69
228.324	55.69
228.559	58.69
228.793	47.69
229.027	66.69
229.262	62.69
229.496	67.69
229.73	64.69
229.964	50.69
230.199	52.69
230.433	81.69
230.667	77.69
230.901	77.69
231.136	73.69
231.37	64.69
231.604	73.69
231.838	87.69
232.072	82.69
232.306	81.69
232.541	83.69
232.775	81.69
233.009	70.69
233.243	88.69
233.477	72.69
233.711	89.69
233.945	81.69
234.179	66.69
234.413	77.69
234.647	77.69
234.881	90.69
235.115	82.69
235.349	85.69
235.583	85.69
235.817	75.69
236.051	84.69
236.285	79.69
236.519	79.69
236.753	80.69
236.987	76.69
237.221	82.69
237.455	87.69
237.689	86.69
237.922	83.69
238.156	70.69
238.39	76.69
238.624	80.69
238.858	83.69
239.091	72.69
239.325	74.69
239.559	92.69
239.793	70.69
240.027	58.69
240.26	69.69
240.494	71.69
240.728	89.69
240.961	74.69
241.195	81.69
241.429	75.69
241.662	77.69
241.896	80.69
242.13	83.69
242.363	80.69
242.597	67.69
242.83	71.69
243.064	86.69
243.298	75.69
243.531	65.69
243.765	77.69
243.998	94.69
244.232	72.69
244.465	79.69
244.699	75.69
244.932	73.69
245.166	82.69
245.399	69.69
245.633	78.69
245.866	76.69
246.099	80.69
246.333	68.69
246.566	79.69
246.8	64.69
247.033	82.69
247.266	78.69
247.5	65.69
247.733	77.69
247.966	76.69
248.2	60.69
248.433	77.69
248.666	72.69
248.899	97.69
249.133	70.69
249.366	82.69
249.599	83.69
249.832	85.69
250.066	79.69
250.299	83.69
250.532	67.69
250.765	74.69
250.998	74.69
251.231	74.69
251.465	71.69
251.698	74.69
251.931	69.69
252.164	75.69
252.397	78.69
252.63	82.69
252.863	73.69
253.096	77.69
253.329	94.69
253.562	99.69
253.795	74.69
254.028	85.69
254.261	64.69
254.494	70.69
254.727	76.69
254.96	72.69
255.193	65.69
255.426	88.69
255.659	74.69
255.892	76.69
256.124	91.69
256.357	81.69
256.59	88.69
256.823	73.69
257.056	77.69
257.289	70.69
257.521	77.69
257.754	75.69
257.987	89.69
258.22	82.69
258.452	69.69
258.685	94.69
258.918	53.69
259.151	83.69
259.383	85.69
259.616	82.69
259.849	76.69
260.081	86.69
260.314	72.69
260.547	79.69
260.779	74.69
261.012	86.69
261.244	77.69
261.477	77.69
261.71	79.69
261.942	83.69
262.175	82.69
262.407	69.69
262.64	86.69
262.872	78.69
263.105	75.69
263.337	71.69
263.57	86.69
263.802	77.69
264.035	85.69
264.267	86.69
264.499	81.69
264.732	82.69
264.964	82.69
265.197	68.69
265.429	92.69
265.661	73.69
265.894	80.69
266.126	78.69
266.358	89.69
266.591	85.69
266.823	95.69
267.055	88.69
267.287	86.69
267.52	84.69
267.752	89.69
267.984	86.69
268.216	86.69
268.448	84.69
268.681	76.69
268.913	87.69
269.145	88.69
269.377	76.69
269.609	82.69
269.841	76.69
270.073	70.69
270.306	89.69
270.538	88.69
270.77	90.69
271.002	81.69
271.234	93.69
271.466	81.69
271.698	75.69
271.93	76.69
272.162	88.69
272.394	84.69
272.626	81.69
272.858	85.69
273.09	75.69
273.322	84.69
273.553	78.69
273.785	84.69
274.017	69.69
274.249	82.69
274.481	82.69
274.713	79.69
274.945	85.69
275.176	88.69
275.408	87.69
275.64	80.69
275.872	76.69
276.104	79.69
276.335	81.69
276.567	78.69
276.799	91.69
277.031	79.69
277.262	79.69
277.494	80.69
277.726	73.69
277.957	77.69
278.189	85.69
278.421	75.69
278.652	79.69
278.884	79.69
279.115	84.69
279.347	84.69
279.579	84.69
279.81	74.69
280.042	84.69
280.273	81.69
280.505	85.69
280.736	78.69
280.968	90.69
281.199	76.69
281.431	82.69
281.662	72.69
281.894	64.69
282.125	79.69
282.356	87.69
282.588	84.69
282.819	57.69
283.051	86.69
283.282	81.69
283.513	82.69
283.745	76.69
283.976	72.69
284.207	80.69
284.439	88.69
284.67	98.69
284.901	84.69
285.132	72.69
285.364	79.69
285.595	72.69
285.826	89.69
286.057	76.69
286.288	83.69
286.52	98.69
286.751	82.69
286.982	62.69
287.213	75.69
287.444	78.69
287.675	68.69
287.906	92.69
288.138	85.69
288.369	88.69
288.6	90.69
288.831	75.69
289.062	87.69
289.293	68.69
289.524	84.69
289.755	91.69
289.986	71.69
290.217	70.69
290.448	89.69
290.679	65.69
290.91	92.69
291.141	86.69
291.371	76.69
291.602	73.69
291.833	69.69
292.064	78.69
292.295	79.69
292.526	87.69
292.757	83.69
292.987	89.69
293.218	83.69
293.449	84.69
293.68	83.69
293.91	79.69
294.141	76.69
294.372	72.69
294.603	70.69
294.833	77.69
295.064	76.69
295.295	95.69
295.525	86.69
295.756	81.69
295.987	83.69
296.217	76.69
296.448	76.69
296.679	70.69
296.909	88.69
297.14	88.69
297.37	80.69
297.601	78.69
297.831	83.69
298.062	73.69
298.292	73.69
298.523	73.69
298.753	80.69
298.984	93.69
299.214	84.69
299.445	86.69
299.675	84.69
299.905	74.69
300.136	75.69
300.366	82.69
300.597	87.69
300.827	72.69
301.057	84.69
301.288	87.69
301.518	82.69
301.748	83.69
301.979	82.69
302.209	73.69
302.439	85.69
302.669	93.69
302.9	81.69
303.13	88.69
303.36	94.69
303.59	81.69
303.82	81.69
304.051	87.69
304.281	76.69
304.511	83.69
304.741	88.69
304.971	106.69
305.201	83.69
305.431	78.69
305.661	94.69
305.891	81.69
306.121	90.69
306.352	85.69
306.582	68.69
306.812	74.69
307.042	90.69
307.272	92.69
307.502	91.69
307.731	88.69
307.961	94.69
308.191	81.69
308.421	82.69
308.651	87.69
308.881	78.69
309.111	83.69
309.341	79.69
309.571	79.69
309.8	89.69
310.03	82.69
310.26	78.69
310.49	70.69
310.72	84.69
310.949	83.69
311.179	91.69
311.409	94.69
311.639	89.69
311.868	84.69
312.098	90.69
312.328	88.69
312.557	90.69
312.787	82.69
313.017	82.69
313.246	80.69
313.476	86.69
313.706	71.69
313.935	88.69
314.165	85.69
314.394	79.69
314.624	87.69
314.853	84.69
315.083	82.69
315.312	88.69
315.542	87.69
315.771	85.69
316.001	86.69
316.23	87.69
316.46	76.69
316.689	82.69
316.919	79.69
317.148	69.69
317.377	81.69
317.607	88.69
317.836	94.69
318.065	81.69
318.295	87.69
318.524	75.69
318.753	82.69
318.983	74.69
319.212	86.69
319.441	74.69
319.67	76.69
319.9	89.69
320.129	88.69
320.358	80.69
320.587	79.69
320.816	64.69
321.046	88.69
321.275	88.69
321.504	86.69
321.733	80.69
321.962	77.69
322.191	77.69
322.42	84.69
322.649	82.69
322.878	84.69
323.108	87.69
323.337	87.69
323.566	85.69
323.795	84.69
324.024	96.69
324.253	94.69
324.482	84.69
324.71	68.69
324.939	93.69
325.168	83.69
325.397	81.69
325.626	73.69
325.855	82.69
326.084	89.69
326.313	90.69
326.542	75.69
326.77	75.69
326.999	76.69
327.228	83.69
327.457	88.69
327.686	79.69
327.914	93.69
328.143	82.69
328.372	88.69
328.6	87.69
328.829	87.69
329.058	85.69
329.287	95.69
329.515	78.69
329.744	72.69
329.972	75.69
330.201	74.69
330.43	90.69
330.658	83.69
330.887	91.69
331.115	81.69
331.344	88.69
331.572	81.69
331.801	90.69
332.03	98.69
332.258	83.69
332.486	82.69
332.715	63.69
332.943	75.69
333.172	70.69
333.4	91.69
333.629	82.69
333.857	95.69
334.085	73.69
334.314	83.69
334.542	91.69
334.771	90.69
334.999	90.69
335.227	78.69
335.455	72.69
335.684	72.69
335.912	97.69
336.14	86.69
336.369	83.69
336.597	99.69
336.825	83.69
337.053	81.69
337.281	81.69
337.51	79.69
337.738	92.69
337.966	85.69
338.194	82.69
338.422	83.69
338.65	97.69
338.878	88.69
339.106	95.69
339.334	91.69
339.562	85.69
339.79	81.69
340.018	91.69
340.246	81.69
340.474	72.69
340.702	80.69
340.93	87.69
341.158	95.69
341.386	81.69
341.614	92.69
341.842	76.69
342.07	76.69
342.298	88.69
342.526	80.69
342.754	87.69
342.981	81.69
343.209	80.69
343.437	101.69
343.665	81.69
343.893	77.69
344.12	78.69
344.348	82.69
344.576	76.69
344.804	84.69
345.031	76.69
345.259	90.69
345.487	75.69
345.714	69.69
345.942	68.69
346.17	83.69
346.397	82.69
346.625	87.69
346.853	82.69
347.08	82.69
347.308	88.69
347.535	77.69
347.763	86.69
347.99	75.69
348.218	76.69
348.445	75.69
348.673	80.69
348.9	98.69
349.128	88.69
349.355	99.69
349.583	67.69
349.81	96.69
350.037	90.69
350.265	86.69
350.492	92.69
350.72	76.69
350.947	82.69
351.174	73.69
351.402	75.69
351.629	65.69
351.856	88.69
352.083	80.69
352.311	77.69
352.538	80.69
352.765	80.69
352.992	101.69
353.22	90.69
353.447	79.69
353.674	88.69
353.901	94.69
354.128	90.69
354.355	73.69
354.583	88.69
354.81	96.69
355.037	82.69
355.264	88.69
355.491	76.69
355.718	84.69
355.945	84.69
356.172	85.69
356.399	87.69
356.626	94.69
356.853	89.69
357.08	107.69
357.307	85.69
357.534	89.69
357.761	91.69
357.988	80.69
358.215	86.69
358.441	91.69
358.668	75.69
358.895	67.69
359.122	73.69
359.349	84.69
359.576	84.69
359.802	75.69
360.029	82.69
360.256	71.69
360.483	87.69
360.709	86.69
360.936	91.69
361.163	67.69
361.39	87.69
361.616	91.69
361.843	79.69
362.07	78.69
362.296	84.69
362.523	88.69
362.749	75.69
362.976	76.69
363.203	100.69
363.429	79.69
363.656	84.69
363.882	82.69
364.109	77.69
364.335	93.69
364.562	84.69
364.788	76.69
365.015	85.69
365.241	79.69
365.468	81.69
365.694	68.69
365.92	86.69
366.147	86.69
366.373	70.69
366.599	88.69
366.826	90.69
367.052	67.69
367.278	74.69
367.505	91.69
367.731	79.69
367.957	79.69
368.184	82.69
368.41	75.69
368.636	94.69
368.862	84.69
369.089	82.69
369.315	89.69
369.541	81.69
369.767	90.69
369.993	84.69
370.219	74.69
370.445	98.69
370.672	85.69
370.898	82.69
371.124	87.69
371.35	86.69
371.576	90.69
371.802	91.69
372.028	89.69
372.254	88.69
372.48	75.69
372.706	87.69
372.932	80.69
373.158	93.69
373.384	70.69
373.61	77.69
373.835	93.69
374.061	81.69
374.287	90.69
374.513	81.69
374.739	86.69
374.965	87.69
375.191	89.69
375.416	81.69
375.642	77.69
375.868	74.69
376.094	92.69
376.319	87.69
376.545	81.69
376.771	83.69
376.997	102.69
377.222	85.69
377.448	86.69
377.674	100.69
377.899	89.69
378.125	87.69
378.35	82.69
378.576	100.69
378.802	83.69
379.027	74.69
379.253	79.69
379.478	89.69
379.704	78.69
379.929	103.69
380.155	92.69
380.38	86.69
380.606	89.69
380.831	92.69
381.057	72.69
381.282	82.69
381.507	78.69
381.733	91.69
381.958	82.69
382.184	74.69
382.409	88.69
382.634	93.69
382.86	77.69
383.085	99.69
383.31	89.69
383.535	91.69
383.761	83.69
383.986	93.69
384.211	98.69
384.436	95.69
384.662	75.69
384.887	84.69
385.112	96.69
385.337	88.69
385.562	86.69
385.787	95.69
386.013	82.69
386.238	87.69
386.463	89.69
386.688	76.69
386.913	94.69
387.138	96.69
387.363	89.69
387.588	96.69
387.813	78.69
388.038	74.69
388.263	96.69
388.488	97.69
388.713	94.69
388.938	83.69
389.163	80.69
389.387	78.69
389.612	88.69
389.837	82.69
390.062	106.69
390.287	91.69
390.512	89.69
390.736	91.69
390.961	82.69
391.186	86.69
391.411	89.69
391.636	89.69
391.86	101.69
392.085	83.69
392.31	100.69
392.534	89.69
392.759	96.69
392.984	94.69
393.208	90.69
393.433	93.69
393.658	87.69
393.882	82.69
394.107	79.69
394.331	88.69
394.556	89.69
394.78	70.69
395.005	91.69
395.229	82.69
395.454	99.69
395.678	86.69
395.903	99.69
396.127	93.69
396.352	82.69
396.576	95.69
396.801	87.69
397.025	85.69
397.249	83.69
397.474	100.69
397.698	79.69
397.922	100.69
398.147	107.69
398.371	82.69
398.595	82.69
398.82	85.69
399.044	89.69
399.268	97.69
399.492	87.69
399.717	104.69
399.941	99.69
400.165	94.69
400.389	80.69
400.613	90.69
400.837	79.69
401.062	99.69
401.286	86.69
401.51	86.69
401.734	97.69
401.958	89.69
402.182	94.69
402.406	100.69
402.63	84.69
402.854	104.69
403.078	94.69
403.302	89.69
403.526	89.69
403.75	111.69
403.974	105.69
404.198	103.69
404.422	103.69
404.645	90.69
404.869	110.69
405.093	89.69
405.317	103.69
405.541	96.69
405.765	94.69
405.988	101.69
406.212	84.69
406.436	84.69
406.66	101.69
406.883	86.69
407.107	97.69
407.331	104.69
407.555	102.69
407.778	91.69
408.002	105.69
408.226	89.69
408.449	101.69
408.673	83.69
408.896	109.69
409.12	94.69
409.344	98.69
409.567	92.69
409.791	105.69
410.014	103.69
410.238	98.69
410.461	103.69
410.685	103.69
410.908	93.69
411.132	96.69
411.355	82.69
411.578	95.69
411.802	95.69
412.025	102.69
412.249	82.69
412.472	99.69
412.695	114.69
412.919	88.69
413.142	99.69
413.365	107.69
413.589	102.69
413.812	97.69
414.035	101.69
414.258	99.69
414.482	104.69
414.705	94.69
414.928	90.69
415.151	102.69
415.374	99.69
415.597	88.69
415.821	111.69
416.044	91.69
416.267	119.69
416.49	108.69
416.713	103.69
416.936	108.69
417.159	84.69
417.382	94.69
417.605	96.69
417.828	105.69
418.051	107.69
418.274	109.69
418.497	115.69
418.72	94.69
418.943	102.69
419.166	102.69
419.389	103.69
419.611	103.69
419.834	114.69
420.057	100.69
420.28	101.69
420.503	102.69
420.726	97.69
420.948	95.69
421.171	104.69
421.394	89.69
421.617	103.69
421.839	103.69
422.062	115.69
422.285	104.69
422.507	92.69
422.73	101.69
422.953	105.69
423.175	107.69
423.398	103.69
423.621	99.69
423.843	103.69
424.066	100.69
424.288	106.69
424.511	99.69
424.733	93.69
424.956	117.69
425.178	112.69
425.401	106.69
425.623	115.69
425.846	99.69
426.068	101.69
426.291	104.69
426.513	110.69
426.735	110.69
426.958	106.69
427.18	104.69
427.402	110.69
427.625	86.69
427.847	101.69
428.069	106.69
428.292	93.69
428.514	103.69
428.736	100.69
428.958	86.69
429.181	97.69
429.403	92.69
429.625	92.69
429.847	113.69
430.069	99.69
430.292	103.69
430.514	91.69
430.736	105.69
430.958	104.69
431.18	103.69
431.402	91.69
431.624	102.69
431.846	100.69
432.068	98.69
432.29	97.69
432.512	87.69
432.734	98.69
432.956	113.69
433.178	102.69
433.4	103.69
433.622	107.69
433.844	112.69
434.066	103.69
434.287	94.69
434.509	78.69
434.731	77.69
434.953	92.69
435.175	87.69
435.397	107.69
435.618	94.69
435.84	98.69
436.062	101.69
436.284	103.69
436.505	95.69
436.727	103.69
436.949	104.69
437.17	100.69
437.392	103.69
437.614	106.69
437.835	87.69
438.057	91.69
438.278	91.69
438.5	87.69
438.721	97.69
438.943	110.69
439.165	108.69
439.386	112.69
439.608	112.69
439.829	98.69
440.05	113.69
440.272	103.69
440.493	122.69
440.715	117.69
440.936	108.69
441.158	101.69
441.379	100.69
441.6	103.69
441.822	94.69
442.043	98.69
442.264	110.69
442.486	105.69
442.707	108.69
442.928	99.69
443.149	116.69
443.371	107.69
443.592	117.69
443.813	94.69
444.034	108.69
444.255	96.69
444.476	112.69
444.698	100.69
444.919	126.69
445.14	194.69
445.361	135.69
445.582	109.69
445.803	121.69
446.024	103.69
446.245	102.69
446.466	113.69
446.687	99.69
446.908	102.69
447.129	116.69
447.35	119.69
447.571	124.69
447.792	115.69
448.013	105.69
448.234	116.69
448.455	107.69
448.675	106.69
448.896	110.69
449.117	111.69
449.338	110.69
449.559	102.69
449.779	113.69
450	105.69
450.221	111.69
450.442	118.69
450.662	102.69
450.883	111.69
451.104	102.69
451.324	103.69
451.545	87.69
451.766	87.69
451.986	105.69
452.207	115.69
452.428	112.69
452.648	110.69
452.869	101.69
453.089	110.69
453.31	95.69
453.53	91.69
453.751	96.69
453.971	87.69
454.192	87.69
454.412	96.69
454.633	106.69
454.853	89.69
455.073	105.69
455.294	85.69
455.514	116.69
455.734	100.69
455.955	89.69
456.175	84.69
456.395	88.69
456.616	90.69
456.836	109.69
457.056	107.69
457.276	94.69
457.497	103.69
457.717	96.69
457.937	94.69
458.157	95.69
458.377	90.69
458.598	94.69
458.818	95.69
459.038	75.69
459.258	95.69
459.478	87.69
459.698	92.69
459.918	88.69
460.138	96.69
460.358	97.69
460.578	89.69
460.798	99.69
461.018	118.69
461.238	99.69
461.458	95.69
461.678	107.69
461.898	108.69
462.118	101.69
462.338	111.69
462.558	86.69
462.777	101.69
462.997	95.69
463.217	98.69
463.437	80.69
463.657	102.69
463.876	87.69
464.096	89.69
464.316	86.69
464.536	113.69
464.755	111.69
464.975	103.69
465.195	110.69
465.414	98.69
465.634	92.69
465.854	111.69
466.073	103.69
466.293	96.69
466.512	108.69
466.732	107.69
466.951	102.69
467.171	101.69
467.391	99.69
467.61	109.69
467.829	98.69
468.049	85.69
468.268	106.69
468.488	110.69
468.707	110.69
468.927	97.69
469.146	109.69
469.365	104.69
469.585	105.69
469.804	103.69
470.023	108.69
470.243	108.69
470.462	105.69
470.681	104.69
470.901	119.69
471.12	111.69
471.339	118.69
471.558	111.69
471.777	102.69
471.997	89.69
472.216	101.69
472.435	107.69
472.654	98.69
472.873	103.69
473.092	94.69
473.311	100.69
473.53	102.69
473.749	96.69
473.968	107.69
474.187	96.69
474.406	98.69
474.625	107.69
474.844	110.69
475.063	100.69
475.282	95.69
475.501	114.69
475.72	107.69
475.939	94.69
476.158	107.69
476.377	103.69
476.596	99.69
476.814	103.69
477.033	94.69
477.252	118.69
477.471	91.69
477.69	108.69
477.908	118.69
478.127	116.69
478.346	114.69
478.564	114.69
478.783	91.69
479.002	120.69
479.22	121.69
479.439	103.69
479.658	100.69
479.876	75.69
480.095	90.69
480.313	90.69
480.532	104.69
480.751	103.69
480.969	88.69
481.188	68.69
481.406	85.69
481.624	82.69
481.843	81.69
482.061	93.69
482.28	90.69
482.498	90.69
482.717	85.69
482.935	112.69
483.153	126.69
483.372	110.69
483.59	119.69
483.808	106.69
484.027	106.69
484.245	100.69
484.463	114.69
484.681	121.69
484.9	104.69
485.118	120.69
485.336	108.69
485.554	108.69
485.772	95.69
485.99	94.69
486.209	105.69
486.427	107.69
486.645	101.69
486.863	111.69
487.081	122.69
487.299	112.69
487.517	96.69
487.735	126.69
487.953	146.69
488.171	130.69
488.389	133.69
488.607	115.69
488.825	106.69
489.043	95.69
489.261	107.69
489.479	99.69
489.696	126.69
489.914	102.69
490.132	122.69
490.35	128.69
490.568	115.69
490.786	115.69
491.003	120.69
491.221	130.69
491.439	138.69
491.657	123.69
491.874	144.69
492.092	146.69
492.31	155.69
492.527	150.69
492.745	151.69
492.963	132.69
493.18	126.69
493.398	128.69
493.615	137.69
493.833	142.69
494.05	130.69
494.268	119.69
494.485	122.69
494.703	115.69
494.92	120.69
495.138	119.69
495.355	130.69
495.573	121.69
495.79	121.69
496.008	120.69
496.225	131.69
496.442	138.69
496.66	117.69
496.877	123.69
497.094	115.69
497.312	97.69
497.529	100.69
497.746	118.69
497.963	92.69
498.181	99.69
498.398	96.69
498.615	105.69
498.832	107.69
499.049	92.69
499.267	107.69
499.484	110.69
499.701	107.69
499.918	99.69
500.135	89.69
500.352	103.69
500.569	111.69
500.786	126.69
501.003	108.69
501.22	98.69
501.437	112.69
501.654	100.69
501.871	101.69
502.088	97.69
502.305	117.69
502.522	106.69
502.739	112.69
502.956	111.69
503.172	98.69
503.389	95.69
503.606	90.69
503.823	104.69
504.04	110.69
504.256	87.69
504.473	112.69
504.69	107.69
504.907	107.69
505.123	107.69
505.34	99.69
505.557	100.69
505.773	107.69
505.99	91.69
506.207	98.69
506.423	90.69
506.64	101.69
506.856	92.69
507.073	102.69
507.289	115.69
507.506	104.69
507.722	93.69
507.939	98.69
508.155	105.69
508.372	93.69
508.588	95.69
508.805	86.69
509.021	94.69
509.238	93.69
509.454	105.69
509.67	96.69
509.887	88.69
510.103	84.69
510.319	90.69
510.536	83.69
510.752	79.69
510.968	77.69
511.184	81.69
511.401	82.69
511.617	87.69
511.833	77.69
512.049	80.69
512.265	95.69
512.481	84.69
512.698	78.69
512.914	94.69
513.13	95.69
513.346	87.69
513.562	99.69
513.778	98.69
513.994	83.69
514.21	75.69
514.426	82.69
514.642	82.69
514.858	74.69
