Data from Zn(NO3)2Standard.Agarose3%.GreenCap.LampEnergy5.5.E.O_HRD10591_15-02-13-767.txt Node
Date: Mon Jul 22 15:02:13 EDT 2019
User: cochatt
Spectrometer: HR+D1059
Trigger mode: 1
Integration Time (sec): 1.000000E-1
Scans to average: 1
Electric dark correction enabled: true
Nonlinearity correction enabled: false
Boxcar width: 0
XAxis mode: Wavelengths
Number of Pixels in Spectrum: 2048
>>>>>Begin Spectral Data<<<<<
223.165	2.56
223.4	2.56
223.635	2.56
223.869	-29.44
224.104	-22.44
224.338	-12.44
224.573	-14.44
224.808	-2.44
225.042	-3.44
225.277	-13.44
225.511	-7.44
225.746	7.56
225.98	14.56
226.215	13.56
226.449	5.56
226.683	17.56
226.918	18.56
227.152	25.56
227.387	33.56
227.621	40.56
227.856	44.56
228.09	46.56
228.324	60.56
228.559	64.56
228.793	53.56
229.027	78.56
229.262	66.56
229.496	72.56
229.73	76.56
229.964	64.56
230.199	85.56
230.433	66.56
230.667	82.56
230.901	62.56
231.136	79.56
231.37	75.56
231.604	83.56
231.838	79.56
232.072	85.56
232.306	75.56
232.541	95.56
232.775	83.56
233.009	100.56
233.243	92.56
233.477	93.56
233.711	78.56
233.945	79.56
234.179	93.56
234.413	89.56
234.647	77.56
234.881	73.56
235.115	77.56
235.349	80.56
235.583	92.56
235.817	88.56
236.051	89.56
236.285	77.56
236.519	78.56
236.753	80.56
236.987	78.56
237.221	68.56
237.455	66.56
237.689	81.56
237.922	75.56
238.156	67.56
238.39	80.56
238.624	83.56
238.858	84.56
239.091	70.56
239.325	68.56
239.559	82.56
239.793	64.56
240.027	84.56
240.26	83.56
240.494	87.56
240.728	84.56
240.961	78.56
241.195	80.56
241.429	73.56
241.662	76.56
241.896	73.56
242.13	58.56
242.363	82.56
242.597	83.56
242.83	71.56
243.064	84.56
243.298	85.56
243.531	84.56
243.765	75.56
243.998	95.56
244.232	69.56
244.465	73.56
244.699	78.56
244.932	74.56
245.166	67.56
245.399	79.56
245.633	85.56
245.866	80.56
246.099	84.56
246.333	78.56
246.566	101.56
246.8	72.56
247.033	75.56
247.266	74.56
247.5	87.56
247.733	86.56
247.966	90.56
248.2	71.56
248.433	72.56
248.666	71.56
248.899	83.56
249.133	75.56
249.366	76.56
249.599	80.56
249.832	59.56
250.066	88.56
250.299	77.56
250.532	78.56
250.765	78.56
250.998	83.56
251.231	72.56
251.465	87.56
251.698	81.56
251.931	77.56
252.164	92.56
252.397	75.56
252.63	84.56
252.863	85.56
253.096	88.56
253.329	80.56
253.562	83.56
253.795	79.56
254.028	79.56
254.261	71.56
254.494	84.56
254.727	78.56
254.96	90.56
255.193	88.56
255.426	78.56
255.659	82.56
255.892	85.56
256.124	61.56
256.357	73.56
256.59	84.56
256.823	86.56
257.056	79.56
257.289	91.56
257.521	80.56
257.754	80.56
257.987	86.56
258.22	69.56
258.452	84.56
258.685	93.56
258.918	78.56
259.151	78.56
259.383	82.56
259.616	81.56
259.849	95.56
260.081	88.56
260.314	93.56
260.547	66.56
260.779	77.56
261.012	94.56
261.244	89.56
261.477	92.56
261.71	77.56
261.942	69.56
262.175	86.56
262.407	69.56
262.64	71.56
262.872	72.56
263.105	84.56
263.337	79.56
263.57	73.56
263.802	96.56
264.035	95.56
264.267	77.56
264.499	88.56
264.732	84.56
264.964	69.56
265.197	80.56
265.429	91.56
265.661	84.56
265.894	87.56
266.126	81.56
266.358	72.56
266.591	79.56
266.823	79.56
267.055	78.56
267.287	87.56
267.52	81.56
267.752	88.56
267.984	83.56
268.216	80.56
268.448	79.56
268.681	87.56
268.913	80.56
269.145	86.56
269.377	76.56
269.609	92.56
269.841	93.56
270.073	87.56
270.306	79.56
270.538	80.56
270.77	77.56
271.002	85.56
271.234	90.56
271.466	87.56
271.698	62.56
271.93	77.56
272.162	76.56
272.394	84.56
272.626	79.56
272.858	80.56
273.09	73.56
273.322	70.56
273.553	85.56
273.785	91.56
274.017	78.56
274.249	91.56
274.481	76.56
274.713	73.56
274.945	86.56
275.176	77.56
275.408	85.56
275.64	79.56
275.872	96.56
276.104	82.56
276.335	84.56
276.567	73.56
276.799	81.56
277.031	80.56
277.262	74.56
277.494	77.56
277.726	77.56
277.957	77.56
278.189	84.56
278.421	74.56
278.652	79.56
278.884	89.56
279.115	70.56
279.347	80.56
279.579	89.56
279.81	87.56
280.042	89.56
280.273	81.56
280.505	106.56
280.736	90.56
280.968	86.56
281.199	97.56
281.431	74.56
281.662	93.56
281.894	88.56
282.125	85.56
282.356	82.56
282.588	100.56
282.819	79.56
283.051	77.56
283.282	90.56
283.513	89.56
283.745	79.56
283.976	83.56
284.207	89.56
284.439	78.56
284.67	83.56
284.901	79.56
285.132	96.56
285.364	80.56
285.595	96.56
285.826	91.56
286.057	91.56
286.288	87.56
286.52	76.56
286.751	98.56
286.982	90.56
287.213	92.56
287.444	103.56
287.675	86.56
287.906	90.56
288.138	83.56
288.369	78.56
288.6	80.56
288.831	73.56
289.062	88.56
289.293	81.56
289.524	77.56
289.755	88.56
289.986	88.56
290.217	77.56
290.448	84.56
290.679	87.56
290.91	93.56
291.141	72.56
291.371	83.56
291.602	89.56
291.833	91.56
292.064	94.56
292.295	82.56
292.526	82.56
292.757	74.56
292.987	83.56
293.218	84.56
293.449	93.56
293.68	80.56
293.91	75.56
294.141	83.56
294.372	94.56
294.603	71.56
294.833	75.56
295.064	97.56
295.295	97.56
295.525	87.56
295.756	84.56
295.987	84.56
296.217	84.56
296.448	91.56
296.679	98.56
296.909	88.56
297.14	90.56
297.37	97.56
297.601	85.56
297.831	92.56
298.062	90.56
298.292	85.56
298.523	85.56
298.753	87.56
298.984	82.56
299.214	92.56
299.445	90.56
299.675	86.56
299.905	95.56
300.136	80.56
300.366	78.56
300.597	83.56
300.827	98.56
301.057	77.56
301.288	84.56
301.518	84.56
301.748	80.56
301.979	88.56
302.209	83.56
302.439	82.56
302.669	94.56
302.9	82.56
303.13	89.56
303.36	77.56
303.59	90.56
303.82	72.56
304.051	83.56
304.281	88.56
304.511	101.56
304.741	95.56
304.971	89.56
305.201	86.56
305.431	85.56
305.661	87.56
305.891	83.56
306.121	93.56
306.352	88.56
306.582	88.56
306.812	89.56
307.042	85.56
307.272	77.56
307.502	82.56
307.731	79.56
307.961	83.56
308.191	90.56
308.421	83.56
308.651	80.56
308.881	97.56
309.111	78.56
309.341	81.56
309.571	79.56
309.8	87.56
310.03	91.56
310.26	83.56
310.49	70.56
310.72	90.56
310.949	87.56
311.179	91.56
311.409	75.56
311.639	78.56
311.868	97.56
312.098	82.56
312.328	90.56
312.557	80.56
312.787	88.56
313.017	90.56
313.246	83.56
313.476	82.56
313.706	86.56
313.935	70.56
314.165	85.56
314.394	81.56
314.624	84.56
314.853	92.56
315.083	76.56
315.312	89.56
315.542	83.56
315.771	91.56
316.001	103.56
316.23	76.56
316.46	85.56
316.689	101.56
316.919	84.56
317.148	94.56
317.377	79.56
317.607	75.56
317.836	88.56
318.065	87.56
318.295	78.56
318.524	93.56
318.753	100.56
318.983	76.56
319.212	73.56
319.441	85.56
319.67	90.56
319.9	87.56
320.129	83.56
320.358	82.56
320.587	98.56
320.816	78.56
321.046	74.56
321.275	88.56
321.504	87.56
321.733	84.56
321.962	90.56
322.191	91.56
322.42	70.56
322.649	67.56
322.878	97.56
323.108	77.56
323.337	81.56
323.566	83.56
323.795	76.56
324.024	93.56
324.253	69.56
324.482	78.56
324.71	84.56
324.939	92.56
325.168	104.56
325.397	85.56
325.626	81.56
325.855	73.56
326.084	75.56
326.313	94.56
326.542	80.56
326.77	90.56
326.999	73.56
327.228	85.56
327.457	78.56
327.686	86.56
327.914	86.56
328.143	85.56
328.372	74.56
328.6	78.56
328.829	92.56
329.058	88.56
329.287	87.56
329.515	72.56
329.744	85.56
329.972	88.56
330.201	79.56
330.43	91.56
330.658	85.56
330.887	74.56
331.115	85.56
331.344	76.56
331.572	80.56
331.801	96.56
332.03	69.56
332.258	84.56
332.486	85.56
332.715	84.56
332.943	74.56
333.172	92.56
333.4	89.56
333.629	89.56
333.857	85.56
334.085	79.56
334.314	76.56
334.542	79.56
334.771	80.56
334.999	83.56
335.227	87.56
335.455	83.56
335.684	87.56
335.912	86.56
336.14	80.56
336.369	92.56
336.597	76.56
336.825	84.56
337.053	76.56
337.281	86.56
337.51	75.56
337.738	92.56
337.966	84.56
338.194	89.56
338.422	97.56
338.65	104.56
338.878	78.56
339.106	92.56
339.334	82.56
339.562	88.56
339.79	79.56
340.018	85.56
340.246	88.56
340.474	83.56
340.702	85.56
340.93	82.56
341.158	104.56
341.386	67.56
341.614	76.56
341.842	73.56
342.07	75.56
342.298	70.56
342.526	85.56
342.754	89.56
342.981	76.56
343.209	85.56
343.437	82.56
343.665	84.56
343.893	87.56
344.12	93.56
344.348	81.56
344.576	91.56
344.804	93.56
345.031	72.56
345.259	62.56
345.487	77.56
345.714	88.56
345.942	79.56
346.17	88.56
346.397	94.56
346.625	76.56
346.853	85.56
347.08	86.56
347.308	78.56
347.535	82.56
347.763	90.56
347.99	87.56
348.218	80.56
348.445	96.56
348.673	83.56
348.9	96.56
349.128	99.56
349.355	76.56
349.583	78.56
349.81	91.56
350.037	87.56
350.265	89.56
350.492	72.56
350.72	70.56
350.947	83.56
351.174	83.56
351.402	100.56
351.629	83.56
351.856	80.56
352.083	83.56
352.311	84.56
352.538	75.56
352.765	84.56
352.992	75.56
353.22	78.56
353.447	70.56
353.674	94.56
353.901	94.56
354.128	82.56
354.355	98.56
354.583	84.56
354.81	77.56
355.037	80.56
355.264	90.56
355.491	87.56
355.718	86.56
355.945	86.56
356.172	78.56
356.399	76.56
356.626	76.56
356.853	81.56
357.08	96.56
357.307	75.56
357.534	78.56
357.761	99.56
357.988	81.56
358.215	82.56
358.441	81.56
358.668	78.56
358.895	80.56
359.122	82.56
359.349	76.56
359.576	81.56
359.802	78.56
360.029	86.56
360.256	87.56
360.483	73.56
360.709	78.56
360.936	88.56
361.163	106.56
361.39	87.56
361.616	86.56
361.843	81.56
362.07	82.56
362.296	89.56
362.523	68.56
362.749	83.56
362.976	84.56
363.203	94.56
363.429	82.56
363.656	84.56
363.882	80.56
364.109	96.56
364.335	97.56
364.562	81.56
364.788	67.56
365.015	82.56
365.241	85.56
365.468	99.56
365.694	65.56
365.92	79.56
366.147	79.56
366.373	74.56
366.599	79.56
366.826	92.56
367.052	77.56
367.278	91.56
367.505	82.56
367.731	87.56
367.957	88.56
368.184	79.56
368.41	78.56
368.636	86.56
368.862	84.56
369.089	83.56
369.315	75.56
369.541	86.56
369.767	83.56
369.993	79.56
370.219	75.56
370.445	80.56
370.672	90.56
370.898	76.56
371.124	78.56
371.35	77.56
371.576	92.56
371.802	80.56
372.028	77.56
372.254	73.56
372.48	85.56
372.706	78.56
372.932	80.56
373.158	69.56
373.384	85.56
373.61	83.56
373.835	85.56
374.061	91.56
374.287	81.56
374.513	80.56
374.739	87.56
374.965	89.56
375.191	84.56
375.416	86.56
375.642	83.56
375.868	98.56
376.094	81.56
376.319	86.56
376.545	79.56
376.771	67.56
376.997	82.56
377.222	81.56
377.448	90.56
377.674	75.56
377.899	79.56
378.125	81.56
378.35	87.56
378.576	90.56
378.802	75.56
379.027	93.56
379.253	84.56
379.478	82.56
379.704	91.56
379.929	76.56
380.155	81.56
380.38	70.56
380.606	84.56
380.831	78.56
381.057	88.56
381.282	81.56
381.507	75.56
381.733	95.56
381.958	84.56
382.184	92.56
382.409	70.56
382.634	81.56
382.86	99.56
383.085	85.56
383.31	91.56
383.535	78.56
383.761	86.56
383.986	82.56
384.211	81.56
384.436	85.56
384.662	80.56
384.887	81.56
385.112	83.56
385.337	81.56
385.562	72.56
385.787	83.56
386.013	88.56
386.238	74.56
386.463	92.56
386.688	96.56
386.913	84.56
387.138	77.56
387.363	65.56
387.588	83.56
387.813	77.56
388.038	94.56
388.263	82.56
388.488	93.56
388.713	81.56
388.938	87.56
389.163	91.56
389.387	82.56
389.612	84.56
389.837	77.56
390.062	93.56
390.287	80.56
390.512	85.56
390.736	74.56
390.961	79.56
391.186	91.56
391.411	81.56
391.636	83.56
391.86	80.56
392.085	83.56
392.31	96.56
392.534	86.56
392.759	79.56
392.984	85.56
393.208	85.56
393.433	85.56
393.658	83.56
393.882	85.56
394.107	89.56
394.331	87.56
394.556	70.56
394.78	70.56
395.005	74.56
395.229	70.56
395.454	84.56
395.678	75.56
395.903	77.56
396.127	82.56
396.352	69.56
396.576	86.56
396.801	87.56
397.025	78.56
397.249	78.56
397.474	86.56
397.698	88.56
397.922	83.56
398.147	86.56
398.371	89.56
398.595	69.56
398.82	85.56
399.044	79.56
399.268	71.56
399.492	84.56
399.717	84.56
399.941	87.56
400.165	81.56
400.389	65.56
400.613	77.56
400.837	76.56
401.062	91.56
401.286	71.56
401.51	77.56
401.734	95.56
401.958	77.56
402.182	87.56
402.406	72.56
402.63	80.56
402.854	95.56
403.078	77.56
403.302	84.56
403.526	90.56
403.75	80.56
403.974	88.56
404.198	91.56
404.422	78.56
404.645	70.56
404.869	86.56
405.093	96.56
405.317	78.56
405.541	90.56
405.765	71.56
405.988	89.56
406.212	72.56
406.436	76.56
406.66	91.56
406.883	93.56
407.107	71.56
407.331	81.56
407.555	88.56
407.778	94.56
408.002	89.56
408.226	77.56
408.449	82.56
408.673	78.56
408.896	87.56
409.12	75.56
409.344	96.56
409.567	85.56
409.791	90.56
410.014	90.56
410.238	87.56
410.461	92.56
410.685	78.56
410.908	81.56
411.132	86.56
411.355	87.56
411.578	82.56
411.802	83.56
412.025	85.56
412.249	74.56
412.472	80.56
412.695	77.56
412.919	86.56
413.142	82.56
413.365	74.56
413.589	95.56
413.812	90.56
414.035	88.56
414.258	92.56
414.482	90.56
414.705	100.56
414.928	81.56
415.151	76.56
415.374	81.56
415.597	76.56
415.821	88.56
416.044	70.56
416.267	78.56
416.49	70.56
416.713	99.56
416.936	83.56
417.159	89.56
417.382	90.56
417.605	81.56
417.828	82.56
418.051	97.56
418.274	77.56
418.497	86.56
418.72	83.56
418.943	79.56
419.166	81.56
419.389	74.56
419.611	75.56
419.834	85.56
420.057	69.56
420.28	83.56
420.503	91.56
420.726	90.56
420.948	81.56
421.171	86.56
421.394	93.56
421.617	82.56
421.839	94.56
422.062	88.56
422.285	72.56
422.507	85.56
422.73	97.56
422.953	85.56
423.175	80.56
423.398	92.56
423.621	84.56
423.843	86.56
424.066	87.56
424.288	85.56
424.511	82.56
424.733	96.56
424.956	94.56
425.178	84.56
425.401	78.56
425.623	90.56
425.846	85.56
426.068	80.56
426.291	91.56
426.513	64.56
426.735	88.56
426.958	97.56
427.18	95.56
427.402	101.56
427.625	84.56
427.847	92.56
428.069	88.56
428.292	81.56
428.514	93.56
428.736	97.56
428.958	73.56
429.181	92.56
429.403	97.56
429.625	98.56
429.847	105.56
430.069	96.56
430.292	94.56
430.514	92.56
430.736	80.56
430.958	85.56
431.18	94.56
431.402	90.56
431.624	91.56
431.846	89.56
432.068	90.56
432.29	75.56
432.512	87.56
432.734	91.56
432.956	83.56
433.178	85.56
433.4	97.56
433.622	91.56
433.844	76.56
434.066	72.56
434.287	92.56
434.509	90.56
434.731	86.56
434.953	100.56
435.175	93.56
435.397	88.56
435.618	66.56
435.84	72.56
436.062	87.56
436.284	86.56
436.505	65.56
436.727	90.56
436.949	76.56
437.17	87.56
437.392	93.56
437.614	85.56
437.835	90.56
438.057	84.56
438.278	80.56
438.5	84.56
438.721	84.56
438.943	88.56
439.165	85.56
439.386	88.56
439.608	87.56
439.829	90.56
440.05	88.56
440.272	97.56
440.493	101.56
440.715	92.56
440.936	83.56
441.158	85.56
441.379	89.56
441.6	107.56
441.822	78.56
442.043	88.56
442.264	92.56
442.486	84.56
442.707	81.56
442.928	90.56
443.149	83.56
443.371	90.56
443.592	91.56
443.813	85.56
444.034	96.56
444.255	93.56
444.476	91.56
444.698	69.56
444.919	84.56
445.14	212.56
445.361	132.56
445.582	106.56
445.803	83.56
446.024	89.56
446.245	84.56
446.466	91.56
446.687	84.56
446.908	86.56
447.129	86.56
447.35	93.56
447.571	85.56
447.792	88.56
448.013	91.56
448.234	94.56
448.455	97.56
448.675	93.56
448.896	79.56
449.117	84.56
449.338	96.56
449.559	96.56
449.779	74.56
450	92.56
450.221	87.56
450.442	84.56
450.662	88.56
450.883	86.56
451.104	86.56
451.324	98.56
451.545	84.56
451.766	95.56
451.986	87.56
452.207	90.56
452.428	89.56
452.648	99.56
452.869	90.56
453.089	93.56
453.31	99.56
453.53	87.56
453.751	90.56
453.971	71.56
454.192	87.56
454.412	94.56
454.633	92.56
454.853	85.56
455.073	90.56
455.294	83.56
455.514	85.56
455.734	84.56
455.955	83.56
456.175	91.56
456.395	92.56
456.616	77.56
456.836	70.56
457.056	75.56
457.276	97.56
457.497	71.56
457.717	89.56
457.937	83.56
458.157	89.56
458.377	78.56
458.598	74.56
458.818	78.56
459.038	75.56
459.258	82.56
459.478	76.56
459.698	79.56
459.918	90.56
460.138	89.56
460.358	85.56
460.578	89.56
460.798	69.56
461.018	70.56
461.238	96.56
461.458	84.56
461.678	75.56
461.898	75.56
462.118	85.56
462.338	88.56
462.558	83.56
462.777	92.56
462.997	72.56
463.217	80.56
463.437	86.56
463.657	86.56
463.876	90.56
464.096	89.56
464.316	76.56
464.536	92.56
464.755	101.56
464.975	91.56
465.195	91.56
465.414	81.56
465.634	75.56
465.854	93.56
466.073	84.56
466.293	72.56
466.512	86.56
466.732	84.56
466.951	89.56
467.171	73.56
467.391	86.56
467.61	75.56
467.829	79.56
468.049	80.56
468.268	76.56
468.488	86.56
468.707	89.56
468.927	88.56
469.146	84.56
469.365	94.56
469.585	101.56
469.804	78.56
470.023	98.56
470.243	95.56
470.462	85.56
470.681	92.56
470.901	85.56
471.12	109.56
471.339	102.56
471.558	99.56
471.777	110.56
471.997	108.56
472.216	100.56
472.435	68.56
472.654	81.56
472.873	93.56
473.092	84.56
473.311	97.56
473.53	86.56
473.749	84.56
473.968	94.56
474.187	94.56
474.406	93.56
474.625	87.56
474.844	92.56
475.063	74.56
475.282	82.56
475.501	77.56
475.72	88.56
475.939	99.56
476.158	83.56
476.377	81.56
476.596	80.56
476.814	89.56
477.033	84.56
477.252	88.56
477.471	88.56
477.69	81.56
477.908	97.56
478.127	97.56
478.346	98.56
478.564	88.56
478.783	87.56
479.002	85.56
479.22	98.56
479.439	84.56
479.658	78.56
479.876	73.56
480.095	67.56
480.313	76.56
480.532	93.56
480.751	104.56
480.969	75.56
481.188	81.56
481.406	86.56
481.624	94.56
481.843	89.56
482.061	78.56
482.28	77.56
482.498	92.56
482.717	101.56
482.935	78.56
483.153	99.56
483.372	88.56
483.59	90.56
483.808	87.56
484.027	86.56
484.245	76.56
484.463	76.56
484.681	87.56
484.9	77.56
485.118	101.56
485.336	77.56
485.554	76.56
485.772	80.56
485.99	75.56
486.209	78.56
486.427	84.56
486.645	87.56
486.863	84.56
487.081	71.56
487.299	97.56
487.517	85.56
487.735	96.56
487.953	88.56
488.171	109.56
488.389	114.56
488.607	91.56
488.825	99.56
489.043	94.56
489.261	88.56
489.479	92.56
489.696	89.56
489.914	98.56
490.132	95.56
490.35	85.56
490.568	90.56
490.786	107.56
491.003	93.56
491.221	97.56
491.439	88.56
491.657	97.56
491.874	117.56
492.092	109.56
492.31	94.56
492.527	113.56
492.745	106.56
492.963	96.56
493.18	93.56
493.398	102.56
493.615	109.56
493.833	99.56
494.05	96.56
494.268	94.56
494.485	104.56
494.703	90.56
494.92	96.56
495.138	84.56
495.355	103.56
495.573	85.56
495.79	91.56
496.008	101.56
496.225	97.56
496.442	95.56
496.66	99.56
496.877	95.56
497.094	96.56
497.312	87.56
497.529	120.56
497.746	83.56
497.963	89.56
498.181	85.56
498.398	87.56
498.615	99.56
498.832	88.56
499.049	87.56
499.267	92.56
499.484	86.56
499.701	104.56
499.918	76.56
500.135	89.56
500.352	84.56
500.569	88.56
500.786	105.56
501.003	85.56
501.22	98.56
501.437	90.56
501.654	92.56
501.871	84.56
502.088	93.56
502.305	88.56
502.522	86.56
502.739	89.56
502.956	89.56
503.172	81.56
503.389	100.56
503.606	104.56
503.823	83.56
504.04	92.56
504.256	91.56
504.473	78.56
504.69	89.56
504.907	100.56
505.123	86.56
505.34	78.56
505.557	86.56
505.773	92.56
505.99	83.56
506.207	73.56
506.423	87.56
506.64	89.56
506.856	94.56
507.073	89.56
507.289	91.56
507.506	97.56
507.722	84.56
507.939	87.56
508.155	85.56
508.372	93.56
508.588	89.56
508.805	86.56
509.021	92.56
509.238	69.56
509.454	73.56
509.67	83.56
509.887	86.56
510.103	87.56
510.319	80.56
510.536	91.56
510.752	86.56
510.968	79.56
511.184	92.56
511.401	89.56
511.617	83.56
511.833	81.56
512.049	76.56
512.265	91.56
512.481	76.56
512.698	89.56
512.914	84.56
513.13	85.56
513.346	84.56
513.562	89.56
513.778	88.56
513.994	84.56
514.21	86.56
514.426	83.56
514.642	77.56
514.858	84.56
515.074	84.56
515.29	86.56
515.506	81.56
515.721	94.56
515.937	71.56
516.153	74.56
516.369	79.56
516.585	82.56
516.801	93.56
517.016	73.56
517.232	73.56
517.448	82.56
517.664	82.56
517.879	90.56
518.095	79.56
518.311	86.56
518.527	86.56
518.742	88.56
