Data from Zn(NO3)2Standard.Agarose3%.GreenCap.LampEnergy10E.O_HRD10591_15-08-48-951.txt Node
Date: Mon Jul 22 15:08:48 EDT 2019
User: cochatt
Spectrometer: HR+D1059
Trigger mode: 1
Integration Time (sec): 1.000000E-1
Scans to average: 1
Electric dark correction enabled: true
Nonlinearity correction enabled: false
Boxcar width: 0
XAxis mode: Wavelengths
Number of Pixels in Spectrum: 2048
>>>>>Begin Spectral Data<<<<<
223.165	-16.56
223.4	-16.56
223.635	-16.56
223.869	-20.56
224.104	-14.56
224.338	-7.56
224.573	-18.56
224.808	-15.56
225.042	-1.56
225.277	-5.56
225.511	-16.56
225.746	0.44
225.98	13.44
226.215	7.44
226.449	8.44
226.683	30.44
226.918	23.44
227.152	33.44
227.387	39.44
227.621	43.44
227.856	46.44
228.09	41.44
228.324	51.44
228.559	60.44
228.793	54.44
229.027	69.44
229.262	84.44
229.496	71.44
229.73	59.44
229.964	64.44
230.199	75.44
230.433	77.44
230.667	84.44
230.901	71.44
231.136	79.44
231.37	94.44
231.604	68.44
231.838	79.44
232.072	76.44
232.306	90.44
232.541	91.44
232.775	88.44
233.009	80.44
233.243	84.44
233.477	86.44
233.711	86.44
233.945	70.44
234.179	83.44
234.413	82.44
234.647	78.44
234.881	71.44
235.115	78.44
235.349	77.44
235.583	86.44
235.817	79.44
236.051	68.44
236.285	66.44
236.519	68.44
236.753	79.44
236.987	80.44
237.221	81.44
237.455	68.44
237.689	85.44
237.922	76.44
238.156	82.44
238.39	64.44
238.624	73.44
238.858	74.44
239.091	70.44
239.325	77.44
239.559	75.44
239.793	73.44
240.027	76.44
240.26	94.44
240.494	85.44
240.728	76.44
240.961	72.44
241.195	79.44
241.429	79.44
241.662	80.44
241.896	91.44
242.13	83.44
242.363	68.44
242.597	70.44
242.83	76.44
243.064	88.44
243.298	73.44
243.531	88.44
243.765	84.44
243.998	66.44
244.232	91.44
244.465	66.44
244.699	79.44
244.932	79.44
245.166	79.44
245.399	60.44
245.633	79.44
245.866	67.44
246.099	80.44
246.333	79.44
246.566	73.44
246.8	82.44
247.033	80.44
247.266	78.44
247.5	65.44
247.733	87.44
247.966	74.44
248.2	64.44
248.433	89.44
248.666	91.44
248.899	82.44
249.133	85.44
249.366	84.44
249.599	75.44
249.832	77.44
250.066	84.44
250.299	79.44
250.532	66.44
250.765	73.44
250.998	78.44
251.231	71.44
251.465	77.44
251.698	77.44
251.931	84.44
252.164	87.44
252.397	86.44
252.63	77.44
252.863	88.44
253.096	90.44
253.329	84.44
253.562	89.44
253.795	80.44
254.028	86.44
254.261	96.44
254.494	82.44
254.727	88.44
254.96	87.44
255.193	91.44
255.426	77.44
255.659	84.44
255.892	89.44
256.124	92.44
256.357	96.44
256.59	93.44
256.823	63.44
257.056	88.44
257.289	90.44
257.521	87.44
257.754	86.44
257.987	74.44
258.22	74.44
258.452	84.44
258.685	79.44
258.918	94.44
259.151	75.44
259.383	72.44
259.616	76.44
259.849	78.44
260.081	80.44
260.314	80.44
260.547	70.44
260.779	77.44
261.012	76.44
261.244	79.44
261.477	82.44
261.71	91.44
261.942	78.44
262.175	79.44
262.407	73.44
262.64	84.44
262.872	72.44
263.105	84.44
263.337	91.44
263.57	86.44
263.802	75.44
264.035	82.44
264.267	86.44
264.499	88.44
264.732	86.44
264.964	79.44
265.197	86.44
265.429	83.44
265.661	92.44
265.894	92.44
266.126	101.44
266.358	65.44
266.591	84.44
266.823	75.44
267.055	77.44
267.287	82.44
267.52	81.44
267.752	91.44
267.984	75.44
268.216	75.44
268.448	82.44
268.681	88.44
268.913	83.44
269.145	89.44
269.377	77.44
269.609	88.44
269.841	90.44
270.073	78.44
270.306	92.44
270.538	90.44
270.77	78.44
271.002	84.44
271.234	84.44
271.466	84.44
271.698	104.44
271.93	82.44
272.162	54.44
272.394	97.44
272.626	94.44
272.858	72.44
273.09	90.44
273.322	83.44
273.553	86.44
273.785	93.44
274.017	97.44
274.249	98.44
274.481	88.44
274.713	83.44
274.945	93.44
275.176	68.44
275.408	96.44
275.64	91.44
275.872	91.44
276.104	81.44
276.335	70.44
276.567	82.44
276.799	79.44
277.031	94.44
277.262	95.44
277.494	88.44
277.726	91.44
277.957	91.44
278.189	73.44
278.421	94.44
278.652	96.44
278.884	95.44
279.115	90.44
279.347	98.44
279.579	94.44
279.81	89.44
280.042	95.44
280.273	80.44
280.505	80.44
280.736	93.44
280.968	92.44
281.199	89.44
281.431	84.44
281.662	94.44
281.894	88.44
282.125	87.44
282.356	90.44
282.588	84.44
282.819	81.44
283.051	89.44
283.282	93.44
283.513	88.44
283.745	87.44
283.976	86.44
284.207	92.44
284.439	77.44
284.67	68.44
284.901	74.44
285.132	91.44
285.364	104.44
285.595	100.44
285.826	88.44
286.057	90.44
286.288	95.44
286.52	85.44
286.751	94.44
286.982	82.44
287.213	90.44
287.444	89.44
287.675	76.44
287.906	95.44
288.138	86.44
288.369	91.44
288.6	86.44
288.831	75.44
289.062	88.44
289.293	102.44
289.524	95.44
289.755	84.44
289.986	81.44
290.217	80.44
290.448	93.44
290.679	101.44
290.91	84.44
291.141	80.44
291.371	78.44
291.602	82.44
291.833	82.44
292.064	86.44
292.295	77.44
292.526	98.44
292.757	82.44
292.987	90.44
293.218	86.44
293.449	78.44
293.68	99.44
293.91	90.44
294.141	80.44
294.372	78.44
294.603	87.44
294.833	78.44
295.064	70.44
295.295	78.44
295.525	78.44
295.756	90.44
295.987	91.44
296.217	86.44
296.448	91.44
296.679	91.44
296.909	96.44
297.14	78.44
297.37	98.44
297.601	87.44
297.831	85.44
298.062	88.44
298.292	82.44
298.523	89.44
298.753	77.44
298.984	68.44
299.214	73.44
299.445	97.44
299.675	100.44
299.905	96.44
300.136	90.44
300.366	85.44
300.597	90.44
300.827	87.44
301.057	97.44
301.288	92.44
301.518	76.44
301.748	92.44
301.979	77.44
302.209	73.44
302.439	84.44
302.669	73.44
302.9	92.44
303.13	89.44
303.36	87.44
303.59	101.44
303.82	94.44
304.051	84.44
304.281	94.44
304.511	104.44
304.741	81.44
304.971	86.44
305.201	86.44
305.431	78.44
305.661	84.44
305.891	92.44
306.121	88.44
306.352	96.44
306.582	84.44
306.812	86.44
307.042	90.44
307.272	78.44
307.502	80.44
307.731	88.44
307.961	96.44
308.191	94.44
308.421	82.44
308.651	85.44
308.881	91.44
309.111	81.44
309.341	89.44
309.571	94.44
309.8	85.44
310.03	68.44
310.26	70.44
310.49	80.44
310.72	82.44
310.949	79.44
311.179	88.44
311.409	89.44
311.639	80.44
311.868	95.44
312.098	88.44
312.328	90.44
312.557	84.44
312.787	88.44
313.017	84.44
313.246	85.44
313.476	99.44
313.706	99.44
313.935	93.44
314.165	95.44
314.394	83.44
314.624	73.44
314.853	97.44
315.083	100.44
315.312	73.44
315.542	85.44
315.771	80.44
316.001	95.44
316.23	82.44
316.46	86.44
316.689	99.44
316.919	77.44
317.148	78.44
317.377	83.44
317.607	91.44
317.836	79.44
318.065	86.44
318.295	83.44
318.524	82.44
318.753	92.44
318.983	87.44
319.212	84.44
319.441	86.44
319.67	95.44
319.9	87.44
320.129	81.44
320.358	99.44
320.587	98.44
320.816	86.44
321.046	74.44
321.275	82.44
321.504	90.44
321.733	77.44
321.962	104.44
322.191	88.44
322.42	98.44
322.649	86.44
322.878	94.44
323.108	86.44
323.337	84.44
323.566	80.44
323.795	91.44
324.024	87.44
324.253	99.44
324.482	80.44
324.71	74.44
324.939	74.44
325.168	92.44
325.397	77.44
325.626	87.44
325.855	91.44
326.084	90.44
326.313	95.44
326.542	92.44
326.77	94.44
326.999	86.44
327.228	87.44
327.457	90.44
327.686	82.44
327.914	66.44
328.143	69.44
328.372	88.44
328.6	70.44
328.829	82.44
329.058	90.44
329.287	80.44
329.515	91.44
329.744	84.44
329.972	82.44
330.201	87.44
330.43	85.44
330.658	87.44
330.887	89.44
331.115	85.44
331.344	97.44
331.572	78.44
331.801	80.44
332.03	98.44
332.258	94.44
332.486	91.44
332.715	84.44
332.943	89.44
333.172	87.44
333.4	80.44
333.629	85.44
333.857	98.44
334.085	99.44
334.314	83.44
334.542	88.44
334.771	83.44
334.999	103.44
335.227	95.44
335.455	88.44
335.684	92.44
335.912	75.44
336.14	88.44
336.369	69.44
336.597	94.44
336.825	85.44
337.053	91.44
337.281	88.44
337.51	91.44
337.738	103.44
337.966	84.44
338.194	80.44
338.422	83.44
338.65	84.44
338.878	76.44
339.106	67.44
339.334	90.44
339.562	79.44
339.79	96.44
340.018	72.44
340.246	86.44
340.474	84.44
340.702	99.44
340.93	91.44
341.158	97.44
341.386	96.44
341.614	80.44
341.842	87.44
342.07	82.44
342.298	90.44
342.526	80.44
342.754	80.44
342.981	87.44
343.209	102.44
343.437	96.44
343.665	92.44
343.893	87.44
344.12	90.44
344.348	69.44
344.576	84.44
344.804	85.44
345.031	86.44
345.259	72.44
345.487	80.44
345.714	86.44
345.942	74.44
346.17	96.44
346.397	90.44
346.625	89.44
346.853	73.44
347.08	85.44
347.308	87.44
347.535	79.44
347.763	87.44
347.99	83.44
348.218	91.44
348.445	82.44
348.673	85.44
348.9	88.44
349.128	74.44
349.355	94.44
349.583	100.44
349.81	78.44
350.037	88.44
350.265	83.44
350.492	91.44
350.72	95.44
350.947	91.44
351.174	80.44
351.402	80.44
351.629	94.44
351.856	88.44
352.083	79.44
352.311	80.44
352.538	78.44
352.765	101.44
352.992	90.44
353.22	79.44
353.447	95.44
353.674	90.44
353.901	76.44
354.128	85.44
354.355	74.44
354.583	87.44
354.81	80.44
355.037	79.44
355.264	78.44
355.491	89.44
355.718	75.44
355.945	84.44
356.172	89.44
356.399	95.44
356.626	90.44
356.853	92.44
357.08	91.44
357.307	81.44
357.534	76.44
357.761	86.44
357.988	77.44
358.215	83.44
358.441	97.44
358.668	91.44
358.895	93.44
359.122	75.44
359.349	86.44
359.576	85.44
359.802	86.44
360.029	81.44
360.256	98.44
360.483	92.44
360.709	82.44
360.936	93.44
361.163	92.44
361.39	76.44
361.616	78.44
361.843	76.44
362.07	76.44
362.296	93.44
362.523	92.44
362.749	88.44
362.976	104.44
363.203	81.44
363.429	85.44
363.656	93.44
363.882	81.44
364.109	85.44
364.335	87.44
364.562	103.44
364.788	84.44
365.015	86.44
365.241	99.44
365.468	81.44
365.694	83.44
365.92	90.44
366.147	84.44
366.373	86.44
366.599	87.44
366.826	77.44
367.052	78.44
367.278	90.44
367.505	73.44
367.731	89.44
367.957	103.44
368.184	80.44
368.41	88.44
368.636	85.44
368.862	92.44
369.089	91.44
369.315	83.44
369.541	93.44
369.767	93.44
369.993	98.44
370.219	86.44
370.445	83.44
370.672	86.44
370.898	98.44
371.124	89.44
371.35	86.44
371.576	107.44
371.802	102.44
372.028	81.44
372.254	72.44
372.48	101.44
372.706	91.44
372.932	78.44
373.158	88.44
373.384	112.44
373.61	93.44
373.835	79.44
374.061	86.44
374.287	82.44
374.513	79.44
374.739	74.44
374.965	87.44
375.191	80.44
375.416	99.44
375.642	85.44
375.868	101.44
376.094	86.44
376.319	97.44
376.545	79.44
376.771	83.44
376.997	101.44
377.222	91.44
377.448	102.44
377.674	80.44
377.899	84.44
378.125	96.44
378.35	90.44
378.576	78.44
378.802	85.44
379.027	83.44
379.253	75.44
379.478	88.44
379.704	94.44
379.929	82.44
380.155	82.44
380.38	90.44
380.606	77.44
380.831	90.44
381.057	105.44
381.282	95.44
381.507	86.44
381.733	92.44
381.958	86.44
382.184	95.44
382.409	97.44
382.634	84.44
382.86	84.44
383.085	102.44
383.31	77.44
383.535	88.44
383.761	82.44
383.986	86.44
384.211	85.44
384.436	92.44
384.662	85.44
384.887	92.44
385.112	99.44
385.337	75.44
385.562	102.44
385.787	94.44
386.013	105.44
386.238	90.44
386.463	94.44
386.688	80.44
386.913	91.44
387.138	84.44
387.363	84.44
387.588	111.44
387.813	107.44
388.038	89.44
388.263	96.44
388.488	90.44
388.713	79.44
388.938	86.44
389.163	105.44
389.387	87.44
389.612	116.44
389.837	99.44
390.062	76.44
390.287	91.44
390.512	98.44
390.736	103.44
390.961	110.44
391.186	86.44
391.411	92.44
391.636	93.44
391.86	97.44
392.085	80.44
392.31	101.44
392.534	95.44
392.759	102.44
392.984	99.44
393.208	88.44
393.433	83.44
393.658	86.44
393.882	110.44
394.107	92.44
394.331	91.44
394.556	91.44
394.78	104.44
395.005	95.44
395.229	102.44
395.454	91.44
395.678	88.44
395.903	103.44
396.127	105.44
396.352	91.44
396.576	101.44
396.801	93.44
397.025	114.44
397.249	86.44
397.474	93.44
397.698	86.44
397.922	86.44
398.147	92.44
398.371	91.44
398.595	97.44
398.82	94.44
399.044	84.44
399.268	89.44
399.492	84.44
399.717	94.44
399.941	89.44
400.165	95.44
400.389	94.44
400.613	79.44
400.837	90.44
401.062	98.44
401.286	93.44
401.51	87.44
401.734	89.44
401.958	96.44
402.182	107.44
402.406	107.44
402.63	108.44
402.854	102.44
403.078	90.44
403.302	106.44
403.526	81.44
403.75	94.44
403.974	93.44
404.198	117.44
404.422	99.44
404.645	97.44
404.869	106.44
405.093	106.44
405.317	107.44
405.541	104.44
405.765	91.44
405.988	101.44
406.212	87.44
406.436	122.44
406.66	105.44
406.883	102.44
407.107	99.44
407.331	87.44
407.555	89.44
407.778	100.44
408.002	82.44
408.226	114.44
408.449	104.44
408.673	114.44
408.896	100.44
409.12	104.44
409.344	109.44
409.567	100.44
409.791	84.44
410.014	99.44
410.238	96.44
410.461	96.44
410.685	98.44
410.908	99.44
411.132	108.44
411.355	104.44
411.578	102.44
411.802	100.44
412.025	106.44
412.249	107.44
412.472	103.44
412.695	103.44
412.919	103.44
413.142	106.44
413.365	108.44
413.589	102.44
413.812	97.44
414.035	115.44
414.258	97.44
414.482	92.44
414.705	108.44
414.928	121.44
415.151	99.44
415.374	111.44
415.597	112.44
415.821	98.44
416.044	91.44
416.267	111.44
416.49	93.44
416.713	125.44
416.936	123.44
417.159	113.44
417.382	106.44
417.605	120.44
417.828	82.44
418.051	98.44
418.274	100.44
418.497	112.44
418.72	99.44
418.943	101.44
419.166	120.44
419.389	107.44
419.611	104.44
419.834	125.44
420.057	95.44
420.28	109.44
420.503	99.44
420.726	110.44
420.948	115.44
421.171	97.44
421.394	112.44
421.617	105.44
421.839	83.44
422.062	103.44
422.285	95.44
422.507	100.44
422.73	92.44
422.953	99.44
423.175	96.44
423.398	107.44
423.621	111.44
423.843	113.44
424.066	117.44
424.288	109.44
424.511	108.44
424.733	120.44
424.956	105.44
425.178	116.44
425.401	99.44
425.623	127.44
425.846	108.44
426.068	105.44
426.291	95.44
426.513	102.44
426.735	117.44
426.958	112.44
427.18	103.44
427.402	92.44
427.625	104.44
427.847	107.44
428.069	124.44
428.292	92.44
428.514	106.44
428.736	101.44
428.958	115.44
429.181	96.44
429.403	86.44
429.625	94.44
429.847	101.44
430.069	119.44
430.292	94.44
430.514	117.44
430.736	106.44
430.958	102.44
431.18	113.44
431.402	98.44
431.624	104.44
431.846	103.44
432.068	92.44
432.29	78.44
432.512	103.44
432.734	99.44
432.956	102.44
433.178	110.44
433.4	103.44
433.622	114.44
433.844	117.44
434.066	111.44
434.287	92.44
434.509	87.44
434.731	77.44
434.953	86.44
435.175	105.44
435.397	114.44
435.618	94.44
435.84	102.44
436.062	97.44
436.284	108.44
436.505	100.44
436.727	97.44
436.949	100.44
437.17	95.44
437.392	103.44
437.614	109.44
437.835	86.44
438.057	96.44
438.278	105.44
438.5	102.44
438.721	96.44
438.943	118.44
439.165	118.44
439.386	109.44
439.608	121.44
439.829	119.44
440.05	112.44
440.272	120.44
440.493	106.44
440.715	101.44
440.936	118.44
441.158	118.44
441.379	107.44
441.6	114.44
441.822	104.44
442.043	107.44
442.264	117.44
442.486	122.44
442.707	104.44
442.928	113.44
443.149	100.44
443.371	120.44
443.592	115.44
443.813	105.44
444.034	117.44
444.255	117.44
444.476	108.44
444.698	105.44
444.919	96.44
445.14	246.44
445.361	169.44
445.582	114.44
445.803	100.44
446.024	121.44
446.245	120.44
446.466	116.44
446.687	111.44
446.908	127.44
447.129	124.44
447.35	120.44
447.571	111.44
447.792	122.44
448.013	110.44
448.234	112.44
448.455	116.44
448.675	110.44
448.896	105.44
449.117	116.44
449.338	114.44
449.559	104.44
449.779	104.44
450	114.44
450.221	114.44
450.442	106.44
450.662	101.44
450.883	123.44
451.104	114.44
451.324	86.44
451.545	110.44
451.766	109.44
451.986	101.44
452.207	125.44
452.428	97.44
452.648	113.44
452.869	102.44
453.089	111.44
453.31	101.44
453.53	100.44
453.751	91.44
453.971	93.44
454.192	103.44
454.412	101.44
454.633	117.44
454.853	99.44
455.073	93.44
455.294	88.44
455.514	98.44
455.734	105.44
455.955	95.44
456.175	102.44
456.395	102.44
456.616	103.44
456.836	98.44
457.056	88.44
457.276	82.44
457.497	110.44
457.717	104.44
457.937	100.44
458.157	89.44
458.377	110.44
458.598	97.44
458.818	89.44
459.038	85.44
459.258	71.44
459.478	81.44
459.698	88.44
459.918	99.44
460.138	101.44
460.358	103.44
460.578	94.44
460.798	100.44
461.018	105.44
461.238	99.44
461.458	94.44
461.678	98.44
461.898	93.44
462.118	93.44
462.338	96.44
462.558	87.44
462.777	103.44
462.997	100.44
463.217	94.44
463.437	94.44
463.657	99.44
463.876	92.44
464.096	105.44
464.316	111.44
464.536	104.44
464.755	97.44
464.975	106.44
465.195	92.44
465.414	95.44
465.634	98.44
465.854	106.44
466.073	97.44
466.293	104.44
466.512	108.44
466.732	93.44
466.951	108.44
467.171	107.44
467.391	105.44
467.61	104.44
467.829	109.44
468.049	122.44
468.268	100.44
468.488	102.44
468.707	117.44
468.927	90.44
469.146	107.44
469.365	119.44
469.585	120.44
469.804	128.44
470.023	101.44
470.243	120.44
470.462	112.44
470.681	117.44
470.901	120.44
471.12	115.44
471.339	123.44
471.558	106.44
471.777	108.44
471.997	114.44
472.216	110.44
472.435	94.44
472.654	94.44
472.873	92.44
473.092	103.44
473.311	115.44
473.53	114.44
473.749	109.44
473.968	101.44
474.187	99.44
474.406	100.44
474.625	100.44
474.844	109.44
475.063	106.44
475.282	103.44
475.501	111.44
475.72	104.44
475.939	96.44
476.158	101.44
476.377	110.44
476.596	96.44
476.814	97.44
477.033	91.44
477.252	100.44
477.471	95.44
477.69	96.44
477.908	110.44
478.127	112.44
478.346	119.44
478.564	118.44
478.783	113.44
479.002	115.44
479.22	116.44
479.439	114.44
479.658	91.44
479.876	98.44
480.095	100.44
480.313	108.44
480.532	95.44
480.751	97.44
480.969	78.44
481.188	104.44
481.406	100.44
481.624	99.44
481.843	101.44
482.061	93.44
482.28	98.44
482.498	97.44
482.717	100.44
482.935	94.44
483.153	110.44
483.372	131.44
483.59	108.44
483.808	107.44
484.027	111.44
484.245	104.44
484.463	108.44
484.681	126.44
484.9	115.44
485.118	117.44
485.336	126.44
485.554	95.44
485.772	90.44
485.99	87.44
486.209	115.44
486.427	102.44
486.645	94.44
486.863	102.44
487.081	120.44
487.299	131.44
487.517	114.44
487.735	119.44
487.953	121.44
488.171	114.44
488.389	128.44
488.607	138.44
488.825	100.44
489.043	118.44
489.261	107.44
489.479	118.44
489.696	116.44
489.914	120.44
490.132	128.44
490.35	112.44
490.568	122.44
490.786	125.44
491.003	107.44
491.221	107.44
491.439	132.44
491.657	142.44
491.874	134.44
492.092	159.44
492.31	142.44
492.527	155.44
492.745	146.44
492.963	132.44
493.18	143.44
493.398	153.44
493.615	125.44
493.833	130.44
494.05	134.44
494.268	126.44
494.485	132.44
494.703	126.44
494.92	121.44
495.138	144.44
495.355	144.44
495.573	132.44
495.79	121.44
496.008	121.44
496.225	119.44
496.442	133.44
496.66	153.44
496.877	128.44
497.094	130.44
497.312	122.44
497.529	111.44
497.746	110.44
497.963	116.44
498.181	101.44
498.398	98.44
498.615	99.44
498.832	94.44
499.049	103.44
499.267	116.44
499.484	118.44
499.701	111.44
499.918	108.44
500.135	109.44
500.352	124.44
500.569	103.44
500.786	116.44
501.003	127.44
501.22	112.44
501.437	112.44
501.654	113.44
501.871	116.44
502.088	111.44
502.305	107.44
502.522	104.44
502.739	122.44
502.956	111.44
503.172	108.44
503.389	111.44
503.606	103.44
503.823	105.44
504.04	107.44
504.256	117.44
504.473	109.44
504.69	115.44
504.907	118.44
505.123	102.44
505.34	97.44
505.557	104.44
505.773	103.44
505.99	114.44
506.207	105.44
506.423	111.44
506.64	104.44
506.856	106.44
507.073	90.44
507.289	120.44
507.506	108.44
507.722	96.44
507.939	103.44
508.155	100.44
508.372	101.44
508.588	106.44
508.805	100.44
509.021	116.44
509.238	93.44
509.454	93.44
509.67	98.44
509.887	94.44
510.103	89.44
510.319	102.44
510.536	79.44
510.752	87.44
510.968	82.44
511.184	88.44
511.401	87.44
511.617	98.44
511.833	95.44
512.049	81.44
512.265	87.44
512.481	86.44
512.698	91.44
512.914	82.44
513.13	92.44
513.346	91.44
513.562	94.44
513.778	84.44
