Data from Zn(NO3)2Standard.Agarose3%.GreenCap.LampEnergy5.5.E.O_HRD10591_15-03-05-768.txt Node
Date: Mon Jul 22 15:03:05 EDT 2019
User: cochatt
Spectrometer: HR+D1059
Trigger mode: 1
Integration Time (sec): 1.000000E-1
Scans to average: 1
Electric dark correction enabled: true
Nonlinearity correction enabled: false
Boxcar width: 0
XAxis mode: Wavelengths
Number of Pixels in Spectrum: 2048
>>>>>Begin Spectral Data<<<<<
223.165	-26.56
223.4	-26.56
223.635	-26.56
223.869	-10.56
224.104	-17.56
224.338	-1.56
224.573	-12.56
224.808	-19.56
225.042	-12.56
225.277	-2.56
225.511	-5.56
225.746	3.44
225.98	8.44
226.215	11.44
226.449	9.44
226.683	18.44
226.918	27.44
227.152	30.44
227.387	27.44
227.621	36.44
227.856	54.44
228.09	49.44
228.324	62.44
228.559	43.44
228.793	38.44
229.027	59.44
229.262	56.44
229.496	51.44
229.73	69.44
229.964	53.44
230.199	75.44
230.433	67.44
230.667	71.44
230.901	73.44
231.136	68.44
231.37	71.44
231.604	81.44
231.838	61.44
232.072	80.44
232.306	71.44
232.541	76.44
232.775	73.44
233.009	86.44
233.243	83.44
233.477	80.44
233.711	79.44
233.945	80.44
234.179	76.44
234.413	99.44
234.647	74.44
234.881	62.44
235.115	72.44
235.349	75.44
235.583	73.44
235.817	68.44
236.051	64.44
236.285	81.44
236.519	71.44
236.753	75.44
236.987	68.44
237.221	72.44
237.455	78.44
237.689	65.44
237.922	72.44
238.156	89.44
238.39	61.44
238.624	70.44
238.858	76.44
239.091	84.44
239.325	62.44
239.559	74.44
239.793	77.44
240.027	75.44
240.26	70.44
240.494	71.44
240.728	87.44
240.961	75.44
241.195	74.44
241.429	73.44
241.662	63.44
241.896	66.44
242.13	64.44
242.363	79.44
242.597	80.44
242.83	75.44
243.064	75.44
243.298	82.44
243.531	83.44
243.765	73.44
243.998	72.44
244.232	80.44
244.465	77.44
244.699	76.44
244.932	72.44
245.166	69.44
245.399	83.44
245.633	68.44
245.866	71.44
246.099	76.44
246.333	73.44
246.566	75.44
246.8	74.44
247.033	78.44
247.266	67.44
247.5	75.44
247.733	66.44
247.966	74.44
248.2	72.44
248.433	65.44
248.666	65.44
248.899	70.44
249.133	63.44
249.366	85.44
249.599	66.44
249.832	75.44
250.066	94.44
250.299	81.44
250.532	69.44
250.765	67.44
250.998	90.44
251.231	79.44
251.465	87.44
251.698	74.44
251.931	82.44
252.164	87.44
252.397	75.44
252.63	76.44
252.863	88.44
253.096	73.44
253.329	80.44
253.562	84.44
253.795	73.44
254.028	62.44
254.261	80.44
254.494	79.44
254.727	72.44
254.96	70.44
255.193	94.44
255.426	82.44
255.659	82.44
255.892	78.44
256.124	79.44
256.357	61.44
256.59	77.44
256.823	85.44
257.056	89.44
257.289	81.44
257.521	86.44
257.754	69.44
257.987	70.44
258.22	72.44
258.452	78.44
258.685	83.44
258.918	78.44
259.151	74.44
259.383	76.44
259.616	64.44
259.849	82.44
260.081	78.44
260.314	79.44
260.547	89.44
260.779	67.44
261.012	83.44
261.244	89.44
261.477	81.44
261.71	71.44
261.942	79.44
262.175	75.44
262.407	52.44
262.64	83.44
262.872	69.44
263.105	78.44
263.337	77.44
263.57	84.44
263.802	76.44
264.035	73.44
264.267	77.44
264.499	90.44
264.732	94.44
264.964	85.44
265.197	90.44
265.429	89.44
265.661	70.44
265.894	72.44
266.126	70.44
266.358	79.44
266.591	79.44
266.823	81.44
267.055	84.44
267.287	91.44
267.52	75.44
267.752	68.44
267.984	71.44
268.216	85.44
268.448	74.44
268.681	65.44
268.913	75.44
269.145	73.44
269.377	76.44
269.609	75.44
269.841	91.44
270.073	61.44
270.306	71.44
270.538	93.44
270.77	88.44
271.002	86.44
271.234	84.44
271.466	97.44
271.698	72.44
271.93	58.44
272.162	65.44
272.394	75.44
272.626	67.44
272.858	62.44
273.09	78.44
273.322	73.44
273.553	84.44
273.785	71.44
274.017	78.44
274.249	80.44
274.481	69.44
274.713	78.44
274.945	86.44
275.176	62.44
275.408	75.44
275.64	86.44
275.872	74.44
276.104	88.44
276.335	73.44
276.567	73.44
276.799	74.44
277.031	72.44
277.262	84.44
277.494	71.44
277.726	87.44
277.957	79.44
278.189	70.44
278.421	85.44
278.652	83.44
278.884	85.44
279.115	74.44
279.347	78.44
279.579	72.44
279.81	82.44
280.042	62.44
280.273	81.44
280.505	70.44
280.736	73.44
280.968	95.44
281.199	78.44
281.431	72.44
281.662	75.44
281.894	65.44
282.125	78.44
282.356	84.44
282.588	73.44
282.819	78.44
283.051	76.44
283.282	72.44
283.513	99.44
283.745	83.44
283.976	78.44
284.207	86.44
284.439	78.44
284.67	77.44
284.901	80.44
285.132	70.44
285.364	79.44
285.595	88.44
285.826	93.44
286.057	79.44
286.288	78.44
286.52	65.44
286.751	74.44
286.982	79.44
287.213	63.44
287.444	96.44
287.675	85.44
287.906	79.44
288.138	64.44
288.369	79.44
288.6	84.44
288.831	73.44
289.062	83.44
289.293	85.44
289.524	70.44
289.755	73.44
289.986	73.44
290.217	80.44
290.448	80.44
290.679	68.44
290.91	76.44
291.141	68.44
291.371	90.44
291.602	91.44
291.833	82.44
292.064	89.44
292.295	88.44
292.526	84.44
292.757	83.44
292.987	67.44
293.218	57.44
293.449	79.44
293.68	86.44
293.91	76.44
294.141	93.44
294.372	72.44
294.603	74.44
294.833	85.44
295.064	83.44
295.295	71.44
295.525	70.44
295.756	81.44
295.987	63.44
296.217	82.44
296.448	74.44
296.679	79.44
296.909	89.44
297.14	79.44
297.37	64.44
297.601	86.44
297.831	66.44
298.062	70.44
298.292	78.44
298.523	78.44
298.753	80.44
298.984	86.44
299.214	80.44
299.445	83.44
299.675	80.44
299.905	86.44
300.136	82.44
300.366	77.44
300.597	74.44
300.827	82.44
301.057	81.44
301.288	77.44
301.518	81.44
301.748	73.44
301.979	90.44
302.209	89.44
302.439	83.44
302.669	74.44
302.9	82.44
303.13	73.44
303.36	78.44
303.59	76.44
303.82	74.44
304.051	80.44
304.281	77.44
304.511	91.44
304.741	82.44
304.971	77.44
305.201	81.44
305.431	75.44
305.661	72.44
305.891	78.44
306.121	72.44
306.352	84.44
306.582	92.44
306.812	88.44
307.042	79.44
307.272	78.44
307.502	85.44
307.731	83.44
307.961	86.44
308.191	82.44
308.421	86.44
308.651	76.44
308.881	83.44
309.111	73.44
309.341	71.44
309.571	83.44
309.8	79.44
310.03	72.44
310.26	68.44
310.49	85.44
310.72	87.44
310.949	76.44
311.179	81.44
311.409	79.44
311.639	85.44
311.868	68.44
312.098	77.44
312.328	91.44
312.557	88.44
312.787	65.44
313.017	73.44
313.246	88.44
313.476	89.44
313.706	70.44
313.935	65.44
314.165	81.44
314.394	61.44
314.624	88.44
314.853	78.44
315.083	96.44
315.312	67.44
315.542	74.44
315.771	75.44
316.001	79.44
316.23	80.44
316.46	80.44
316.689	87.44
316.919	79.44
317.148	76.44
317.377	80.44
317.607	92.44
317.836	68.44
318.065	77.44
318.295	73.44
318.524	81.44
318.753	87.44
318.983	71.44
319.212	72.44
319.441	83.44
319.67	83.44
319.9	82.44
320.129	80.44
320.358	88.44
320.587	89.44
320.816	64.44
321.046	89.44
321.275	83.44
321.504	82.44
321.733	74.44
321.962	74.44
322.191	72.44
322.42	81.44
322.649	81.44
322.878	90.44
323.108	87.44
323.337	70.44
323.566	75.44
323.795	71.44
324.024	87.44
324.253	82.44
324.482	89.44
324.71	85.44
324.939	98.44
325.168	78.44
325.397	71.44
325.626	82.44
325.855	74.44
326.084	78.44
326.313	77.44
326.542	69.44
326.77	78.44
326.999	72.44
327.228	70.44
327.457	78.44
327.686	77.44
327.914	76.44
328.143	89.44
328.372	95.44
328.6	85.44
328.829	79.44
329.058	77.44
329.287	65.44
329.515	75.44
329.744	83.44
329.972	86.44
330.201	79.44
330.43	82.44
330.658	81.44
330.887	73.44
331.115	84.44
331.344	81.44
331.572	87.44
331.801	74.44
332.03	67.44
332.258	86.44
332.486	79.44
332.715	85.44
332.943	74.44
333.172	85.44
333.4	69.44
333.629	82.44
333.857	81.44
334.085	83.44
334.314	78.44
334.542	79.44
334.771	93.44
334.999	65.44
335.227	84.44
335.455	86.44
335.684	95.44
335.912	66.44
336.14	75.44
336.369	89.44
336.597	86.44
336.825	88.44
337.053	89.44
337.281	90.44
337.51	75.44
337.738	86.44
337.966	77.44
338.194	62.44
338.422	81.44
338.65	85.44
338.878	88.44
339.106	86.44
339.334	76.44
339.562	74.44
339.79	73.44
340.018	78.44
340.246	76.44
340.474	75.44
340.702	80.44
340.93	75.44
341.158	76.44
341.386	86.44
341.614	80.44
341.842	79.44
342.07	85.44
342.298	91.44
342.526	74.44
342.754	69.44
342.981	73.44
343.209	81.44
343.437	78.44
343.665	75.44
343.893	65.44
344.12	79.44
344.348	74.44
344.576	83.44
344.804	81.44
345.031	73.44
345.259	82.44
345.487	97.44
345.714	75.44
345.942	72.44
346.17	82.44
346.397	73.44
346.625	81.44
346.853	97.44
347.08	80.44
347.308	71.44
347.535	81.44
347.763	94.44
347.99	85.44
348.218	81.44
348.445	77.44
348.673	73.44
348.9	73.44
349.128	89.44
349.355	79.44
349.583	87.44
349.81	84.44
350.037	71.44
350.265	93.44
350.492	93.44
350.72	65.44
350.947	86.44
351.174	80.44
351.402	74.44
351.629	95.44
351.856	81.44
352.083	70.44
352.311	71.44
352.538	69.44
352.765	81.44
352.992	81.44
353.22	90.44
353.447	80.44
353.674	68.44
353.901	84.44
354.128	72.44
354.355	80.44
354.583	85.44
354.81	87.44
355.037	79.44
355.264	82.44
355.491	72.44
355.718	83.44
355.945	91.44
356.172	85.44
356.399	66.44
356.626	66.44
356.853	67.44
357.08	67.44
357.307	78.44
357.534	74.44
357.761	81.44
357.988	77.44
358.215	80.44
358.441	86.44
358.668	71.44
358.895	81.44
359.122	97.44
359.349	84.44
359.576	73.44
359.802	78.44
360.029	81.44
360.256	94.44
360.483	93.44
360.709	79.44
360.936	82.44
361.163	76.44
361.39	92.44
361.616	77.44
361.843	83.44
362.07	88.44
362.296	77.44
362.523	76.44
362.749	78.44
362.976	91.44
363.203	94.44
363.429	73.44
363.656	83.44
363.882	78.44
364.109	82.44
364.335	66.44
364.562	65.44
364.788	79.44
365.015	92.44
365.241	65.44
365.468	72.44
365.694	75.44
365.92	84.44
366.147	92.44
366.373	75.44
366.599	78.44
366.826	79.44
367.052	74.44
367.278	77.44
367.505	74.44
367.731	83.44
367.957	73.44
368.184	81.44
368.41	77.44
368.636	71.44
368.862	69.44
369.089	78.44
369.315	91.44
369.541	90.44
369.767	69.44
369.993	68.44
370.219	80.44
370.445	68.44
370.672	77.44
370.898	90.44
371.124	95.44
371.35	88.44
371.576	98.44
371.802	80.44
372.028	70.44
372.254	69.44
372.48	75.44
372.706	70.44
372.932	95.44
373.158	68.44
373.384	81.44
373.61	81.44
373.835	74.44
374.061	73.44
374.287	75.44
374.513	72.44
374.739	88.44
374.965	67.44
375.191	77.44
375.416	81.44
375.642	93.44
375.868	77.44
376.094	65.44
376.319	72.44
376.545	68.44
376.771	72.44
376.997	88.44
377.222	73.44
377.448	80.44
377.674	95.44
377.899	86.44
378.125	70.44
378.35	70.44
378.576	93.44
378.802	78.44
379.027	91.44
379.253	90.44
379.478	80.44
379.704	78.44
379.929	85.44
380.155	72.44
380.38	76.44
380.606	74.44
380.831	80.44
381.057	75.44
381.282	74.44
381.507	73.44
381.733	79.44
381.958	75.44
382.184	75.44
382.409	82.44
382.634	65.44
382.86	88.44
383.085	78.44
383.31	91.44
383.535	90.44
383.761	69.44
383.986	74.44
384.211	55.44
384.436	84.44
384.662	72.44
384.887	82.44
385.112	78.44
385.337	90.44
385.562	71.44
385.787	76.44
386.013	92.44
386.238	74.44
386.463	66.44
386.688	78.44
386.913	71.44
387.138	76.44
387.363	74.44
387.588	81.44
387.813	91.44
388.038	84.44
388.263	64.44
388.488	67.44
388.713	74.44
388.938	70.44
389.163	86.44
389.387	79.44
389.612	74.44
389.837	69.44
390.062	74.44
390.287	98.44
390.512	88.44
390.736	80.44
390.961	91.44
391.186	84.44
391.411	83.44
391.636	85.44
391.86	77.44
392.085	75.44
392.31	76.44
392.534	83.44
392.759	71.44
392.984	82.44
393.208	82.44
393.433	80.44
393.658	88.44
393.882	73.44
394.107	83.44
394.331	88.44
394.556	82.44
394.78	79.44
395.005	85.44
395.229	81.44
395.454	85.44
395.678	74.44
395.903	68.44
396.127	78.44
396.352	66.44
396.576	74.44
396.801	84.44
397.025	88.44
397.249	75.44
397.474	77.44
397.698	67.44
397.922	93.44
398.147	72.44
398.371	68.44
398.595	78.44
398.82	77.44
399.044	75.44
399.268	81.44
399.492	76.44
399.717	95.44
399.941	86.44
400.165	75.44
400.389	76.44
400.613	76.44
400.837	85.44
401.062	89.44
401.286	88.44
401.51	84.44
401.734	66.44
401.958	84.44
402.182	83.44
402.406	85.44
402.63	83.44
402.854	81.44
403.078	73.44
403.302	84.44
403.526	77.44
403.75	84.44
403.974	94.44
404.198	73.44
404.422	79.44
404.645	56.44
404.869	63.44
405.093	85.44
405.317	105.44
405.541	85.44
405.765	87.44
405.988	79.44
406.212	94.44
406.436	89.44
406.66	96.44
406.883	86.44
407.107	89.44
407.331	72.44
407.555	73.44
407.778	79.44
408.002	95.44
408.226	74.44
408.449	70.44
408.673	88.44
408.896	79.44
409.12	82.44
409.344	81.44
409.567	85.44
409.791	78.44
410.014	74.44
410.238	82.44
410.461	70.44
410.685	80.44
410.908	80.44
411.132	85.44
411.355	86.44
411.578	75.44
411.802	81.44
412.025	78.44
412.249	84.44
412.472	84.44
412.695	77.44
412.919	74.44
413.142	97.44
413.365	91.44
413.589	90.44
413.812	81.44
414.035	85.44
414.258	81.44
414.482	71.44
414.705	87.44
414.928	91.44
415.151	94.44
415.374	75.44
415.597	86.44
415.821	85.44
416.044	90.44
416.267	80.44
416.49	78.44
416.713	89.44
416.936	85.44
417.159	94.44
417.382	79.44
417.605	90.44
417.828	88.44
418.051	83.44
418.274	85.44
418.497	81.44
418.72	72.44
418.943	87.44
419.166	94.44
419.389	81.44
419.611	80.44
419.834	73.44
420.057	86.44
420.28	86.44
420.503	96.44
420.726	82.44
420.948	81.44
421.171	89.44
421.394	89.44
421.617	68.44
421.839	89.44
422.062	72.44
422.285	72.44
422.507	76.44
422.73	87.44
422.953	74.44
423.175	74.44
423.398	81.44
423.621	85.44
423.843	96.44
424.066	82.44
424.288	85.44
424.511	105.44
424.733	68.44
424.956	88.44
425.178	87.44
425.401	97.44
425.623	99.44
425.846	74.44
426.068	93.44
426.291	75.44
426.513	80.44
426.735	89.44
426.958	82.44
427.18	91.44
427.402	67.44
427.625	81.44
427.847	86.44
428.069	81.44
428.292	85.44
428.514	88.44
428.736	95.44
428.958	81.44
429.181	101.44
429.403	81.44
429.625	81.44
429.847	91.44
430.069	85.44
430.292	90.44
430.514	89.44
430.736	67.44
430.958	76.44
431.18	76.44
431.402	78.44
431.624	82.44
431.846	83.44
432.068	88.44
432.29	76.44
432.512	90.44
432.734	86.44
432.956	86.44
433.178	97.44
433.4	86.44
433.622	92.44
433.844	79.44
434.066	96.44
434.287	80.44
434.509	80.44
434.731	77.44
434.953	71.44
435.175	101.44
435.397	99.44
435.618	84.44
435.84	77.44
436.062	73.44
436.284	83.44
436.505	78.44
436.727	90.44
436.949	84.44
437.17	77.44
437.392	91.44
437.614	81.44
437.835	87.44
438.057	85.44
438.278	87.44
438.5	85.44
438.721	81.44
438.943	97.44
439.165	89.44
439.386	86.44
439.608	80.44
439.829	86.44
440.05	87.44
440.272	76.44
440.493	81.44
440.715	87.44
440.936	91.44
441.158	92.44
441.379	85.44
441.6	80.44
441.822	95.44
442.043	85.44
442.264	85.44
442.486	91.44
442.707	93.44
442.928	85.44
443.149	88.44
443.371	97.44
443.592	85.44
443.813	85.44
444.034	96.44
444.255	103.44
444.476	97.44
444.698	86.44
444.919	88.44
445.14	186.44
445.361	133.44
445.582	92.44
445.803	100.44
446.024	86.44
446.245	93.44
446.466	93.44
446.687	91.44
446.908	96.44
447.129	93.44
447.35	81.44
447.571	78.44
447.792	80.44
448.013	86.44
448.234	85.44
448.455	98.44
448.675	90.44
448.896	67.44
449.117	103.44
449.338	88.44
449.559	85.44
449.779	80.44
450	76.44
450.221	91.44
450.442	80.44
450.662	99.44
450.883	91.44
451.104	93.44
451.324	90.44
451.545	71.44
451.766	88.44
451.986	90.44
452.207	88.44
452.428	83.44
452.648	87.44
452.869	95.44
453.089	89.44
453.31	98.44
453.53	93.44
453.751	84.44
453.971	87.44
454.192	95.44
454.412	94.44
454.633	91.44
454.853	91.44
455.073	83.44
455.294	101.44
455.514	93.44
455.734	94.44
455.955	104.44
456.175	73.44
456.395	79.44
456.616	81.44
456.836	84.44
457.056	92.44
457.276	64.44
457.497	80.44
457.717	78.44
457.937	84.44
458.157	74.44
458.377	84.44
458.598	67.44
458.818	79.44
459.038	73.44
459.258	83.44
459.478	78.44
459.698	78.44
459.918	90.44
460.138	85.44
460.358	80.44
460.578	86.44
460.798	83.44
461.018	77.44
461.238	81.44
461.458	80.44
461.678	94.44
461.898	99.44
462.118	78.44
462.338	91.44
462.558	88.44
462.777	86.44
462.997	85.44
463.217	78.44
463.437	80.44
463.657	86.44
463.876	92.44
464.096	90.44
464.316	86.44
464.536	93.44
464.755	89.44
464.975	85.44
465.195	85.44
465.414	78.44
465.634	88.44
465.854	91.44
466.073	90.44
466.293	99.44
466.512	88.44
466.732	88.44
466.951	81.44
467.171	91.44
467.391	87.44
467.61	85.44
467.829	82.44
468.049	93.44
468.268	83.44
468.488	85.44
468.707	75.44
468.927	89.44
469.146	86.44
469.365	83.44
469.585	71.44
469.804	80.44
470.023	85.44
470.243	87.44
470.462	91.44
470.681	90.44
470.901	81.44
471.12	88.44
471.339	116.44
471.558	97.44
471.777	86.44
471.997	100.44
472.216	73.44
472.435	80.44
472.654	85.44
472.873	81.44
473.092	85.44
473.311	93.44
473.53	96.44
473.749	82.44
473.968	84.44
474.187	83.44
474.406	85.44
474.625	95.44
474.844	93.44
475.063	77.44
475.282	85.44
475.501	81.44
475.72	94.44
475.939	74.44
476.158	86.44
476.377	85.44
476.596	100.44
476.814	70.44
477.033	74.44
477.252	83.44
477.471	82.44
477.69	87.44
477.908	101.44
478.127	97.44
478.346	87.44
478.564	82.44
478.783	96.44
479.002	85.44
479.22	88.44
479.439	83.44
479.658	87.44
479.876	91.44
480.095	81.44
480.313	86.44
480.532	94.44
480.751	71.44
480.969	85.44
481.188	77.44
481.406	79.44
481.624	73.44
481.843	81.44
482.061	69.44
482.28	84.44
482.498	82.44
482.717	81.44
482.935	81.44
483.153	90.44
483.372	95.44
483.59	89.44
483.808	86.44
484.027	93.44
484.245	88.44
484.463	94.44
484.681	94.44
484.9	100.44
485.118	84.44
485.336	85.44
485.554	88.44
485.772	87.44
485.99	75.44
486.209	89.44
486.427	83.44
486.645	98.44
486.863	84.44
487.081	81.44
487.299	80.44
487.517	88.44
487.735	90.44
487.953	97.44
488.171	92.44
488.389	87.44
488.607	105.44
488.825	89.44
489.043	88.44
489.261	82.44
489.479	83.44
489.696	80.44
489.914	84.44
490.132	84.44
490.35	91.44
490.568	81.44
490.786	94.44
491.003	85.44
491.221	97.44
491.439	93.44
491.657	107.44
491.874	98.44
492.092	100.44
492.31	118.44
492.527	98.44
492.745	94.44
492.963	93.44
493.18	92.44
493.398	97.44
493.615	96.44
493.833	91.44
494.05	76.44
494.268	81.44
494.485	85.44
494.703	83.44
494.92	99.44
495.138	102.44
495.355	88.44
495.573	114.44
495.79	98.44
496.008	103.44
496.225	88.44
496.442	89.44
496.66	85.44
496.877	81.44
497.094	99.44
497.312	86.44
497.529	98.44
497.746	88.44
497.963	83.44
498.181	86.44
498.398	84.44
498.615	78.44
498.832	85.44
499.049	86.44
499.267	87.44
499.484	82.44
499.701	93.44
499.918	96.44
500.135	84.44
500.352	87.44
500.569	89.44
500.786	106.44
501.003	105.44
501.22	98.44
501.437	92.44
501.654	79.44
501.871	83.44
502.088	75.44
502.305	93.44
502.522	73.44
502.739	83.44
502.956	88.44
503.172	90.44
503.389	84.44
503.606	90.44
503.823	84.44
504.04	77.44
504.256	75.44
504.473	75.44
504.69	81.44
504.907	80.44
505.123	97.44
505.34	90.44
505.557	79.44
505.773	90.44
505.99	89.44
506.207	84.44
506.423	84.44
506.64	88.44
506.856	73.44
507.073	74.44
507.289	84.44
507.506	81.44
507.722	72.44
507.939	72.44
508.155	69.44
508.372	87.44
508.588	87.44
508.805	72.44
509.021	81.44
509.238	58.44
509.454	74.44
509.67	75.44
509.887	82.44
510.103	73.44
510.319	81.44
510.536	73.44
510.752	86.44
510.968	80.44
511.184	80.44
511.401	67.44
511.617	78.44
511.833	74.44
512.049	87.44
512.265	87.44
512.481	90.44
512.698	85.44
512.914	79.44
513.13	68.44
513.346	83.44
513.562	84.44
513.778	85.44
513.994	74.44
514.21	70.44
514.426	85.44
514.642	68.44
514.858	76.44
515.074	83.44
515.29	80.44
515.506	86.44
515.721	80.44
515.937	76.44
516.153	79.44
516.369	71.44
516.585	77.44
516.801	84.44
517.016	80.44
517.232	88.44
517.448	71.44
517.664	81.44
517.879	79.44
518.095	82.44
518.311	70.44
518.527	70.44
518.742	85.44
518.958	102.44
519.173	79.44
