Data from Zn(NO3)2Standard.Agarose3%.GreenCap.LampEnergy10E.O_HRD10591_15-08-23-949.txt Node
Date: Mon Jul 22 15:08:23 EDT 2019
User: cochatt
Spectrometer: HR+D1059
Trigger mode: 1
Integration Time (sec): 1.000000E-1
Scans to average: 1
Electric dark correction enabled: true
Nonlinearity correction enabled: false
Boxcar width: 0
XAxis mode: Wavelengths
Number of Pixels in Spectrum: 2048
>>>>>Begin Spectral Data<<<<<
223.165	-15.5
223.4	-15.5
223.635	-15.5
223.869	-22.5
224.104	-21.5
224.338	-13.5
224.573	-21.5
224.808	-17.5
225.042	-20.5
225.277	2.5
225.511	-3.5
225.746	10.5
225.98	6.5
226.215	7.5
226.449	14.5
226.683	31.5
226.918	29.5
227.152	33.5
227.387	19.5
227.621	34.5
227.856	41.5
228.09	45.5
228.324	37.5
228.559	52.5
228.793	49.5
229.027	57.5
229.262	66.5
229.496	66.5
229.73	80.5
229.964	65.5
230.199	74.5
230.433	80.5
230.667	79.5
230.901	75.5
231.136	79.5
231.37	63.5
231.604	83.5
231.838	67.5
232.072	77.5
232.306	79.5
232.541	77.5
232.775	87.5
233.009	75.5
233.243	82.5
233.477	86.5
233.711	75.5
233.945	78.5
234.179	86.5
234.413	89.5
234.647	86.5
234.881	88.5
235.115	82.5
235.349	64.5
235.583	80.5
235.817	89.5
236.051	75.5
236.285	77.5
236.519	80.5
236.753	77.5
236.987	73.5
237.221	70.5
237.455	77.5
237.689	72.5
237.922	69.5
238.156	78.5
238.39	69.5
238.624	71.5
238.858	80.5
239.091	88.5
239.325	65.5
239.559	77.5
239.793	74.5
240.027	70.5
240.26	64.5
240.494	80.5
240.728	73.5
240.961	81.5
241.195	77.5
241.429	88.5
241.662	86.5
241.896	84.5
242.13	74.5
242.363	86.5
242.597	97.5
242.83	79.5
243.064	66.5
243.298	74.5
243.531	65.5
243.765	75.5
243.998	78.5
244.232	69.5
244.465	64.5
244.699	76.5
244.932	83.5
245.166	73.5
245.399	72.5
245.633	63.5
245.866	85.5
246.099	72.5
246.333	77.5
246.566	78.5
246.8	87.5
247.033	92.5
247.266	84.5
247.5	74.5
247.733	72.5
247.966	68.5
248.2	72.5
248.433	81.5
248.666	88.5
248.899	96.5
249.133	68.5
249.366	71.5
249.599	76.5
249.832	86.5
250.066	78.5
250.299	84.5
250.532	71.5
250.765	81.5
250.998	82.5
251.231	85.5
251.465	74.5
251.698	73.5
251.931	83.5
252.164	71.5
252.397	62.5
252.63	77.5
252.863	79.5
253.096	77.5
253.329	79.5
253.562	86.5
253.795	76.5
254.028	81.5
254.261	75.5
254.494	98.5
254.727	81.5
254.96	78.5
255.193	93.5
255.426	74.5
255.659	74.5
255.892	86.5
256.124	73.5
256.357	78.5
256.59	95.5
256.823	89.5
257.056	62.5
257.289	75.5
257.521	81.5
257.754	85.5
257.987	74.5
258.22	71.5
258.452	93.5
258.685	84.5
258.918	73.5
259.151	71.5
259.383	90.5
259.616	81.5
259.849	87.5
260.081	73.5
260.314	79.5
260.547	82.5
260.779	73.5
261.012	75.5
261.244	72.5
261.477	89.5
261.71	71.5
261.942	85.5
262.175	64.5
262.407	81.5
262.64	82.5
262.872	79.5
263.105	82.5
263.337	72.5
263.57	78.5
263.802	73.5
264.035	69.5
264.267	86.5
264.499	78.5
264.732	66.5
264.964	65.5
265.197	82.5
265.429	83.5
265.661	79.5
265.894	75.5
266.126	68.5
266.358	86.5
266.591	74.5
266.823	85.5
267.055	81.5
267.287	86.5
267.52	71.5
267.752	76.5
267.984	75.5
268.216	66.5
268.448	76.5
268.681	83.5
268.913	78.5
269.145	86.5
269.377	71.5
269.609	69.5
269.841	76.5
270.073	86.5
270.306	85.5
270.538	83.5
270.77	78.5
271.002	75.5
271.234	81.5
271.466	84.5
271.698	79.5
271.93	80.5
272.162	87.5
272.394	87.5
272.626	72.5
272.858	87.5
273.09	82.5
273.322	86.5
273.553	83.5
273.785	83.5
274.017	80.5
274.249	71.5
274.481	63.5
274.713	82.5
274.945	76.5
275.176	70.5
275.408	78.5
275.64	73.5
275.872	74.5
276.104	85.5
276.335	77.5
276.567	75.5
276.799	84.5
277.031	93.5
277.262	93.5
277.494	95.5
277.726	79.5
277.957	66.5
278.189	70.5
278.421	94.5
278.652	73.5
278.884	81.5
279.115	75.5
279.347	78.5
279.579	88.5
279.81	83.5
280.042	94.5
280.273	74.5
280.505	88.5
280.736	80.5
280.968	78.5
281.199	75.5
281.431	79.5
281.662	90.5
281.894	70.5
282.125	73.5
282.356	89.5
282.588	90.5
282.819	82.5
283.051	78.5
283.282	81.5
283.513	85.5
283.745	84.5
283.976	67.5
284.207	68.5
284.439	83.5
284.67	77.5
284.901	71.5
285.132	88.5
285.364	77.5
285.595	70.5
285.826	74.5
286.057	87.5
286.288	82.5
286.52	81.5
286.751	94.5
286.982	75.5
287.213	75.5
287.444	90.5
287.675	79.5
287.906	93.5
288.138	90.5
288.369	64.5
288.6	87.5
288.831	74.5
289.062	93.5
289.293	90.5
289.524	93.5
289.755	88.5
289.986	80.5
290.217	70.5
290.448	80.5
290.679	83.5
290.91	83.5
291.141	80.5
291.371	86.5
291.602	86.5
291.833	78.5
292.064	85.5
292.295	88.5
292.526	80.5
292.757	75.5
292.987	72.5
293.218	71.5
293.449	82.5
293.68	80.5
293.91	74.5
294.141	81.5
294.372	85.5
294.603	78.5
294.833	81.5
295.064	72.5
295.295	83.5
295.525	67.5
295.756	94.5
295.987	79.5
296.217	92.5
296.448	81.5
296.679	68.5
296.909	66.5
297.14	79.5
297.37	72.5
297.601	79.5
297.831	76.5
298.062	104.5
298.292	78.5
298.523	83.5
298.753	86.5
298.984	79.5
299.214	84.5
299.445	78.5
299.675	87.5
299.905	83.5
300.136	81.5
300.366	79.5
300.597	97.5
300.827	75.5
301.057	85.5
301.288	90.5
301.518	81.5
301.748	69.5
301.979	91.5
302.209	80.5
302.439	76.5
302.669	93.5
302.9	78.5
303.13	84.5
303.36	91.5
303.59	78.5
303.82	92.5
304.051	86.5
304.281	73.5
304.511	87.5
304.741	97.5
304.971	77.5
305.201	75.5
305.431	89.5
305.661	77.5
305.891	84.5
306.121	70.5
306.352	96.5
306.582	80.5
306.812	84.5
307.042	85.5
307.272	84.5
307.502	83.5
307.731	75.5
307.961	70.5
308.191	90.5
308.421	96.5
308.651	84.5
308.881	102.5
309.111	79.5
309.341	77.5
309.571	83.5
309.8	92.5
310.03	75.5
310.26	69.5
310.49	90.5
310.72	90.5
310.949	85.5
311.179	74.5
311.409	85.5
311.639	82.5
311.868	87.5
312.098	83.5
312.328	89.5
312.557	77.5
312.787	83.5
313.017	83.5
313.246	79.5
313.476	83.5
313.706	83.5
313.935	71.5
314.165	86.5
314.394	91.5
314.624	91.5
314.853	73.5
315.083	81.5
315.312	85.5
315.542	93.5
315.771	85.5
316.001	81.5
316.23	83.5
316.46	84.5
316.689	80.5
316.919	83.5
317.148	75.5
317.377	79.5
317.607	64.5
317.836	77.5
318.065	81.5
318.295	88.5
318.524	71.5
318.753	89.5
318.983	83.5
319.212	83.5
319.441	73.5
319.67	79.5
319.9	81.5
320.129	85.5
320.358	82.5
320.587	77.5
320.816	86.5
321.046	96.5
321.275	79.5
321.504	80.5
321.733	73.5
321.962	81.5
322.191	86.5
322.42	84.5
322.649	91.5
322.878	84.5
323.108	69.5
323.337	73.5
323.566	81.5
323.795	85.5
324.024	85.5
324.253	90.5
324.482	68.5
324.71	82.5
324.939	95.5
325.168	83.5
325.397	77.5
325.626	86.5
325.855	66.5
326.084	72.5
326.313	80.5
326.542	84.5
326.77	94.5
326.999	76.5
327.228	81.5
327.457	75.5
327.686	77.5
327.914	83.5
328.143	85.5
328.372	81.5
328.6	86.5
328.829	74.5
329.058	77.5
329.287	91.5
329.515	90.5
329.744	80.5
329.972	81.5
330.201	82.5
330.43	89.5
330.658	83.5
330.887	84.5
331.115	81.5
331.344	73.5
331.572	89.5
331.801	78.5
332.03	86.5
332.258	75.5
332.486	83.5
332.715	77.5
332.943	81.5
333.172	85.5
333.4	75.5
333.629	80.5
333.857	77.5
334.085	84.5
334.314	83.5
334.542	86.5
334.771	79.5
334.999	81.5
335.227	82.5
335.455	89.5
335.684	75.5
335.912	82.5
336.14	70.5
336.369	91.5
336.597	79.5
336.825	78.5
337.053	84.5
337.281	75.5
337.51	102.5
337.738	79.5
337.966	74.5
338.194	84.5
338.422	74.5
338.65	73.5
338.878	78.5
339.106	91.5
339.334	86.5
339.562	80.5
339.79	83.5
340.018	90.5
340.246	78.5
340.474	70.5
340.702	80.5
340.93	86.5
341.158	79.5
341.386	89.5
341.614	82.5
341.842	80.5
342.07	86.5
342.298	82.5
342.526	83.5
342.754	81.5
342.981	93.5
343.209	82.5
343.437	79.5
343.665	72.5
343.893	74.5
344.12	89.5
344.348	77.5
344.576	95.5
344.804	85.5
345.031	72.5
345.259	70.5
345.487	89.5
345.714	81.5
345.942	70.5
346.17	69.5
346.397	73.5
346.625	74.5
346.853	72.5
347.08	69.5
347.308	91.5
347.535	76.5
347.763	89.5
347.99	82.5
348.218	79.5
348.445	70.5
348.673	78.5
348.9	78.5
349.128	90.5
349.355	80.5
349.583	65.5
349.81	85.5
350.037	80.5
350.265	82.5
350.492	75.5
350.72	93.5
350.947	93.5
351.174	98.5
351.402	63.5
351.629	95.5
351.856	82.5
352.083	84.5
352.311	78.5
352.538	87.5
352.765	86.5
352.992	81.5
353.22	82.5
353.447	74.5
353.674	78.5
353.901	70.5
354.128	90.5
354.355	80.5
354.583	77.5
354.81	75.5
355.037	82.5
355.264	80.5
355.491	82.5
355.718	73.5
355.945	90.5
356.172	57.5
356.399	85.5
356.626	80.5
356.853	78.5
357.08	79.5
357.307	68.5
357.534	77.5
357.761	72.5
357.988	88.5
358.215	73.5
358.441	74.5
358.668	93.5
358.895	98.5
359.122	71.5
359.349	80.5
359.576	74.5
359.802	81.5
360.029	87.5
360.256	99.5
360.483	78.5
360.709	90.5
360.936	93.5
361.163	83.5
361.39	105.5
361.616	84.5
361.843	80.5
362.07	82.5
362.296	85.5
362.523	87.5
362.749	77.5
362.976	86.5
363.203	79.5
363.429	83.5
363.656	79.5
363.882	72.5
364.109	78.5
364.335	88.5
364.562	81.5
364.788	73.5
365.015	89.5
365.241	76.5
365.468	88.5
365.694	74.5
365.92	79.5
366.147	85.5
366.373	76.5
366.599	81.5
366.826	78.5
367.052	86.5
367.278	76.5
367.505	81.5
367.731	65.5
367.957	94.5
368.184	89.5
368.41	83.5
368.636	89.5
368.862	80.5
369.089	78.5
369.315	68.5
369.541	99.5
369.767	86.5
369.993	81.5
370.219	80.5
370.445	74.5
370.672	74.5
370.898	98.5
371.124	74.5
371.35	71.5
371.576	81.5
371.802	75.5
372.028	83.5
372.254	68.5
372.48	81.5
372.706	75.5
372.932	78.5
373.158	76.5
373.384	86.5
373.61	81.5
373.835	81.5
374.061	78.5
374.287	86.5
374.513	78.5
374.739	89.5
374.965	70.5
375.191	96.5
375.416	97.5
375.642	81.5
375.868	96.5
376.094	75.5
376.319	81.5
376.545	83.5
376.771	81.5
376.997	93.5
377.222	82.5
377.448	75.5
377.674	86.5
377.899	79.5
378.125	84.5
378.35	86.5
378.576	80.5
378.802	92.5
379.027	83.5
379.253	75.5
379.478	83.5
379.704	85.5
379.929	84.5
380.155	82.5
380.38	78.5
380.606	93.5
380.831	85.5
381.057	93.5
381.282	78.5
381.507	70.5
381.733	83.5
381.958	74.5
382.184	73.5
382.409	98.5
382.634	85.5
382.86	90.5
383.085	86.5
383.31	91.5
383.535	71.5
383.761	80.5
383.986	75.5
384.211	83.5
384.436	86.5
384.662	78.5
384.887	78.5
385.112	86.5
385.337	89.5
385.562	75.5
385.787	96.5
386.013	86.5
386.238	75.5
386.463	72.5
386.688	79.5
386.913	98.5
387.138	88.5
387.363	80.5
387.588	83.5
387.813	85.5
388.038	85.5
388.263	75.5
388.488	93.5
388.713	82.5
388.938	86.5
389.163	85.5
389.387	99.5
389.612	101.5
389.837	99.5
390.062	94.5
390.287	98.5
390.512	83.5
390.736	87.5
390.961	90.5
391.186	79.5
391.411	103.5
391.636	82.5
391.86	82.5
392.085	87.5
392.31	94.5
392.534	78.5
392.759	84.5
392.984	72.5
393.208	88.5
393.433	73.5
393.658	86.5
393.882	76.5
394.107	96.5
394.331	85.5
394.556	97.5
394.78	84.5
395.005	97.5
395.229	83.5
395.454	94.5
395.678	96.5
395.903	96.5
396.127	89.5
396.352	79.5
396.576	96.5
396.801	104.5
397.025	86.5
397.249	91.5
397.474	98.5
397.698	93.5
397.922	105.5
398.147	84.5
398.371	93.5
398.595	87.5
398.82	74.5
399.044	89.5
399.268	94.5
399.492	87.5
399.717	81.5
399.941	95.5
400.165	91.5
400.389	85.5
400.613	106.5
400.837	86.5
401.062	86.5
401.286	95.5
401.51	92.5
401.734	90.5
401.958	83.5
402.182	96.5
402.406	103.5
402.63	99.5
402.854	93.5
403.078	76.5
403.302	106.5
403.526	91.5
403.75	96.5
403.974	93.5
404.198	114.5
404.422	110.5
404.645	106.5
404.869	82.5
405.093	90.5
405.317	106.5
405.541	98.5
405.765	97.5
405.988	87.5
406.212	99.5
406.436	78.5
406.66	97.5
406.883	89.5
407.107	76.5
407.331	96.5
407.555	89.5
407.778	91.5
408.002	96.5
408.226	98.5
408.449	102.5
408.673	96.5
408.896	88.5
409.12	89.5
409.344	103.5
409.567	107.5
409.791	91.5
410.014	93.5
410.238	90.5
410.461	101.5
410.685	88.5
410.908	85.5
411.132	98.5
411.355	70.5
411.578	104.5
411.802	104.5
412.025	92.5
412.249	107.5
412.472	91.5
412.695	93.5
412.919	93.5
413.142	101.5
413.365	112.5
413.589	101.5
413.812	89.5
414.035	91.5
414.258	93.5
414.482	114.5
414.705	95.5
414.928	97.5
415.151	98.5
415.374	92.5
415.597	109.5
415.821	103.5
416.044	96.5
416.267	109.5
416.49	107.5
416.713	96.5
416.936	98.5
417.159	100.5
417.382	99.5
417.605	103.5
417.828	94.5
418.051	94.5
418.274	99.5
418.497	101.5
418.72	102.5
418.943	114.5
419.166	115.5
419.389	97.5
419.611	113.5
419.834	103.5
420.057	94.5
420.28	103.5
420.503	101.5
420.726	109.5
420.948	98.5
421.171	91.5
421.394	91.5
421.617	111.5
421.839	104.5
422.062	100.5
422.285	96.5
422.507	91.5
422.73	99.5
422.953	105.5
423.175	95.5
423.398	94.5
423.621	100.5
423.843	91.5
424.066	85.5
424.288	97.5
424.511	89.5
424.733	110.5
424.956	97.5
425.178	103.5
425.401	100.5
425.623	81.5
425.846	97.5
426.068	90.5
426.291	106.5
426.513	98.5
426.735	86.5
426.958	85.5
427.18	104.5
427.402	91.5
427.625	101.5
427.847	102.5
428.069	97.5
428.292	98.5
428.514	106.5
428.736	102.5
428.958	95.5
429.181	118.5
429.403	97.5
429.625	111.5
429.847	96.5
430.069	95.5
430.292	109.5
430.514	103.5
430.736	97.5
430.958	101.5
431.18	108.5
431.402	89.5
431.624	89.5
431.846	89.5
432.068	83.5
432.29	99.5
432.512	91.5
432.734	107.5
432.956	90.5
433.178	113.5
433.4	109.5
433.622	94.5
433.844	115.5
434.066	101.5
434.287	84.5
434.509	85.5
434.731	87.5
434.953	84.5
435.175	90.5
435.397	97.5
435.618	97.5
435.84	94.5
436.062	89.5
436.284	103.5
436.505	120.5
436.727	102.5
436.949	106.5
437.17	97.5
437.392	90.5
437.614	106.5
437.835	84.5
438.057	97.5
438.278	88.5
438.5	98.5
438.721	110.5
438.943	101.5
439.165	119.5
439.386	114.5
439.608	104.5
439.829	98.5
440.05	104.5
440.272	92.5
440.493	102.5
440.715	101.5
440.936	104.5
441.158	117.5
441.379	111.5
441.6	102.5
441.822	116.5
442.043	104.5
442.264	104.5
442.486	115.5
442.707	98.5
442.928	106.5
443.149	108.5
443.371	85.5
443.592	89.5
443.813	103.5
444.034	110.5
444.255	99.5
444.476	126.5
444.698	111.5
444.919	121.5
445.14	194.5
445.361	150.5
445.582	102.5
445.803	94.5
446.024	121.5
446.245	127.5
446.466	113.5
446.687	114.5
446.908	109.5
447.129	109.5
447.35	119.5
447.571	124.5
447.792	103.5
448.013	105.5
448.234	100.5
448.455	94.5
448.675	115.5
448.896	106.5
449.117	113.5
449.338	98.5
449.559	119.5
449.779	99.5
450	104.5
450.221	103.5
450.442	94.5
450.662	111.5
450.883	106.5
451.104	98.5
451.324	109.5
451.545	96.5
451.766	107.5
451.986	98.5
452.207	96.5
452.428	103.5
452.648	108.5
452.869	110.5
453.089	109.5
453.31	97.5
453.53	86.5
453.751	95.5
453.971	92.5
454.192	81.5
454.412	84.5
454.633	96.5
454.853	103.5
455.073	113.5
455.294	106.5
455.514	93.5
455.734	95.5
455.955	94.5
456.175	92.5
456.395	97.5
456.616	94.5
456.836	101.5
457.056	89.5
457.276	74.5
457.497	92.5
457.717	105.5
457.937	93.5
458.157	96.5
458.377	94.5
458.598	88.5
458.818	85.5
459.038	84.5
459.258	77.5
459.478	68.5
459.698	92.5
459.918	88.5
460.138	96.5
460.358	95.5
460.578	97.5
460.798	102.5
461.018	97.5
461.238	111.5
461.458	95.5
461.678	97.5
461.898	90.5
462.118	94.5
462.338	93.5
462.558	100.5
462.777	85.5
462.997	106.5
463.217	93.5
463.437	85.5
463.657	87.5
463.876	97.5
464.096	94.5
464.316	93.5
464.536	97.5
464.755	85.5
464.975	110.5
465.195	108.5
465.414	99.5
465.634	101.5
465.854	80.5
466.073	86.5
466.293	120.5
466.512	106.5
466.732	99.5
466.951	95.5
467.171	104.5
467.391	100.5
467.61	108.5
467.829	96.5
468.049	101.5
468.268	109.5
468.488	98.5
468.707	109.5
468.927	97.5
469.146	98.5
469.365	106.5
469.585	104.5
469.804	109.5
470.023	103.5
470.243	117.5
470.462	117.5
470.681	86.5
470.901	109.5
471.12	99.5
471.339	112.5
471.558	110.5
471.777	96.5
471.997	101.5
472.216	104.5
472.435	111.5
472.654	96.5
472.873	91.5
473.092	90.5
473.311	98.5
473.53	94.5
473.749	105.5
473.968	115.5
474.187	122.5
474.406	98.5
474.625	102.5
474.844	109.5
475.063	93.5
475.282	115.5
475.501	101.5
475.72	102.5
475.939	80.5
476.158	95.5
476.377	97.5
476.596	88.5
476.814	102.5
477.033	100.5
477.252	82.5
477.471	89.5
477.69	101.5
477.908	102.5
478.127	110.5
478.346	107.5
478.564	103.5
478.783	112.5
479.002	94.5
479.22	100.5
479.439	103.5
479.658	104.5
479.876	105.5
480.095	87.5
480.313	82.5
480.532	75.5
480.751	84.5
480.969	91.5
481.188	83.5
481.406	74.5
481.624	90.5
481.843	78.5
482.061	96.5
482.28	95.5
482.498	87.5
482.717	89.5
482.935	81.5
483.153	110.5
483.372	99.5
483.59	110.5
483.808	115.5
484.027	116.5
484.245	114.5
484.463	114.5
484.681	129.5
484.9	118.5
485.118	94.5
485.336	110.5
485.554	99.5
485.772	95.5
485.99	95.5
486.209	106.5
486.427	86.5
486.645	91.5
486.863	109.5
487.081	111.5
487.299	93.5
487.517	111.5
487.735	136.5
487.953	129.5
488.171	123.5
488.389	131.5
488.607	127.5
488.825	114.5
489.043	103.5
489.261	86.5
489.479	112.5
489.696	106.5
489.914	114.5
490.132	108.5
490.35	101.5
490.568	99.5
490.786	121.5
491.003	119.5
491.221	125.5
491.439	128.5
491.657	142.5
491.874	131.5
492.092	146.5
492.31	150.5
492.527	144.5
492.745	149.5
492.963	122.5
493.18	145.5
493.398	129.5
493.615	136.5
493.833	126.5
494.05	125.5
494.268	129.5
494.485	134.5
494.703	137.5
494.92	121.5
495.138	136.5
495.355	117.5
495.573	132.5
495.79	125.5
496.008	126.5
496.225	115.5
496.442	120.5
496.66	129.5
496.877	122.5
497.094	120.5
497.312	116.5
497.529	124.5
497.746	121.5
497.963	110.5
498.181	104.5
498.398	111.5
498.615	104.5
498.832	106.5
499.049	95.5
499.267	116.5
499.484	106.5
499.701	104.5
499.918	110.5
500.135	93.5
500.352	122.5
500.569	107.5
500.786	122.5
501.003	109.5
501.22	113.5
501.437	98.5
501.654	103.5
501.871	110.5
502.088	102.5
502.305	114.5
502.522	111.5
502.739	104.5
502.956	115.5
503.172	107.5
503.389	103.5
503.606	111.5
503.823	94.5
504.04	100.5
504.256	97.5
504.473	84.5
504.69	100.5
504.907	94.5
505.123	100.5
505.34	109.5
505.557	109.5
505.773	96.5
505.99	102.5
506.207	117.5
506.423	95.5
506.64	102.5
506.856	103.5
507.073	98.5
507.289	101.5
507.506	98.5
507.722	98.5
507.939	96.5
508.155	101.5
508.372	88.5
508.588	101.5
508.805	107.5
509.021	85.5
509.238	80.5
509.454	89.5
509.67	81.5
509.887	98.5
510.103	88.5
510.319	88.5
510.536	98.5
510.752	85.5
510.968	93.5
511.184	77.5
511.401	91.5
511.617	83.5
511.833	84.5
512.049	69.5
512.265	92.5
512.481	100.5
512.698	84.5
512.914	78.5
513.13	90.5
513.346	99.5
513.562	90.5
513.778	89.5
513.994	90.5
514.21	95.5
514.426	101.5
514.642	81.5
514.858	89.5
515.074	84.5
515.29	95.5
515.506	97.5
515.721	76.5
515.937	85.5
516.153	97.5
516.369	91.5
516.585	74.5
516.801	83.5
517.016	83.5
517.232	89.5
517.448	92.5
517.664	85.5
517.879	83.5
518.095	78.5
518.311	93.5
518.527	101.5
518.742	82.5
518.958	90.5
519.173	87.5
519.389	81.5
519.605	104.5
519.82	91.5
520.036	102.5
520.251	90.5
520.467	87.5
520.682	86.5
520.898	75.5
521.113	96.5
521.329	80.5
521.544	77.5
521.76	87.5
521.975	79.5
522.19	83.5
522.406	86.5
522.621	97.5
522.836	91.5
523.052	98.5
523.267	72.5
523.482	94.5
523.698	89.5
523.913	98.5
524.128	99.5
524.343	95.5
524.559	98.5
524.774	95.5
524.989	95.5
525.204	109.5
525.419	95.5
525.634	87.5
525.849	98.5
526.064	98.5
526.28	91.5
526.495	98.5
526.71	90.5
526.925	65.5
527.14	77.5
527.355	82.5
527.57	86.5
527.785	90.5
527.999	93.5
528.214	106.5
528.429	101.5
528.644	114.5
528.859	105.5
529.074	109.5
529.289	113.5
529.503	114.5
529.718	120.5
529.933	98.5
530.148	102.5
530.363	82.5
530.577	83.5
530.792	80.5
531.007	74.5
531.221	76.5
531.436	81.5
531.651	94.5
531.865	84.5
532.08	91.5
532.295	70.5
532.509	75.5
532.724	83.5
532.938	98.5
533.153	86.5
533.367	97.5
533.582	115.5
533.796	102.5
534.011	85.5
534.225	87.5
534.44	75.5
534.654	85.5
534.868	94.5
535.083	81.5
535.297	88.5
535.511	106.5
