Data from Zn(NO3)2Standard.Agarose3%.GreenCap.LampEnergy10E.O_HRD10591_15-07-33-946.txt Node
Date: Mon Jul 22 15:07:33 EDT 2019
User: cochatt
Spectrometer: HR+D1059
Trigger mode: 1
Integration Time (sec): 1.000000E-1
Scans to average: 1
Electric dark correction enabled: true
Nonlinearity correction enabled: false
Boxcar width: 0
XAxis mode: Wavelengths
Number of Pixels in Spectrum: 2048
>>>>>Begin Spectral Data<<<<<
223.165	-4.62
223.4	-4.62
223.635	-4.62
223.869	-20.62
224.104	-22.62
224.338	-22.62
224.573	-13.62
224.808	-8.62
225.042	-18.62
225.277	2.38
225.511	2.38
225.746	-2.62
225.98	-5.62
226.215	19.38
226.449	24.38
226.683	18.38
226.918	28.38
227.152	24.38
227.387	35.38
227.621	22.38
227.856	53.38
228.09	29.38
228.324	56.38
228.559	57.38
228.793	69.38
229.027	69.38
229.262	68.38
229.496	70.38
229.73	69.38
229.964	79.38
230.199	71.38
230.433	83.38
230.667	87.38
230.901	82.38
231.136	75.38
231.37	87.38
231.604	60.38
231.838	73.38
232.072	75.38
232.306	84.38
232.541	96.38
232.775	80.38
233.009	75.38
233.243	84.38
233.477	93.38
233.711	77.38
233.945	76.38
234.179	62.38
234.413	77.38
234.647	89.38
234.881	81.38
235.115	77.38
235.349	82.38
235.583	66.38
235.817	69.38
236.051	66.38
236.285	82.38
236.519	78.38
236.753	70.38
236.987	88.38
237.221	73.38
237.455	70.38
237.689	69.38
237.922	65.38
238.156	78.38
238.39	69.38
238.624	75.38
238.858	82.38
239.091	60.38
239.325	83.38
239.559	77.38
239.793	66.38
240.027	75.38
240.26	68.38
240.494	81.38
240.728	75.38
240.961	77.38
241.195	79.38
241.429	85.38
241.662	79.38
241.896	85.38
242.13	81.38
242.363	60.38
242.597	72.38
242.83	76.38
243.064	65.38
243.298	77.38
243.531	79.38
243.765	71.38
243.998	98.38
244.232	68.38
244.465	76.38
244.699	81.38
244.932	95.38
245.166	88.38
245.399	90.38
245.633	77.38
245.866	79.38
246.099	70.38
246.333	75.38
246.566	67.38
246.8	85.38
247.033	85.38
247.266	73.38
247.5	94.38
247.733	76.38
247.966	79.38
248.2	83.38
248.433	67.38
248.666	78.38
248.899	78.38
249.133	84.38
249.366	80.38
249.599	82.38
249.832	83.38
250.066	82.38
250.299	71.38
250.532	79.38
250.765	71.38
250.998	75.38
251.231	85.38
251.465	87.38
251.698	76.38
251.931	74.38
252.164	60.38
252.397	78.38
252.63	73.38
252.863	83.38
253.096	77.38
253.329	75.38
253.562	84.38
253.795	85.38
254.028	82.38
254.261	92.38
254.494	71.38
254.727	72.38
254.96	104.38
255.193	88.38
255.426	89.38
255.659	72.38
255.892	88.38
256.124	65.38
256.357	81.38
256.59	75.38
256.823	80.38
257.056	71.38
257.289	74.38
257.521	76.38
257.754	79.38
257.987	91.38
258.22	92.38
258.452	67.38
258.685	67.38
258.918	71.38
259.151	84.38
259.383	92.38
259.616	69.38
259.849	89.38
260.081	74.38
260.314	70.38
260.547	77.38
260.779	83.38
261.012	76.38
261.244	84.38
261.477	78.38
261.71	77.38
261.942	78.38
262.175	90.38
262.407	94.38
262.64	77.38
262.872	86.38
263.105	81.38
263.337	96.38
263.57	88.38
263.802	82.38
264.035	75.38
264.267	70.38
264.499	84.38
264.732	77.38
264.964	84.38
265.197	83.38
265.429	84.38
265.661	75.38
265.894	76.38
266.126	77.38
266.358	88.38
266.591	83.38
266.823	82.38
267.055	80.38
267.287	77.38
267.52	75.38
267.752	87.38
267.984	81.38
268.216	94.38
268.448	92.38
268.681	84.38
268.913	85.38
269.145	95.38
269.377	80.38
269.609	70.38
269.841	76.38
270.073	79.38
270.306	80.38
270.538	82.38
270.77	97.38
271.002	88.38
271.234	85.38
271.466	70.38
271.698	74.38
271.93	82.38
272.162	80.38
272.394	82.38
272.626	88.38
272.858	85.38
273.09	87.38
273.322	83.38
273.553	76.38
273.785	94.38
274.017	82.38
274.249	80.38
274.481	77.38
274.713	89.38
274.945	86.38
275.176	69.38
275.408	85.38
275.64	77.38
275.872	99.38
276.104	86.38
276.335	100.38
276.567	87.38
276.799	90.38
277.031	87.38
277.262	86.38
277.494	73.38
277.726	80.38
277.957	87.38
278.189	80.38
278.421	97.38
278.652	80.38
278.884	82.38
279.115	84.38
279.347	76.38
279.579	76.38
279.81	93.38
280.042	84.38
280.273	77.38
280.505	83.38
280.736	82.38
280.968	77.38
281.199	69.38
281.431	93.38
281.662	68.38
281.894	78.38
282.125	85.38
282.356	89.38
282.588	75.38
282.819	81.38
283.051	81.38
283.282	73.38
283.513	78.38
283.745	76.38
283.976	70.38
284.207	86.38
284.439	102.38
284.67	65.38
284.901	72.38
285.132	75.38
285.364	77.38
285.595	92.38
285.826	84.38
286.057	85.38
286.288	75.38
286.52	84.38
286.751	81.38
286.982	89.38
287.213	86.38
287.444	90.38
287.675	83.38
287.906	67.38
288.138	92.38
288.369	97.38
288.6	99.38
288.831	88.38
289.062	90.38
289.293	79.38
289.524	76.38
289.755	90.38
289.986	87.38
290.217	80.38
290.448	93.38
290.679	87.38
290.91	74.38
291.141	80.38
291.371	87.38
291.602	84.38
291.833	91.38
292.064	76.38
292.295	90.38
292.526	83.38
292.757	87.38
292.987	93.38
293.218	80.38
293.449	101.38
293.68	84.38
293.91	81.38
294.141	92.38
294.372	90.38
294.603	94.38
294.833	95.38
295.064	79.38
295.295	79.38
295.525	75.38
295.756	79.38
295.987	87.38
296.217	90.38
296.448	89.38
296.679	76.38
296.909	81.38
297.14	87.38
297.37	84.38
297.601	79.38
297.831	75.38
298.062	82.38
298.292	84.38
298.523	93.38
298.753	80.38
298.984	97.38
299.214	79.38
299.445	71.38
299.675	86.38
299.905	90.38
300.136	71.38
300.366	90.38
300.597	81.38
300.827	83.38
301.057	75.38
301.288	79.38
301.518	86.38
301.748	89.38
301.979	81.38
302.209	72.38
302.439	70.38
302.669	88.38
302.9	95.38
303.13	88.38
303.36	89.38
303.59	98.38
303.82	97.38
304.051	90.38
304.281	92.38
304.511	87.38
304.741	97.38
304.971	106.38
305.201	77.38
305.431	79.38
305.661	86.38
305.891	100.38
306.121	83.38
306.352	88.38
306.582	77.38
306.812	90.38
307.042	81.38
307.272	88.38
307.502	90.38
307.731	93.38
307.961	83.38
308.191	78.38
308.421	89.38
308.651	80.38
308.881	83.38
309.111	87.38
309.341	88.38
309.571	75.38
309.8	76.38
310.03	81.38
310.26	77.38
310.49	75.38
310.72	87.38
310.949	71.38
311.179	91.38
311.409	99.38
311.639	83.38
311.868	83.38
312.098	76.38
312.328	86.38
312.557	73.38
312.787	94.38
313.017	86.38
313.246	87.38
313.476	84.38
313.706	75.38
313.935	82.38
314.165	95.38
314.394	80.38
314.624	93.38
314.853	76.38
315.083	92.38
315.312	70.38
315.542	84.38
315.771	96.38
316.001	67.38
316.23	85.38
316.46	80.38
316.689	80.38
316.919	86.38
317.148	89.38
317.377	80.38
317.607	94.38
317.836	96.38
318.065	86.38
318.295	86.38
318.524	78.38
318.753	85.38
318.983	90.38
319.212	74.38
319.441	84.38
319.67	91.38
319.9	83.38
320.129	81.38
320.358	95.38
320.587	92.38
320.816	88.38
321.046	91.38
321.275	76.38
321.504	76.38
321.733	74.38
321.962	82.38
322.191	85.38
322.42	75.38
322.649	85.38
322.878	91.38
323.108	89.38
323.337	91.38
323.566	81.38
323.795	74.38
324.024	81.38
324.253	81.38
324.482	87.38
324.71	80.38
324.939	85.38
325.168	85.38
325.397	96.38
325.626	87.38
325.855	83.38
326.084	92.38
326.313	93.38
326.542	82.38
326.77	90.38
326.999	80.38
327.228	96.38
327.457	75.38
327.686	91.38
327.914	88.38
328.143	98.38
328.372	74.38
328.6	67.38
328.829	81.38
329.058	78.38
329.287	77.38
329.515	76.38
329.744	84.38
329.972	85.38
330.201	84.38
330.43	79.38
330.658	90.38
330.887	84.38
331.115	91.38
331.344	79.38
331.572	82.38
331.801	80.38
332.03	86.38
332.258	77.38
332.486	76.38
332.715	82.38
332.943	77.38
333.172	88.38
333.4	93.38
333.629	95.38
333.857	99.38
334.085	88.38
334.314	103.38
334.542	84.38
334.771	84.38
334.999	84.38
335.227	84.38
335.455	86.38
335.684	96.38
335.912	82.38
336.14	88.38
336.369	90.38
336.597	88.38
336.825	84.38
337.053	92.38
337.281	87.38
337.51	89.38
337.738	73.38
337.966	76.38
338.194	82.38
338.422	92.38
338.65	89.38
338.878	92.38
339.106	96.38
339.334	96.38
339.562	85.38
339.79	95.38
340.018	80.38
340.246	86.38
340.474	79.38
340.702	80.38
340.93	83.38
341.158	88.38
341.386	78.38
341.614	86.38
341.842	85.38
342.07	74.38
342.298	84.38
342.526	94.38
342.754	72.38
342.981	72.38
343.209	77.38
343.437	90.38
343.665	76.38
343.893	76.38
344.12	86.38
344.348	81.38
344.576	91.38
344.804	80.38
345.031	86.38
345.259	84.38
345.487	77.38
345.714	83.38
345.942	95.38
346.17	77.38
346.397	84.38
346.625	89.38
346.853	89.38
347.08	88.38
347.308	90.38
347.535	92.38
347.763	77.38
347.99	89.38
348.218	91.38
348.445	87.38
348.673	96.38
348.9	83.38
349.128	74.38
349.355	89.38
349.583	88.38
349.81	86.38
350.037	71.38
350.265	88.38
350.492	92.38
350.72	96.38
350.947	79.38
351.174	95.38
351.402	93.38
351.629	85.38
351.856	85.38
352.083	88.38
352.311	92.38
352.538	61.38
352.765	84.38
352.992	88.38
353.22	82.38
353.447	77.38
353.674	90.38
353.901	78.38
354.128	88.38
354.355	76.38
354.583	81.38
354.81	81.38
355.037	78.38
355.264	87.38
355.491	91.38
355.718	83.38
355.945	88.38
356.172	83.38
356.399	76.38
356.626	70.38
356.853	81.38
357.08	77.38
357.307	72.38
357.534	95.38
357.761	90.38
357.988	91.38
358.215	77.38
358.441	96.38
358.668	88.38
358.895	65.38
359.122	80.38
359.349	83.38
359.576	81.38
359.802	76.38
360.029	67.38
360.256	77.38
360.483	82.38
360.709	76.38
360.936	94.38
361.163	84.38
361.39	86.38
361.616	90.38
361.843	78.38
362.07	78.38
362.296	73.38
362.523	88.38
362.749	68.38
362.976	77.38
363.203	94.38
363.429	77.38
363.656	89.38
363.882	87.38
364.109	77.38
364.335	84.38
364.562	86.38
364.788	100.38
365.015	76.38
365.241	81.38
365.468	90.38
365.694	79.38
365.92	71.38
366.147	92.38
366.373	97.38
366.599	79.38
366.826	85.38
367.052	100.38
367.278	91.38
367.505	81.38
367.731	89.38
367.957	77.38
368.184	95.38
368.41	83.38
368.636	106.38
368.862	86.38
369.089	88.38
369.315	75.38
369.541	82.38
369.767	76.38
369.993	87.38
370.219	105.38
370.445	98.38
370.672	81.38
370.898	83.38
371.124	91.38
371.35	76.38
371.576	81.38
371.802	99.38
372.028	109.38
372.254	77.38
372.48	85.38
372.706	93.38
372.932	93.38
373.158	101.38
373.384	97.38
373.61	90.38
373.835	92.38
374.061	95.38
374.287	93.38
374.513	99.38
374.739	96.38
374.965	84.38
375.191	83.38
375.416	80.38
375.642	96.38
375.868	69.38
376.094	84.38
376.319	81.38
376.545	85.38
376.771	92.38
376.997	94.38
377.222	80.38
377.448	92.38
377.674	99.38
377.899	88.38
378.125	94.38
378.35	86.38
378.576	86.38
378.802	92.38
379.027	95.38
379.253	85.38
379.478	91.38
379.704	93.38
379.929	90.38
380.155	82.38
380.38	71.38
380.606	75.38
380.831	98.38
381.057	100.38
381.282	90.38
381.507	96.38
381.733	103.38
381.958	101.38
382.184	99.38
382.409	88.38
382.634	86.38
382.86	87.38
383.085	80.38
383.31	96.38
383.535	84.38
383.761	78.38
383.986	92.38
384.211	80.38
384.436	79.38
384.662	85.38
384.887	96.38
385.112	83.38
385.337	86.38
385.562	90.38
385.787	84.38
386.013	90.38
386.238	74.38
386.463	85.38
386.688	68.38
386.913	90.38
387.138	81.38
387.363	90.38
387.588	103.38
387.813	98.38
388.038	93.38
388.263	91.38
388.488	84.38
388.713	82.38
388.938	102.38
389.163	89.38
389.387	99.38
389.612	90.38
389.837	77.38
390.062	103.38
390.287	78.38
390.512	90.38
390.736	76.38
390.961	91.38
391.186	98.38
391.411	103.38
391.636	91.38
391.86	85.38
392.085	87.38
392.31	74.38
392.534	90.38
392.759	90.38
392.984	95.38
393.208	95.38
393.433	98.38
393.658	82.38
393.882	107.38
394.107	95.38
394.331	100.38
394.556	98.38
394.78	93.38
395.005	83.38
395.229	91.38
395.454	87.38
395.678	86.38
395.903	101.38
396.127	79.38
396.352	97.38
396.576	92.38
396.801	95.38
397.025	92.38
397.249	101.38
397.474	89.38
397.698	103.38
397.922	99.38
398.147	83.38
398.371	101.38
398.595	92.38
398.82	88.38
399.044	79.38
399.268	116.38
399.492	81.38
399.717	103.38
399.941	87.38
400.165	91.38
400.389	96.38
400.613	96.38
400.837	89.38
401.062	93.38
401.286	93.38
401.51	100.38
401.734	86.38
401.958	101.38
402.182	97.38
402.406	94.38
402.63	92.38
402.854	92.38
403.078	95.38
403.302	90.38
403.526	99.38
403.75	96.38
403.974	114.38
404.198	106.38
404.422	97.38
404.645	108.38
404.869	100.38
405.093	106.38
405.317	105.38
405.541	92.38
405.765	96.38
405.988	98.38
406.212	114.38
406.436	88.38
406.66	101.38
406.883	103.38
407.107	91.38
407.331	104.38
407.555	93.38
407.778	102.38
408.002	115.38
408.226	105.38
408.449	103.38
408.673	104.38
408.896	103.38
409.12	98.38
409.344	103.38
409.567	97.38
409.791	90.38
410.014	89.38
410.238	89.38
410.461	102.38
410.685	96.38
410.908	93.38
411.132	106.38
411.355	96.38
411.578	91.38
411.802	113.38
412.025	105.38
412.249	89.38
412.472	91.38
412.695	99.38
412.919	92.38
413.142	104.38
413.365	88.38
413.589	108.38
413.812	108.38
414.035	112.38
414.258	106.38
414.482	95.38
414.705	103.38
414.928	100.38
415.151	111.38
415.374	99.38
415.597	109.38
415.821	111.38
416.044	97.38
416.267	103.38
416.49	104.38
416.713	99.38
416.936	100.38
417.159	86.38
417.382	115.38
417.605	100.38
417.828	105.38
418.051	116.38
418.274	95.38
418.497	104.38
418.72	106.38
418.943	106.38
419.166	108.38
419.389	104.38
419.611	113.38
419.834	103.38
420.057	104.38
420.28	111.38
420.503	111.38
420.726	100.38
420.948	110.38
421.171	100.38
421.394	93.38
421.617	96.38
421.839	111.38
422.062	104.38
422.285	96.38
422.507	95.38
422.73	111.38
422.953	95.38
423.175	105.38
423.398	108.38
423.621	95.38
423.843	100.38
424.066	116.38
424.288	112.38
424.511	100.38
424.733	111.38
424.956	103.38
425.178	98.38
425.401	111.38
425.623	100.38
425.846	114.38
426.068	111.38
426.291	113.38
426.513	103.38
426.735	102.38
426.958	109.38
427.18	93.38
427.402	103.38
427.625	108.38
427.847	115.38
428.069	115.38
428.292	104.38
428.514	106.38
428.736	100.38
428.958	103.38
429.181	112.38
429.403	112.38
429.625	92.38
429.847	97.38
430.069	94.38
430.292	113.38
430.514	93.38
430.736	99.38
430.958	108.38
431.18	119.38
431.402	100.38
431.624	101.38
431.846	95.38
432.068	84.38
432.29	76.38
432.512	83.38
432.734	97.38
432.956	106.38
433.178	107.38
433.4	99.38
433.622	116.38
433.844	97.38
434.066	102.38
434.287	96.38
434.509	80.38
434.731	85.38
434.953	87.38
435.175	89.38
435.397	101.38
435.618	108.38
435.84	97.38
436.062	97.38
436.284	100.38
436.505	107.38
436.727	97.38
436.949	111.38
437.17	99.38
437.392	98.38
437.614	99.38
437.835	111.38
438.057	89.38
438.278	79.38
438.5	101.38
438.721	95.38
438.943	117.38
439.165	108.38
439.386	113.38
439.608	112.38
439.829	113.38
440.05	108.38
440.272	111.38
440.493	97.38
440.715	111.38
440.936	113.38
441.158	104.38
441.379	88.38
441.6	112.38
441.822	120.38
442.043	110.38
442.264	117.38
442.486	108.38
442.707	116.38
442.928	107.38
443.149	115.38
443.371	103.38
443.592	101.38
443.813	101.38
444.034	105.38
444.255	102.38
444.476	113.38
444.698	119.38
444.919	116.38
445.14	232.38
445.361	161.38
445.582	116.38
445.803	112.38
446.024	115.38
446.245	119.38
446.466	123.38
446.687	119.38
446.908	116.38
447.129	116.38
447.35	126.38
447.571	128.38
447.792	122.38
448.013	115.38
448.234	105.38
448.455	113.38
448.675	107.38
448.896	115.38
449.117	100.38
449.338	102.38
449.559	112.38
449.779	105.38
450	108.38
450.221	119.38
450.442	109.38
450.662	105.38
450.883	118.38
451.104	113.38
451.324	108.38
451.545	104.38
451.766	117.38
451.986	102.38
452.207	80.38
452.428	99.38
452.648	94.38
452.869	116.38
453.089	99.38
453.31	90.38
453.53	93.38
453.751	100.38
453.971	95.38
454.192	98.38
454.412	103.38
454.633	102.38
454.853	102.38
455.073	90.38
455.294	97.38
455.514	89.38
455.734	100.38
455.955	93.38
456.175	96.38
456.395	89.38
456.616	82.38
456.836	111.38
457.056	97.38
457.276	88.38
457.497	89.38
457.717	103.38
457.937	94.38
458.157	103.38
458.377	82.38
458.598	92.38
458.818	88.38
459.038	92.38
459.258	87.38
459.478	81.38
459.698	83.38
459.918	90.38
460.138	84.38
460.358	102.38
460.578	85.38
460.798	101.38
461.018	83.38
461.238	100.38
461.458	92.38
461.678	101.38
461.898	105.38
462.118	103.38
462.338	105.38
462.558	101.38
462.777	97.38
462.997	85.38
463.217	86.38
463.437	100.38
463.657	123.38
463.876	102.38
464.096	90.38
464.316	87.38
464.536	101.38
464.755	103.38
464.975	101.38
465.195	107.38
465.414	97.38
465.634	90.38
465.854	104.38
466.073	99.38
466.293	111.38
466.512	95.38
466.732	102.38
466.951	103.38
467.171	114.38
467.391	98.38
467.61	97.38
467.829	98.38
468.049	105.38
468.268	98.38
468.488	102.38
468.707	103.38
468.927	114.38
469.146	105.38
469.365	106.38
469.585	114.38
469.804	111.38
470.023	121.38
470.243	103.38
470.462	112.38
470.681	102.38
470.901	107.38
471.12	118.38
471.339	107.38
471.558	116.38
471.777	111.38
471.997	107.38
472.216	100.38
472.435	89.38
472.654	81.38
472.873	103.38
473.092	93.38
473.311	105.38
473.53	113.38
473.749	101.38
473.968	117.38
474.187	104.38
474.406	91.38
474.625	92.38
474.844	98.38
475.063	111.38
475.282	98.38
475.501	96.38
475.72	109.38
475.939	107.38
476.158	108.38
476.377	111.38
476.596	99.38
476.814	106.38
477.033	102.38
477.252	103.38
477.471	106.38
477.69	114.38
477.908	115.38
478.127	127.38
478.346	112.38
478.564	108.38
478.783	105.38
479.002	106.38
479.22	100.38
479.439	105.38
479.658	101.38
479.876	89.38
480.095	96.38
480.313	106.38
480.532	101.38
480.751	98.38
480.969	85.38
481.188	93.38
481.406	84.38
481.624	86.38
481.843	88.38
482.061	84.38
482.28	103.38
482.498	91.38
482.717	91.38
482.935	96.38
483.153	111.38
483.372	123.38
483.59	117.38
483.808	104.38
484.027	115.38
484.245	99.38
484.463	113.38
484.681	111.38
484.9	106.38
485.118	115.38
485.336	98.38
485.554	94.38
485.772	89.38
485.99	94.38
486.209	93.38
486.427	93.38
486.645	97.38
486.863	115.38
487.081	115.38
487.299	91.38
487.517	98.38
487.735	145.38
487.953	124.38
488.171	132.38
488.389	125.38
488.607	114.38
488.825	95.38
489.043	96.38
489.261	108.38
489.479	115.38
489.696	108.38
489.914	113.38
490.132	111.38
490.35	108.38
490.568	115.38
490.786	129.38
491.003	107.38
491.221	133.38
491.439	137.38
491.657	141.38
491.874	143.38
492.092	161.38
492.31	150.38
492.527	156.38
492.745	156.38
492.963	120.38
493.18	136.38
493.398	141.38
493.615	128.38
493.833	126.38
494.05	134.38
494.268	124.38
494.485	122.38
494.703	119.38
494.92	122.38
495.138	138.38
495.355	129.38
495.573	134.38
495.79	113.38
496.008	131.38
496.225	131.38
496.442	121.38
496.66	114.38
496.877	121.38
497.094	114.38
497.312	111.38
497.529	103.38
497.746	119.38
497.963	115.38
498.181	98.38
498.398	103.38
498.615	106.38
498.832	90.38
499.049	96.38
499.267	104.38
499.484	97.38
499.701	112.38
499.918	121.38
500.135	118.38
500.352	104.38
500.569	109.38
500.786	130.38
501.003	118.38
501.22	101.38
501.437	112.38
501.654	103.38
501.871	104.38
502.088	116.38
502.305	121.38
502.522	96.38
502.739	105.38
502.956	104.38
503.172	92.38
503.389	95.38
503.606	104.38
503.823	107.38
504.04	99.38
504.256	88.38
504.473	101.38
504.69	88.38
504.907	108.38
505.123	98.38
505.34	106.38
505.557	105.38
505.773	102.38
505.99	107.38
506.207	112.38
506.423	90.38
506.64	97.38
506.856	100.38
507.073	101.38
507.289	103.38
507.506	109.38
507.722	94.38
507.939	96.38
508.155	92.38
508.372	97.38
508.588	87.38
508.805	95.38
509.021	104.38
509.238	108.38
509.454	101.38
509.67	91.38
509.887	81.38
510.103	81.38
510.319	74.38
510.536	85.38
510.752	91.38
510.968	82.38
511.184	88.38
511.401	88.38
511.617	83.38
511.833	82.38
512.049	84.38
512.265	86.38
512.481	80.38
512.698	95.38
512.914	98.38
513.13	99.38
513.346	87.38
513.562	77.38
513.778	82.38
513.994	90.38
514.21	86.38
514.426	82.38
