Data from Zn(NO3)2Standard.Agarose3%.GreenCap.LampEnergy5.5.E.O_HRD10591_15-01-28-767.txt Node
Date: Mon Jul 22 15:01:28 EDT 2019
User: cochatt
Spectrometer: HR+D1059
Trigger mode: 1
Integration Time (sec): 1.000000E-1
Scans to average: 1
Electric dark correction enabled: true
Nonlinearity correction enabled: false
Boxcar width: 0
XAxis mode: Wavelengths
Number of Pixels in Spectrum: 2048
>>>>>Begin Spectral Data<<<<<
223.165	-19.38
223.4	-19.38
223.635	-19.38
223.869	-27.38
224.104	-14.38
224.338	-16.38
224.573	2.62
224.808	-3.38
225.042	-12.38
225.277	-12.38
225.511	-11.38
225.746	8.62
225.98	13.62
226.215	11.62
226.449	-0.38
226.683	19.62
226.918	20.62
227.152	40.62
227.387	42.62
227.621	33.62
227.856	38.62
228.09	50.62
228.324	47.62
228.559	61.62
228.793	40.62
229.027	62.62
229.262	59.62
229.496	84.62
229.73	70.62
229.964	71.62
230.199	71.62
230.433	75.62
230.667	74.62
230.901	84.62
231.136	72.62
231.37	79.62
231.604	77.62
231.838	85.62
232.072	84.62
232.306	95.62
232.541	95.62
232.775	85.62
233.009	76.62
233.243	95.62
233.477	79.62
233.711	85.62
233.945	79.62
234.179	94.62
234.413	84.62
234.647	75.62
234.881	79.62
235.115	80.62
235.349	84.62
235.583	89.62
235.817	83.62
236.051	71.62
236.285	76.62
236.519	85.62
236.753	83.62
236.987	79.62
237.221	82.62
237.455	79.62
237.689	75.62
237.922	72.62
238.156	67.62
238.39	75.62
238.624	75.62
238.858	73.62
239.091	68.62
239.325	69.62
239.559	78.62
239.793	76.62
240.027	70.62
240.26	66.62
240.494	81.62
240.728	83.62
240.961	73.62
241.195	68.62
241.429	74.62
241.662	76.62
241.896	77.62
242.13	81.62
242.363	87.62
242.597	75.62
242.83	85.62
243.064	85.62
243.298	77.62
243.531	89.62
243.765	87.62
243.998	73.62
244.232	83.62
244.465	89.62
244.699	76.62
244.932	81.62
245.166	82.62
245.399	73.62
245.633	77.62
245.866	79.62
246.099	86.62
246.333	73.62
246.566	78.62
246.8	75.62
247.033	77.62
247.266	77.62
247.5	80.62
247.733	87.62
247.966	77.62
248.2	90.62
248.433	73.62
248.666	65.62
248.899	60.62
249.133	71.62
249.366	78.62
249.599	80.62
249.832	75.62
250.066	81.62
250.299	78.62
250.532	84.62
250.765	86.62
250.998	76.62
251.231	94.62
251.465	92.62
251.698	76.62
251.931	75.62
252.164	79.62
252.397	72.62
252.63	99.62
252.863	84.62
253.096	77.62
253.329	79.62
253.562	71.62
253.795	77.62
254.028	78.62
254.261	75.62
254.494	75.62
254.727	74.62
254.96	92.62
255.193	83.62
255.426	75.62
255.659	82.62
255.892	87.62
256.124	88.62
256.357	83.62
256.59	78.62
256.823	72.62
257.056	75.62
257.289	83.62
257.521	78.62
257.754	80.62
257.987	76.62
258.22	66.62
258.452	88.62
258.685	80.62
258.918	85.62
259.151	87.62
259.383	80.62
259.616	80.62
259.849	86.62
260.081	72.62
260.314	82.62
260.547	89.62
260.779	79.62
261.012	79.62
261.244	74.62
261.477	84.62
261.71	87.62
261.942	88.62
262.175	82.62
262.407	81.62
262.64	74.62
262.872	77.62
263.105	73.62
263.337	81.62
263.57	83.62
263.802	74.62
264.035	99.62
264.267	83.62
264.499	77.62
264.732	75.62
264.964	88.62
265.197	82.62
265.429	66.62
265.661	86.62
265.894	84.62
266.126	89.62
266.358	91.62
266.591	82.62
266.823	75.62
267.055	81.62
267.287	82.62
267.52	85.62
267.752	92.62
267.984	83.62
268.216	91.62
268.448	88.62
268.681	66.62
268.913	78.62
269.145	75.62
269.377	71.62
269.609	84.62
269.841	84.62
270.073	79.62
270.306	84.62
270.538	83.62
270.77	88.62
271.002	69.62
271.234	89.62
271.466	88.62
271.698	81.62
271.93	79.62
272.162	85.62
272.394	85.62
272.626	94.62
272.858	73.62
273.09	86.62
273.322	82.62
273.553	79.62
273.785	69.62
274.017	89.62
274.249	81.62
274.481	86.62
274.713	87.62
274.945	75.62
275.176	75.62
275.408	77.62
275.64	73.62
275.872	84.62
276.104	82.62
276.335	79.62
276.567	81.62
276.799	83.62
277.031	80.62
277.262	80.62
277.494	77.62
277.726	82.62
277.957	75.62
278.189	77.62
278.421	88.62
278.652	78.62
278.884	67.62
279.115	88.62
279.347	83.62
279.579	95.62
279.81	89.62
280.042	90.62
280.273	98.62
280.505	80.62
280.736	97.62
280.968	89.62
281.199	72.62
281.431	70.62
281.662	89.62
281.894	82.62
282.125	80.62
282.356	84.62
282.588	83.62
282.819	85.62
283.051	80.62
283.282	83.62
283.513	89.62
283.745	72.62
283.976	81.62
284.207	87.62
284.439	80.62
284.67	76.62
284.901	91.62
285.132	92.62
285.364	90.62
285.595	91.62
285.826	86.62
286.057	84.62
286.288	88.62
286.52	83.62
286.751	70.62
286.982	87.62
287.213	88.62
287.444	78.62
287.675	86.62
287.906	85.62
288.138	71.62
288.369	77.62
288.6	85.62
288.831	89.62
289.062	96.62
289.293	85.62
289.524	92.62
289.755	83.62
289.986	101.62
290.217	96.62
290.448	83.62
290.679	94.62
290.91	82.62
291.141	77.62
291.371	73.62
291.602	90.62
291.833	84.62
292.064	74.62
292.295	90.62
292.526	79.62
292.757	101.62
292.987	86.62
293.218	76.62
293.449	88.62
293.68	73.62
293.91	90.62
294.141	87.62
294.372	95.62
294.603	96.62
294.833	73.62
295.064	81.62
295.295	84.62
295.525	84.62
295.756	83.62
295.987	95.62
296.217	75.62
296.448	92.62
296.679	84.62
296.909	69.62
297.14	72.62
297.37	82.62
297.601	95.62
297.831	81.62
298.062	82.62
298.292	95.62
298.523	98.62
298.753	91.62
298.984	93.62
299.214	86.62
299.445	85.62
299.675	70.62
299.905	87.62
300.136	75.62
300.366	86.62
300.597	99.62
300.827	79.62
301.057	88.62
301.288	91.62
301.518	87.62
301.748	96.62
301.979	95.62
302.209	81.62
302.439	77.62
302.669	89.62
302.9	94.62
303.13	89.62
303.36	96.62
303.59	74.62
303.82	86.62
304.051	84.62
304.281	85.62
304.511	91.62
304.741	82.62
304.971	99.62
305.201	91.62
305.431	83.62
305.661	85.62
305.891	76.62
306.121	84.62
306.352	79.62
306.582	89.62
306.812	91.62
307.042	77.62
307.272	92.62
307.502	90.62
307.731	69.62
307.961	83.62
308.191	72.62
308.421	87.62
308.651	91.62
308.881	80.62
309.111	85.62
309.341	77.62
309.571	67.62
309.8	83.62
310.03	84.62
310.26	76.62
310.49	82.62
310.72	73.62
310.949	95.62
311.179	77.62
311.409	90.62
311.639	92.62
311.868	87.62
312.098	78.62
312.328	93.62
312.557	82.62
312.787	88.62
313.017	91.62
313.246	83.62
313.476	81.62
313.706	84.62
313.935	80.62
314.165	84.62
314.394	89.62
314.624	88.62
314.853	99.62
315.083	101.62
315.312	83.62
315.542	80.62
315.771	96.62
316.001	88.62
316.23	92.62
316.46	88.62
316.689	84.62
316.919	78.62
317.148	74.62
317.377	94.62
317.607	88.62
317.836	81.62
318.065	80.62
318.295	72.62
318.524	95.62
318.753	81.62
318.983	80.62
319.212	82.62
319.441	81.62
319.67	96.62
319.9	83.62
320.129	72.62
320.358	76.62
320.587	94.62
320.816	68.62
321.046	79.62
321.275	90.62
321.504	83.62
321.733	81.62
321.962	88.62
322.191	74.62
322.42	91.62
322.649	79.62
322.878	91.62
323.108	81.62
323.337	83.62
323.566	90.62
323.795	87.62
324.024	85.62
324.253	88.62
324.482	84.62
324.71	90.62
324.939	85.62
325.168	77.62
325.397	76.62
325.626	87.62
325.855	82.62
326.084	80.62
326.313	81.62
326.542	83.62
326.77	91.62
326.999	91.62
327.228	84.62
327.457	89.62
327.686	86.62
327.914	76.62
328.143	82.62
328.372	80.62
328.6	75.62
328.829	90.62
329.058	74.62
329.287	90.62
329.515	83.62
329.744	88.62
329.972	76.62
330.201	75.62
330.43	91.62
330.658	93.62
330.887	74.62
331.115	81.62
331.344	76.62
331.572	96.62
331.801	92.62
332.03	80.62
332.258	75.62
332.486	70.62
332.715	77.62
332.943	69.62
333.172	70.62
333.4	88.62
333.629	82.62
333.857	89.62
334.085	77.62
334.314	85.62
334.542	86.62
334.771	88.62
334.999	98.62
335.227	88.62
335.455	83.62
335.684	89.62
335.912	82.62
336.14	88.62
336.369	84.62
336.597	77.62
336.825	93.62
337.053	83.62
337.281	86.62
337.51	91.62
337.738	83.62
337.966	81.62
338.194	90.62
338.422	81.62
338.65	79.62
338.878	85.62
339.106	79.62
339.334	92.62
339.562	77.62
339.79	83.62
340.018	83.62
340.246	67.62
340.474	90.62
340.702	82.62
340.93	76.62
341.158	80.62
341.386	97.62
341.614	86.62
341.842	83.62
342.07	94.62
342.298	80.62
342.526	87.62
342.754	78.62
342.981	87.62
343.209	77.62
343.437	93.62
343.665	81.62
343.893	88.62
344.12	86.62
344.348	80.62
344.576	88.62
344.804	94.62
345.031	84.62
345.259	88.62
345.487	83.62
345.714	85.62
345.942	72.62
346.17	81.62
346.397	81.62
346.625	82.62
346.853	66.62
347.08	90.62
347.308	76.62
347.535	69.62
347.763	71.62
347.99	79.62
348.218	88.62
348.445	73.62
348.673	82.62
348.9	91.62
349.128	91.62
349.355	70.62
349.583	79.62
349.81	77.62
350.037	85.62
350.265	81.62
350.492	77.62
350.72	84.62
350.947	88.62
351.174	90.62
351.402	83.62
351.629	82.62
351.856	85.62
352.083	82.62
352.311	85.62
352.538	83.62
352.765	81.62
352.992	94.62
353.22	77.62
353.447	86.62
353.674	83.62
353.901	77.62
354.128	77.62
354.355	81.62
354.583	85.62
354.81	91.62
355.037	77.62
355.264	89.62
355.491	85.62
355.718	86.62
355.945	86.62
356.172	86.62
356.399	79.62
356.626	73.62
356.853	85.62
357.08	82.62
357.307	82.62
357.534	82.62
357.761	80.62
357.988	90.62
358.215	72.62
358.441	91.62
358.668	86.62
358.895	82.62
359.122	89.62
359.349	75.62
359.576	71.62
359.802	72.62
360.029	82.62
360.256	82.62
360.483	84.62
360.709	90.62
360.936	115.62
361.163	98.62
361.39	79.62
361.616	79.62
361.843	82.62
362.07	89.62
362.296	71.62
362.523	80.62
362.749	98.62
362.976	84.62
363.203	79.62
363.429	88.62
363.656	93.62
363.882	73.62
364.109	75.62
364.335	70.62
364.562	69.62
364.788	88.62
365.015	86.62
365.241	85.62
365.468	91.62
365.694	85.62
365.92	71.62
366.147	87.62
366.373	80.62
366.599	78.62
366.826	90.62
367.052	84.62
367.278	86.62
367.505	83.62
367.731	97.62
367.957	85.62
368.184	84.62
368.41	67.62
368.636	78.62
368.862	87.62
369.089	90.62
369.315	75.62
369.541	81.62
369.767	86.62
369.993	74.62
370.219	76.62
370.445	84.62
370.672	88.62
370.898	87.62
371.124	93.62
371.35	76.62
371.576	77.62
371.802	71.62
372.028	82.62
372.254	83.62
372.48	64.62
372.706	73.62
372.932	91.62
373.158	81.62
373.384	96.62
373.61	87.62
373.835	87.62
374.061	89.62
374.287	86.62
374.513	86.62
374.739	85.62
374.965	70.62
375.191	76.62
375.416	84.62
375.642	96.62
375.868	87.62
376.094	84.62
376.319	85.62
376.545	89.62
376.771	74.62
376.997	79.62
377.222	76.62
377.448	77.62
377.674	83.62
377.899	96.62
378.125	81.62
378.35	81.62
378.576	73.62
378.802	93.62
379.027	89.62
379.253	87.62
379.478	77.62
379.704	73.62
379.929	94.62
380.155	79.62
380.38	88.62
380.606	76.62
380.831	87.62
381.057	83.62
381.282	82.62
381.507	95.62
381.733	85.62
381.958	74.62
382.184	74.62
382.409	82.62
382.634	101.62
382.86	85.62
383.085	91.62
383.31	85.62
383.535	88.62
383.761	83.62
383.986	89.62
384.211	78.62
384.436	82.62
384.662	74.62
384.887	77.62
385.112	76.62
385.337	86.62
385.562	73.62
385.787	83.62
386.013	86.62
386.238	82.62
386.463	92.62
386.688	91.62
386.913	78.62
387.138	75.62
387.363	79.62
387.588	88.62
387.813	89.62
388.038	66.62
388.263	85.62
388.488	98.62
388.713	74.62
388.938	98.62
389.163	84.62
389.387	71.62
389.612	84.62
389.837	79.62
390.062	90.62
390.287	85.62
390.512	90.62
390.736	95.62
390.961	87.62
391.186	88.62
391.411	80.62
391.636	85.62
391.86	84.62
392.085	94.62
392.31	67.62
392.534	84.62
392.759	90.62
392.984	93.62
393.208	80.62
393.433	79.62
393.658	82.62
393.882	73.62
394.107	75.62
394.331	82.62
394.556	78.62
394.78	86.62
395.005	97.62
395.229	91.62
395.454	87.62
395.678	87.62
395.903	84.62
396.127	87.62
396.352	81.62
396.576	85.62
396.801	81.62
397.025	80.62
397.249	88.62
397.474	74.62
397.698	87.62
397.922	82.62
398.147	94.62
398.371	68.62
398.595	95.62
398.82	72.62
399.044	68.62
399.268	79.62
399.492	97.62
399.717	84.62
399.941	91.62
400.165	81.62
400.389	77.62
400.613	93.62
400.837	83.62
401.062	92.62
401.286	72.62
401.51	90.62
401.734	93.62
401.958	85.62
402.182	83.62
402.406	68.62
402.63	80.62
402.854	90.62
403.078	83.62
403.302	88.62
403.526	96.62
403.75	76.62
403.974	79.62
404.198	85.62
404.422	81.62
404.645	95.62
404.869	93.62
405.093	87.62
405.317	86.62
405.541	81.62
405.765	97.62
405.988	73.62
406.212	89.62
406.436	80.62
406.66	92.62
406.883	71.62
407.107	89.62
407.331	96.62
407.555	86.62
407.778	82.62
408.002	83.62
408.226	74.62
408.449	97.62
408.673	85.62
408.896	84.62
409.12	79.62
409.344	88.62
409.567	77.62
409.791	96.62
410.014	92.62
410.238	101.62
410.461	72.62
410.685	74.62
410.908	76.62
411.132	89.62
411.355	95.62
411.578	93.62
411.802	88.62
412.025	79.62
412.249	70.62
412.472	80.62
412.695	95.62
412.919	83.62
413.142	72.62
413.365	93.62
413.589	91.62
413.812	81.62
414.035	77.62
414.258	77.62
414.482	82.62
414.705	91.62
414.928	90.62
415.151	93.62
415.374	86.62
415.597	87.62
415.821	80.62
416.044	88.62
416.267	86.62
416.49	81.62
416.713	81.62
416.936	90.62
417.159	85.62
417.382	81.62
417.605	92.62
417.828	93.62
418.051	86.62
418.274	95.62
418.497	69.62
418.72	94.62
418.943	87.62
419.166	79.62
419.389	95.62
419.611	83.62
419.834	85.62
420.057	79.62
420.28	91.62
420.503	86.62
420.726	89.62
420.948	85.62
421.171	101.62
421.394	99.62
421.617	93.62
421.839	78.62
422.062	100.62
422.285	83.62
422.507	85.62
422.73	82.62
422.953	77.62
423.175	73.62
423.398	91.62
423.621	84.62
423.843	65.62
424.066	89.62
424.288	92.62
424.511	96.62
424.733	83.62
424.956	96.62
425.178	87.62
425.401	89.62
425.623	87.62
425.846	91.62
426.068	72.62
426.291	81.62
426.513	81.62
426.735	89.62
426.958	77.62
427.18	91.62
427.402	82.62
427.625	83.62
427.847	81.62
428.069	95.62
428.292	87.62
428.514	92.62
428.736	86.62
428.958	91.62
429.181	93.62
429.403	91.62
429.625	88.62
429.847	94.62
430.069	84.62
430.292	89.62
430.514	81.62
430.736	89.62
430.958	76.62
431.18	90.62
431.402	87.62
431.624	83.62
431.846	89.62
432.068	82.62
432.29	85.62
432.512	73.62
432.734	80.62
432.956	73.62
433.178	92.62
433.4	83.62
433.622	101.62
433.844	91.62
434.066	99.62
434.287	96.62
434.509	95.62
434.731	86.62
434.953	72.62
435.175	89.62
435.397	88.62
435.618	93.62
435.84	84.62
436.062	75.62
436.284	100.62
436.505	86.62
436.727	85.62
436.949	94.62
437.17	87.62
437.392	105.62
437.614	104.62
437.835	87.62
438.057	82.62
438.278	82.62
438.5	86.62
438.721	87.62
438.943	89.62
439.165	93.62
439.386	87.62
439.608	84.62
439.829	90.62
440.05	82.62
440.272	94.62
440.493	103.62
440.715	96.62
440.936	86.62
441.158	90.62
441.379	91.62
441.6	92.62
441.822	103.62
442.043	102.62
442.264	93.62
442.486	101.62
442.707	91.62
442.928	92.62
443.149	71.62
443.371	80.62
443.592	85.62
443.813	96.62
444.034	76.62
444.255	99.62
444.476	103.62
444.698	88.62
444.919	93.62
445.14	177.62
445.361	112.62
445.582	97.62
445.803	101.62
446.024	81.62
446.245	93.62
446.466	91.62
446.687	93.62
446.908	80.62
447.129	105.62
447.35	92.62
447.571	99.62
447.792	103.62
448.013	69.62
448.234	85.62
448.455	96.62
448.675	74.62
448.896	82.62
449.117	89.62
449.338	88.62
449.559	78.62
449.779	83.62
450	101.62
450.221	101.62
450.442	83.62
450.662	89.62
450.883	91.62
451.104	89.62
451.324	84.62
451.545	78.62
451.766	81.62
451.986	104.62
452.207	99.62
452.428	95.62
452.648	84.62
452.869	86.62
453.089	88.62
453.31	87.62
453.53	85.62
453.751	91.62
453.971	91.62
454.192	82.62
454.412	88.62
454.633	82.62
454.853	89.62
455.073	89.62
455.294	83.62
455.514	96.62
455.734	77.62
455.955	94.62
456.175	95.62
456.395	90.62
456.616	91.62
456.836	89.62
457.056	103.62
457.276	88.62
457.497	71.62
457.717	80.62
457.937	79.62
458.157	81.62
458.377	83.62
458.598	74.62
458.818	86.62
459.038	78.62
459.258	78.62
459.478	91.62
459.698	96.62
459.918	86.62
460.138	85.62
460.358	91.62
460.578	84.62
460.798	86.62
461.018	95.62
461.238	88.62
461.458	89.62
461.678	87.62
461.898	106.62
462.118	93.62
462.338	91.62
462.558	87.62
462.777	77.62
462.997	80.62
463.217	81.62
463.437	83.62
463.657	88.62
463.876	76.62
464.096	80.62
464.316	86.62
464.536	88.62
464.755	100.62
464.975	88.62
465.195	91.62
465.414	81.62
465.634	88.62
465.854	92.62
466.073	93.62
466.293	93.62
466.512	83.62
466.732	94.62
466.951	87.62
467.171	93.62
467.391	102.62
467.61	103.62
467.829	98.62
468.049	81.62
468.268	86.62
468.488	90.62
468.707	92.62
468.927	90.62
469.146	91.62
469.365	74.62
469.585	85.62
469.804	97.62
470.023	83.62
470.243	77.62
470.462	90.62
470.681	79.62
470.901	102.62
471.12	89.62
471.339	83.62
471.558	93.62
471.777	88.62
471.997	79.62
472.216	76.62
472.435	77.62
472.654	93.62
472.873	88.62
473.092	91.62
473.311	80.62
473.53	85.62
473.749	83.62
473.968	95.62
474.187	85.62
474.406	100.62
474.625	81.62
474.844	85.62
475.063	90.62
475.282	88.62
475.501	77.62
475.72	96.62
475.939	73.62
476.158	89.62
476.377	90.62
476.596	88.62
476.814	92.62
477.033	82.62
477.252	78.62
477.471	82.62
477.69	84.62
477.908	86.62
478.127	109.62
478.346	94.62
478.564	90.62
478.783	93.62
479.002	86.62
479.22	91.62
479.439	105.62
479.658	80.62
479.876	75.62
480.095	86.62
480.313	81.62
480.532	93.62
480.751	80.62
480.969	88.62
481.188	68.62
481.406	88.62
481.624	73.62
481.843	75.62
482.061	98.62
482.28	87.62
482.498	75.62
482.717	99.62
482.935	80.62
483.153	88.62
483.372	84.62
483.59	106.62
483.808	76.62
484.027	83.62
484.245	84.62
484.463	88.62
484.681	107.62
484.9	90.62
485.118	87.62
485.336	93.62
485.554	84.62
485.772	92.62
485.99	92.62
486.209	99.62
486.427	79.62
486.645	76.62
486.863	78.62
487.081	85.62
487.299	96.62
487.517	88.62
487.735	88.62
487.953	104.62
488.171	102.62
488.389	95.62
488.607	99.62
488.825	73.62
489.043	81.62
489.261	81.62
489.479	92.62
489.696	85.62
489.914	97.62
490.132	78.62
490.35	87.62
490.568	91.62
490.786	100.62
491.003	93.62
491.221	107.62
491.439	108.62
491.657	95.62
491.874	107.62
492.092	97.62
492.31	118.62
492.527	84.62
492.745	96.62
492.963	104.62
493.18	97.62
493.398	88.62
493.615	98.62
493.833	106.62
494.05	90.62
494.268	93.62
494.485	102.62
494.703	100.62
494.92	96.62
495.138	90.62
495.355	101.62
495.573	80.62
495.79	108.62
496.008	100.62
496.225	108.62
496.442	99.62
496.66	103.62
496.877	104.62
497.094	94.62
497.312	88.62
497.529	104.62
497.746	105.62
497.963	96.62
498.181	96.62
498.398	96.62
498.615	100.62
498.832	90.62
499.049	91.62
499.267	84.62
499.484	104.62
499.701	94.62
499.918	87.62
500.135	101.62
500.352	84.62
500.569	97.62
500.786	81.62
501.003	97.62
501.22	86.62
501.437	87.62
501.654	83.62
501.871	85.62
502.088	94.62
502.305	87.62
502.522	99.62
502.739	81.62
502.956	89.62
503.172	100.62
503.389	95.62
503.606	83.62
503.823	85.62
504.04	91.62
504.256	101.62
504.473	90.62
504.69	99.62
504.907	75.62
505.123	84.62
505.34	100.62
505.557	78.62
505.773	87.62
505.99	81.62
506.207	85.62
506.423	88.62
506.64	73.62
506.856	83.62
507.073	92.62
507.289	84.62
507.506	85.62
507.722	88.62
507.939	83.62
508.155	57.62
508.372	75.62
508.588	90.62
508.805	87.62
509.021	97.62
509.238	89.62
509.454	86.62
509.67	88.62
509.887	91.62
510.103	89.62
510.319	81.62
510.536	91.62
510.752	86.62
510.968	74.62
511.184	91.62
511.401	77.62
511.617	90.62
511.833	88.62
512.049	76.62
512.265	95.62
512.481	96.62
512.698	86.62
512.914	84.62
513.13	95.62
513.346	72.62
513.562	78.62
513.778	77.62
513.994	87.62
514.21	78.62
514.426	76.62
514.642	84.62
514.858	98.62
515.074	88.62
515.29	83.62
515.506	87.62
515.721	80.62
515.937	91.62
516.153	75.62
516.369	92.62
516.585	81.62
516.801	66.62
517.016	85.62
517.232	96.62
517.448	93.62
517.664	83.62
517.879	87.62
518.095	83.62
518.311	90.62
518.527	99.62
