Data from Zn(NO3)2Standard.Agarose3%.GreenCap.LampEnergy5.5.E.O_HRD10591_15-00-47-768.txt Node
Date: Mon Jul 22 15:00:47 EDT 2019
User: cochatt
Spectrometer: HR+D1059
Trigger mode: 1
Integration Time (sec): 1.000000E-1
Scans to average: 1
Electric dark correction enabled: true
Nonlinearity correction enabled: false
Boxcar width: 0
XAxis mode: Wavelengths
Number of Pixels in Spectrum: 2048
>>>>>Begin Spectral Data<<<<<
223.165	-8.12
223.4	-8.12
223.635	-8.12
223.869	-8.12
224.104	-29.12
224.338	-25.12
224.573	-10.12
224.808	-12.12
225.042	-20.12
225.277	-14.12
225.511	4.88
225.746	12.88
225.98	10.88
226.215	20.88
226.449	5.88
226.683	23.88
226.918	20.88
227.152	26.88
227.387	20.88
227.621	34.88
227.856	42.88
228.09	45.88
228.324	41.88
228.559	68.88
228.793	54.88
229.027	61.88
229.262	69.88
229.496	73.88
229.73	76.88
229.964	80.88
230.199	64.88
230.433	75.88
230.667	65.88
230.901	84.88
231.136	79.88
231.37	83.88
231.604	87.88
231.838	95.88
232.072	69.88
232.306	76.88
232.541	79.88
232.775	83.88
233.009	96.88
233.243	87.88
233.477	69.88
233.711	84.88
233.945	82.88
234.179	89.88
234.413	92.88
234.647	61.88
234.881	74.88
235.115	81.88
235.349	81.88
235.583	80.88
235.817	83.88
236.051	87.88
236.285	74.88
236.519	81.88
236.753	84.88
236.987	83.88
237.221	68.88
237.455	79.88
237.689	88.88
237.922	78.88
238.156	87.88
238.39	83.88
238.624	94.88
238.858	70.88
239.091	71.88
239.325	74.88
239.559	90.88
239.793	79.88
240.027	86.88
240.26	80.88
240.494	77.88
240.728	84.88
240.961	80.88
241.195	83.88
241.429	65.88
241.662	76.88
241.896	82.88
242.13	64.88
242.363	77.88
242.597	63.88
242.83	80.88
243.064	71.88
243.298	63.88
243.531	79.88
243.765	60.88
243.998	76.88
244.232	82.88
244.465	73.88
244.699	74.88
244.932	80.88
245.166	75.88
245.399	70.88
245.633	83.88
245.866	79.88
246.099	79.88
246.333	69.88
246.566	79.88
246.8	86.88
247.033	70.88
247.266	85.88
247.5	81.88
247.733	82.88
247.966	80.88
248.2	81.88
248.433	77.88
248.666	83.88
248.899	83.88
249.133	75.88
249.366	83.88
249.599	77.88
249.832	88.88
250.066	81.88
250.299	75.88
250.532	74.88
250.765	92.88
250.998	91.88
251.231	64.88
251.465	74.88
251.698	65.88
251.931	88.88
252.164	86.88
252.397	95.88
252.63	87.88
252.863	80.88
253.096	85.88
253.329	81.88
253.562	75.88
253.795	70.88
254.028	73.88
254.261	80.88
254.494	81.88
254.727	78.88
254.96	90.88
255.193	84.88
255.426	93.88
255.659	82.88
255.892	65.88
256.124	81.88
256.357	80.88
256.59	89.88
256.823	79.88
257.056	85.88
257.289	80.88
257.521	68.88
257.754	65.88
257.987	85.88
258.22	92.88
258.452	86.88
258.685	82.88
258.918	84.88
259.151	83.88
259.383	75.88
259.616	83.88
259.849	87.88
260.081	68.88
260.314	100.88
260.547	83.88
260.779	81.88
261.012	83.88
261.244	77.88
261.477	79.88
261.71	67.88
261.942	81.88
262.175	83.88
262.407	83.88
262.64	77.88
262.872	83.88
263.105	66.88
263.337	88.88
263.57	75.88
263.802	71.88
264.035	81.88
264.267	92.88
264.499	90.88
264.732	78.88
264.964	85.88
265.197	74.88
265.429	85.88
265.661	66.88
265.894	85.88
266.126	71.88
266.358	89.88
266.591	77.88
266.823	88.88
267.055	85.88
267.287	88.88
267.52	84.88
267.752	87.88
267.984	88.88
268.216	93.88
268.448	76.88
268.681	83.88
268.913	96.88
269.145	87.88
269.377	74.88
269.609	82.88
269.841	71.88
270.073	71.88
270.306	92.88
270.538	71.88
270.77	66.88
271.002	77.88
271.234	70.88
271.466	84.88
271.698	78.88
271.93	76.88
272.162	84.88
272.394	91.88
272.626	85.88
272.858	73.88
273.09	83.88
273.322	83.88
273.553	73.88
273.785	87.88
274.017	78.88
274.249	76.88
274.481	84.88
274.713	72.88
274.945	83.88
275.176	87.88
275.408	93.88
275.64	90.88
275.872	92.88
276.104	83.88
276.335	71.88
276.567	84.88
276.799	85.88
277.031	88.88
277.262	68.88
277.494	92.88
277.726	65.88
277.957	81.88
278.189	92.88
278.421	79.88
278.652	77.88
278.884	78.88
279.115	82.88
279.347	89.88
279.579	90.88
279.81	71.88
280.042	73.88
280.273	77.88
280.505	80.88
280.736	79.88
280.968	80.88
281.199	76.88
281.431	72.88
281.662	82.88
281.894	82.88
282.125	86.88
282.356	87.88
282.588	80.88
282.819	85.88
283.051	84.88
283.282	84.88
283.513	108.88
283.745	85.88
283.976	88.88
284.207	87.88
284.439	66.88
284.67	81.88
284.901	77.88
285.132	80.88
285.364	83.88
285.595	78.88
285.826	84.88
286.057	79.88
286.288	78.88
286.52	81.88
286.751	83.88
286.982	87.88
287.213	84.88
287.444	83.88
287.675	73.88
287.906	88.88
288.138	66.88
288.369	69.88
288.6	74.88
288.831	65.88
289.062	93.88
289.293	96.88
289.524	83.88
289.755	83.88
289.986	92.88
290.217	97.88
290.448	88.88
290.679	94.88
290.91	86.88
291.141	83.88
291.371	92.88
291.602	80.88
291.833	91.88
292.064	80.88
292.295	86.88
292.526	85.88
292.757	80.88
292.987	88.88
293.218	88.88
293.449	86.88
293.68	86.88
293.91	79.88
294.141	92.88
294.372	92.88
294.603	77.88
294.833	83.88
295.064	77.88
295.295	93.88
295.525	59.88
295.756	83.88
295.987	84.88
296.217	87.88
296.448	76.88
296.679	82.88
296.909	83.88
297.14	86.88
297.37	91.88
297.601	92.88
297.831	72.88
298.062	80.88
298.292	81.88
298.523	84.88
298.753	88.88
298.984	96.88
299.214	96.88
299.445	86.88
299.675	76.88
299.905	77.88
300.136	80.88
300.366	83.88
300.597	88.88
300.827	64.88
301.057	69.88
301.288	82.88
301.518	101.88
301.748	96.88
301.979	86.88
302.209	79.88
302.439	88.88
302.669	94.88
302.9	80.88
303.13	88.88
303.36	72.88
303.59	86.88
303.82	90.88
304.051	80.88
304.281	77.88
304.511	81.88
304.741	92.88
304.971	72.88
305.201	92.88
305.431	75.88
305.661	81.88
305.891	77.88
306.121	89.88
306.352	78.88
306.582	95.88
306.812	92.88
307.042	83.88
307.272	81.88
307.502	86.88
307.731	80.88
307.961	91.88
308.191	93.88
308.421	99.88
308.651	81.88
308.881	71.88
309.111	71.88
309.341	69.88
309.571	80.88
309.8	79.88
310.03	85.88
310.26	84.88
310.49	89.88
310.72	78.88
310.949	88.88
311.179	79.88
311.409	88.88
311.639	86.88
311.868	78.88
312.098	101.88
312.328	87.88
312.557	87.88
312.787	91.88
313.017	81.88
313.246	76.88
313.476	73.88
313.706	96.88
313.935	93.88
314.165	83.88
314.394	97.88
314.624	79.88
314.853	80.88
315.083	100.88
315.312	83.88
315.542	86.88
315.771	81.88
316.001	84.88
316.23	80.88
316.46	84.88
316.689	93.88
316.919	88.88
317.148	91.88
317.377	73.88
317.607	87.88
317.836	87.88
318.065	94.88
318.295	78.88
318.524	87.88
318.753	85.88
318.983	86.88
319.212	87.88
319.441	75.88
319.67	73.88
319.9	73.88
320.129	88.88
320.358	97.88
320.587	88.88
320.816	85.88
321.046	82.88
321.275	85.88
321.504	85.88
321.733	92.88
321.962	88.88
322.191	90.88
322.42	87.88
322.649	81.88
322.878	95.88
323.108	90.88
323.337	87.88
323.566	78.88
323.795	82.88
324.024	84.88
324.253	77.88
324.482	82.88
324.71	77.88
324.939	82.88
325.168	71.88
325.397	82.88
325.626	85.88
325.855	96.88
326.084	90.88
326.313	69.88
326.542	78.88
326.77	90.88
326.999	88.88
327.228	70.88
327.457	81.88
327.686	85.88
327.914	72.88
328.143	75.88
328.372	79.88
328.6	89.88
328.829	79.88
329.058	84.88
329.287	75.88
329.515	92.88
329.744	91.88
329.972	88.88
330.201	83.88
330.43	110.88
330.658	83.88
330.887	91.88
331.115	70.88
331.344	74.88
331.572	81.88
331.801	74.88
332.03	87.88
332.258	75.88
332.486	87.88
332.715	78.88
332.943	99.88
333.172	94.88
333.4	73.88
333.629	77.88
333.857	73.88
334.085	89.88
334.314	93.88
334.542	81.88
334.771	84.88
334.999	88.88
335.227	82.88
335.455	87.88
335.684	95.88
335.912	81.88
336.14	89.88
336.369	91.88
336.597	94.88
336.825	84.88
337.053	90.88
337.281	88.88
337.51	69.88
337.738	80.88
337.966	83.88
338.194	63.88
338.422	70.88
338.65	82.88
338.878	94.88
339.106	91.88
339.334	74.88
339.562	72.88
339.79	80.88
340.018	69.88
340.246	81.88
340.474	71.88
340.702	85.88
340.93	85.88
341.158	75.88
341.386	83.88
341.614	80.88
341.842	80.88
342.07	74.88
342.298	82.88
342.526	82.88
342.754	93.88
342.981	90.88
343.209	74.88
343.437	80.88
343.665	82.88
343.893	77.88
344.12	65.88
344.348	73.88
344.576	80.88
344.804	95.88
345.031	83.88
345.259	95.88
345.487	72.88
345.714	75.88
345.942	91.88
346.17	91.88
346.397	82.88
346.625	78.88
346.853	78.88
347.08	87.88
347.308	84.88
347.535	74.88
347.763	80.88
347.99	96.88
348.218	87.88
348.445	87.88
348.673	93.88
348.9	103.88
349.128	84.88
349.355	65.88
349.583	73.88
349.81	75.88
350.037	82.88
350.265	75.88
350.492	84.88
350.72	75.88
350.947	86.88
351.174	92.88
351.402	82.88
351.629	92.88
351.856	85.88
352.083	88.88
352.311	91.88
352.538	80.88
352.765	89.88
352.992	88.88
353.22	76.88
353.447	81.88
353.674	85.88
353.901	84.88
354.128	76.88
354.355	86.88
354.583	78.88
354.81	88.88
355.037	87.88
355.264	75.88
355.491	81.88
355.718	96.88
355.945	89.88
356.172	92.88
356.399	85.88
356.626	71.88
356.853	84.88
357.08	89.88
357.307	79.88
357.534	79.88
357.761	78.88
357.988	87.88
358.215	97.88
358.441	81.88
358.668	81.88
358.895	82.88
359.122	87.88
359.349	82.88
359.576	72.88
359.802	81.88
360.029	90.88
360.256	82.88
360.483	69.88
360.709	82.88
360.936	93.88
361.163	79.88
361.39	103.88
361.616	90.88
361.843	85.88
362.07	88.88
362.296	84.88
362.523	89.88
362.749	83.88
362.976	80.88
363.203	96.88
363.429	69.88
363.656	74.88
363.882	83.88
364.109	77.88
364.335	76.88
364.562	77.88
364.788	86.88
365.015	90.88
365.241	85.88
365.468	81.88
365.694	83.88
365.92	87.88
366.147	65.88
366.373	72.88
366.599	66.88
366.826	85.88
367.052	82.88
367.278	99.88
367.505	92.88
367.731	83.88
367.957	81.88
368.184	85.88
368.41	77.88
368.636	71.88
368.862	70.88
369.089	87.88
369.315	83.88
369.541	98.88
369.767	78.88
369.993	94.88
370.219	99.88
370.445	72.88
370.672	72.88
370.898	80.88
371.124	94.88
371.35	85.88
371.576	84.88
371.802	77.88
372.028	85.88
372.254	84.88
372.48	71.88
372.706	90.88
372.932	80.88
373.158	80.88
373.384	81.88
373.61	81.88
373.835	84.88
374.061	82.88
374.287	71.88
374.513	74.88
374.739	79.88
374.965	84.88
375.191	84.88
375.416	80.88
375.642	80.88
375.868	81.88
376.094	87.88
376.319	71.88
376.545	61.88
376.771	94.88
376.997	94.88
377.222	75.88
377.448	87.88
377.674	81.88
377.899	83.88
378.125	81.88
378.35	66.88
378.576	71.88
378.802	71.88
379.027	92.88
379.253	80.88
379.478	92.88
379.704	91.88
379.929	80.88
380.155	81.88
380.38	91.88
380.606	83.88
380.831	88.88
381.057	80.88
381.282	87.88
381.507	92.88
381.733	94.88
381.958	70.88
382.184	77.88
382.409	98.88
382.634	77.88
382.86	83.88
383.085	81.88
383.31	80.88
383.535	79.88
383.761	83.88
383.986	90.88
384.211	78.88
384.436	80.88
384.662	81.88
384.887	88.88
385.112	88.88
385.337	79.88
385.562	89.88
385.787	77.88
386.013	90.88
386.238	82.88
386.463	85.88
386.688	80.88
386.913	86.88
387.138	88.88
387.363	87.88
387.588	92.88
387.813	75.88
388.038	91.88
388.263	76.88
388.488	87.88
388.713	81.88
388.938	70.88
389.163	86.88
389.387	78.88
389.612	82.88
389.837	87.88
390.062	71.88
390.287	87.88
390.512	84.88
390.736	99.88
390.961	92.88
391.186	81.88
391.411	75.88
391.636	95.88
391.86	85.88
392.085	90.88
392.31	93.88
392.534	76.88
392.759	84.88
392.984	68.88
393.208	84.88
393.433	85.88
393.658	83.88
393.882	76.88
394.107	85.88
394.331	91.88
394.556	73.88
394.78	91.88
395.005	87.88
395.229	95.88
395.454	80.88
395.678	80.88
395.903	83.88
396.127	78.88
396.352	77.88
396.576	87.88
396.801	81.88
397.025	96.88
397.249	95.88
397.474	80.88
397.698	76.88
397.922	84.88
398.147	81.88
398.371	76.88
398.595	92.88
398.82	86.88
399.044	59.88
399.268	89.88
399.492	70.88
399.717	95.88
399.941	61.88
400.165	76.88
400.389	93.88
400.613	89.88
400.837	76.88
401.062	84.88
401.286	81.88
401.51	77.88
401.734	82.88
401.958	90.88
402.182	95.88
402.406	73.88
402.63	87.88
402.854	85.88
403.078	86.88
403.302	89.88
403.526	86.88
403.75	86.88
403.974	88.88
404.198	66.88
404.422	85.88
404.645	73.88
404.869	76.88
405.093	77.88
405.317	97.88
405.541	86.88
405.765	79.88
405.988	92.88
406.212	96.88
406.436	81.88
406.66	93.88
406.883	90.88
407.107	72.88
407.331	96.88
407.555	98.88
407.778	79.88
408.002	86.88
408.226	81.88
408.449	85.88
408.673	76.88
408.896	85.88
409.12	88.88
409.344	94.88
409.567	82.88
409.791	94.88
410.014	97.88
410.238	82.88
410.461	78.88
410.685	104.88
410.908	77.88
411.132	92.88
411.355	81.88
411.578	85.88
411.802	90.88
412.025	93.88
412.249	96.88
412.472	88.88
412.695	82.88
412.919	77.88
413.142	87.88
413.365	98.88
413.589	80.88
413.812	92.88
414.035	87.88
414.258	88.88
414.482	87.88
414.705	95.88
414.928	87.88
415.151	81.88
415.374	90.88
415.597	79.88
415.821	91.88
416.044	92.88
416.267	86.88
416.49	84.88
416.713	81.88
416.936	91.88
417.159	84.88
417.382	93.88
417.605	83.88
417.828	95.88
418.051	90.88
418.274	92.88
418.497	73.88
418.72	79.88
418.943	87.88
419.166	84.88
419.389	87.88
419.611	81.88
419.834	83.88
420.057	89.88
420.28	88.88
420.503	86.88
420.726	101.88
420.948	94.88
421.171	90.88
421.394	78.88
421.617	85.88
421.839	79.88
422.062	98.88
422.285	90.88
422.507	85.88
422.73	76.88
422.953	88.88
423.175	91.88
423.398	84.88
423.621	89.88
423.843	75.88
424.066	80.88
424.288	79.88
424.511	94.88
424.733	88.88
424.956	93.88
425.178	77.88
425.401	89.88
425.623	94.88
425.846	82.88
426.068	78.88
426.291	77.88
426.513	94.88
426.735	84.88
426.958	88.88
427.18	83.88
427.402	93.88
427.625	101.88
427.847	83.88
428.069	91.88
428.292	99.88
428.514	96.88
428.736	90.88
428.958	96.88
429.181	91.88
429.403	87.88
429.625	88.88
429.847	90.88
430.069	94.88
430.292	94.88
430.514	85.88
430.736	80.88
430.958	89.88
431.18	91.88
431.402	91.88
431.624	88.88
431.846	75.88
432.068	81.88
432.29	72.88
432.512	86.88
432.734	94.88
432.956	84.88
433.178	90.88
433.4	92.88
433.622	82.88
433.844	91.88
434.066	90.88
434.287	92.88
434.509	97.88
434.731	81.88
434.953	79.88
435.175	65.88
435.397	88.88
435.618	107.88
435.84	82.88
436.062	83.88
436.284	97.88
436.505	91.88
436.727	91.88
436.949	92.88
437.17	91.88
437.392	82.88
437.614	73.88
437.835	85.88
438.057	91.88
438.278	83.88
438.5	89.88
438.721	95.88
438.943	78.88
439.165	91.88
439.386	90.88
439.608	92.88
439.829	94.88
440.05	98.88
440.272	95.88
440.493	94.88
440.715	74.88
440.936	103.88
441.158	80.88
441.379	78.88
441.6	100.88
441.822	82.88
442.043	81.88
442.264	85.88
442.486	81.88
442.707	86.88
442.928	94.88
443.149	73.88
443.371	91.88
443.592	87.88
443.813	92.88
444.034	81.88
444.255	95.88
444.476	102.88
444.698	89.88
444.919	89.88
445.14	191.88
445.361	142.88
445.582	93.88
445.803	81.88
446.024	90.88
446.245	100.88
446.466	89.88
446.687	86.88
446.908	92.88
447.129	105.88
447.35	92.88
447.571	86.88
447.792	84.88
448.013	94.88
448.234	96.88
448.455	101.88
448.675	87.88
448.896	88.88
449.117	93.88
449.338	79.88
449.559	93.88
449.779	95.88
450	86.88
450.221	105.88
450.442	93.88
450.662	88.88
450.883	97.88
451.104	76.88
451.324	95.88
451.545	87.88
451.766	76.88
451.986	97.88
452.207	84.88
452.428	87.88
452.648	92.88
452.869	81.88
453.089	93.88
453.31	88.88
453.53	80.88
453.751	88.88
453.971	76.88
454.192	82.88
454.412	82.88
454.633	74.88
454.853	106.88
455.073	87.88
455.294	89.88
455.514	86.88
455.734	85.88
455.955	81.88
456.175	77.88
456.395	85.88
456.616	81.88
456.836	96.88
457.056	73.88
457.276	91.88
457.497	83.88
457.717	97.88
457.937	89.88
458.157	96.88
458.377	93.88
458.598	89.88
458.818	79.88
459.038	89.88
459.258	100.88
459.478	77.88
459.698	95.88
459.918	91.88
460.138	94.88
460.358	89.88
460.578	85.88
460.798	94.88
461.018	83.88
461.238	85.88
461.458	85.88
461.678	75.88
461.898	87.88
462.118	75.88
462.338	76.88
462.558	95.88
462.777	86.88
462.997	78.88
463.217	81.88
463.437	77.88
463.657	87.88
463.876	82.88
464.096	84.88
464.316	100.88
464.536	86.88
464.755	87.88
464.975	90.88
465.195	85.88
465.414	82.88
465.634	73.88
465.854	90.88
466.073	81.88
466.293	98.88
466.512	90.88
466.732	88.88
466.951	105.88
467.171	94.88
467.391	103.88
467.61	86.88
467.829	96.88
468.049	90.88
468.268	99.88
468.488	88.88
468.707	84.88
468.927	90.88
469.146	91.88
469.365	88.88
469.585	105.88
469.804	95.88
470.023	99.88
470.243	85.88
470.462	98.88
470.681	99.88
470.901	81.88
471.12	85.88
471.339	80.88
471.558	90.88
471.777	79.88
471.997	95.88
472.216	100.88
472.435	99.88
472.654	89.88
472.873	84.88
473.092	80.88
473.311	85.88
473.53	79.88
473.749	81.88
473.968	78.88
474.187	76.88
474.406	85.88
474.625	88.88
474.844	84.88
475.063	76.88
475.282	82.88
475.501	92.88
475.72	92.88
475.939	88.88
476.158	81.88
476.377	84.88
476.596	92.88
476.814	111.88
477.033	83.88
477.252	78.88
477.471	100.88
477.69	89.88
477.908	88.88
478.127	108.88
478.346	100.88
478.564	88.88
478.783	83.88
479.002	87.88
479.22	90.88
479.439	76.88
479.658	86.88
479.876	81.88
480.095	75.88
480.313	78.88
480.532	83.88
480.751	76.88
480.969	81.88
481.188	71.88
481.406	84.88
481.624	81.88
481.843	86.88
482.061	81.88
482.28	91.88
482.498	91.88
482.717	87.88
482.935	92.88
483.153	96.88
483.372	98.88
483.59	88.88
483.808	103.88
484.027	81.88
484.245	87.88
484.463	96.88
484.681	112.88
484.9	87.88
485.118	74.88
485.336	81.88
485.554	83.88
485.772	98.88
485.99	84.88
486.209	95.88
486.427	68.88
486.645	78.88
486.863	88.88
487.081	90.88
487.299	84.88
487.517	100.88
487.735	86.88
487.953	91.88
488.171	81.88
488.389	115.88
488.607	99.88
488.825	97.88
489.043	92.88
489.261	90.88
489.479	112.88
489.696	103.88
489.914	87.88
490.132	100.88
490.35	91.88
490.568	84.88
490.786	92.88
491.003	100.88
491.221	115.88
491.439	98.88
491.657	102.88
491.874	93.88
492.092	108.88
492.31	104.88
492.527	108.88
492.745	111.88
492.963	99.88
493.18	102.88
493.398	100.88
493.615	111.88
493.833	89.88
494.05	103.88
494.268	94.88
494.485	100.88
494.703	105.88
494.92	102.88
495.138	93.88
495.355	115.88
495.573	115.88
495.79	101.88
496.008	105.88
496.225	88.88
496.442	87.88
496.66	98.88
496.877	100.88
497.094	96.88
497.312	97.88
497.529	99.88
497.746	95.88
497.963	89.88
498.181	77.88
498.398	87.88
498.615	81.88
498.832	76.88
499.049	83.88
499.267	94.88
499.484	80.88
499.701	91.88
499.918	97.88
500.135	84.88
500.352	99.88
500.569	96.88
500.786	120.88
501.003	109.88
501.22	99.88
501.437	80.88
501.654	91.88
501.871	88.88
502.088	84.88
502.305	90.88
502.522	80.88
502.739	96.88
502.956	91.88
503.172	103.88
503.389	95.88
503.606	90.88
503.823	91.88
504.04	98.88
504.256	81.88
504.473	81.88
504.69	83.88
504.907	87.88
505.123	84.88
505.34	99.88
505.557	102.88
505.773	87.88
505.99	84.88
506.207	82.88
506.423	77.88
506.64	78.88
506.856	85.88
507.073	80.88
507.289	84.88
507.506	83.88
507.722	88.88
507.939	90.88
508.155	83.88
508.372	104.88
508.588	95.88
508.805	87.88
509.021	76.88
509.238	87.88
509.454	86.88
509.67	76.88
509.887	86.88
510.103	73.88
510.319	79.88
510.536	67.88
510.752	76.88
510.968	92.88
511.184	81.88
511.401	67.88
511.617	75.88
511.833	102.88
512.049	88.88
512.265	83.88
512.481	71.88
512.698	76.88
512.914	90.88
513.13	84.88
513.346	90.88
513.562	89.88
513.778	93.88
513.994	87.88
514.21	80.88
514.426	71.88
514.642	98.88
514.858	77.88
515.074	78.88
515.29	83.88
515.506	79.88
515.721	86.88
515.937	91.88
516.153	80.88
516.369	77.88
516.585	88.88
516.801	77.88
517.016	105.88
517.232	98.88
517.448	85.88
517.664	69.88
517.879	86.88
518.095	96.88
518.311	81.88
518.527	72.88
