Data from Zn(NO3)2Standard.Agarose3%.GreenCap.LampEnergy5.5.E.O_HRD10591_15-01-06-767.txt Node
Date: Mon Jul 22 15:01:06 EDT 2019
User: cochatt
Spectrometer: HR+D1059
Trigger mode: 1
Integration Time (sec): 1.000000E-1
Scans to average: 1
Electric dark correction enabled: true
Nonlinearity correction enabled: false
Boxcar width: 0
XAxis mode: Wavelengths
Number of Pixels in Spectrum: 2048
>>>>>Begin Spectral Data<<<<<
223.165	-11.62
223.4	-11.62
223.635	-11.62
223.869	-12.62
224.104	-23.62
224.338	-13.62
224.573	-4.62
224.808	-19.62
225.042	-5.62
225.277	-9.62
225.511	-8.62
225.746	-5.62
225.98	2.38
226.215	9.38
226.449	7.38
226.683	25.38
226.918	42.38
227.152	28.38
227.387	18.38
227.621	36.38
227.856	43.38
228.09	39.38
228.324	35.38
228.559	45.38
228.793	46.38
229.027	58.38
229.262	69.38
229.496	66.38
229.73	75.38
229.964	66.38
230.199	66.38
230.433	65.38
230.667	83.38
230.901	75.38
231.136	78.38
231.37	97.38
231.604	88.38
231.838	73.38
232.072	71.38
232.306	79.38
232.541	85.38
232.775	85.38
233.009	67.38
233.243	83.38
233.477	75.38
233.711	70.38
233.945	78.38
234.179	77.38
234.413	75.38
234.647	73.38
234.881	82.38
235.115	95.38
235.349	74.38
235.583	80.38
235.817	78.38
236.051	75.38
236.285	86.38
236.519	68.38
236.753	69.38
236.987	79.38
237.221	84.38
237.455	75.38
237.689	78.38
237.922	86.38
238.156	78.38
238.39	57.38
238.624	69.38
238.858	59.38
239.091	70.38
239.325	76.38
239.559	88.38
239.793	74.38
240.027	72.38
240.26	71.38
240.494	84.38
240.728	87.38
240.961	68.38
241.195	82.38
241.429	72.38
241.662	66.38
241.896	68.38
242.13	78.38
242.363	77.38
242.597	67.38
242.83	76.38
243.064	83.38
243.298	76.38
243.531	74.38
243.765	69.38
243.998	70.38
244.232	84.38
244.465	67.38
244.699	68.38
244.932	76.38
245.166	75.38
245.399	71.38
245.633	77.38
245.866	84.38
246.099	72.38
246.333	90.38
246.566	70.38
246.8	86.38
247.033	82.38
247.266	90.38
247.5	81.38
247.733	81.38
247.966	87.38
248.2	65.38
248.433	85.38
248.666	86.38
248.899	73.38
249.133	75.38
249.366	79.38
249.599	81.38
249.832	79.38
250.066	97.38
250.299	71.38
250.532	78.38
250.765	82.38
250.998	72.38
251.231	79.38
251.465	83.38
251.698	67.38
251.931	79.38
252.164	79.38
252.397	80.38
252.63	74.38
252.863	73.38
253.096	63.38
253.329	67.38
253.562	79.38
253.795	73.38
254.028	71.38
254.261	85.38
254.494	89.38
254.727	83.38
254.96	79.38
255.193	79.38
255.426	71.38
255.659	75.38
255.892	86.38
256.124	71.38
256.357	79.38
256.59	84.38
256.823	84.38
257.056	70.38
257.289	85.38
257.521	80.38
257.754	74.38
257.987	80.38
258.22	96.38
258.452	82.38
258.685	76.38
258.918	79.38
259.151	74.38
259.383	84.38
259.616	76.38
259.849	85.38
260.081	86.38
260.314	85.38
260.547	84.38
260.779	77.38
261.012	80.38
261.244	77.38
261.477	91.38
261.71	74.38
261.942	81.38
262.175	88.38
262.407	76.38
262.64	82.38
262.872	84.38
263.105	89.38
263.337	77.38
263.57	84.38
263.802	95.38
264.035	94.38
264.267	88.38
264.499	76.38
264.732	83.38
264.964	93.38
265.197	82.38
265.429	73.38
265.661	67.38
265.894	82.38
266.126	98.38
266.358	72.38
266.591	74.38
266.823	83.38
267.055	81.38
267.287	71.38
267.52	82.38
267.752	97.38
267.984	66.38
268.216	88.38
268.448	76.38
268.681	73.38
268.913	82.38
269.145	81.38
269.377	70.38
269.609	70.38
269.841	74.38
270.073	66.38
270.306	88.38
270.538	94.38
270.77	93.38
271.002	78.38
271.234	76.38
271.466	88.38
271.698	81.38
271.93	78.38
272.162	81.38
272.394	98.38
272.626	78.38
272.858	84.38
273.09	90.38
273.322	94.38
273.553	79.38
273.785	91.38
274.017	90.38
274.249	79.38
274.481	77.38
274.713	75.38
274.945	97.38
275.176	92.38
275.408	79.38
275.64	70.38
275.872	83.38
276.104	70.38
276.335	68.38
276.567	84.38
276.799	78.38
277.031	88.38
277.262	81.38
277.494	88.38
277.726	77.38
277.957	82.38
278.189	75.38
278.421	94.38
278.652	82.38
278.884	90.38
279.115	88.38
279.347	74.38
279.579	85.38
279.81	74.38
280.042	75.38
280.273	69.38
280.505	78.38
280.736	87.38
280.968	95.38
281.199	88.38
281.431	82.38
281.662	96.38
281.894	90.38
282.125	79.38
282.356	80.38
282.588	78.38
282.819	74.38
283.051	89.38
283.282	83.38
283.513	90.38
283.745	78.38
283.976	80.38
284.207	84.38
284.439	86.38
284.67	78.38
284.901	80.38
285.132	91.38
285.364	91.38
285.595	76.38
285.826	88.38
286.057	76.38
286.288	82.38
286.52	91.38
286.751	72.38
286.982	80.38
287.213	94.38
287.444	97.38
287.675	87.38
287.906	85.38
288.138	79.38
288.369	79.38
288.6	97.38
288.831	90.38
289.062	73.38
289.293	82.38
289.524	71.38
289.755	91.38
289.986	96.38
290.217	93.38
290.448	88.38
290.679	85.38
290.91	82.38
291.141	84.38
291.371	74.38
291.602	88.38
291.833	79.38
292.064	82.38
292.295	79.38
292.526	94.38
292.757	87.38
292.987	98.38
293.218	85.38
293.449	86.38
293.68	85.38
293.91	88.38
294.141	72.38
294.372	79.38
294.603	74.38
294.833	85.38
295.064	68.38
295.295	77.38
295.525	74.38
295.756	83.38
295.987	84.38
296.217	60.38
296.448	72.38
296.679	73.38
296.909	82.38
297.14	89.38
297.37	90.38
297.601	75.38
297.831	75.38
298.062	78.38
298.292	82.38
298.523	74.38
298.753	82.38
298.984	89.38
299.214	81.38
299.445	82.38
299.675	78.38
299.905	103.38
300.136	83.38
300.366	84.38
300.597	74.38
300.827	76.38
301.057	79.38
301.288	78.38
301.518	81.38
301.748	82.38
301.979	88.38
302.209	81.38
302.439	81.38
302.669	90.38
302.9	83.38
303.13	75.38
303.36	83.38
303.59	91.38
303.82	84.38
304.051	73.38
304.281	83.38
304.511	94.38
304.741	80.38
304.971	71.38
305.201	84.38
305.431	95.38
305.661	90.38
305.891	79.38
306.121	95.38
306.352	88.38
306.582	88.38
306.812	89.38
307.042	89.38
307.272	92.38
307.502	80.38
307.731	87.38
307.961	94.38
308.191	84.38
308.421	82.38
308.651	79.38
308.881	72.38
309.111	73.38
309.341	88.38
309.571	82.38
309.8	87.38
310.03	83.38
310.26	89.38
310.49	90.38
310.72	79.38
310.949	81.38
311.179	90.38
311.409	90.38
311.639	91.38
311.868	88.38
312.098	84.38
312.328	94.38
312.557	84.38
312.787	83.38
313.017	75.38
313.246	86.38
313.476	70.38
313.706	86.38
313.935	91.38
314.165	84.38
314.394	81.38
314.624	82.38
314.853	80.38
315.083	78.38
315.312	87.38
315.542	83.38
315.771	86.38
316.001	76.38
316.23	88.38
316.46	88.38
316.689	92.38
316.919	92.38
317.148	94.38
317.377	86.38
317.607	94.38
317.836	92.38
318.065	83.38
318.295	76.38
318.524	72.38
318.753	82.38
318.983	80.38
319.212	83.38
319.441	75.38
319.67	88.38
319.9	84.38
320.129	83.38
320.358	87.38
320.587	82.38
320.816	97.38
321.046	87.38
321.275	85.38
321.504	95.38
321.733	95.38
321.962	87.38
322.191	84.38
322.42	71.38
322.649	81.38
322.878	85.38
323.108	79.38
323.337	68.38
323.566	87.38
323.795	87.38
324.024	78.38
324.253	74.38
324.482	79.38
324.71	90.38
324.939	74.38
325.168	76.38
325.397	80.38
325.626	76.38
325.855	81.38
326.084	66.38
326.313	93.38
326.542	81.38
326.77	69.38
326.999	74.38
327.228	81.38
327.457	70.38
327.686	72.38
327.914	76.38
328.143	92.38
328.372	82.38
328.6	94.38
328.829	86.38
329.058	73.38
329.287	93.38
329.515	91.38
329.744	87.38
329.972	87.38
330.201	86.38
330.43	86.38
330.658	85.38
330.887	89.38
331.115	77.38
331.344	95.38
331.572	75.38
331.801	84.38
332.03	79.38
332.258	78.38
332.486	87.38
332.715	74.38
332.943	82.38
333.172	78.38
333.4	81.38
333.629	85.38
333.857	70.38
334.085	76.38
334.314	77.38
334.542	80.38
334.771	78.38
334.999	90.38
335.227	75.38
335.455	88.38
335.684	81.38
335.912	77.38
336.14	82.38
336.369	103.38
336.597	85.38
336.825	75.38
337.053	74.38
337.281	82.38
337.51	76.38
337.738	82.38
337.966	80.38
338.194	72.38
338.422	91.38
338.65	87.38
338.878	92.38
339.106	84.38
339.334	89.38
339.562	69.38
339.79	83.38
340.018	73.38
340.246	97.38
340.474	91.38
340.702	77.38
340.93	66.38
341.158	84.38
341.386	86.38
341.614	72.38
341.842	85.38
342.07	96.38
342.298	76.38
342.526	85.38
342.754	89.38
342.981	84.38
343.209	77.38
343.437	97.38
343.665	89.38
343.893	80.38
344.12	88.38
344.348	85.38
344.576	94.38
344.804	77.38
345.031	87.38
345.259	96.38
345.487	74.38
345.714	89.38
345.942	80.38
346.17	87.38
346.397	75.38
346.625	76.38
346.853	75.38
347.08	76.38
347.308	96.38
347.535	88.38
347.763	91.38
347.99	78.38
348.218	95.38
348.445	86.38
348.673	79.38
348.9	72.38
349.128	85.38
349.355	88.38
349.583	75.38
349.81	86.38
350.037	86.38
350.265	78.38
350.492	71.38
350.72	77.38
350.947	99.38
351.174	86.38
351.402	74.38
351.629	94.38
351.856	82.38
352.083	80.38
352.311	68.38
352.538	77.38
352.765	96.38
352.992	70.38
353.22	77.38
353.447	80.38
353.674	87.38
353.901	87.38
354.128	82.38
354.355	75.38
354.583	85.38
354.81	83.38
355.037	93.38
355.264	67.38
355.491	84.38
355.718	80.38
355.945	94.38
356.172	94.38
356.399	79.38
356.626	86.38
356.853	83.38
357.08	82.38
357.307	73.38
357.534	89.38
357.761	78.38
357.988	82.38
358.215	72.38
358.441	92.38
358.668	83.38
358.895	86.38
359.122	90.38
359.349	84.38
359.576	98.38
359.802	82.38
360.029	75.38
360.256	71.38
360.483	71.38
360.709	86.38
360.936	84.38
361.163	74.38
361.39	75.38
361.616	87.38
361.843	79.38
362.07	79.38
362.296	88.38
362.523	86.38
362.749	79.38
362.976	66.38
363.203	81.38
363.429	88.38
363.656	88.38
363.882	78.38
364.109	87.38
364.335	91.38
364.562	81.38
364.788	83.38
365.015	76.38
365.241	94.38
365.468	67.38
365.694	56.38
365.92	80.38
366.147	85.38
366.373	86.38
366.599	77.38
366.826	89.38
367.052	71.38
367.278	75.38
367.505	84.38
367.731	86.38
367.957	84.38
368.184	77.38
368.41	88.38
368.636	84.38
368.862	86.38
369.089	72.38
369.315	82.38
369.541	86.38
369.767	88.38
369.993	83.38
370.219	92.38
370.445	73.38
370.672	84.38
370.898	89.38
371.124	82.38
371.35	94.38
371.576	81.38
371.802	82.38
372.028	80.38
372.254	80.38
372.48	76.38
372.706	80.38
372.932	82.38
373.158	80.38
373.384	75.38
373.61	79.38
373.835	78.38
374.061	82.38
374.287	77.38
374.513	91.38
374.739	70.38
374.965	81.38
375.191	67.38
375.416	89.38
375.642	76.38
375.868	89.38
376.094	82.38
376.319	87.38
376.545	78.38
376.771	74.38
376.997	83.38
377.222	64.38
377.448	83.38
377.674	74.38
377.899	80.38
378.125	83.38
378.35	88.38
378.576	80.38
378.802	70.38
379.027	74.38
379.253	76.38
379.478	81.38
379.704	82.38
379.929	81.38
380.155	80.38
380.38	78.38
380.606	86.38
380.831	89.38
381.057	82.38
381.282	77.38
381.507	65.38
381.733	89.38
381.958	84.38
382.184	87.38
382.409	78.38
382.634	82.38
382.86	79.38
383.085	90.38
383.31	81.38
383.535	90.38
383.761	83.38
383.986	84.38
384.211	78.38
384.436	87.38
384.662	92.38
384.887	92.38
385.112	87.38
385.337	85.38
385.562	66.38
385.787	78.38
386.013	89.38
386.238	89.38
386.463	89.38
386.688	87.38
386.913	76.38
387.138	82.38
387.363	90.38
387.588	87.38
387.813	80.38
388.038	80.38
388.263	86.38
388.488	86.38
388.713	81.38
388.938	95.38
389.163	79.38
389.387	89.38
389.612	87.38
389.837	73.38
390.062	80.38
390.287	74.38
390.512	83.38
390.736	87.38
390.961	79.38
391.186	89.38
391.411	86.38
391.636	72.38
391.86	87.38
392.085	86.38
392.31	82.38
392.534	96.38
392.759	75.38
392.984	70.38
393.208	81.38
393.433	80.38
393.658	70.38
393.882	75.38
394.107	70.38
394.331	76.38
394.556	81.38
394.78	90.38
395.005	80.38
395.229	87.38
395.454	71.38
395.678	73.38
395.903	84.38
396.127	83.38
396.352	80.38
396.576	73.38
396.801	95.38
397.025	87.38
397.249	82.38
397.474	72.38
397.698	79.38
397.922	82.38
398.147	76.38
398.371	73.38
398.595	85.38
398.82	75.38
399.044	90.38
399.268	80.38
399.492	78.38
399.717	81.38
399.941	86.38
400.165	76.38
400.389	89.38
400.613	73.38
400.837	95.38
401.062	91.38
401.286	78.38
401.51	91.38
401.734	79.38
401.958	92.38
402.182	93.38
402.406	94.38
402.63	85.38
402.854	72.38
403.078	82.38
403.302	87.38
403.526	95.38
403.75	75.38
403.974	101.38
404.198	81.38
404.422	92.38
404.645	89.38
404.869	88.38
405.093	73.38
405.317	66.38
405.541	82.38
405.765	70.38
405.988	78.38
406.212	86.38
406.436	83.38
406.66	68.38
406.883	88.38
407.107	88.38
407.331	85.38
407.555	94.38
407.778	77.38
408.002	73.38
408.226	86.38
408.449	96.38
408.673	86.38
408.896	91.38
409.12	59.38
409.344	92.38
409.567	72.38
409.791	84.38
410.014	79.38
410.238	90.38
410.461	83.38
410.685	72.38
410.908	71.38
411.132	89.38
411.355	80.38
411.578	84.38
411.802	82.38
412.025	85.38
412.249	75.38
412.472	94.38
412.695	73.38
412.919	76.38
413.142	83.38
413.365	88.38
413.589	89.38
413.812	78.38
414.035	100.38
414.258	80.38
414.482	75.38
414.705	76.38
414.928	79.38
415.151	91.38
415.374	74.38
415.597	70.38
415.821	77.38
416.044	68.38
416.267	87.38
416.49	85.38
416.713	91.38
416.936	84.38
417.159	81.38
417.382	85.38
417.605	85.38
417.828	87.38
418.051	80.38
418.274	77.38
418.497	93.38
418.72	81.38
418.943	90.38
419.166	75.38
419.389	85.38
419.611	87.38
419.834	85.38
420.057	73.38
420.28	89.38
420.503	92.38
420.726	93.38
420.948	79.38
421.171	94.38
421.394	67.38
421.617	86.38
421.839	103.38
422.062	74.38
422.285	106.38
422.507	87.38
422.73	86.38
422.953	91.38
423.175	78.38
423.398	82.38
423.621	94.38
423.843	89.38
424.066	89.38
424.288	86.38
424.511	85.38
424.733	88.38
424.956	94.38
425.178	94.38
425.401	90.38
425.623	97.38
425.846	83.38
426.068	83.38
426.291	83.38
426.513	76.38
426.735	88.38
426.958	96.38
427.18	106.38
427.402	84.38
427.625	69.38
427.847	88.38
428.069	80.38
428.292	81.38
428.514	87.38
428.736	75.38
428.958	84.38
429.181	81.38
429.403	87.38
429.625	83.38
429.847	78.38
430.069	92.38
430.292	87.38
430.514	86.38
430.736	79.38
430.958	74.38
431.18	74.38
431.402	88.38
431.624	77.38
431.846	71.38
432.068	68.38
432.29	73.38
432.512	91.38
432.734	74.38
432.956	98.38
433.178	94.38
433.4	91.38
433.622	97.38
433.844	84.38
434.066	91.38
434.287	79.38
434.509	83.38
434.731	84.38
434.953	77.38
435.175	67.38
435.397	87.38
435.618	81.38
435.84	87.38
436.062	72.38
436.284	82.38
436.505	79.38
436.727	73.38
436.949	72.38
437.17	86.38
437.392	83.38
437.614	98.38
437.835	86.38
438.057	78.38
438.278	84.38
438.5	84.38
438.721	79.38
438.943	80.38
439.165	86.38
439.386	99.38
439.608	85.38
439.829	87.38
440.05	84.38
440.272	77.38
440.493	80.38
440.715	84.38
440.936	89.38
441.158	91.38
441.379	87.38
441.6	100.38
441.822	78.38
442.043	92.38
442.264	84.38
442.486	94.38
442.707	82.38
442.928	82.38
443.149	89.38
443.371	96.38
443.592	87.38
443.813	99.38
444.034	80.38
444.255	86.38
444.476	89.38
444.698	74.38
444.919	83.38
445.14	193.38
445.361	132.38
445.582	86.38
445.803	88.38
446.024	83.38
446.245	96.38
446.466	87.38
446.687	83.38
446.908	81.38
447.129	84.38
447.35	96.38
447.571	87.38
447.792	77.38
448.013	82.38
448.234	90.38
448.455	79.38
448.675	68.38
448.896	86.38
449.117	80.38
449.338	85.38
449.559	81.38
449.779	87.38
450	94.38
450.221	91.38
450.442	87.38
450.662	85.38
450.883	87.38
451.104	79.38
451.324	94.38
451.545	83.38
451.766	82.38
451.986	88.38
452.207	69.38
452.428	72.38
452.648	74.38
452.869	93.38
453.089	73.38
453.31	80.38
453.53	84.38
453.751	82.38
453.971	79.38
454.192	81.38
454.412	79.38
454.633	71.38
454.853	89.38
455.073	78.38
455.294	88.38
455.514	81.38
455.734	80.38
455.955	81.38
456.175	72.38
456.395	90.38
456.616	84.38
456.836	82.38
457.056	79.38
457.276	90.38
457.497	86.38
457.717	75.38
457.937	96.38
458.157	77.38
458.377	90.38
458.598	85.38
458.818	79.38
459.038	73.38
459.258	83.38
459.478	74.38
459.698	70.38
459.918	89.38
460.138	90.38
460.358	81.38
460.578	73.38
460.798	84.38
461.018	80.38
461.238	92.38
461.458	89.38
461.678	91.38
461.898	86.38
462.118	82.38
462.338	85.38
462.558	79.38
462.777	66.38
462.997	71.38
463.217	89.38
463.437	79.38
463.657	85.38
463.876	85.38
464.096	68.38
464.316	75.38
464.536	75.38
464.755	82.38
464.975	83.38
465.195	98.38
465.414	81.38
465.634	94.38
465.854	93.38
466.073	85.38
466.293	99.38
466.512	91.38
466.732	82.38
466.951	88.38
467.171	99.38
467.391	87.38
467.61	89.38
467.829	94.38
468.049	86.38
468.268	82.38
468.488	82.38
468.707	95.38
468.927	79.38
469.146	71.38
469.365	89.38
469.585	78.38
469.804	91.38
470.023	65.38
470.243	95.38
470.462	95.38
470.681	92.38
470.901	78.38
471.12	84.38
471.339	90.38
471.558	87.38
471.777	71.38
471.997	74.38
472.216	80.38
472.435	84.38
472.654	79.38
472.873	94.38
473.092	98.38
473.311	84.38
473.53	84.38
473.749	83.38
473.968	85.38
474.187	86.38
474.406	87.38
474.625	91.38
474.844	73.38
475.063	90.38
475.282	87.38
475.501	90.38
475.72	76.38
475.939	84.38
476.158	93.38
476.377	90.38
476.596	83.38
476.814	94.38
477.033	83.38
477.252	76.38
477.471	88.38
477.69	103.38
477.908	88.38
478.127	94.38
478.346	99.38
478.564	86.38
478.783	84.38
479.002	101.38
479.22	87.38
479.439	97.38
479.658	94.38
479.876	82.38
480.095	83.38
480.313	93.38
480.532	90.38
480.751	75.38
480.969	73.38
481.188	72.38
481.406	76.38
481.624	81.38
481.843	88.38
482.061	79.38
482.28	82.38
482.498	83.38
482.717	91.38
482.935	99.38
483.153	92.38
483.372	97.38
483.59	77.38
483.808	89.38
484.027	87.38
484.245	79.38
484.463	83.38
484.681	81.38
484.9	83.38
485.118	78.38
485.336	67.38
485.554	76.38
485.772	96.38
485.99	84.38
486.209	99.38
486.427	82.38
486.645	85.38
486.863	94.38
487.081	91.38
487.299	85.38
487.517	96.38
487.735	94.38
487.953	101.38
488.171	100.38
488.389	98.38
488.607	99.38
488.825	83.38
489.043	88.38
489.261	78.38
489.479	98.38
489.696	108.38
489.914	76.38
490.132	98.38
490.35	79.38
490.568	95.38
490.786	97.38
491.003	99.38
491.221	88.38
491.439	95.38
491.657	95.38
491.874	103.38
492.092	100.38
492.31	105.38
492.527	107.38
492.745	98.38
492.963	101.38
493.18	98.38
493.398	89.38
493.615	85.38
493.833	96.38
494.05	104.38
494.268	98.38
494.485	104.38
494.703	101.38
494.92	103.38
495.138	87.38
495.355	91.38
495.573	91.38
495.79	88.38
496.008	102.38
496.225	108.38
496.442	94.38
496.66	103.38
496.877	84.38
497.094	75.38
497.312	88.38
497.529	102.38
497.746	95.38
497.963	97.38
498.181	83.38
498.398	76.38
498.615	80.38
498.832	80.38
499.049	83.38
499.267	92.38
499.484	78.38
499.701	97.38
499.918	100.38
500.135	92.38
500.352	101.38
500.569	76.38
500.786	92.38
501.003	80.38
501.22	90.38
501.437	90.38
501.654	91.38
501.871	94.38
502.088	95.38
502.305	79.38
502.522	86.38
502.739	75.38
502.956	87.38
503.172	72.38
503.389	105.38
503.606	98.38
503.823	95.38
504.04	79.38
504.256	94.38
504.473	90.38
504.69	81.38
504.907	70.38
505.123	84.38
505.34	97.38
505.557	91.38
505.773	81.38
505.99	92.38
506.207	87.38
506.423	72.38
506.64	86.38
506.856	86.38
507.073	96.38
507.289	84.38
507.506	89.38
507.722	77.38
507.939	80.38
508.155	89.38
508.372	79.38
508.588	90.38
508.805	96.38
509.021	78.38
509.238	81.38
509.454	94.38
509.67	84.38
509.887	88.38
510.103	91.38
510.319	86.38
510.536	86.38
510.752	77.38
510.968	78.38
511.184	81.38
511.401	90.38
511.617	78.38
511.833	83.38
512.049	76.38
512.265	79.38
512.481	80.38
512.698	82.38
512.914	69.38
513.13	77.38
513.346	88.38
513.562	83.38
513.778	88.38
513.994	89.38
514.21	90.38
514.426	88.38
514.642	89.38
514.858	87.38
515.074	83.38
515.29	85.38
515.506	90.38
515.721	85.38
515.937	90.38
516.153	81.38
516.369	83.38
516.585	80.38
516.801	79.38
517.016	75.38
517.232	65.38
517.448	87.38
517.664	84.38
517.879	76.38
518.095	84.38
518.311	77.38
518.527	73.38
518.742	81.38
518.958	76.38
519.173	70.38
