Data from Zn(NO3)2Standard.Agarose3%.GreenCap.LampEnergy10E.O_HRD10591_15-07-06-943.txt Node
Date: Mon Jul 22 15:07:06 EDT 2019
User: cochatt
Spectrometer: HR+D1059
Trigger mode: 1
Integration Time (sec): 1.000000E-1
Scans to average: 1
Electric dark correction enabled: true
Nonlinearity correction enabled: false
Boxcar width: 0
XAxis mode: Wavelengths
Number of Pixels in Spectrum: 2048
>>>>>Begin Spectral Data<<<<<
223.165	-11.56
223.4	-11.56
223.635	-11.56
223.869	-15.56
224.104	-26.56
224.338	-7.56
224.573	-10.56
224.808	-8.56
225.042	-10.56
225.277	-6.56
225.511	-6.56
225.746	1.44
225.98	-10.56
226.215	16.44
226.449	15.44
226.683	26.44
226.918	29.44
227.152	25.44
227.387	25.44
227.621	23.44
227.856	49.44
228.09	33.44
228.324	43.44
228.559	40.44
228.793	58.44
229.027	67.44
229.262	59.44
229.496	67.44
229.73	59.44
229.964	62.44
230.199	71.44
230.433	68.44
230.667	92.44
230.901	88.44
231.136	73.44
231.37	85.44
231.604	95.44
231.838	72.44
232.072	89.44
232.306	70.44
232.541	80.44
232.775	74.44
233.009	83.44
233.243	88.44
233.477	82.44
233.711	75.44
233.945	83.44
234.179	71.44
234.413	76.44
234.647	83.44
234.881	80.44
235.115	81.44
235.349	70.44
235.583	83.44
235.817	87.44
236.051	76.44
236.285	82.44
236.519	80.44
236.753	79.44
236.987	80.44
237.221	67.44
237.455	83.44
237.689	72.44
237.922	77.44
238.156	72.44
238.39	79.44
238.624	84.44
238.858	77.44
239.091	87.44
239.325	82.44
239.559	87.44
239.793	72.44
240.027	85.44
240.26	68.44
240.494	75.44
240.728	74.44
240.961	92.44
241.195	70.44
241.429	70.44
241.662	70.44
241.896	77.44
242.13	66.44
242.363	77.44
242.597	82.44
242.83	93.44
243.064	73.44
243.298	78.44
243.531	75.44
243.765	77.44
243.998	72.44
244.232	97.44
244.465	91.44
244.699	85.44
244.932	74.44
245.166	91.44
245.399	80.44
245.633	87.44
245.866	77.44
246.099	76.44
246.333	64.44
246.566	88.44
246.8	73.44
247.033	72.44
247.266	74.44
247.5	86.44
247.733	80.44
247.966	61.44
248.2	72.44
248.433	77.44
248.666	76.44
248.899	74.44
249.133	82.44
249.366	82.44
249.599	70.44
249.832	64.44
250.066	84.44
250.299	84.44
250.532	91.44
250.765	75.44
250.998	69.44
251.231	78.44
251.465	75.44
251.698	77.44
251.931	83.44
252.164	90.44
252.397	82.44
252.63	87.44
252.863	85.44
253.096	77.44
253.329	81.44
253.562	88.44
253.795	75.44
254.028	86.44
254.261	82.44
254.494	70.44
254.727	80.44
254.96	72.44
255.193	80.44
255.426	85.44
255.659	86.44
255.892	74.44
256.124	70.44
256.357	94.44
256.59	73.44
256.823	74.44
257.056	66.44
257.289	68.44
257.521	85.44
257.754	87.44
257.987	76.44
258.22	73.44
258.452	85.44
258.685	86.44
258.918	90.44
259.151	68.44
259.383	75.44
259.616	74.44
259.849	96.44
260.081	85.44
260.314	68.44
260.547	82.44
260.779	68.44
261.012	68.44
261.244	74.44
261.477	92.44
261.71	85.44
261.942	92.44
262.175	88.44
262.407	95.44
262.64	86.44
262.872	80.44
263.105	79.44
263.337	77.44
263.57	80.44
263.802	86.44
264.035	76.44
264.267	76.44
264.499	65.44
264.732	88.44
264.964	77.44
265.197	90.44
265.429	85.44
265.661	75.44
265.894	77.44
266.126	95.44
266.358	90.44
266.591	91.44
266.823	80.44
267.055	64.44
267.287	81.44
267.52	84.44
267.752	81.44
267.984	72.44
268.216	84.44
268.448	82.44
268.681	91.44
268.913	78.44
269.145	98.44
269.377	84.44
269.609	92.44
269.841	89.44
270.073	95.44
270.306	75.44
270.538	83.44
270.77	87.44
271.002	82.44
271.234	78.44
271.466	93.44
271.698	73.44
271.93	89.44
272.162	80.44
272.394	77.44
272.626	78.44
272.858	76.44
273.09	108.44
273.322	102.44
273.553	76.44
273.785	62.44
274.017	80.44
274.249	76.44
274.481	78.44
274.713	84.44
274.945	74.44
275.176	80.44
275.408	79.44
275.64	80.44
275.872	67.44
276.104	72.44
276.335	76.44
276.567	78.44
276.799	92.44
277.031	82.44
277.262	88.44
277.494	84.44
277.726	81.44
277.957	77.44
278.189	74.44
278.421	74.44
278.652	100.44
278.884	83.44
279.115	101.44
279.347	83.44
279.579	91.44
279.81	90.44
280.042	81.44
280.273	73.44
280.505	76.44
280.736	94.44
280.968	88.44
281.199	78.44
281.431	75.44
281.662	77.44
281.894	78.44
282.125	76.44
282.356	77.44
282.588	81.44
282.819	89.44
283.051	90.44
283.282	80.44
283.513	88.44
283.745	83.44
283.976	97.44
284.207	68.44
284.439	92.44
284.67	100.44
284.901	74.44
285.132	89.44
285.364	84.44
285.595	83.44
285.826	87.44
286.057	81.44
286.288	85.44
286.52	87.44
286.751	89.44
286.982	93.44
287.213	96.44
287.444	89.44
287.675	84.44
287.906	73.44
288.138	75.44
288.369	85.44
288.6	81.44
288.831	84.44
289.062	82.44
289.293	89.44
289.524	87.44
289.755	90.44
289.986	97.44
290.217	84.44
290.448	73.44
290.679	82.44
290.91	85.44
291.141	98.44
291.371	82.44
291.602	90.44
291.833	83.44
292.064	87.44
292.295	73.44
292.526	88.44
292.757	99.44
292.987	86.44
293.218	84.44
293.449	104.44
293.68	86.44
293.91	78.44
294.141	85.44
294.372	77.44
294.603	68.44
294.833	90.44
295.064	90.44
295.295	85.44
295.525	81.44
295.756	96.44
295.987	90.44
296.217	81.44
296.448	94.44
296.679	71.44
296.909	78.44
297.14	102.44
297.37	96.44
297.601	76.44
297.831	73.44
298.062	90.44
298.292	78.44
298.523	83.44
298.753	79.44
298.984	93.44
299.214	84.44
299.445	88.44
299.675	83.44
299.905	85.44
300.136	78.44
300.366	84.44
300.597	94.44
300.827	86.44
301.057	91.44
301.288	78.44
301.518	78.44
301.748	84.44
301.979	92.44
302.209	83.44
302.439	100.44
302.669	86.44
302.9	70.44
303.13	78.44
303.36	77.44
303.59	92.44
303.82	78.44
304.051	89.44
304.281	88.44
304.511	89.44
304.741	78.44
304.971	86.44
305.201	78.44
305.431	95.44
305.661	88.44
305.891	83.44
306.121	96.44
306.352	77.44
306.582	86.44
306.812	90.44
307.042	84.44
307.272	75.44
307.502	96.44
307.731	90.44
307.961	88.44
308.191	79.44
308.421	97.44
308.651	86.44
308.881	96.44
309.111	81.44
309.341	78.44
309.571	82.44
309.8	86.44
310.03	67.44
310.26	66.44
310.49	85.44
310.72	80.44
310.949	96.44
311.179	87.44
311.409	89.44
311.639	84.44
311.868	93.44
312.098	93.44
312.328	79.44
312.557	76.44
312.787	78.44
313.017	85.44
313.246	100.44
313.476	85.44
313.706	81.44
313.935	91.44
314.165	91.44
314.394	74.44
314.624	79.44
314.853	80.44
315.083	94.44
315.312	80.44
315.542	80.44
315.771	89.44
316.001	93.44
316.23	70.44
316.46	72.44
316.689	88.44
316.919	89.44
317.148	89.44
317.377	81.44
317.607	100.44
317.836	78.44
318.065	76.44
318.295	92.44
318.524	75.44
318.753	89.44
318.983	78.44
319.212	89.44
319.441	79.44
319.67	69.44
319.9	85.44
320.129	97.44
320.358	92.44
320.587	66.44
320.816	81.44
321.046	87.44
321.275	94.44
321.504	71.44
321.733	95.44
321.962	62.44
322.191	80.44
322.42	92.44
322.649	79.44
322.878	86.44
323.108	94.44
323.337	87.44
323.566	98.44
323.795	91.44
324.024	77.44
324.253	78.44
324.482	81.44
324.71	82.44
324.939	85.44
325.168	89.44
325.397	78.44
325.626	63.44
325.855	82.44
326.084	75.44
326.313	88.44
326.542	76.44
326.77	76.44
326.999	84.44
327.228	67.44
327.457	78.44
327.686	79.44
327.914	82.44
328.143	92.44
328.372	91.44
328.6	85.44
328.829	92.44
329.058	79.44
329.287	78.44
329.515	88.44
329.744	81.44
329.972	85.44
330.201	88.44
330.43	78.44
330.658	91.44
330.887	85.44
331.115	69.44
331.344	76.44
331.572	84.44
331.801	89.44
332.03	89.44
332.258	90.44
332.486	83.44
332.715	96.44
332.943	75.44
333.172	86.44
333.4	72.44
333.629	89.44
333.857	80.44
334.085	88.44
334.314	90.44
334.542	91.44
334.771	89.44
334.999	96.44
335.227	83.44
335.455	87.44
335.684	83.44
335.912	100.44
336.14	91.44
336.369	82.44
336.597	76.44
336.825	85.44
337.053	86.44
337.281	90.44
337.51	82.44
337.738	84.44
337.966	74.44
338.194	93.44
338.422	84.44
338.65	88.44
338.878	88.44
339.106	87.44
339.334	85.44
339.562	76.44
339.79	67.44
340.018	97.44
340.246	92.44
340.474	81.44
340.702	79.44
340.93	72.44
341.158	94.44
341.386	82.44
341.614	91.44
341.842	94.44
342.07	89.44
342.298	86.44
342.526	82.44
342.754	87.44
342.981	87.44
343.209	100.44
343.437	82.44
343.665	86.44
343.893	79.44
344.12	72.44
344.348	98.44
344.576	93.44
344.804	86.44
345.031	89.44
345.259	88.44
345.487	81.44
345.714	102.44
345.942	88.44
346.17	68.44
346.397	86.44
346.625	90.44
346.853	85.44
347.08	84.44
347.308	83.44
347.535	93.44
347.763	82.44
347.99	90.44
348.218	86.44
348.445	83.44
348.673	77.44
348.9	78.44
349.128	76.44
349.355	75.44
349.583	80.44
349.81	84.44
350.037	98.44
350.265	97.44
350.492	82.44
350.72	89.44
350.947	83.44
351.174	85.44
351.402	77.44
351.629	77.44
351.856	84.44
352.083	81.44
352.311	88.44
352.538	69.44
352.765	87.44
352.992	75.44
353.22	84.44
353.447	74.44
353.674	68.44
353.901	81.44
354.128	93.44
354.355	86.44
354.583	88.44
354.81	79.44
355.037	78.44
355.264	90.44
355.491	83.44
355.718	92.44
355.945	84.44
356.172	80.44
356.399	85.44
356.626	81.44
356.853	86.44
357.08	77.44
357.307	74.44
357.534	83.44
357.761	73.44
357.988	89.44
358.215	87.44
358.441	90.44
358.668	75.44
358.895	75.44
359.122	69.44
359.349	85.44
359.576	70.44
359.802	80.44
360.029	81.44
360.256	91.44
360.483	77.44
360.709	86.44
360.936	95.44
361.163	75.44
361.39	70.44
361.616	66.44
361.843	75.44
362.07	70.44
362.296	87.44
362.523	96.44
362.749	80.44
362.976	81.44
363.203	94.44
363.429	76.44
363.656	83.44
363.882	81.44
364.109	81.44
364.335	74.44
364.562	72.44
364.788	72.44
365.015	77.44
365.241	88.44
365.468	85.44
365.694	91.44
365.92	79.44
366.147	80.44
366.373	85.44
366.599	81.44
366.826	77.44
367.052	94.44
367.278	82.44
367.505	79.44
367.731	100.44
367.957	83.44
368.184	83.44
368.41	81.44
368.636	74.44
368.862	72.44
369.089	90.44
369.315	86.44
369.541	81.44
369.767	80.44
369.993	92.44
370.219	87.44
370.445	79.44
370.672	97.44
370.898	91.44
371.124	77.44
371.35	66.44
371.576	88.44
371.802	83.44
372.028	87.44
372.254	82.44
372.48	81.44
372.706	91.44
372.932	75.44
373.158	104.44
373.384	86.44
373.61	75.44
373.835	74.44
374.061	80.44
374.287	85.44
374.513	91.44
374.739	82.44
374.965	85.44
375.191	103.44
375.416	76.44
375.642	74.44
375.868	96.44
376.094	97.44
376.319	87.44
376.545	71.44
376.771	83.44
376.997	86.44
377.222	76.44
377.448	93.44
377.674	80.44
377.899	81.44
378.125	91.44
378.35	101.44
378.576	88.44
378.802	99.44
379.027	80.44
379.253	91.44
379.478	75.44
379.704	87.44
379.929	77.44
380.155	88.44
380.38	76.44
380.606	89.44
380.831	92.44
381.057	90.44
381.282	89.44
381.507	74.44
381.733	78.44
381.958	92.44
382.184	78.44
382.409	98.44
382.634	87.44
382.86	89.44
383.085	85.44
383.31	92.44
383.535	85.44
383.761	92.44
383.986	81.44
384.211	85.44
384.436	76.44
384.662	81.44
384.887	74.44
385.112	76.44
385.337	87.44
385.562	91.44
385.787	88.44
386.013	107.44
386.238	86.44
386.463	96.44
386.688	83.44
386.913	91.44
387.138	73.44
387.363	88.44
387.588	100.44
387.813	90.44
388.038	101.44
388.263	106.44
388.488	86.44
388.713	87.44
388.938	83.44
389.163	81.44
389.387	84.44
389.612	91.44
389.837	91.44
390.062	81.44
390.287	85.44
390.512	89.44
390.736	92.44
390.961	89.44
391.186	74.44
391.411	76.44
391.636	95.44
391.86	92.44
392.085	91.44
392.31	85.44
392.534	89.44
392.759	97.44
392.984	91.44
393.208	89.44
393.433	97.44
393.658	93.44
393.882	82.44
394.107	85.44
394.331	83.44
394.556	95.44
394.78	95.44
395.005	90.44
395.229	78.44
395.454	73.44
395.678	76.44
395.903	85.44
396.127	103.44
396.352	90.44
396.576	89.44
396.801	90.44
397.025	85.44
397.249	102.44
397.474	114.44
397.698	93.44
397.922	92.44
398.147	84.44
398.371	90.44
398.595	89.44
398.82	91.44
399.044	72.44
399.268	99.44
399.492	94.44
399.717	88.44
399.941	97.44
400.165	108.44
400.389	88.44
400.613	90.44
400.837	99.44
401.062	81.44
401.286	97.44
401.51	100.44
401.734	97.44
401.958	101.44
402.182	91.44
402.406	96.44
402.63	100.44
402.854	99.44
403.078	110.44
403.302	93.44
403.526	67.44
403.75	101.44
403.974	103.44
404.198	103.44
404.422	105.44
404.645	88.44
404.869	92.44
405.093	101.44
405.317	98.44
405.541	98.44
405.765	110.44
405.988	82.44
406.212	94.44
406.436	103.44
406.66	99.44
406.883	88.44
407.107	104.44
407.331	104.44
407.555	93.44
407.778	85.44
408.002	106.44
408.226	98.44
408.449	91.44
408.673	106.44
408.896	83.44
409.12	97.44
409.344	95.44
409.567	86.44
409.791	93.44
410.014	98.44
410.238	103.44
410.461	103.44
410.685	102.44
410.908	100.44
411.132	96.44
411.355	99.44
411.578	89.44
411.802	98.44
412.025	88.44
412.249	82.44
412.472	90.44
412.695	100.44
412.919	94.44
413.142	88.44
413.365	104.44
413.589	110.44
413.812	101.44
414.035	99.44
414.258	106.44
414.482	94.44
414.705	104.44
414.928	99.44
415.151	108.44
415.374	96.44
415.597	96.44
415.821	96.44
416.044	100.44
416.267	102.44
416.49	91.44
416.713	113.44
416.936	93.44
417.159	90.44
417.382	100.44
417.605	90.44
417.828	116.44
418.051	97.44
418.274	103.44
418.497	100.44
418.72	96.44
418.943	105.44
419.166	92.44
419.389	105.44
419.611	110.44
419.834	107.44
420.057	88.44
420.28	109.44
420.503	92.44
420.726	92.44
420.948	93.44
421.171	84.44
421.394	108.44
421.617	96.44
421.839	118.44
422.062	115.44
422.285	95.44
422.507	100.44
422.73	99.44
422.953	97.44
423.175	99.44
423.398	105.44
423.621	112.44
423.843	107.44
424.066	94.44
424.288	94.44
424.511	104.44
424.733	101.44
424.956	97.44
425.178	99.44
425.401	104.44
425.623	117.44
425.846	101.44
426.068	104.44
426.291	88.44
426.513	85.44
426.735	110.44
426.958	100.44
427.18	108.44
427.402	112.44
427.625	102.44
427.847	96.44
428.069	106.44
428.292	105.44
428.514	108.44
428.736	85.44
428.958	99.44
429.181	88.44
429.403	94.44
429.625	113.44
429.847	113.44
430.069	102.44
430.292	108.44
430.514	86.44
430.736	102.44
430.958	96.44
431.18	89.44
431.402	112.44
431.624	100.44
431.846	97.44
432.068	83.44
432.29	87.44
432.512	105.44
432.734	105.44
432.956	100.44
433.178	107.44
433.4	103.44
433.622	106.44
433.844	120.44
434.066	110.44
434.287	84.44
434.509	91.44
434.731	88.44
434.953	100.44
435.175	102.44
435.397	107.44
435.618	100.44
435.84	90.44
436.062	97.44
436.284	113.44
436.505	114.44
436.727	104.44
436.949	100.44
437.17	108.44
437.392	101.44
437.614	101.44
437.835	95.44
438.057	103.44
438.278	105.44
438.5	124.44
438.721	113.44
438.943	98.44
439.165	112.44
439.386	102.44
439.608	110.44
439.829	103.44
440.05	115.44
440.272	124.44
440.493	102.44
440.715	104.44
440.936	99.44
441.158	112.44
441.379	108.44
441.6	112.44
441.822	114.44
442.043	118.44
442.264	108.44
442.486	132.44
442.707	96.44
442.928	117.44
443.149	101.44
443.371	100.44
443.592	110.44
443.813	106.44
444.034	115.44
444.255	113.44
444.476	117.44
444.698	116.44
444.919	113.44
445.14	216.44
445.361	169.44
445.582	115.44
445.803	120.44
446.024	109.44
446.245	121.44
446.466	108.44
446.687	116.44
446.908	108.44
447.129	124.44
447.35	110.44
447.571	126.44
447.792	96.44
448.013	105.44
448.234	105.44
448.455	115.44
448.675	114.44
448.896	99.44
449.117	103.44
449.338	116.44
449.559	111.44
449.779	110.44
450	101.44
450.221	93.44
450.442	90.44
450.662	102.44
450.883	100.44
451.104	101.44
451.324	108.44
451.545	99.44
451.766	122.44
451.986	103.44
452.207	92.44
452.428	99.44
452.648	99.44
452.869	105.44
453.089	93.44
453.31	93.44
453.53	89.44
453.751	97.44
453.971	92.44
454.192	92.44
454.412	87.44
454.633	112.44
454.853	89.44
455.073	98.44
455.294	106.44
455.514	93.44
455.734	103.44
455.955	98.44
456.175	91.44
456.395	94.44
456.616	100.44
456.836	92.44
457.056	102.44
457.276	109.44
457.497	94.44
457.717	93.44
457.937	94.44
458.157	98.44
458.377	78.44
458.598	81.44
458.818	92.44
459.038	88.44
459.258	88.44
459.478	72.44
459.698	90.44
459.918	78.44
460.138	99.44
460.358	96.44
460.578	99.44
460.798	102.44
461.018	100.44
461.238	92.44
461.458	106.44
461.678	98.44
461.898	106.44
462.118	89.44
462.338	87.44
462.558	107.44
462.777	86.44
462.997	83.44
463.217	94.44
463.437	100.44
463.657	93.44
463.876	85.44
464.096	102.44
464.316	103.44
464.536	98.44
464.755	122.44
464.975	90.44
465.195	104.44
465.414	106.44
465.634	94.44
465.854	97.44
466.073	101.44
466.293	86.44
466.512	101.44
466.732	96.44
466.951	97.44
467.171	116.44
467.391	117.44
467.61	108.44
467.829	101.44
468.049	99.44
468.268	113.44
468.488	105.44
468.707	99.44
468.927	114.44
469.146	109.44
469.365	116.44
469.585	118.44
469.804	106.44
470.023	103.44
470.243	119.44
470.462	104.44
470.681	106.44
470.901	105.44
471.12	124.44
471.339	117.44
471.558	117.44
471.777	118.44
471.997	100.44
472.216	107.44
472.435	109.44
472.654	106.44
472.873	104.44
473.092	98.44
473.311	117.44
473.53	100.44
473.749	92.44
473.968	104.44
474.187	111.44
474.406	104.44
474.625	114.44
474.844	116.44
475.063	106.44
475.282	112.44
475.501	117.44
475.72	100.44
475.939	99.44
476.158	92.44
476.377	101.44
476.596	106.44
476.814	99.44
477.033	98.44
477.252	103.44
477.471	111.44
477.69	112.44
477.908	109.44
478.127	111.44
478.346	109.44
478.564	114.44
478.783	112.44
479.002	110.44
479.22	112.44
479.439	106.44
479.658	100.44
479.876	88.44
480.095	89.44
480.313	101.44
480.532	96.44
480.751	100.44
480.969	89.44
481.188	82.44
481.406	93.44
481.624	84.44
481.843	84.44
482.061	99.44
482.28	91.44
482.498	96.44
482.717	90.44
482.935	103.44
483.153	118.44
483.372	135.44
483.59	102.44
483.808	101.44
484.027	108.44
484.245	112.44
484.463	114.44
484.681	124.44
484.9	122.44
485.118	116.44
485.336	99.44
485.554	97.44
485.772	80.44
485.99	103.44
486.209	108.44
486.427	95.44
486.645	112.44
486.863	98.44
487.081	114.44
487.299	114.44
487.517	118.44
487.735	135.44
487.953	126.44
488.171	128.44
488.389	116.44
488.607	122.44
488.825	117.44
489.043	114.44
489.261	94.44
489.479	95.44
489.696	93.44
489.914	107.44
490.132	106.44
490.35	122.44
490.568	122.44
490.786	121.44
491.003	131.44
491.221	136.44
491.439	116.44
491.657	135.44
491.874	132.44
492.092	138.44
492.31	169.44
492.527	139.44
492.745	131.44
492.963	145.44
493.18	140.44
493.398	120.44
493.615	137.44
493.833	126.44
494.05	127.44
494.268	120.44
494.485	140.44
494.703	124.44
494.92	123.44
495.138	135.44
495.355	118.44
495.573	129.44
495.79	127.44
496.008	130.44
496.225	129.44
496.442	112.44
496.66	118.44
496.877	126.44
497.094	127.44
497.312	103.44
497.529	129.44
497.746	108.44
497.963	110.44
498.181	94.44
498.398	104.44
498.615	102.44
498.832	107.44
499.049	105.44
499.267	102.44
499.484	81.44
499.701	103.44
499.918	102.44
500.135	114.44
500.352	120.44
500.569	113.44
500.786	118.44
501.003	94.44
501.22	99.44
501.437	123.44
501.654	116.44
501.871	107.44
502.088	104.44
502.305	89.44
502.522	106.44
502.739	103.44
502.956	100.44
503.172	100.44
503.389	94.44
503.606	104.44
503.823	109.44
504.04	91.44
504.256	118.44
504.473	80.44
504.69	120.44
504.907	94.44
505.123	97.44
505.34	93.44
505.557	100.44
505.773	109.44
505.99	98.44
506.207	108.44
506.423	110.44
506.64	99.44
506.856	106.44
507.073	104.44
507.289	111.44
507.506	122.44
507.722	108.44
507.939	101.44
508.155	123.44
508.372	93.44
508.588	103.44
508.805	92.44
509.021	92.44
509.238	93.44
509.454	107.44
509.67	104.44
509.887	86.44
510.103	101.44
510.319	87.44
510.536	88.44
510.752	83.44
510.968	92.44
511.184	88.44
511.401	73.44
511.617	87.44
511.833	94.44
512.049	96.44
512.265	99.44
512.481	91.44
512.698	80.44
512.914	92.44
513.13	98.44
513.346	93.44
513.562	104.44
513.778	85.44
513.994	101.44
514.21	81.44
514.426	96.44
514.642	97.44
