Data from Zn(NO3)2Standard.Agarose3%.GreenCap.LampEnergy5.5.E.O_HRD10591_15-00-54-767.txt Node
Date: Mon Jul 22 15:00:54 EDT 2019
User: cochatt
Spectrometer: HR+D1059
Trigger mode: 1
Integration Time (sec): 1.000000E-1
Scans to average: 1
Electric dark correction enabled: true
Nonlinearity correction enabled: false
Boxcar width: 0
XAxis mode: Wavelengths
Number of Pixels in Spectrum: 2048
>>>>>Begin Spectral Data<<<<<
223.165	-19.06
223.4	-19.06
223.635	-19.06
223.869	-16.06
224.104	-26.06
224.338	-1.06
224.573	-13.06
224.808	-16.06
225.042	-9.06
225.277	-17.06
225.511	-0.06
225.746	-5.06
225.98	2.94
226.215	22.94
226.449	20.94
226.683	16.94
226.918	27.94
227.152	30.94
227.387	29.94
227.621	26.94
227.856	54.94
228.09	39.94
228.324	39.94
228.559	50.94
228.793	58.94
229.027	63.94
229.262	63.94
229.496	62.94
229.73	75.94
229.964	65.94
230.199	74.94
230.433	74.94
230.667	80.94
230.901	66.94
231.136	80.94
231.37	68.94
231.604	88.94
231.838	79.94
232.072	81.94
232.306	83.94
232.541	96.94
232.775	80.94
233.009	86.94
233.243	92.94
233.477	85.94
233.711	86.94
233.945	91.94
234.179	85.94
234.413	79.94
234.647	89.94
234.881	82.94
235.115	101.94
235.349	92.94
235.583	64.94
235.817	71.94
236.051	74.94
236.285	82.94
236.519	74.94
236.753	78.94
236.987	76.94
237.221	89.94
237.455	86.94
237.689	63.94
237.922	92.94
238.156	54.94
238.39	63.94
238.624	88.94
238.858	70.94
239.091	79.94
239.325	86.94
239.559	78.94
239.793	77.94
240.027	97.94
240.26	64.94
240.494	76.94
240.728	70.94
240.961	67.94
241.195	94.94
241.429	72.94
241.662	78.94
241.896	73.94
242.13	76.94
242.363	77.94
242.597	72.94
242.83	73.94
243.064	80.94
243.298	73.94
243.531	83.94
243.765	78.94
243.998	89.94
244.232	74.94
244.465	73.94
244.699	89.94
244.932	70.94
245.166	68.94
245.399	74.94
245.633	67.94
245.866	84.94
246.099	70.94
246.333	86.94
246.566	76.94
246.8	84.94
247.033	77.94
247.266	86.94
247.5	87.94
247.733	75.94
247.966	78.94
248.2	85.94
248.433	92.94
248.666	74.94
248.899	73.94
249.133	86.94
249.366	82.94
249.599	59.94
249.832	101.94
250.066	66.94
250.299	80.94
250.532	77.94
250.765	76.94
250.998	69.94
251.231	86.94
251.465	78.94
251.698	84.94
251.931	89.94
252.164	94.94
252.397	85.94
252.63	68.94
252.863	84.94
253.096	83.94
253.329	78.94
253.562	86.94
253.795	84.94
254.028	93.94
254.261	82.94
254.494	89.94
254.727	85.94
254.96	87.94
255.193	78.94
255.426	84.94
255.659	84.94
255.892	79.94
256.124	88.94
256.357	90.94
256.59	77.94
256.823	89.94
257.056	87.94
257.289	89.94
257.521	105.94
257.754	83.94
257.987	85.94
258.22	90.94
258.452	79.94
258.685	83.94
258.918	88.94
259.151	87.94
259.383	90.94
259.616	86.94
259.849	88.94
260.081	84.94
260.314	85.94
260.547	91.94
260.779	80.94
261.012	84.94
261.244	77.94
261.477	79.94
261.71	97.94
261.942	95.94
262.175	90.94
262.407	78.94
262.64	86.94
262.872	74.94
263.105	77.94
263.337	83.94
263.57	94.94
263.802	95.94
264.035	92.94
264.267	87.94
264.499	76.94
264.732	72.94
264.964	90.94
265.197	78.94
265.429	78.94
265.661	80.94
265.894	80.94
266.126	88.94
266.358	81.94
266.591	96.94
266.823	92.94
267.055	75.94
267.287	78.94
267.52	79.94
267.752	79.94
267.984	101.94
268.216	75.94
268.448	89.94
268.681	83.94
268.913	84.94
269.145	73.94
269.377	80.94
269.609	85.94
269.841	87.94
270.073	88.94
270.306	80.94
270.538	79.94
270.77	92.94
271.002	80.94
271.234	76.94
271.466	76.94
271.698	84.94
271.93	67.94
272.162	88.94
272.394	77.94
272.626	80.94
272.858	87.94
273.09	79.94
273.322	74.94
273.553	85.94
273.785	68.94
274.017	92.94
274.249	89.94
274.481	92.94
274.713	86.94
274.945	74.94
275.176	84.94
275.408	83.94
275.64	88.94
275.872	80.94
276.104	77.94
276.335	81.94
276.567	79.94
276.799	77.94
277.031	86.94
277.262	93.94
277.494	86.94
277.726	78.94
277.957	76.94
278.189	86.94
278.421	83.94
278.652	91.94
278.884	85.94
279.115	83.94
279.347	88.94
279.579	88.94
279.81	90.94
280.042	95.94
280.273	93.94
280.505	96.94
280.736	80.94
280.968	85.94
281.199	84.94
281.431	90.94
281.662	69.94
281.894	92.94
282.125	109.94
282.356	92.94
282.588	95.94
282.819	90.94
283.051	92.94
283.282	83.94
283.513	78.94
283.745	80.94
283.976	99.94
284.207	93.94
284.439	85.94
284.67	86.94
284.901	82.94
285.132	88.94
285.364	93.94
285.595	92.94
285.826	93.94
286.057	92.94
286.288	86.94
286.52	82.94
286.751	84.94
286.982	93.94
287.213	89.94
287.444	80.94
287.675	94.94
287.906	89.94
288.138	71.94
288.369	93.94
288.6	104.94
288.831	81.94
289.062	95.94
289.293	98.94
289.524	84.94
289.755	93.94
289.986	71.94
290.217	94.94
290.448	88.94
290.679	92.94
290.91	85.94
291.141	88.94
291.371	101.94
291.602	88.94
291.833	100.94
292.064	79.94
292.295	80.94
292.526	95.94
292.757	93.94
292.987	94.94
293.218	88.94
293.449	82.94
293.68	84.94
293.91	86.94
294.141	86.94
294.372	84.94
294.603	86.94
294.833	83.94
295.064	75.94
295.295	91.94
295.525	98.94
295.756	82.94
295.987	101.94
296.217	87.94
296.448	75.94
296.679	87.94
296.909	75.94
297.14	68.94
297.37	90.94
297.601	90.94
297.831	71.94
298.062	89.94
298.292	91.94
298.523	86.94
298.753	92.94
298.984	89.94
299.214	88.94
299.445	95.94
299.675	86.94
299.905	90.94
300.136	86.94
300.366	84.94
300.597	75.94
300.827	80.94
301.057	83.94
301.288	89.94
301.518	87.94
301.748	84.94
301.979	71.94
302.209	91.94
302.439	96.94
302.669	89.94
302.9	93.94
303.13	93.94
303.36	87.94
303.59	80.94
303.82	90.94
304.051	92.94
304.281	88.94
304.511	92.94
304.741	85.94
304.971	81.94
305.201	95.94
305.431	87.94
305.661	93.94
305.891	76.94
306.121	71.94
306.352	80.94
306.582	77.94
306.812	88.94
307.042	82.94
307.272	93.94
307.502	96.94
307.731	89.94
307.961	78.94
308.191	87.94
308.421	95.94
308.651	86.94
308.881	85.94
309.111	88.94
309.341	90.94
309.571	79.94
309.8	88.94
310.03	79.94
310.26	84.94
310.49	66.94
310.72	86.94
310.949	101.94
311.179	104.94
311.409	82.94
311.639	83.94
311.868	87.94
312.098	93.94
312.328	67.94
312.557	96.94
312.787	98.94
313.017	93.94
313.246	101.94
313.476	94.94
313.706	87.94
313.935	74.94
314.165	87.94
314.394	89.94
314.624	78.94
314.853	82.94
315.083	110.94
315.312	93.94
315.542	93.94
315.771	83.94
316.001	82.94
316.23	85.94
316.46	95.94
316.689	89.94
316.919	96.94
317.148	84.94
317.377	85.94
317.607	75.94
317.836	91.94
318.065	79.94
318.295	80.94
318.524	79.94
318.753	87.94
318.983	85.94
319.212	79.94
319.441	92.94
319.67	90.94
319.9	92.94
320.129	70.94
320.358	80.94
320.587	89.94
320.816	86.94
321.046	84.94
321.275	91.94
321.504	89.94
321.733	83.94
321.962	78.94
322.191	75.94
322.42	99.94
322.649	78.94
322.878	95.94
323.108	101.94
323.337	88.94
323.566	91.94
323.795	80.94
324.024	87.94
324.253	90.94
324.482	91.94
324.71	99.94
324.939	94.94
325.168	75.94
325.397	83.94
325.626	97.94
325.855	96.94
326.084	81.94
326.313	78.94
326.542	87.94
326.77	94.94
326.999	87.94
327.228	88.94
327.457	84.94
327.686	83.94
327.914	79.94
328.143	93.94
328.372	64.94
328.6	85.94
328.829	93.94
329.058	82.94
329.287	85.94
329.515	96.94
329.744	89.94
329.972	90.94
330.201	72.94
330.43	80.94
330.658	86.94
330.887	90.94
331.115	71.94
331.344	94.94
331.572	92.94
331.801	72.94
332.03	72.94
332.258	91.94
332.486	81.94
332.715	75.94
332.943	79.94
333.172	100.94
333.4	83.94
333.629	92.94
333.857	78.94
334.085	85.94
334.314	69.94
334.542	79.94
334.771	77.94
334.999	99.94
335.227	84.94
335.455	91.94
335.684	94.94
335.912	92.94
336.14	98.94
336.369	94.94
336.597	85.94
336.825	76.94
337.053	83.94
337.281	83.94
337.51	90.94
337.738	87.94
337.966	79.94
338.194	86.94
338.422	93.94
338.65	84.94
338.878	67.94
339.106	78.94
339.334	94.94
339.562	92.94
339.79	84.94
340.018	94.94
340.246	95.94
340.474	86.94
340.702	86.94
340.93	82.94
341.158	94.94
341.386	87.94
341.614	90.94
341.842	78.94
342.07	79.94
342.298	97.94
342.526	89.94
342.754	87.94
342.981	79.94
343.209	79.94
343.437	79.94
343.665	77.94
343.893	91.94
344.12	87.94
344.348	75.94
344.576	85.94
344.804	76.94
345.031	90.94
345.259	92.94
345.487	83.94
345.714	100.94
345.942	87.94
346.17	82.94
346.397	90.94
346.625	82.94
346.853	95.94
347.08	92.94
347.308	94.94
347.535	74.94
347.763	86.94
347.99	102.94
348.218	85.94
348.445	82.94
348.673	78.94
348.9	86.94
349.128	90.94
349.355	88.94
349.583	89.94
349.81	80.94
350.037	84.94
350.265	94.94
350.492	88.94
350.72	89.94
350.947	85.94
351.174	95.94
351.402	83.94
351.629	80.94
351.856	70.94
352.083	77.94
352.311	74.94
352.538	71.94
352.765	84.94
352.992	100.94
353.22	103.94
353.447	79.94
353.674	87.94
353.901	94.94
354.128	87.94
354.355	76.94
354.583	92.94
354.81	91.94
355.037	79.94
355.264	82.94
355.491	102.94
355.718	88.94
355.945	85.94
356.172	93.94
356.399	86.94
356.626	86.94
356.853	89.94
357.08	85.94
357.307	94.94
357.534	95.94
357.761	82.94
357.988	89.94
358.215	91.94
358.441	80.94
358.668	92.94
358.895	75.94
359.122	92.94
359.349	98.94
359.576	86.94
359.802	93.94
360.029	79.94
360.256	87.94
360.483	85.94
360.709	97.94
360.936	96.94
361.163	93.94
361.39	80.94
361.616	80.94
361.843	82.94
362.07	97.94
362.296	95.94
362.523	71.94
362.749	80.94
362.976	83.94
363.203	86.94
363.429	85.94
363.656	85.94
363.882	89.94
364.109	83.94
364.335	89.94
364.562	88.94
364.788	80.94
365.015	82.94
365.241	81.94
365.468	82.94
365.694	90.94
365.92	91.94
366.147	84.94
366.373	72.94
366.599	87.94
366.826	83.94
367.052	90.94
367.278	90.94
367.505	97.94
367.731	80.94
367.957	92.94
368.184	83.94
368.41	91.94
368.636	88.94
368.862	95.94
369.089	91.94
369.315	92.94
369.541	89.94
369.767	82.94
369.993	85.94
370.219	79.94
370.445	81.94
370.672	86.94
370.898	83.94
371.124	80.94
371.35	70.94
371.576	85.94
371.802	99.94
372.028	90.94
372.254	86.94
372.48	76.94
372.706	82.94
372.932	76.94
373.158	92.94
373.384	83.94
373.61	85.94
373.835	96.94
374.061	91.94
374.287	71.94
374.513	86.94
374.739	84.94
374.965	85.94
375.191	80.94
375.416	77.94
375.642	84.94
375.868	100.94
376.094	106.94
376.319	87.94
376.545	87.94
376.771	84.94
376.997	74.94
377.222	91.94
377.448	86.94
377.674	78.94
377.899	83.94
378.125	87.94
378.35	92.94
378.576	85.94
378.802	87.94
379.027	91.94
379.253	86.94
379.478	78.94
379.704	85.94
379.929	76.94
380.155	87.94
380.38	91.94
380.606	76.94
380.831	81.94
381.057	82.94
381.282	91.94
381.507	82.94
381.733	79.94
381.958	79.94
382.184	84.94
382.409	84.94
382.634	79.94
382.86	72.94
383.085	92.94
383.31	92.94
383.535	97.94
383.761	100.94
383.986	75.94
384.211	88.94
384.436	70.94
384.662	74.94
384.887	80.94
385.112	87.94
385.337	85.94
385.562	83.94
385.787	81.94
386.013	75.94
386.238	82.94
386.463	95.94
386.688	78.94
386.913	106.94
387.138	83.94
387.363	88.94
387.588	80.94
387.813	100.94
388.038	96.94
388.263	87.94
388.488	68.94
388.713	88.94
388.938	87.94
389.163	76.94
389.387	89.94
389.612	80.94
389.837	94.94
390.062	85.94
390.287	89.94
390.512	83.94
390.736	82.94
390.961	86.94
391.186	84.94
391.411	72.94
391.636	85.94
391.86	91.94
392.085	74.94
392.31	76.94
392.534	87.94
392.759	85.94
392.984	87.94
393.208	77.94
393.433	77.94
393.658	80.94
393.882	91.94
394.107	92.94
394.331	93.94
394.556	80.94
394.78	91.94
395.005	90.94
395.229	82.94
395.454	91.94
395.678	87.94
395.903	80.94
396.127	88.94
396.352	88.94
396.576	79.94
396.801	74.94
397.025	82.94
397.249	93.94
397.474	90.94
397.698	84.94
397.922	92.94
398.147	80.94
398.371	78.94
398.595	90.94
398.82	75.94
399.044	91.94
399.268	90.94
399.492	84.94
399.717	75.94
399.941	74.94
400.165	88.94
400.389	75.94
400.613	78.94
400.837	75.94
401.062	77.94
401.286	82.94
401.51	84.94
401.734	91.94
401.958	86.94
402.182	82.94
402.406	103.94
402.63	85.94
402.854	85.94
403.078	98.94
403.302	87.94
403.526	73.94
403.75	80.94
403.974	88.94
404.198	90.94
404.422	77.94
404.645	91.94
404.869	91.94
405.093	77.94
405.317	80.94
405.541	102.94
405.765	88.94
405.988	91.94
406.212	77.94
406.436	80.94
406.66	84.94
406.883	83.94
407.107	76.94
407.331	75.94
407.555	75.94
407.778	80.94
408.002	79.94
408.226	82.94
408.449	80.94
408.673	91.94
408.896	79.94
409.12	88.94
409.344	88.94
409.567	83.94
409.791	80.94
410.014	100.94
410.238	105.94
410.461	103.94
410.685	86.94
410.908	75.94
411.132	86.94
411.355	79.94
411.578	88.94
411.802	83.94
412.025	76.94
412.249	76.94
412.472	79.94
412.695	87.94
412.919	87.94
413.142	84.94
413.365	91.94
413.589	89.94
413.812	94.94
414.035	98.94
414.258	94.94
414.482	85.94
414.705	86.94
414.928	91.94
415.151	89.94
415.374	97.94
415.597	95.94
415.821	85.94
416.044	87.94
416.267	86.94
416.49	82.94
416.713	91.94
416.936	84.94
417.159	92.94
417.382	88.94
417.605	81.94
417.828	90.94
418.051	95.94
418.274	84.94
418.497	93.94
418.72	79.94
418.943	86.94
419.166	97.94
419.389	86.94
419.611	107.94
419.834	78.94
420.057	103.94
420.28	96.94
420.503	100.94
420.726	87.94
420.948	84.94
421.171	83.94
421.394	83.94
421.617	88.94
421.839	82.94
422.062	83.94
422.285	98.94
422.507	95.94
422.73	95.94
422.953	98.94
423.175	90.94
423.398	95.94
423.621	101.94
423.843	84.94
424.066	97.94
424.288	96.94
424.511	87.94
424.733	94.94
424.956	93.94
425.178	87.94
425.401	87.94
425.623	92.94
425.846	84.94
426.068	90.94
426.291	96.94
426.513	63.94
426.735	96.94
426.958	82.94
427.18	85.94
427.402	89.94
427.625	93.94
427.847	94.94
428.069	108.94
428.292	97.94
428.514	98.94
428.736	82.94
428.958	90.94
429.181	74.94
429.403	105.94
429.625	92.94
429.847	92.94
430.069	84.94
430.292	94.94
430.514	91.94
430.736	91.94
430.958	85.94
431.18	93.94
431.402	111.94
431.624	86.94
431.846	68.94
432.068	86.94
432.29	76.94
432.512	84.94
432.734	102.94
432.956	86.94
433.178	91.94
433.4	86.94
433.622	89.94
433.844	83.94
434.066	76.94
434.287	111.94
434.509	82.94
434.731	86.94
434.953	91.94
435.175	94.94
435.397	81.94
435.618	93.94
435.84	99.94
436.062	101.94
436.284	97.94
436.505	85.94
436.727	89.94
436.949	79.94
437.17	76.94
437.392	95.94
437.614	89.94
437.835	87.94
438.057	79.94
438.278	80.94
438.5	95.94
438.721	88.94
438.943	92.94
439.165	91.94
439.386	95.94
439.608	86.94
439.829	85.94
440.05	92.94
440.272	98.94
440.493	89.94
440.715	99.94
440.936	86.94
441.158	99.94
441.379	86.94
441.6	88.94
441.822	103.94
442.043	100.94
442.264	102.94
442.486	81.94
442.707	97.94
442.928	87.94
443.149	95.94
443.371	99.94
443.592	98.94
443.813	97.94
444.034	82.94
444.255	83.94
444.476	89.94
444.698	93.94
444.919	89.94
445.14	188.94
445.361	120.94
445.582	93.94
445.803	100.94
446.024	94.94
446.245	101.94
446.466	78.94
446.687	83.94
446.908	99.94
447.129	107.94
447.35	98.94
447.571	86.94
447.792	93.94
448.013	95.94
448.234	94.94
448.455	83.94
448.675	94.94
448.896	79.94
449.117	94.94
449.338	90.94
449.559	83.94
449.779	77.94
450	90.94
450.221	103.94
450.442	90.94
450.662	99.94
450.883	79.94
451.104	92.94
451.324	95.94
451.545	90.94
451.766	104.94
451.986	99.94
452.207	104.94
452.428	93.94
452.648	88.94
452.869	90.94
453.089	92.94
453.31	79.94
453.53	76.94
453.751	83.94
453.971	86.94
454.192	77.94
454.412	74.94
454.633	77.94
454.853	101.94
455.073	85.94
455.294	91.94
455.514	86.94
455.734	84.94
455.955	83.94
456.175	76.94
456.395	108.94
456.616	82.94
456.836	98.94
457.056	92.94
457.276	89.94
457.497	79.94
457.717	87.94
457.937	79.94
458.157	91.94
458.377	84.94
458.598	83.94
458.818	92.94
459.038	85.94
459.258	78.94
459.478	84.94
459.698	98.94
459.918	72.94
460.138	83.94
460.358	77.94
460.578	75.94
460.798	90.94
461.018	104.94
461.238	80.94
461.458	91.94
461.678	85.94
461.898	90.94
462.118	99.94
462.338	88.94
462.558	92.94
462.777	88.94
462.997	99.94
463.217	89.94
463.437	72.94
463.657	86.94
463.876	79.94
464.096	83.94
464.316	99.94
464.536	88.94
464.755	92.94
464.975	78.94
465.195	98.94
465.414	101.94
465.634	86.94
465.854	85.94
466.073	98.94
466.293	87.94
466.512	83.94
466.732	81.94
466.951	104.94
467.171	99.94
467.391	84.94
467.61	91.94
467.829	87.94
468.049	83.94
468.268	98.94
468.488	88.94
468.707	89.94
468.927	100.94
469.146	88.94
469.365	100.94
469.585	86.94
469.804	83.94
470.023	83.94
470.243	106.94
470.462	103.94
470.681	101.94
470.901	98.94
471.12	87.94
471.339	95.94
471.558	92.94
471.777	90.94
471.997	91.94
472.216	94.94
472.435	91.94
472.654	86.94
472.873	93.94
473.092	75.94
473.311	93.94
473.53	92.94
473.749	90.94
473.968	100.94
474.187	96.94
474.406	93.94
474.625	97.94
474.844	103.94
475.063	100.94
475.282	88.94
475.501	87.94
475.72	86.94
475.939	88.94
476.158	107.94
476.377	98.94
476.596	91.94
476.814	88.94
477.033	79.94
477.252	85.94
477.471	91.94
477.69	93.94
477.908	94.94
478.127	87.94
478.346	83.94
478.564	98.94
478.783	80.94
479.002	78.94
479.22	96.94
479.439	101.94
479.658	75.94
479.876	75.94
480.095	85.94
480.313	101.94
480.532	94.94
480.751	91.94
480.969	80.94
481.188	88.94
481.406	92.94
481.624	90.94
481.843	79.94
482.061	95.94
482.28	89.94
482.498	85.94
482.717	94.94
482.935	91.94
483.153	94.94
483.372	96.94
483.59	89.94
483.808	95.94
484.027	103.94
484.245	86.94
484.463	94.94
484.681	101.94
484.9	105.94
485.118	82.94
485.336	103.94
485.554	85.94
485.772	85.94
485.99	96.94
486.209	95.94
486.427	93.94
486.645	92.94
486.863	87.94
487.081	87.94
487.299	100.94
487.517	96.94
487.735	89.94
487.953	94.94
488.171	101.94
488.389	107.94
488.607	86.94
488.825	89.94
489.043	85.94
489.261	97.94
489.479	80.94
489.696	98.94
489.914	98.94
490.132	88.94
490.35	85.94
490.568	103.94
490.786	108.94
491.003	101.94
491.221	107.94
491.439	92.94
491.657	98.94
491.874	114.94
492.092	99.94
492.31	114.94
492.527	87.94
492.745	106.94
492.963	98.94
493.18	112.94
493.398	107.94
493.615	114.94
493.833	105.94
494.05	107.94
494.268	87.94
494.485	85.94
494.703	109.94
494.92	89.94
495.138	107.94
495.355	101.94
495.573	118.94
495.79	97.94
496.008	106.94
496.225	101.94
496.442	95.94
496.66	85.94
496.877	100.94
497.094	109.94
497.312	94.94
497.529	100.94
497.746	87.94
497.963	96.94
498.181	104.94
498.398	98.94
498.615	104.94
498.832	79.94
499.049	85.94
499.267	102.94
499.484	73.94
499.701	91.94
499.918	92.94
500.135	94.94
500.352	92.94
500.569	104.94
500.786	99.94
501.003	90.94
501.22	103.94
501.437	102.94
501.654	87.94
501.871	101.94
502.088	89.94
502.305	71.94
502.522	86.94
502.739	102.94
502.956	95.94
503.172	80.94
503.389	86.94
503.606	77.94
503.823	93.94
504.04	78.94
504.256	91.94
504.473	102.94
504.69	100.94
504.907	99.94
505.123	91.94
505.34	98.94
505.557	102.94
505.773	89.94
505.99	94.94
506.207	86.94
506.423	102.94
506.64	87.94
506.856	84.94
507.073	106.94
507.289	91.94
507.506	92.94
507.722	87.94
507.939	86.94
508.155	99.94
508.372	82.94
508.588	105.94
508.805	91.94
509.021	82.94
509.238	81.94
509.454	71.94
509.67	86.94
509.887	82.94
510.103	88.94
510.319	80.94
510.536	96.94
510.752	89.94
510.968	89.94
511.184	80.94
511.401	88.94
511.617	86.94
511.833	74.94
512.049	78.94
512.265	90.94
512.481	98.94
512.698	79.94
512.914	87.94
513.13	86.94
513.346	90.94
513.562	96.94
513.778	96.94
513.994	84.94
514.21	90.94
514.426	88.94
514.642	88.94
514.858	90.94
515.074	78.94
515.29	77.94
515.506	83.94
515.721	86.94
515.937	92.94
516.153	85.94
516.369	87.94
516.585	83.94
516.801	77.94
517.016	82.94
517.232	91.94
517.448	89.94
517.664	83.94
517.879	84.94
