Data from Zn(NO3)2Standard.Agarose3%.GreenCap.LampEnergy5.5.E.O_HRD10591_15-02-39-767.txt Node
Date: Mon Jul 22 15:02:39 EDT 2019
User: cochatt
Spectrometer: HR+D1059
Trigger mode: 1
Integration Time (sec): 1.000000E-1
Scans to average: 1
Electric dark correction enabled: true
Nonlinearity correction enabled: false
Boxcar width: 0
XAxis mode: Wavelengths
Number of Pixels in Spectrum: 2048
>>>>>Begin Spectral Data<<<<<
223.165	-9.69
223.4	-9.69
223.635	-9.69
223.869	-5.69
224.104	-14.69
224.338	-15.69
224.573	-2.69
224.808	-33.69
225.042	-3.69
225.277	0.31
225.511	-9.69
225.746	5.31
225.98	3.31
226.215	16.31
226.449	19.31
226.683	28.31
226.918	11.31
227.152	11.31
227.387	17.31
227.621	25.31
227.856	34.31
228.09	46.31
228.324	54.31
228.559	46.31
228.793	49.31
229.027	51.31
229.262	54.31
229.496	61.31
229.73	62.31
229.964	80.31
230.199	73.31
230.433	58.31
230.667	74.31
230.901	80.31
231.136	69.31
231.37	86.31
231.604	83.31
231.838	64.31
232.072	72.31
232.306	97.31
232.541	70.31
232.775	75.31
233.009	76.31
233.243	64.31
233.477	66.31
233.711	77.31
233.945	77.31
234.179	80.31
234.413	73.31
234.647	84.31
234.881	74.31
235.115	78.31
235.349	89.31
235.583	68.31
235.817	77.31
236.051	85.31
236.285	80.31
236.519	78.31
236.753	75.31
236.987	84.31
237.221	87.31
237.455	78.31
237.689	72.31
237.922	68.31
238.156	76.31
238.39	62.31
238.624	79.31
238.858	69.31
239.091	64.31
239.325	81.31
239.559	66.31
239.793	72.31
240.027	57.31
240.26	83.31
240.494	66.31
240.728	66.31
240.961	71.31
241.195	82.31
241.429	83.31
241.662	84.31
241.896	81.31
242.13	74.31
242.363	79.31
242.597	74.31
242.83	81.31
243.064	71.31
243.298	68.31
243.531	78.31
243.765	65.31
243.998	74.31
244.232	64.31
244.465	70.31
244.699	61.31
244.932	68.31
245.166	72.31
245.399	75.31
245.633	73.31
245.866	70.31
246.099	79.31
246.333	86.31
246.566	74.31
246.8	75.31
247.033	73.31
247.266	87.31
247.5	67.31
247.733	66.31
247.966	83.31
248.2	72.31
248.433	72.31
248.666	59.31
248.899	69.31
249.133	77.31
249.366	92.31
249.599	88.31
249.832	63.31
250.066	76.31
250.299	68.31
250.532	86.31
250.765	79.31
250.998	66.31
251.231	79.31
251.465	79.31
251.698	71.31
251.931	72.31
252.164	80.31
252.397	73.31
252.63	70.31
252.863	81.31
253.096	75.31
253.329	85.31
253.562	81.31
253.795	70.31
254.028	87.31
254.261	75.31
254.494	72.31
254.727	78.31
254.96	82.31
255.193	86.31
255.426	86.31
255.659	78.31
255.892	64.31
256.124	70.31
256.357	89.31
256.59	91.31
256.823	67.31
257.056	79.31
257.289	67.31
257.521	75.31
257.754	79.31
257.987	63.31
258.22	80.31
258.452	77.31
258.685	76.31
258.918	91.31
259.151	77.31
259.383	92.31
259.616	76.31
259.849	62.31
260.081	76.31
260.314	74.31
260.547	80.31
260.779	67.31
261.012	85.31
261.244	75.31
261.477	81.31
261.71	83.31
261.942	79.31
262.175	75.31
262.407	81.31
262.64	79.31
262.872	70.31
263.105	89.31
263.337	78.31
263.57	80.31
263.802	75.31
264.035	83.31
264.267	87.31
264.499	86.31
264.732	73.31
264.964	82.31
265.197	85.31
265.429	80.31
265.661	79.31
265.894	83.31
266.126	82.31
266.358	76.31
266.591	78.31
266.823	89.31
267.055	69.31
267.287	73.31
267.52	70.31
267.752	80.31
267.984	73.31
268.216	70.31
268.448	90.31
268.681	79.31
268.913	81.31
269.145	84.31
269.377	90.31
269.609	62.31
269.841	67.31
270.073	78.31
270.306	81.31
270.538	84.31
270.77	78.31
271.002	71.31
271.234	78.31
271.466	73.31
271.698	84.31
271.93	98.31
272.162	89.31
272.394	90.31
272.626	93.31
272.858	68.31
273.09	87.31
273.322	76.31
273.553	88.31
273.785	90.31
274.017	85.31
274.249	79.31
274.481	81.31
274.713	80.31
274.945	92.31
275.176	75.31
275.408	79.31
275.64	81.31
275.872	74.31
276.104	86.31
276.335	79.31
276.567	85.31
276.799	75.31
277.031	73.31
277.262	66.31
277.494	76.31
277.726	68.31
277.957	73.31
278.189	78.31
278.421	72.31
278.652	82.31
278.884	80.31
279.115	79.31
279.347	66.31
279.579	69.31
279.81	85.31
280.042	78.31
280.273	85.31
280.505	77.31
280.736	80.31
280.968	81.31
281.199	78.31
281.431	85.31
281.662	75.31
281.894	74.31
282.125	75.31
282.356	70.31
282.588	61.31
282.819	81.31
283.051	69.31
283.282	90.31
283.513	93.31
283.745	79.31
283.976	76.31
284.207	70.31
284.439	68.31
284.67	70.31
284.901	86.31
285.132	77.31
285.364	82.31
285.595	79.31
285.826	81.31
286.057	87.31
286.288	69.31
286.52	80.31
286.751	92.31
286.982	70.31
287.213	78.31
287.444	89.31
287.675	69.31
287.906	74.31
288.138	89.31
288.369	87.31
288.6	78.31
288.831	67.31
289.062	80.31
289.293	78.31
289.524	88.31
289.755	83.31
289.986	83.31
290.217	82.31
290.448	92.31
290.679	74.31
290.91	76.31
291.141	84.31
291.371	74.31
291.602	79.31
291.833	75.31
292.064	74.31
292.295	78.31
292.526	84.31
292.757	70.31
292.987	74.31
293.218	82.31
293.449	78.31
293.68	68.31
293.91	84.31
294.141	90.31
294.372	77.31
294.603	70.31
294.833	74.31
295.064	66.31
295.295	80.31
295.525	81.31
295.756	73.31
295.987	78.31
296.217	97.31
296.448	79.31
296.679	78.31
296.909	84.31
297.14	86.31
297.37	82.31
297.601	76.31
297.831	73.31
298.062	62.31
298.292	81.31
298.523	81.31
298.753	88.31
298.984	88.31
299.214	87.31
299.445	76.31
299.675	89.31
299.905	74.31
300.136	77.31
300.366	82.31
300.597	93.31
300.827	74.31
301.057	74.31
301.288	86.31
301.518	78.31
301.748	89.31
301.979	82.31
302.209	92.31
302.439	85.31
302.669	89.31
302.9	88.31
303.13	70.31
303.36	82.31
303.59	80.31
303.82	86.31
304.051	97.31
304.281	78.31
304.511	89.31
304.741	83.31
304.971	77.31
305.201	78.31
305.431	84.31
305.661	74.31
305.891	72.31
306.121	81.31
306.352	85.31
306.582	71.31
306.812	80.31
307.042	88.31
307.272	77.31
307.502	79.31
307.731	78.31
307.961	80.31
308.191	81.31
308.421	93.31
308.651	88.31
308.881	82.31
309.111	74.31
309.341	66.31
309.571	76.31
309.8	74.31
310.03	77.31
310.26	91.31
310.49	79.31
310.72	71.31
310.949	87.31
311.179	74.31
311.409	83.31
311.639	79.31
311.868	74.31
312.098	83.31
312.328	72.31
312.557	80.31
312.787	93.31
313.017	77.31
313.246	66.31
313.476	81.31
313.706	76.31
313.935	78.31
314.165	74.31
314.394	73.31
314.624	78.31
314.853	92.31
315.083	67.31
315.312	68.31
315.542	69.31
315.771	81.31
316.001	83.31
316.23	91.31
316.46	66.31
316.689	92.31
316.919	83.31
317.148	73.31
317.377	89.31
317.607	80.31
317.836	78.31
318.065	81.31
318.295	81.31
318.524	91.31
318.753	89.31
318.983	84.31
319.212	86.31
319.441	81.31
319.67	78.31
319.9	75.31
320.129	82.31
320.358	77.31
320.587	61.31
320.816	77.31
321.046	83.31
321.275	81.31
321.504	74.31
321.733	72.31
321.962	95.31
322.191	80.31
322.42	78.31
322.649	77.31
322.878	79.31
323.108	76.31
323.337	82.31
323.566	81.31
323.795	78.31
324.024	75.31
324.253	80.31
324.482	81.31
324.71	81.31
324.939	78.31
325.168	72.31
325.397	80.31
325.626	78.31
325.855	86.31
326.084	79.31
326.313	72.31
326.542	79.31
326.77	89.31
326.999	90.31
327.228	76.31
327.457	77.31
327.686	86.31
327.914	80.31
328.143	86.31
328.372	74.31
328.6	63.31
328.829	75.31
329.058	74.31
329.287	74.31
329.515	84.31
329.744	66.31
329.972	63.31
330.201	88.31
330.43	93.31
330.658	80.31
330.887	80.31
331.115	66.31
331.344	93.31
331.572	80.31
331.801	78.31
332.03	98.31
332.258	81.31
332.486	64.31
332.715	81.31
332.943	92.31
333.172	78.31
333.4	77.31
333.629	86.31
333.857	74.31
334.085	75.31
334.314	77.31
334.542	90.31
334.771	99.31
334.999	81.31
335.227	83.31
335.455	71.31
335.684	86.31
335.912	68.31
336.14	81.31
336.369	71.31
336.597	79.31
336.825	84.31
337.053	68.31
337.281	81.31
337.51	84.31
337.738	76.31
337.966	86.31
338.194	77.31
338.422	94.31
338.65	94.31
338.878	79.31
339.106	75.31
339.334	77.31
339.562	74.31
339.79	79.31
340.018	76.31
340.246	74.31
340.474	74.31
340.702	77.31
340.93	76.31
341.158	77.31
341.386	83.31
341.614	74.31
341.842	79.31
342.07	69.31
342.298	73.31
342.526	88.31
342.754	72.31
342.981	84.31
343.209	83.31
343.437	80.31
343.665	80.31
343.893	73.31
344.12	74.31
344.348	73.31
344.576	89.31
344.804	86.31
345.031	69.31
345.259	77.31
345.487	78.31
345.714	98.31
345.942	81.31
346.17	83.31
346.397	71.31
346.625	72.31
346.853	93.31
347.08	94.31
347.308	99.31
347.535	76.31
347.763	80.31
347.99	82.31
348.218	53.31
348.445	82.31
348.673	88.31
348.9	83.31
349.128	71.31
349.355	95.31
349.583	80.31
349.81	73.31
350.037	73.31
350.265	81.31
350.492	76.31
350.72	72.31
350.947	79.31
351.174	89.31
351.402	75.31
351.629	80.31
351.856	82.31
352.083	66.31
352.311	77.31
352.538	71.31
352.765	80.31
352.992	74.31
353.22	80.31
353.447	87.31
353.674	78.31
353.901	73.31
354.128	75.31
354.355	69.31
354.583	74.31
354.81	91.31
355.037	68.31
355.264	76.31
355.491	68.31
355.718	85.31
355.945	79.31
356.172	84.31
356.399	81.31
356.626	64.31
356.853	78.31
357.08	76.31
357.307	70.31
357.534	86.31
357.761	72.31
357.988	80.31
358.215	97.31
358.441	73.31
358.668	72.31
358.895	80.31
359.122	80.31
359.349	73.31
359.576	83.31
359.802	83.31
360.029	40.31
360.256	74.31
360.483	82.31
360.709	80.31
360.936	89.31
361.163	78.31
361.39	70.31
361.616	73.31
361.843	78.31
362.07	76.31
362.296	73.31
362.523	78.31
362.749	72.31
362.976	73.31
363.203	95.31
363.429	82.31
363.656	79.31
363.882	84.31
364.109	69.31
364.335	80.31
364.562	81.31
364.788	68.31
365.015	83.31
365.241	62.31
365.468	89.31
365.694	68.31
365.92	76.31
366.147	65.31
366.373	75.31
366.599	77.31
366.826	77.31
367.052	83.31
367.278	68.31
367.505	77.31
367.731	72.31
367.957	76.31
368.184	72.31
368.41	81.31
368.636	86.31
368.862	78.31
369.089	96.31
369.315	82.31
369.541	69.31
369.767	86.31
369.993	80.31
370.219	85.31
370.445	73.31
370.672	83.31
370.898	82.31
371.124	74.31
371.35	81.31
371.576	80.31
371.802	74.31
372.028	78.31
372.254	84.31
372.48	91.31
372.706	75.31
372.932	74.31
373.158	82.31
373.384	81.31
373.61	88.31
373.835	88.31
374.061	69.31
374.287	84.31
374.513	74.31
374.739	75.31
374.965	83.31
375.191	84.31
375.416	64.31
375.642	72.31
375.868	78.31
376.094	76.31
376.319	69.31
376.545	80.31
376.771	82.31
376.997	70.31
377.222	74.31
377.448	76.31
377.674	71.31
377.899	87.31
378.125	73.31
378.35	82.31
378.576	96.31
378.802	77.31
379.027	90.31
379.253	78.31
379.478	80.31
379.704	73.31
379.929	66.31
380.155	74.31
380.38	79.31
380.606	78.31
380.831	87.31
381.057	85.31
381.282	70.31
381.507	84.31
381.733	86.31
381.958	87.31
382.184	77.31
382.409	77.31
382.634	85.31
382.86	86.31
383.085	81.31
383.31	78.31
383.535	87.31
383.761	79.31
383.986	71.31
384.211	80.31
384.436	84.31
384.662	76.31
384.887	89.31
385.112	74.31
385.337	80.31
385.562	69.31
385.787	88.31
386.013	78.31
386.238	67.31
386.463	76.31
386.688	87.31
386.913	76.31
387.138	70.31
387.363	89.31
387.588	90.31
387.813	93.31
388.038	72.31
388.263	77.31
388.488	78.31
388.713	77.31
388.938	73.31
389.163	76.31
389.387	72.31
389.612	86.31
389.837	89.31
390.062	65.31
390.287	88.31
390.512	74.31
390.736	84.31
390.961	73.31
391.186	75.31
391.411	73.31
391.636	82.31
391.86	86.31
392.085	72.31
392.31	79.31
392.534	71.31
392.759	93.31
392.984	99.31
393.208	76.31
393.433	81.31
393.658	77.31
393.882	77.31
394.107	66.31
394.331	72.31
394.556	71.31
394.78	78.31
395.005	86.31
395.229	62.31
395.454	70.31
395.678	85.31
395.903	76.31
396.127	77.31
396.352	82.31
396.576	66.31
396.801	84.31
397.025	74.31
397.249	71.31
397.474	83.31
397.698	82.31
397.922	74.31
398.147	73.31
398.371	87.31
398.595	70.31
398.82	81.31
399.044	86.31
399.268	94.31
399.492	79.31
399.717	80.31
399.941	89.31
400.165	80.31
400.389	82.31
400.613	74.31
400.837	73.31
401.062	87.31
401.286	87.31
401.51	93.31
401.734	61.31
401.958	80.31
402.182	80.31
402.406	74.31
402.63	89.31
402.854	70.31
403.078	81.31
403.302	87.31
403.526	68.31
403.75	83.31
403.974	74.31
404.198	72.31
404.422	76.31
404.645	80.31
404.869	88.31
405.093	90.31
405.317	89.31
405.541	85.31
405.765	72.31
405.988	80.31
406.212	86.31
406.436	72.31
406.66	91.31
406.883	90.31
407.107	78.31
407.331	82.31
407.555	79.31
407.778	72.31
408.002	82.31
408.226	84.31
408.449	81.31
408.673	84.31
408.896	95.31
409.12	73.31
409.344	78.31
409.567	82.31
409.791	78.31
410.014	85.31
410.238	92.31
410.461	95.31
410.685	80.31
410.908	71.31
411.132	85.31
411.355	78.31
411.578	84.31
411.802	83.31
412.025	74.31
412.249	78.31
412.472	83.31
412.695	86.31
412.919	71.31
413.142	74.31
413.365	80.31
413.589	79.31
413.812	93.31
414.035	85.31
414.258	89.31
414.482	70.31
414.705	75.31
414.928	92.31
415.151	86.31
415.374	85.31
415.597	77.31
415.821	98.31
416.044	82.31
416.267	58.31
416.49	76.31
416.713	85.31
416.936	82.31
417.159	95.31
417.382	64.31
417.605	81.31
417.828	80.31
418.051	87.31
418.274	67.31
418.497	80.31
418.72	73.31
418.943	87.31
419.166	81.31
419.389	75.31
419.611	77.31
419.834	81.31
420.057	95.31
420.28	87.31
420.503	78.31
420.726	71.31
420.948	74.31
421.171	88.31
421.394	70.31
421.617	84.31
421.839	72.31
422.062	84.31
422.285	86.31
422.507	89.31
422.73	79.31
422.953	103.31
423.175	87.31
423.398	86.31
423.621	84.31
423.843	93.31
424.066	84.31
424.288	81.31
424.511	75.31
424.733	79.31
424.956	93.31
425.178	88.31
425.401	86.31
425.623	87.31
425.846	80.31
426.068	88.31
426.291	74.31
426.513	95.31
426.735	99.31
426.958	82.31
427.18	83.31
427.402	91.31
427.625	85.31
427.847	67.31
428.069	77.31
428.292	88.31
428.514	67.31
428.736	94.31
428.958	72.31
429.181	87.31
429.403	87.31
429.625	103.31
429.847	81.31
430.069	80.31
430.292	92.31
430.514	92.31
430.736	90.31
430.958	81.31
431.18	98.31
431.402	79.31
431.624	74.31
431.846	80.31
432.068	73.31
432.29	81.31
432.512	76.31
432.734	75.31
432.956	95.31
433.178	78.31
433.4	85.31
433.622	92.31
433.844	79.31
434.066	94.31
434.287	81.31
434.509	82.31
434.731	72.31
434.953	88.31
435.175	81.31
435.397	63.31
435.618	73.31
435.84	80.31
436.062	86.31
436.284	80.31
436.505	69.31
436.727	90.31
436.949	103.31
437.17	81.31
437.392	103.31
437.614	87.31
437.835	82.31
438.057	78.31
438.278	87.31
438.5	72.31
438.721	68.31
438.943	88.31
439.165	87.31
439.386	88.31
439.608	86.31
439.829	94.31
440.05	79.31
440.272	76.31
440.493	83.31
440.715	84.31
440.936	96.31
441.158	97.31
441.379	88.31
441.6	82.31
441.822	93.31
442.043	86.31
442.264	79.31
442.486	83.31
442.707	83.31
442.928	94.31
443.149	79.31
443.371	85.31
443.592	80.31
443.813	76.31
444.034	83.31
444.255	89.31
444.476	81.31
444.698	97.31
444.919	97.31
445.14	221.31
445.361	133.31
445.582	101.31
445.803	82.31
446.024	83.31
446.245	93.31
446.466	74.31
446.687	82.31
446.908	86.31
447.129	91.31
447.35	89.31
447.571	86.31
447.792	93.31
448.013	89.31
448.234	91.31
448.455	81.31
448.675	82.31
448.896	97.31
449.117	82.31
449.338	92.31
449.559	83.31
449.779	68.31
450	78.31
450.221	95.31
450.442	83.31
450.662	93.31
450.883	83.31
451.104	86.31
451.324	87.31
451.545	87.31
451.766	87.31
451.986	96.31
452.207	86.31
452.428	94.31
452.648	92.31
452.869	86.31
453.089	90.31
453.31	77.31
453.53	94.31
453.751	84.31
453.971	77.31
454.192	79.31
454.412	85.31
454.633	78.31
454.853	98.31
455.073	99.31
455.294	92.31
455.514	81.31
455.734	79.31
455.955	72.31
456.175	81.31
456.395	65.31
456.616	89.31
456.836	78.31
457.056	83.31
457.276	69.31
457.497	95.31
457.717	81.31
457.937	70.31
458.157	79.31
458.377	82.31
458.598	73.31
458.818	77.31
459.038	87.31
459.258	82.31
459.478	77.31
459.698	71.31
459.918	92.31
460.138	80.31
460.358	86.31
460.578	81.31
460.798	85.31
461.018	87.31
461.238	80.31
461.458	74.31
461.678	72.31
461.898	91.31
462.118	71.31
462.338	81.31
462.558	81.31
462.777	85.31
462.997	77.31
463.217	81.31
463.437	89.31
463.657	88.31
463.876	74.31
464.096	96.31
464.316	73.31
464.536	84.31
464.755	84.31
464.975	77.31
465.195	53.31
465.414	88.31
465.634	89.31
465.854	84.31
466.073	77.31
466.293	73.31
466.512	74.31
466.732	81.31
466.951	80.31
467.171	86.31
467.391	60.31
467.61	88.31
467.829	95.31
468.049	88.31
468.268	96.31
468.488	70.31
468.707	86.31
468.927	78.31
469.146	78.31
469.365	92.31
469.585	93.31
469.804	67.31
470.023	85.31
470.243	97.31
470.462	90.31
470.681	82.31
470.901	62.31
471.12	93.31
471.339	90.31
471.558	89.31
471.777	98.31
471.997	97.31
472.216	74.31
472.435	85.31
472.654	94.31
472.873	93.31
473.092	78.31
473.311	85.31
473.53	85.31
473.749	88.31
473.968	84.31
474.187	71.31
474.406	69.31
474.625	83.31
474.844	69.31
475.063	92.31
475.282	85.31
475.501	82.31
475.72	102.31
475.939	94.31
476.158	84.31
476.377	84.31
476.596	94.31
476.814	93.31
477.033	94.31
477.252	80.31
477.471	91.31
477.69	76.31
477.908	74.31
478.127	88.31
478.346	83.31
478.564	92.31
478.783	76.31
479.002	71.31
479.22	94.31
479.439	82.31
479.658	79.31
479.876	96.31
480.095	69.31
480.313	73.31
480.532	73.31
480.751	85.31
480.969	86.31
481.188	69.31
481.406	73.31
481.624	70.31
481.843	84.31
482.061	93.31
482.28	74.31
482.498	87.31
482.717	89.31
482.935	80.31
483.153	76.31
483.372	88.31
483.59	97.31
483.808	91.31
484.027	81.31
484.245	83.31
484.463	81.31
484.681	99.31
484.9	98.31
485.118	86.31
485.336	73.31
485.554	76.31
485.772	86.31
485.99	74.31
486.209	82.31
486.427	69.31
486.645	88.31
486.863	86.31
487.081	85.31
487.299	80.31
487.517	95.31
487.735	98.31
487.953	95.31
488.171	110.31
488.389	83.31
488.607	91.31
488.825	88.31
489.043	91.31
489.261	90.31
489.479	87.31
489.696	85.31
489.914	78.31
490.132	79.31
490.35	92.31
490.568	96.31
490.786	92.31
491.003	90.31
491.221	87.31
491.439	87.31
491.657	97.31
491.874	102.31
492.092	118.31
492.31	95.31
492.527	92.31
492.745	91.31
492.963	100.31
493.18	106.31
493.398	89.31
493.615	104.31
493.833	101.31
494.05	82.31
494.268	100.31
494.485	112.31
494.703	89.31
494.92	102.31
495.138	108.31
495.355	86.31
495.573	114.31
495.79	108.31
496.008	117.31
496.225	92.31
496.442	95.31
496.66	89.31
496.877	93.31
497.094	109.31
497.312	100.31
497.529	97.31
497.746	82.31
497.963	73.31
498.181	80.31
498.398	82.31
498.615	76.31
498.832	87.31
499.049	81.31
499.267	83.31
499.484	85.31
499.701	80.31
499.918	84.31
500.135	94.31
500.352	78.31
500.569	104.31
500.786	90.31
501.003	85.31
501.22	93.31
501.437	76.31
501.654	87.31
501.871	95.31
502.088	84.31
502.305	80.31
502.522	91.31
502.739	74.31
502.956	97.31
503.172	86.31
503.389	95.31
503.606	77.31
503.823	83.31
504.04	96.31
504.256	65.31
504.473	61.31
504.69	87.31
504.907	76.31
505.123	94.31
505.34	93.31
505.557	89.31
505.773	100.31
505.99	79.31
506.207	81.31
506.423	86.31
506.64	86.31
506.856	85.31
507.073	88.31
507.289	88.31
507.506	69.31
507.722	77.31
507.939	86.31
508.155	87.31
508.372	90.31
508.588	77.31
508.805	74.31
509.021	72.31
509.238	96.31
509.454	89.31
509.67	84.31
509.887	77.31
510.103	102.31
510.319	76.31
510.536	85.31
510.752	79.31
510.968	74.31
511.184	78.31
511.401	74.31
511.617	69.31
511.833	73.31
512.049	83.31
512.265	77.31
512.481	86.31
512.698	83.31
512.914	80.31
513.13	84.31
513.346	74.31
513.562	71.31
513.778	80.31
513.994	77.31
514.21	65.31
514.426	87.31
514.642	71.31
514.858	85.31
515.074	68.31
515.29	68.31
515.506	81.31
515.721	75.31
515.937	74.31
516.153	77.31
516.369	77.31
516.585	77.31
516.801	83.31
517.016	88.31
517.232	83.31
517.448	85.31
517.664	82.31
517.879	82.31
518.095	81.31
518.311	69.31
518.527	89.31
518.742	89.31
518.958	88.31
519.173	83.31
