Data from Zn(NO3)2Standard.Agarose3%.GreenCap.LampEnergy10E.O_HRD10591_15-06-54-942.txt Node
Date: Mon Jul 22 15:06:54 EDT 2019
User: cochatt
Spectrometer: HR+D1059
Trigger mode: 1
Integration Time (sec): 1.000000E-1
Scans to average: 1
Electric dark correction enabled: true
Nonlinearity correction enabled: false
Boxcar width: 0
XAxis mode: Wavelengths
Number of Pixels in Spectrum: 2048
>>>>>Begin Spectral Data<<<<<
223.165	-14.12
223.4	-14.12
223.635	-14.12
223.869	-23.12
224.104	-36.12
224.338	-14.12
224.573	-17.12
224.808	-14.12
225.042	-11.12
225.277	-5.12
225.511	-9.12
225.746	6.88
225.98	-5.12
226.215	28.88
226.449	18.88
226.683	20.88
226.918	40.88
227.152	32.88
227.387	39.88
227.621	50.88
227.856	36.88
228.09	44.88
228.324	49.88
228.559	63.88
228.793	51.88
229.027	58.88
229.262	71.88
229.496	64.88
229.73	58.88
229.964	64.88
230.199	59.88
230.433	74.88
230.667	71.88
230.901	64.88
231.136	73.88
231.37	73.88
231.604	83.88
231.838	72.88
232.072	89.88
232.306	86.88
232.541	79.88
232.775	67.88
233.009	88.88
233.243	89.88
233.477	78.88
233.711	86.88
233.945	80.88
234.179	91.88
234.413	94.88
234.647	83.88
234.881	84.88
235.115	85.88
235.349	80.88
235.583	74.88
235.817	73.88
236.051	74.88
236.285	64.88
236.519	80.88
236.753	55.88
236.987	75.88
237.221	87.88
237.455	80.88
237.689	74.88
237.922	91.88
238.156	67.88
238.39	73.88
238.624	77.88
238.858	83.88
239.091	85.88
239.325	87.88
239.559	73.88
239.793	74.88
240.027	77.88
240.26	75.88
240.494	72.88
240.728	68.88
240.961	78.88
241.195	84.88
241.429	78.88
241.662	91.88
241.896	80.88
242.13	85.88
242.363	71.88
242.597	74.88
242.83	70.88
243.064	81.88
243.298	77.88
243.531	95.88
243.765	65.88
243.998	72.88
244.232	81.88
244.465	84.88
244.699	76.88
244.932	78.88
245.166	78.88
245.399	81.88
245.633	78.88
245.866	68.88
246.099	73.88
246.333	73.88
246.566	80.88
246.8	85.88
247.033	83.88
247.266	70.88
247.5	74.88
247.733	67.88
247.966	75.88
248.2	74.88
248.433	73.88
248.666	73.88
248.899	71.88
249.133	84.88
249.366	73.88
249.599	82.88
249.832	90.88
250.066	89.88
250.299	70.88
250.532	84.88
250.765	87.88
250.998	77.88
251.231	89.88
251.465	89.88
251.698	64.88
251.931	100.88
252.164	78.88
252.397	81.88
252.63	85.88
252.863	84.88
253.096	84.88
253.329	74.88
253.562	91.88
253.795	83.88
254.028	65.88
254.261	66.88
254.494	67.88
254.727	65.88
254.96	87.88
255.193	78.88
255.426	72.88
255.659	85.88
255.892	78.88
256.124	88.88
256.357	79.88
256.59	79.88
256.823	67.88
257.056	81.88
257.289	72.88
257.521	77.88
257.754	82.88
257.987	72.88
258.22	93.88
258.452	77.88
258.685	78.88
258.918	89.88
259.151	85.88
259.383	65.88
259.616	78.88
259.849	82.88
260.081	96.88
260.314	84.88
260.547	81.88
260.779	71.88
261.012	77.88
261.244	66.88
261.477	85.88
261.71	81.88
261.942	84.88
262.175	88.88
262.407	66.88
262.64	85.88
262.872	96.88
263.105	73.88
263.337	88.88
263.57	72.88
263.802	94.88
264.035	74.88
264.267	83.88
264.499	87.88
264.732	75.88
264.964	82.88
265.197	86.88
265.429	78.88
265.661	73.88
265.894	83.88
266.126	92.88
266.358	72.88
266.591	98.88
266.823	85.88
267.055	93.88
267.287	91.88
267.52	96.88
267.752	91.88
267.984	81.88
268.216	76.88
268.448	82.88
268.681	74.88
268.913	95.88
269.145	78.88
269.377	93.88
269.609	95.88
269.841	93.88
270.073	88.88
270.306	83.88
270.538	90.88
270.77	62.88
271.002	81.88
271.234	84.88
271.466	92.88
271.698	91.88
271.93	87.88
272.162	69.88
272.394	91.88
272.626	83.88
272.858	91.88
273.09	78.88
273.322	82.88
273.553	84.88
273.785	78.88
274.017	78.88
274.249	76.88
274.481	86.88
274.713	76.88
274.945	83.88
275.176	81.88
275.408	86.88
275.64	80.88
275.872	88.88
276.104	83.88
276.335	74.88
276.567	76.88
276.799	80.88
277.031	77.88
277.262	83.88
277.494	90.88
277.726	81.88
277.957	77.88
278.189	93.88
278.421	83.88
278.652	76.88
278.884	92.88
279.115	80.88
279.347	76.88
279.579	83.88
279.81	86.88
280.042	84.88
280.273	73.88
280.505	71.88
280.736	93.88
280.968	86.88
281.199	72.88
281.431	86.88
281.662	84.88
281.894	81.88
282.125	78.88
282.356	88.88
282.588	95.88
282.819	100.88
283.051	92.88
283.282	81.88
283.513	71.88
283.745	73.88
283.976	85.88
284.207	75.88
284.439	73.88
284.67	83.88
284.901	80.88
285.132	88.88
285.364	74.88
285.595	93.88
285.826	102.88
286.057	81.88
286.288	90.88
286.52	85.88
286.751	83.88
286.982	90.88
287.213	78.88
287.444	83.88
287.675	76.88
287.906	85.88
288.138	91.88
288.369	89.88
288.6	87.88
288.831	84.88
289.062	72.88
289.293	86.88
289.524	80.88
289.755	73.88
289.986	74.88
290.217	77.88
290.448	85.88
290.679	78.88
290.91	84.88
291.141	96.88
291.371	76.88
291.602	75.88
291.833	107.88
292.064	88.88
292.295	79.88
292.526	91.88
292.757	83.88
292.987	79.88
293.218	83.88
293.449	67.88
293.68	89.88
293.91	83.88
294.141	68.88
294.372	75.88
294.603	77.88
294.833	94.88
295.064	99.88
295.295	92.88
295.525	91.88
295.756	79.88
295.987	89.88
296.217	83.88
296.448	82.88
296.679	87.88
296.909	89.88
297.14	89.88
297.37	88.88
297.601	76.88
297.831	90.88
298.062	90.88
298.292	74.88
298.523	77.88
298.753	89.88
298.984	97.88
299.214	96.88
299.445	82.88
299.675	79.88
299.905	81.88
300.136	70.88
300.366	84.88
300.597	71.88
300.827	82.88
301.057	80.88
301.288	72.88
301.518	75.88
301.748	91.88
301.979	91.88
302.209	84.88
302.439	86.88
302.669	81.88
302.9	91.88
303.13	77.88
303.36	77.88
303.59	73.88
303.82	75.88
304.051	97.88
304.281	89.88
304.511	84.88
304.741	80.88
304.971	96.88
305.201	78.88
305.431	88.88
305.661	96.88
305.891	78.88
306.121	86.88
306.352	90.88
306.582	79.88
306.812	79.88
307.042	98.88
307.272	81.88
307.502	82.88
307.731	93.88
307.961	83.88
308.191	78.88
308.421	83.88
308.651	87.88
308.881	74.88
309.111	83.88
309.341	83.88
309.571	85.88
309.8	93.88
310.03	87.88
310.26	69.88
310.49	69.88
310.72	86.88
310.949	79.88
311.179	77.88
311.409	90.88
311.639	83.88
311.868	87.88
312.098	96.88
312.328	84.88
312.557	92.88
312.787	81.88
313.017	78.88
313.246	77.88
313.476	105.88
313.706	85.88
313.935	91.88
314.165	91.88
314.394	87.88
314.624	75.88
314.853	76.88
315.083	80.88
315.312	88.88
315.542	84.88
315.771	92.88
316.001	85.88
316.23	85.88
316.46	81.88
316.689	74.88
316.919	85.88
317.148	87.88
317.377	95.88
317.607	91.88
317.836	82.88
318.065	84.88
318.295	81.88
318.524	76.88
318.753	86.88
318.983	83.88
319.212	82.88
319.441	87.88
319.67	76.88
319.9	78.88
320.129	85.88
320.358	82.88
320.587	82.88
320.816	82.88
321.046	95.88
321.275	88.88
321.504	93.88
321.733	84.88
321.962	99.88
322.191	83.88
322.42	78.88
322.649	97.88
322.878	78.88
323.108	99.88
323.337	95.88
323.566	80.88
323.795	86.88
324.024	91.88
324.253	79.88
324.482	86.88
324.71	81.88
324.939	94.88
325.168	78.88
325.397	93.88
325.626	89.88
325.855	94.88
326.084	77.88
326.313	82.88
326.542	92.88
326.77	70.88
326.999	78.88
327.228	97.88
327.457	92.88
327.686	89.88
327.914	89.88
328.143	83.88
328.372	104.88
328.6	95.88
328.829	92.88
329.058	76.88
329.287	71.88
329.515	90.88
329.744	80.88
329.972	83.88
330.201	94.88
330.43	77.88
330.658	86.88
330.887	90.88
331.115	96.88
331.344	79.88
331.572	66.88
331.801	85.88
332.03	82.88
332.258	79.88
332.486	78.88
332.715	80.88
332.943	77.88
333.172	89.88
333.4	86.88
333.629	82.88
333.857	91.88
334.085	84.88
334.314	83.88
334.542	76.88
334.771	76.88
334.999	76.88
335.227	78.88
335.455	97.88
335.684	96.88
335.912	93.88
336.14	86.88
336.369	90.88
336.597	95.88
336.825	85.88
337.053	72.88
337.281	86.88
337.51	82.88
337.738	89.88
337.966	92.88
338.194	99.88
338.422	94.88
338.65	72.88
338.878	92.88
339.106	68.88
339.334	91.88
339.562	77.88
339.79	77.88
340.018	74.88
340.246	96.88
340.474	97.88
340.702	81.88
340.93	79.88
341.158	89.88
341.386	84.88
341.614	89.88
341.842	76.88
342.07	74.88
342.298	82.88
342.526	100.88
342.754	85.88
342.981	88.88
343.209	82.88
343.437	89.88
343.665	79.88
343.893	100.88
344.12	83.88
344.348	91.88
344.576	95.88
344.804	74.88
345.031	83.88
345.259	90.88
345.487	84.88
345.714	76.88
345.942	78.88
346.17	77.88
346.397	89.88
346.625	76.88
346.853	76.88
347.08	84.88
347.308	77.88
347.535	88.88
347.763	81.88
347.99	76.88
348.218	84.88
348.445	80.88
348.673	81.88
348.9	85.88
349.128	98.88
349.355	82.88
349.583	92.88
349.81	90.88
350.037	92.88
350.265	74.88
350.492	96.88
350.72	75.88
350.947	77.88
351.174	96.88
351.402	85.88
351.629	93.88
351.856	81.88
352.083	89.88
352.311	100.88
352.538	82.88
352.765	86.88
352.992	84.88
353.22	88.88
353.447	84.88
353.674	88.88
353.901	102.88
354.128	91.88
354.355	87.88
354.583	85.88
354.81	81.88
355.037	98.88
355.264	84.88
355.491	81.88
355.718	86.88
355.945	90.88
356.172	82.88
356.399	75.88
356.626	89.88
356.853	75.88
357.08	85.88
357.307	74.88
357.534	81.88
357.761	76.88
357.988	84.88
358.215	90.88
358.441	87.88
358.668	102.88
358.895	84.88
359.122	88.88
359.349	97.88
359.576	93.88
359.802	83.88
360.029	85.88
360.256	84.88
360.483	78.88
360.709	77.88
360.936	82.88
361.163	86.88
361.39	77.88
361.616	77.88
361.843	71.88
362.07	86.88
362.296	85.88
362.523	75.88
362.749	71.88
362.976	95.88
363.203	83.88
363.429	88.88
363.656	85.88
363.882	76.88
364.109	90.88
364.335	83.88
364.562	76.88
364.788	73.88
365.015	75.88
365.241	77.88
365.468	80.88
365.694	86.88
365.92	83.88
366.147	72.88
366.373	77.88
366.599	74.88
366.826	84.88
367.052	77.88
367.278	77.88
367.505	90.88
367.731	82.88
367.957	91.88
368.184	83.88
368.41	83.88
368.636	78.88
368.862	78.88
369.089	84.88
369.315	80.88
369.541	92.88
369.767	86.88
369.993	90.88
370.219	80.88
370.445	77.88
370.672	87.88
370.898	92.88
371.124	79.88
371.35	68.88
371.576	83.88
371.802	92.88
372.028	93.88
372.254	76.88
372.48	105.88
372.706	88.88
372.932	90.88
373.158	87.88
373.384	83.88
373.61	85.88
373.835	84.88
374.061	95.88
374.287	87.88
374.513	91.88
374.739	98.88
374.965	75.88
375.191	82.88
375.416	92.88
375.642	75.88
375.868	89.88
376.094	96.88
376.319	86.88
376.545	92.88
376.771	76.88
376.997	72.88
377.222	89.88
377.448	91.88
377.674	84.88
377.899	88.88
378.125	83.88
378.35	89.88
378.576	86.88
378.802	86.88
379.027	89.88
379.253	73.88
379.478	80.88
379.704	74.88
379.929	100.88
380.155	90.88
380.38	83.88
380.606	87.88
380.831	97.88
381.057	94.88
381.282	86.88
381.507	93.88
381.733	96.88
381.958	86.88
382.184	76.88
382.409	80.88
382.634	88.88
382.86	90.88
383.085	83.88
383.31	68.88
383.535	85.88
383.761	101.88
383.986	96.88
384.211	82.88
384.436	84.88
384.662	91.88
384.887	100.88
385.112	76.88
385.337	91.88
385.562	95.88
385.787	96.88
386.013	90.88
386.238	90.88
386.463	82.88
386.688	91.88
386.913	81.88
387.138	93.88
387.363	94.88
387.588	84.88
387.813	83.88
388.038	96.88
388.263	97.88
388.488	105.88
388.713	89.88
388.938	82.88
389.163	83.88
389.387	86.88
389.612	94.88
389.837	95.88
390.062	88.88
390.287	96.88
390.512	75.88
390.736	95.88
390.961	91.88
391.186	93.88
391.411	95.88
391.636	94.88
391.86	104.88
392.085	83.88
392.31	88.88
392.534	90.88
392.759	90.88
392.984	97.88
393.208	101.88
393.433	87.88
393.658	94.88
393.882	74.88
394.107	84.88
394.331	97.88
394.556	102.88
394.78	90.88
395.005	91.88
395.229	91.88
395.454	105.88
395.678	90.88
395.903	87.88
396.127	85.88
396.352	105.88
396.576	98.88
396.801	90.88
397.025	92.88
397.249	90.88
397.474	96.88
397.698	83.88
397.922	91.88
398.147	85.88
398.371	99.88
398.595	102.88
398.82	85.88
399.044	81.88
399.268	80.88
399.492	106.88
399.717	92.88
399.941	83.88
400.165	86.88
400.389	107.88
400.613	89.88
400.837	90.88
401.062	98.88
401.286	87.88
401.51	92.88
401.734	93.88
401.958	94.88
402.182	90.88
402.406	104.88
402.63	107.88
402.854	99.88
403.078	94.88
403.302	82.88
403.526	99.88
403.75	112.88
403.974	90.88
404.198	93.88
404.422	85.88
404.645	99.88
404.869	89.88
405.093	91.88
405.317	93.88
405.541	99.88
405.765	101.88
405.988	104.88
406.212	102.88
406.436	95.88
406.66	109.88
406.883	97.88
407.107	97.88
407.331	109.88
407.555	115.88
407.778	110.88
408.002	91.88
408.226	98.88
408.449	108.88
408.673	105.88
408.896	104.88
409.12	97.88
409.344	98.88
409.567	104.88
409.791	99.88
410.014	93.88
410.238	113.88
410.461	97.88
410.685	105.88
410.908	101.88
411.132	103.88
411.355	98.88
411.578	103.88
411.802	84.88
412.025	113.88
412.249	103.88
412.472	99.88
412.695	98.88
412.919	105.88
413.142	97.88
413.365	113.88
413.589	104.88
413.812	93.88
414.035	115.88
414.258	115.88
414.482	85.88
414.705	101.88
414.928	90.88
415.151	93.88
415.374	109.88
415.597	96.88
415.821	100.88
416.044	102.88
416.267	103.88
416.49	104.88
416.713	102.88
416.936	110.88
417.159	102.88
417.382	99.88
417.605	106.88
417.828	100.88
418.051	89.88
418.274	109.88
418.497	101.88
418.72	113.88
418.943	106.88
419.166	91.88
419.389	100.88
419.611	105.88
419.834	95.88
420.057	85.88
420.28	90.88
420.503	105.88
420.726	115.88
420.948	94.88
421.171	106.88
421.394	116.88
421.617	99.88
421.839	100.88
422.062	93.88
422.285	109.88
422.507	98.88
422.73	91.88
422.953	100.88
423.175	106.88
423.398	89.88
423.621	98.88
423.843	105.88
424.066	115.88
424.288	104.88
424.511	104.88
424.733	109.88
424.956	98.88
425.178	105.88
425.401	110.88
425.623	121.88
425.846	108.88
426.068	110.88
426.291	105.88
426.513	92.88
426.735	120.88
426.958	113.88
427.18	108.88
427.402	86.88
427.625	109.88
427.847	93.88
428.069	114.88
428.292	102.88
428.514	98.88
428.736	97.88
428.958	96.88
429.181	102.88
429.403	113.88
429.625	126.88
429.847	106.88
430.069	104.88
430.292	111.88
430.514	108.88
430.736	98.88
430.958	103.88
431.18	98.88
431.402	113.88
431.624	102.88
431.846	104.88
432.068	112.88
432.29	96.88
432.512	108.88
432.734	97.88
432.956	100.88
433.178	109.88
433.4	113.88
433.622	102.88
433.844	125.88
434.066	108.88
434.287	93.88
434.509	90.88
434.731	105.88
434.953	113.88
435.175	109.88
435.397	105.88
435.618	108.88
435.84	101.88
436.062	98.88
436.284	106.88
436.505	119.88
436.727	104.88
436.949	108.88
437.17	105.88
437.392	88.88
437.614	103.88
437.835	100.88
438.057	88.88
438.278	88.88
438.5	95.88
438.721	102.88
438.943	100.88
439.165	104.88
439.386	123.88
439.608	116.88
439.829	120.88
440.05	132.88
440.272	103.88
440.493	98.88
440.715	109.88
440.936	105.88
441.158	106.88
441.379	116.88
441.6	120.88
441.822	104.88
442.043	109.88
442.264	100.88
442.486	104.88
442.707	104.88
442.928	107.88
443.149	112.88
443.371	118.88
443.592	96.88
443.813	108.88
444.034	115.88
444.255	117.88
444.476	105.88
444.698	112.88
444.919	102.88
445.14	221.88
445.361	151.88
445.582	113.88
445.803	94.88
446.024	94.88
446.245	109.88
446.466	114.88
446.687	119.88
446.908	126.88
447.129	127.88
447.35	97.88
447.571	119.88
447.792	116.88
448.013	114.88
448.234	114.88
448.455	121.88
448.675	122.88
448.896	108.88
449.117	111.88
449.338	102.88
449.559	112.88
449.779	105.88
450	91.88
450.221	100.88
450.442	101.88
450.662	104.88
450.883	99.88
451.104	92.88
451.324	104.88
451.545	92.88
451.766	100.88
451.986	90.88
452.207	90.88
452.428	98.88
452.648	122.88
452.869	106.88
453.089	120.88
453.31	85.88
453.53	93.88
453.751	89.88
453.971	88.88
454.192	85.88
454.412	90.88
454.633	92.88
454.853	99.88
455.073	88.88
455.294	91.88
455.514	107.88
455.734	88.88
455.955	115.88
456.175	107.88
456.395	100.88
456.616	101.88
456.836	96.88
457.056	104.88
457.276	101.88
457.497	87.88
457.717	86.88
457.937	101.88
458.157	88.88
458.377	94.88
458.598	101.88
458.818	94.88
459.038	88.88
459.258	74.88
459.478	87.88
459.698	97.88
459.918	90.88
460.138	92.88
460.358	88.88
460.578	96.88
460.798	88.88
461.018	102.88
461.238	97.88
461.458	78.88
461.678	114.88
461.898	96.88
462.118	106.88
462.338	95.88
462.558	99.88
462.777	103.88
462.997	99.88
463.217	83.88
463.437	109.88
463.657	93.88
463.876	85.88
464.096	89.88
464.316	94.88
464.536	91.88
464.755	84.88
464.975	91.88
465.195	100.88
465.414	99.88
465.634	95.88
465.854	86.88
466.073	102.88
466.293	103.88
466.512	100.88
466.732	103.88
466.951	115.88
467.171	105.88
467.391	103.88
467.61	115.88
467.829	95.88
468.049	90.88
468.268	112.88
468.488	101.88
468.707	118.88
468.927	104.88
469.146	111.88
469.365	117.88
469.585	110.88
469.804	125.88
470.023	114.88
470.243	114.88
470.462	117.88
470.681	112.88
470.901	116.88
471.12	101.88
471.339	113.88
471.558	117.88
471.777	99.88
471.997	102.88
472.216	98.88
472.435	87.88
472.654	106.88
472.873	100.88
473.092	99.88
473.311	116.88
473.53	115.88
473.749	103.88
473.968	98.88
474.187	113.88
474.406	104.88
474.625	112.88
474.844	101.88
475.063	92.88
475.282	121.88
475.501	112.88
475.72	116.88
475.939	91.88
476.158	119.88
476.377	96.88
476.596	105.88
476.814	108.88
477.033	83.88
477.252	99.88
477.471	100.88
477.69	72.88
477.908	114.88
478.127	107.88
478.346	102.88
478.564	103.88
478.783	101.88
479.002	113.88
479.22	122.88
479.439	101.88
479.658	92.88
479.876	88.88
480.095	97.88
480.313	81.88
480.532	101.88
480.751	101.88
480.969	104.88
481.188	85.88
481.406	93.88
481.624	85.88
481.843	82.88
482.061	93.88
482.28	113.88
482.498	77.88
482.717	103.88
482.935	109.88
483.153	115.88
483.372	112.88
483.59	121.88
483.808	112.88
484.027	100.88
484.245	107.88
484.463	111.88
484.681	116.88
484.9	107.88
485.118	108.88
485.336	105.88
485.554	97.88
485.772	88.88
485.99	95.88
486.209	99.88
486.427	104.88
486.645	96.88
486.863	113.88
487.081	112.88
487.299	115.88
487.517	103.88
487.735	110.88
487.953	132.88
488.171	125.88
488.389	138.88
488.607	109.88
488.825	117.88
489.043	101.88
489.261	112.88
489.479	102.88
489.696	121.88
489.914	112.88
490.132	109.88
490.35	113.88
490.568	122.88
490.786	130.88
491.003	128.88
491.221	129.88
491.439	138.88
491.657	155.88
491.874	132.88
492.092	162.88
492.31	149.88
492.527	161.88
492.745	138.88
492.963	135.88
493.18	126.88
493.398	138.88
493.615	148.88
493.833	127.88
494.05	127.88
494.268	113.88
494.485	138.88
494.703	122.88
494.92	120.88
495.138	134.88
495.355	118.88
495.573	98.88
495.79	116.88
496.008	120.88
496.225	129.88
496.442	138.88
496.66	116.88
496.877	119.88
497.094	136.88
497.312	126.88
497.529	117.88
497.746	118.88
497.963	117.88
498.181	127.88
498.398	105.88
498.615	91.88
498.832	91.88
499.049	113.88
499.267	100.88
499.484	124.88
499.701	114.88
499.918	105.88
500.135	102.88
500.352	116.88
500.569	105.88
500.786	107.88
501.003	114.88
501.22	114.88
501.437	102.88
501.654	118.88
501.871	124.88
502.088	107.88
502.305	109.88
502.522	115.88
502.739	88.88
502.956	107.88
503.172	104.88
503.389	109.88
503.606	101.88
503.823	103.88
504.04	92.88
504.256	97.88
504.473	97.88
504.69	98.88
504.907	95.88
505.123	112.88
505.34	114.88
505.557	124.88
505.773	98.88
505.99	80.88
506.207	95.88
506.423	114.88
506.64	103.88
506.856	96.88
507.073	104.88
507.289	97.88
507.506	84.88
507.722	100.88
507.939	101.88
508.155	100.88
508.372	102.88
508.588	113.88
508.805	101.88
509.021	96.88
509.238	99.88
509.454	94.88
509.67	91.88
509.887	105.88
510.103	92.88
510.319	90.88
510.536	86.88
510.752	85.88
510.968	91.88
511.184	87.88
511.401	91.88
511.617	83.88
511.833	89.88
512.049	91.88
512.265	85.88
512.481	88.88
512.698	82.88
512.914	102.88
513.13	90.88
513.346	100.88
513.562	88.88
513.778	89.88
513.994	91.88
514.21	87.88
514.426	84.88
