Data from Zn(NO3)2Standard.Agarose3%.GreenCap.LampEnergy10E.O_HRD10591_15-06-36-942.txt Node
Date: Mon Jul 22 15:06:36 EDT 2019
User: cochatt
Spectrometer: HR+D1059
Trigger mode: 1
Integration Time (sec): 1.000000E-1
Scans to average: 1
Electric dark correction enabled: true
Nonlinearity correction enabled: false
Boxcar width: 0
XAxis mode: Wavelengths
Number of Pixels in Spectrum: 2048
>>>>>Begin Spectral Data<<<<<
223.165	-4.81
223.4	-4.81
223.635	-4.81
223.869	4.19
224.104	-21.81
224.338	-31.81
224.573	-15.81
224.808	-25.81
225.042	-26.81
225.277	7.19
225.511	3.19
225.746	6.19
225.98	14.19
226.215	12.19
226.449	10.19
226.683	31.19
226.918	23.19
227.152	15.19
227.387	42.19
227.621	36.19
227.856	34.19
228.09	38.19
228.324	48.19
228.559	48.19
228.793	65.19
229.027	60.19
229.262	52.19
229.496	73.19
229.73	65.19
229.964	79.19
230.199	79.19
230.433	81.19
230.667	65.19
230.901	82.19
231.136	68.19
231.37	91.19
231.604	78.19
231.838	73.19
232.072	80.19
232.306	85.19
232.541	85.19
232.775	74.19
233.009	85.19
233.243	72.19
233.477	86.19
233.711	67.19
233.945	73.19
234.179	81.19
234.413	73.19
234.647	75.19
234.881	75.19
235.115	69.19
235.349	74.19
235.583	70.19
235.817	88.19
236.051	77.19
236.285	84.19
236.519	63.19
236.753	65.19
236.987	70.19
237.221	75.19
237.455	77.19
237.689	71.19
237.922	82.19
238.156	90.19
238.39	72.19
238.624	73.19
238.858	91.19
239.091	78.19
239.325	63.19
239.559	75.19
239.793	75.19
240.027	75.19
240.26	81.19
240.494	88.19
240.728	76.19
240.961	68.19
241.195	74.19
241.429	77.19
241.662	75.19
241.896	66.19
242.13	75.19
242.363	74.19
242.597	76.19
242.83	83.19
243.064	68.19
243.298	74.19
243.531	89.19
243.765	75.19
243.998	79.19
244.232	88.19
244.465	83.19
244.699	65.19
244.932	77.19
245.166	82.19
245.399	90.19
245.633	82.19
245.866	80.19
246.099	92.19
246.333	80.19
246.566	76.19
246.8	85.19
247.033	83.19
247.266	94.19
247.5	79.19
247.733	69.19
247.966	76.19
248.2	74.19
248.433	76.19
248.666	84.19
248.899	66.19
249.133	71.19
249.366	96.19
249.599	82.19
249.832	78.19
250.066	79.19
250.299	68.19
250.532	78.19
250.765	91.19
250.998	75.19
251.231	72.19
251.465	88.19
251.698	71.19
251.931	82.19
252.164	80.19
252.397	72.19
252.63	82.19
252.863	76.19
253.096	58.19
253.329	88.19
253.562	70.19
253.795	87.19
254.028	86.19
254.261	82.19
254.494	82.19
254.727	88.19
254.96	89.19
255.193	72.19
255.426	74.19
255.659	86.19
255.892	95.19
256.124	83.19
256.357	91.19
256.59	94.19
256.823	81.19
257.056	81.19
257.289	90.19
257.521	71.19
257.754	82.19
257.987	72.19
258.22	91.19
258.452	78.19
258.685	73.19
258.918	70.19
259.151	74.19
259.383	76.19
259.616	86.19
259.849	76.19
260.081	83.19
260.314	75.19
260.547	76.19
260.779	90.19
261.012	96.19
261.244	77.19
261.477	74.19
261.71	77.19
261.942	83.19
262.175	75.19
262.407	78.19
262.64	79.19
262.872	78.19
263.105	79.19
263.337	82.19
263.57	98.19
263.802	87.19
264.035	95.19
264.267	73.19
264.499	87.19
264.732	85.19
264.964	74.19
265.197	75.19
265.429	73.19
265.661	82.19
265.894	62.19
266.126	80.19
266.358	74.19
266.591	67.19
266.823	83.19
267.055	87.19
267.287	90.19
267.52	73.19
267.752	85.19
267.984	74.19
268.216	71.19
268.448	74.19
268.681	87.19
268.913	83.19
269.145	90.19
269.377	97.19
269.609	82.19
269.841	73.19
270.073	79.19
270.306	70.19
270.538	85.19
270.77	76.19
271.002	88.19
271.234	86.19
271.466	83.19
271.698	75.19
271.93	75.19
272.162	85.19
272.394	90.19
272.626	90.19
272.858	75.19
273.09	76.19
273.322	90.19
273.553	81.19
273.785	66.19
274.017	96.19
274.249	78.19
274.481	81.19
274.713	84.19
274.945	88.19
275.176	87.19
275.408	83.19
275.64	81.19
275.872	85.19
276.104	71.19
276.335	88.19
276.567	82.19
276.799	81.19
277.031	87.19
277.262	68.19
277.494	82.19
277.726	82.19
277.957	82.19
278.189	89.19
278.421	73.19
278.652	85.19
278.884	77.19
279.115	80.19
279.347	73.19
279.579	83.19
279.81	89.19
280.042	84.19
280.273	90.19
280.505	83.19
280.736	91.19
280.968	75.19
281.199	87.19
281.431	82.19
281.662	82.19
281.894	99.19
282.125	77.19
282.356	79.19
282.588	68.19
282.819	78.19
283.051	82.19
283.282	96.19
283.513	97.19
283.745	87.19
283.976	80.19
284.207	62.19
284.439	87.19
284.67	74.19
284.901	89.19
285.132	87.19
285.364	71.19
285.595	87.19
285.826	96.19
286.057	89.19
286.288	83.19
286.52	83.19
286.751	85.19
286.982	76.19
287.213	95.19
287.444	74.19
287.675	78.19
287.906	94.19
288.138	91.19
288.369	81.19
288.6	84.19
288.831	70.19
289.062	74.19
289.293	77.19
289.524	88.19
289.755	86.19
289.986	82.19
290.217	83.19
290.448	75.19
290.679	82.19
290.91	79.19
291.141	83.19
291.371	80.19
291.602	76.19
291.833	82.19
292.064	84.19
292.295	79.19
292.526	78.19
292.757	78.19
292.987	84.19
293.218	78.19
293.449	82.19
293.68	86.19
293.91	82.19
294.141	90.19
294.372	83.19
294.603	94.19
294.833	89.19
295.064	86.19
295.295	79.19
295.525	79.19
295.756	81.19
295.987	91.19
296.217	83.19
296.448	91.19
296.679	72.19
296.909	79.19
297.14	98.19
297.37	96.19
297.601	90.19
297.831	69.19
298.062	81.19
298.292	84.19
298.523	65.19
298.753	71.19
298.984	88.19
299.214	87.19
299.445	80.19
299.675	91.19
299.905	78.19
300.136	90.19
300.366	95.19
300.597	96.19
300.827	83.19
301.057	94.19
301.288	83.19
301.518	80.19
301.748	66.19
301.979	81.19
302.209	71.19
302.439	81.19
302.669	82.19
302.9	81.19
303.13	101.19
303.36	84.19
303.59	78.19
303.82	88.19
304.051	94.19
304.281	91.19
304.511	102.19
304.741	90.19
304.971	78.19
305.201	92.19
305.431	92.19
305.661	86.19
305.891	83.19
306.121	94.19
306.352	82.19
306.582	60.19
306.812	80.19
307.042	95.19
307.272	84.19
307.502	105.19
307.731	82.19
307.961	81.19
308.191	80.19
308.421	82.19
308.651	98.19
308.881	88.19
309.111	77.19
309.341	67.19
309.571	77.19
309.8	88.19
310.03	83.19
310.26	82.19
310.49	85.19
310.72	74.19
310.949	81.19
311.179	75.19
311.409	80.19
311.639	82.19
311.868	90.19
312.098	80.19
312.328	80.19
312.557	93.19
312.787	82.19
313.017	83.19
313.246	89.19
313.476	72.19
313.706	76.19
313.935	87.19
314.165	76.19
314.394	96.19
314.624	84.19
314.853	83.19
315.083	85.19
315.312	86.19
315.542	90.19
315.771	85.19
316.001	86.19
316.23	73.19
316.46	91.19
316.689	84.19
316.919	76.19
317.148	72.19
317.377	107.19
317.607	79.19
317.836	76.19
318.065	89.19
318.295	88.19
318.524	74.19
318.753	87.19
318.983	79.19
319.212	88.19
319.441	86.19
319.67	79.19
319.9	79.19
320.129	86.19
320.358	74.19
320.587	75.19
320.816	89.19
321.046	74.19
321.275	91.19
321.504	77.19
321.733	78.19
321.962	74.19
322.191	88.19
322.42	83.19
322.649	98.19
322.878	83.19
323.108	81.19
323.337	86.19
323.566	93.19
323.795	79.19
324.024	90.19
324.253	83.19
324.482	72.19
324.71	79.19
324.939	84.19
325.168	85.19
325.397	78.19
325.626	68.19
325.855	94.19
326.084	85.19
326.313	88.19
326.542	87.19
326.77	80.19
326.999	86.19
327.228	77.19
327.457	82.19
327.686	71.19
327.914	81.19
328.143	81.19
328.372	78.19
328.6	87.19
328.829	79.19
329.058	97.19
329.287	95.19
329.515	83.19
329.744	78.19
329.972	92.19
330.201	92.19
330.43	71.19
330.658	77.19
330.887	88.19
331.115	91.19
331.344	75.19
331.572	98.19
331.801	78.19
332.03	94.19
332.258	89.19
332.486	89.19
332.715	101.19
332.943	101.19
333.172	94.19
333.4	90.19
333.629	83.19
333.857	63.19
334.085	71.19
334.314	73.19
334.542	81.19
334.771	76.19
334.999	103.19
335.227	91.19
335.455	70.19
335.684	78.19
335.912	88.19
336.14	93.19
336.369	87.19
336.597	89.19
336.825	68.19
337.053	70.19
337.281	83.19
337.51	86.19
337.738	81.19
337.966	85.19
338.194	72.19
338.422	83.19
338.65	79.19
338.878	72.19
339.106	82.19
339.334	75.19
339.562	75.19
339.79	82.19
340.018	89.19
340.246	75.19
340.474	84.19
340.702	86.19
340.93	83.19
341.158	84.19
341.386	76.19
341.614	84.19
341.842	82.19
342.07	100.19
342.298	82.19
342.526	90.19
342.754	77.19
342.981	83.19
343.209	80.19
343.437	69.19
343.665	75.19
343.893	83.19
344.12	80.19
344.348	88.19
344.576	81.19
344.804	78.19
345.031	86.19
345.259	80.19
345.487	83.19
345.714	79.19
345.942	75.19
346.17	88.19
346.397	79.19
346.625	74.19
346.853	71.19
347.08	82.19
347.308	72.19
347.535	73.19
347.763	91.19
347.99	92.19
348.218	86.19
348.445	91.19
348.673	87.19
348.9	73.19
349.128	95.19
349.355	87.19
349.583	98.19
349.81	73.19
350.037	85.19
350.265	93.19
350.492	80.19
350.72	64.19
350.947	67.19
351.174	72.19
351.402	87.19
351.629	79.19
351.856	82.19
352.083	87.19
352.311	83.19
352.538	79.19
352.765	88.19
352.992	101.19
353.22	80.19
353.447	88.19
353.674	84.19
353.901	87.19
354.128	82.19
354.355	75.19
354.583	78.19
354.81	72.19
355.037	72.19
355.264	95.19
355.491	68.19
355.718	91.19
355.945	102.19
356.172	72.19
356.399	75.19
356.626	86.19
356.853	89.19
357.08	90.19
357.307	69.19
357.534	73.19
357.761	81.19
357.988	79.19
358.215	72.19
358.441	82.19
358.668	75.19
358.895	70.19
359.122	70.19
359.349	87.19
359.576	78.19
359.802	78.19
360.029	86.19
360.256	88.19
360.483	83.19
360.709	80.19
360.936	78.19
361.163	90.19
361.39	78.19
361.616	77.19
361.843	70.19
362.07	80.19
362.296	82.19
362.523	84.19
362.749	87.19
362.976	83.19
363.203	89.19
363.429	82.19
363.656	82.19
363.882	83.19
364.109	84.19
364.335	73.19
364.562	91.19
364.788	74.19
365.015	77.19
365.241	82.19
365.468	100.19
365.694	66.19
365.92	82.19
366.147	74.19
366.373	79.19
366.599	82.19
366.826	84.19
367.052	81.19
367.278	89.19
367.505	81.19
367.731	92.19
367.957	84.19
368.184	75.19
368.41	72.19
368.636	87.19
368.862	77.19
369.089	67.19
369.315	78.19
369.541	73.19
369.767	69.19
369.993	87.19
370.219	91.19
370.445	81.19
370.672	75.19
370.898	90.19
371.124	86.19
371.35	87.19
371.576	84.19
371.802	75.19
372.028	78.19
372.254	74.19
372.48	84.19
372.706	91.19
372.932	83.19
373.158	83.19
373.384	91.19
373.61	74.19
373.835	82.19
374.061	91.19
374.287	75.19
374.513	71.19
374.739	83.19
374.965	81.19
375.191	80.19
375.416	77.19
375.642	81.19
375.868	91.19
376.094	91.19
376.319	85.19
376.545	84.19
376.771	74.19
376.997	85.19
377.222	69.19
377.448	87.19
377.674	74.19
377.899	87.19
378.125	83.19
378.35	82.19
378.576	85.19
378.802	96.19
379.027	79.19
379.253	80.19
379.478	84.19
379.704	69.19
379.929	83.19
380.155	82.19
380.38	93.19
380.606	80.19
380.831	69.19
381.057	87.19
381.282	80.19
381.507	72.19
381.733	74.19
381.958	87.19
382.184	72.19
382.409	87.19
382.634	94.19
382.86	97.19
383.085	97.19
383.31	67.19
383.535	92.19
383.761	94.19
383.986	82.19
384.211	89.19
384.436	79.19
384.662	76.19
384.887	87.19
385.112	96.19
385.337	89.19
385.562	86.19
385.787	81.19
386.013	91.19
386.238	84.19
386.463	89.19
386.688	84.19
386.913	84.19
387.138	81.19
387.363	74.19
387.588	84.19
387.813	85.19
388.038	76.19
388.263	94.19
388.488	82.19
388.713	81.19
388.938	86.19
389.163	96.19
389.387	78.19
389.612	90.19
389.837	89.19
390.062	93.19
390.287	86.19
390.512	77.19
390.736	88.19
390.961	94.19
391.186	107.19
391.411	86.19
391.636	86.19
391.86	90.19
392.085	88.19
392.31	79.19
392.534	107.19
392.759	82.19
392.984	85.19
393.208	78.19
393.433	89.19
393.658	84.19
393.882	87.19
394.107	93.19
394.331	91.19
394.556	89.19
394.78	90.19
395.005	81.19
395.229	81.19
395.454	79.19
395.678	67.19
395.903	88.19
396.127	70.19
396.352	96.19
396.576	95.19
396.801	96.19
397.025	89.19
397.249	101.19
397.474	95.19
397.698	105.19
397.922	84.19
398.147	86.19
398.371	92.19
398.595	90.19
398.82	83.19
399.044	94.19
399.268	96.19
399.492	88.19
399.717	84.19
399.941	99.19
400.165	91.19
400.389	82.19
400.613	92.19
400.837	88.19
401.062	95.19
401.286	96.19
401.51	90.19
401.734	91.19
401.958	94.19
402.182	85.19
402.406	102.19
402.63	96.19
402.854	108.19
403.078	78.19
403.302	105.19
403.526	103.19
403.75	75.19
403.974	95.19
404.198	101.19
404.422	83.19
404.645	96.19
404.869	92.19
405.093	105.19
405.317	93.19
405.541	100.19
405.765	95.19
405.988	100.19
406.212	97.19
406.436	94.19
406.66	94.19
406.883	101.19
407.107	92.19
407.331	97.19
407.555	112.19
407.778	94.19
408.002	102.19
408.226	98.19
408.449	101.19
408.673	84.19
408.896	96.19
409.12	94.19
409.344	98.19
409.567	113.19
409.791	88.19
410.014	105.19
410.238	107.19
410.461	114.19
410.685	105.19
410.908	86.19
411.132	104.19
411.355	83.19
411.578	95.19
411.802	92.19
412.025	99.19
412.249	106.19
412.472	104.19
412.695	104.19
412.919	110.19
413.142	91.19
413.365	89.19
413.589	97.19
413.812	102.19
414.035	104.19
414.258	99.19
414.482	109.19
414.705	103.19
414.928	92.19
415.151	87.19
415.374	101.19
415.597	98.19
415.821	102.19
416.044	89.19
416.267	105.19
416.49	97.19
416.713	105.19
416.936	93.19
417.159	109.19
417.382	86.19
417.605	98.19
417.828	102.19
418.051	108.19
418.274	104.19
418.497	96.19
418.72	78.19
418.943	96.19
419.166	101.19
419.389	103.19
419.611	104.19
419.834	100.19
420.057	103.19
420.28	96.19
420.503	107.19
420.726	102.19
420.948	115.19
421.171	116.19
421.394	98.19
421.617	110.19
421.839	113.19
422.062	117.19
422.285	109.19
422.507	97.19
422.73	99.19
422.953	94.19
423.175	100.19
423.398	103.19
423.621	104.19
423.843	101.19
424.066	86.19
424.288	101.19
424.511	98.19
424.733	110.19
424.956	103.19
425.178	104.19
425.401	91.19
425.623	110.19
425.846	96.19
426.068	107.19
426.291	95.19
426.513	110.19
426.735	100.19
426.958	106.19
427.18	94.19
427.402	102.19
427.625	95.19
427.847	99.19
428.069	85.19
428.292	107.19
428.514	108.19
428.736	98.19
428.958	106.19
429.181	104.19
429.403	98.19
429.625	98.19
429.847	94.19
430.069	97.19
430.292	120.19
430.514	105.19
430.736	102.19
430.958	94.19
431.18	106.19
431.402	94.19
431.624	89.19
431.846	85.19
432.068	99.19
432.29	87.19
432.512	95.19
432.734	91.19
432.956	107.19
433.178	113.19
433.4	103.19
433.622	115.19
433.844	107.19
434.066	97.19
434.287	96.19
434.509	73.19
434.731	97.19
434.953	109.19
435.175	102.19
435.397	93.19
435.618	92.19
435.84	89.19
436.062	94.19
436.284	103.19
436.505	103.19
436.727	101.19
436.949	102.19
437.17	100.19
437.392	92.19
437.614	95.19
437.835	96.19
438.057	88.19
438.278	93.19
438.5	91.19
438.721	98.19
438.943	107.19
439.165	114.19
439.386	103.19
439.608	92.19
439.829	98.19
440.05	110.19
440.272	102.19
440.493	103.19
440.715	118.19
440.936	112.19
441.158	99.19
441.379	114.19
441.6	110.19
441.822	110.19
442.043	95.19
442.264	115.19
442.486	115.19
442.707	104.19
442.928	94.19
443.149	101.19
443.371	108.19
443.592	106.19
443.813	96.19
444.034	98.19
444.255	107.19
444.476	95.19
444.698	119.19
444.919	110.19
445.14	243.19
445.361	171.19
445.582	134.19
445.803	106.19
446.024	118.19
446.245	116.19
446.466	118.19
446.687	100.19
446.908	102.19
447.129	118.19
447.35	107.19
447.571	105.19
447.792	108.19
448.013	107.19
448.234	103.19
448.455	107.19
448.675	110.19
448.896	116.19
449.117	116.19
449.338	111.19
449.559	100.19
449.779	112.19
450	92.19
450.221	104.19
450.442	109.19
450.662	99.19
450.883	110.19
451.104	122.19
451.324	106.19
451.545	110.19
451.766	91.19
451.986	104.19
452.207	89.19
452.428	111.19
452.648	108.19
452.869	97.19
453.089	98.19
453.31	88.19
453.53	97.19
453.751	79.19
453.971	82.19
454.192	104.19
454.412	94.19
454.633	97.19
454.853	103.19
455.073	98.19
455.294	103.19
455.514	100.19
455.734	96.19
455.955	107.19
456.175	105.19
456.395	88.19
456.616	87.19
456.836	95.19
457.056	92.19
457.276	101.19
457.497	95.19
457.717	95.19
457.937	91.19
458.157	98.19
458.377	112.19
458.598	104.19
458.818	80.19
459.038	92.19
459.258	83.19
459.478	86.19
459.698	79.19
459.918	88.19
460.138	82.19
460.358	86.19
460.578	96.19
460.798	106.19
461.018	90.19
461.238	96.19
461.458	113.19
461.678	105.19
461.898	87.19
462.118	93.19
462.338	88.19
462.558	82.19
462.777	79.19
462.997	92.19
463.217	89.19
463.437	94.19
463.657	106.19
463.876	78.19
464.096	81.19
464.316	86.19
464.536	94.19
464.755	105.19
464.975	98.19
465.195	104.19
465.414	95.19
465.634	103.19
465.854	91.19
466.073	94.19
466.293	99.19
466.512	104.19
466.732	101.19
466.951	104.19
467.171	100.19
467.391	106.19
467.61	111.19
467.829	114.19
468.049	111.19
468.268	111.19
468.488	101.19
468.707	105.19
468.927	106.19
469.146	102.19
469.365	105.19
469.585	105.19
469.804	114.19
470.023	105.19
470.243	115.19
470.462	95.19
470.681	97.19
470.901	122.19
471.12	103.19
471.339	110.19
471.558	105.19
471.777	124.19
471.997	120.19
472.216	111.19
472.435	113.19
472.654	95.19
472.873	110.19
473.092	105.19
473.311	96.19
473.53	96.19
473.749	107.19
473.968	103.19
474.187	86.19
474.406	105.19
474.625	95.19
474.844	93.19
475.063	91.19
475.282	89.19
475.501	89.19
475.72	115.19
475.939	94.19
476.158	98.19
476.377	98.19
476.596	95.19
476.814	106.19
477.033	105.19
477.252	103.19
477.471	95.19
477.69	108.19
477.908	117.19
478.127	104.19
478.346	107.19
478.564	95.19
478.783	92.19
479.002	105.19
479.22	103.19
479.439	112.19
479.658	97.19
479.876	103.19
480.095	98.19
480.313	104.19
480.532	91.19
480.751	104.19
480.969	93.19
481.188	80.19
481.406	88.19
481.624	92.19
481.843	81.19
482.061	79.19
482.28	98.19
482.498	91.19
482.717	84.19
482.935	100.19
483.153	131.19
483.372	118.19
483.59	107.19
483.808	105.19
484.027	92.19
484.245	98.19
484.463	114.19
484.681	118.19
484.9	111.19
485.118	109.19
485.336	117.19
485.554	99.19
485.772	92.19
485.99	83.19
486.209	98.19
486.427	89.19
486.645	98.19
486.863	97.19
487.081	119.19
487.299	107.19
487.517	99.19
487.735	104.19
487.953	118.19
488.171	128.19
488.389	114.19
488.607	110.19
488.825	121.19
489.043	103.19
489.261	94.19
489.479	109.19
489.696	119.19
489.914	112.19
490.132	113.19
490.35	119.19
490.568	120.19
490.786	127.19
491.003	111.19
491.221	118.19
491.439	126.19
491.657	135.19
491.874	132.19
492.092	134.19
492.31	150.19
492.527	144.19
492.745	140.19
492.963	125.19
493.18	135.19
493.398	130.19
493.615	116.19
493.833	139.19
494.05	136.19
494.268	115.19
494.485	123.19
494.703	123.19
494.92	122.19
495.138	132.19
495.355	110.19
495.573	127.19
495.79	134.19
496.008	124.19
496.225	128.19
496.442	121.19
496.66	120.19
496.877	109.19
497.094	116.19
497.312	136.19
497.529	123.19
497.746	121.19
497.963	101.19
498.181	99.19
498.398	96.19
498.615	100.19
498.832	97.19
499.049	88.19
499.267	100.19
499.484	107.19
499.701	108.19
499.918	115.19
500.135	129.19
500.352	114.19
500.569	108.19
500.786	118.19
501.003	114.19
501.22	110.19
501.437	114.19
501.654	100.19
501.871	107.19
502.088	106.19
502.305	100.19
502.522	102.19
502.739	96.19
502.956	113.19
503.172	97.19
503.389	104.19
503.606	104.19
503.823	97.19
504.04	107.19
504.256	107.19
504.473	86.19
504.69	108.19
504.907	85.19
505.123	101.19
505.34	105.19
505.557	111.19
505.773	82.19
505.99	99.19
506.207	87.19
506.423	93.19
506.64	107.19
506.856	97.19
507.073	99.19
507.289	94.19
507.506	76.19
507.722	92.19
507.939	86.19
508.155	94.19
508.372	114.19
508.588	94.19
508.805	94.19
509.021	91.19
509.238	81.19
509.454	96.19
509.67	92.19
509.887	90.19
510.103	96.19
510.319	84.19
510.536	92.19
510.752	95.19
510.968	84.19
511.184	79.19
511.401	74.19
511.617	83.19
511.833	100.19
512.049	88.19
512.265	90.19
512.481	76.19
512.698	85.19
512.914	82.19
513.13	94.19
513.346	83.19
513.562	91.19
513.778	85.19
513.994	83.19
514.21	82.19
514.426	94.19
514.642	85.19
514.858	78.19
515.074	102.19
515.29	81.19
