Data from Zn(NO3)2Standard.Agarose3%.GreenCap.LampEnergy5.5.E.O_HRD10591_15-03-13-767.txt Node
Date: Mon Jul 22 15:03:13 EDT 2019
User: cochatt
Spectrometer: HR+D1059
Trigger mode: 1
Integration Time (sec): 1.000000E-1
Scans to average: 1
Electric dark correction enabled: true
Nonlinearity correction enabled: false
Boxcar width: 0
XAxis mode: Wavelengths
Number of Pixels in Spectrum: 2048
>>>>>Begin Spectral Data<<<<<
223.165	-18.81
223.4	-18.81
223.635	-18.81
223.869	-9.81
224.104	-15.81
224.338	-9.81
224.573	-13.81
224.808	-27.81
225.042	8.19
225.277	-5.81
225.511	-6.81
225.746	-8.81
225.98	0.19
226.215	7.19
226.449	18.19
226.683	18.19
226.918	15.19
227.152	50.19
227.387	36.19
227.621	44.19
227.856	46.19
228.09	56.19
228.324	56.19
228.559	50.19
228.793	53.19
229.027	63.19
229.262	59.19
229.496	85.19
229.73	61.19
229.964	65.19
230.199	58.19
230.433	59.19
230.667	79.19
230.901	60.19
231.136	88.19
231.37	68.19
231.604	73.19
231.838	78.19
232.072	87.19
232.306	66.19
232.541	66.19
232.775	88.19
233.009	82.19
233.243	72.19
233.477	85.19
233.711	69.19
233.945	69.19
234.179	68.19
234.413	81.19
234.647	72.19
234.881	81.19
235.115	89.19
235.349	72.19
235.583	71.19
235.817	98.19
236.051	73.19
236.285	74.19
236.519	70.19
236.753	80.19
236.987	74.19
237.221	60.19
237.455	72.19
237.689	69.19
237.922	72.19
238.156	84.19
238.39	82.19
238.624	90.19
238.858	61.19
239.091	86.19
239.325	83.19
239.559	71.19
239.793	68.19
240.027	64.19
240.26	82.19
240.494	73.19
240.728	83.19
240.961	57.19
241.195	66.19
241.429	67.19
241.662	89.19
241.896	82.19
242.13	75.19
242.363	70.19
242.597	76.19
242.83	65.19
243.064	68.19
243.298	68.19
243.531	78.19
243.765	67.19
243.998	76.19
244.232	70.19
244.465	75.19
244.699	83.19
244.932	68.19
245.166	82.19
245.399	79.19
245.633	75.19
245.866	75.19
246.099	78.19
246.333	76.19
246.566	73.19
246.8	81.19
247.033	76.19
247.266	82.19
247.5	87.19
247.733	59.19
247.966	77.19
248.2	74.19
248.433	77.19
248.666	60.19
248.899	78.19
249.133	68.19
249.366	82.19
249.599	67.19
249.832	67.19
250.066	83.19
250.299	82.19
250.532	71.19
250.765	82.19
250.998	78.19
251.231	83.19
251.465	80.19
251.698	71.19
251.931	70.19
252.164	82.19
252.397	79.19
252.63	73.19
252.863	77.19
253.096	77.19
253.329	82.19
253.562	70.19
253.795	77.19
254.028	77.19
254.261	97.19
254.494	74.19
254.727	83.19
254.96	89.19
255.193	79.19
255.426	86.19
255.659	74.19
255.892	82.19
256.124	72.19
256.357	89.19
256.59	88.19
256.823	83.19
257.056	77.19
257.289	88.19
257.521	78.19
257.754	79.19
257.987	81.19
258.22	74.19
258.452	75.19
258.685	66.19
258.918	78.19
259.151	89.19
259.383	72.19
259.616	71.19
259.849	73.19
260.081	73.19
260.314	70.19
260.547	77.19
260.779	71.19
261.012	88.19
261.244	91.19
261.477	79.19
261.71	86.19
261.942	78.19
262.175	89.19
262.407	75.19
262.64	85.19
262.872	75.19
263.105	84.19
263.337	92.19
263.57	79.19
263.802	88.19
264.035	64.19
264.267	84.19
264.499	83.19
264.732	73.19
264.964	88.19
265.197	85.19
265.429	79.19
265.661	82.19
265.894	77.19
266.126	85.19
266.358	94.19
266.591	84.19
266.823	83.19
267.055	89.19
267.287	88.19
267.52	84.19
267.752	69.19
267.984	83.19
268.216	76.19
268.448	83.19
268.681	76.19
268.913	71.19
269.145	75.19
269.377	84.19
269.609	77.19
269.841	98.19
270.073	88.19
270.306	81.19
270.538	67.19
270.77	80.19
271.002	92.19
271.234	82.19
271.466	73.19
271.698	92.19
271.93	69.19
272.162	77.19
272.394	78.19
272.626	83.19
272.858	89.19
273.09	91.19
273.322	97.19
273.553	72.19
273.785	74.19
274.017	82.19
274.249	82.19
274.481	99.19
274.713	83.19
274.945	78.19
275.176	68.19
275.408	81.19
275.64	88.19
275.872	81.19
276.104	82.19
276.335	86.19
276.567	82.19
276.799	79.19
277.031	87.19
277.262	84.19
277.494	85.19
277.726	73.19
277.957	70.19
278.189	91.19
278.421	74.19
278.652	84.19
278.884	94.19
279.115	71.19
279.347	86.19
279.579	96.19
279.81	88.19
280.042	79.19
280.273	75.19
280.505	72.19
280.736	86.19
280.968	85.19
281.199	92.19
281.431	83.19
281.662	75.19
281.894	86.19
282.125	84.19
282.356	86.19
282.588	84.19
282.819	86.19
283.051	79.19
283.282	80.19
283.513	87.19
283.745	80.19
283.976	87.19
284.207	87.19
284.439	78.19
284.67	90.19
284.901	82.19
285.132	86.19
285.364	83.19
285.595	92.19
285.826	84.19
286.057	71.19
286.288	69.19
286.52	78.19
286.751	86.19
286.982	86.19
287.213	79.19
287.444	83.19
287.675	83.19
287.906	89.19
288.138	93.19
288.369	85.19
288.6	87.19
288.831	86.19
289.062	85.19
289.293	76.19
289.524	92.19
289.755	78.19
289.986	83.19
290.217	84.19
290.448	87.19
290.679	93.19
290.91	83.19
291.141	75.19
291.371	83.19
291.602	75.19
291.833	90.19
292.064	93.19
292.295	84.19
292.526	85.19
292.757	85.19
292.987	82.19
293.218	81.19
293.449	92.19
293.68	84.19
293.91	94.19
294.141	76.19
294.372	78.19
294.603	97.19
294.833	83.19
295.064	82.19
295.295	87.19
295.525	83.19
295.756	84.19
295.987	88.19
296.217	84.19
296.448	85.19
296.679	85.19
296.909	82.19
297.14	74.19
297.37	89.19
297.601	103.19
297.831	84.19
298.062	86.19
298.292	86.19
298.523	74.19
298.753	82.19
298.984	86.19
299.214	78.19
299.445	88.19
299.675	93.19
299.905	93.19
300.136	82.19
300.366	78.19
300.597	84.19
300.827	90.19
301.057	92.19
301.288	91.19
301.518	97.19
301.748	86.19
301.979	87.19
302.209	88.19
302.439	94.19
302.669	74.19
302.9	81.19
303.13	83.19
303.36	77.19
303.59	85.19
303.82	98.19
304.051	81.19
304.281	96.19
304.511	79.19
304.741	78.19
304.971	78.19
305.201	89.19
305.431	84.19
305.661	97.19
305.891	97.19
306.121	97.19
306.352	74.19
306.582	78.19
306.812	84.19
307.042	78.19
307.272	85.19
307.502	88.19
307.731	83.19
307.961	74.19
308.191	85.19
308.421	80.19
308.651	76.19
308.881	76.19
309.111	81.19
309.341	76.19
309.571	73.19
309.8	74.19
310.03	88.19
310.26	74.19
310.49	84.19
310.72	82.19
310.949	82.19
311.179	78.19
311.409	72.19
311.639	89.19
311.868	92.19
312.098	81.19
312.328	88.19
312.557	78.19
312.787	88.19
313.017	80.19
313.246	73.19
313.476	77.19
313.706	92.19
313.935	82.19
314.165	101.19
314.394	84.19
314.624	77.19
314.853	96.19
315.083	91.19
315.312	77.19
315.542	74.19
315.771	94.19
316.001	84.19
316.23	70.19
316.46	81.19
316.689	89.19
316.919	93.19
317.148	84.19
317.377	88.19
317.607	76.19
317.836	88.19
318.065	73.19
318.295	85.19
318.524	78.19
318.753	68.19
318.983	82.19
319.212	77.19
319.441	87.19
319.67	92.19
319.9	85.19
320.129	100.19
320.358	84.19
320.587	83.19
320.816	67.19
321.046	88.19
321.275	97.19
321.504	73.19
321.733	90.19
321.962	84.19
322.191	93.19
322.42	95.19
322.649	85.19
322.878	90.19
323.108	99.19
323.337	91.19
323.566	98.19
323.795	94.19
324.024	90.19
324.253	84.19
324.482	91.19
324.71	84.19
324.939	86.19
325.168	100.19
325.397	91.19
325.626	95.19
325.855	83.19
326.084	82.19
326.313	74.19
326.542	68.19
326.77	74.19
326.999	75.19
327.228	80.19
327.457	84.19
327.686	87.19
327.914	85.19
328.143	95.19
328.372	83.19
328.6	80.19
328.829	86.19
329.058	93.19
329.287	83.19
329.515	75.19
329.744	85.19
329.972	76.19
330.201	82.19
330.43	78.19
330.658	87.19
330.887	81.19
331.115	84.19
331.344	88.19
331.572	84.19
331.801	94.19
332.03	82.19
332.258	85.19
332.486	82.19
332.715	80.19
332.943	83.19
333.172	79.19
333.4	71.19
333.629	78.19
333.857	80.19
334.085	68.19
334.314	75.19
334.542	91.19
334.771	101.19
334.999	79.19
335.227	89.19
335.455	80.19
335.684	87.19
335.912	86.19
336.14	71.19
336.369	96.19
336.597	74.19
336.825	75.19
337.053	86.19
337.281	68.19
337.51	78.19
337.738	93.19
337.966	78.19
338.194	81.19
338.422	83.19
338.65	70.19
338.878	82.19
339.106	97.19
339.334	94.19
339.562	84.19
339.79	75.19
340.018	72.19
340.246	81.19
340.474	80.19
340.702	93.19
340.93	90.19
341.158	88.19
341.386	82.19
341.614	85.19
341.842	88.19
342.07	96.19
342.298	74.19
342.526	82.19
342.754	93.19
342.981	92.19
343.209	90.19
343.437	83.19
343.665	84.19
343.893	89.19
344.12	90.19
344.348	85.19
344.576	77.19
344.804	90.19
345.031	105.19
345.259	84.19
345.487	92.19
345.714	80.19
345.942	88.19
346.17	82.19
346.397	85.19
346.625	80.19
346.853	88.19
347.08	88.19
347.308	75.19
347.535	83.19
347.763	94.19
347.99	86.19
348.218	96.19
348.445	73.19
348.673	82.19
348.9	83.19
349.128	87.19
349.355	85.19
349.583	75.19
349.81	75.19
350.037	87.19
350.265	81.19
350.492	85.19
350.72	100.19
350.947	91.19
351.174	89.19
351.402	81.19
351.629	72.19
351.856	88.19
352.083	88.19
352.311	101.19
352.538	93.19
352.765	83.19
352.992	80.19
353.22	89.19
353.447	91.19
353.674	95.19
353.901	100.19
354.128	85.19
354.355	91.19
354.583	79.19
354.81	88.19
355.037	62.19
355.264	86.19
355.491	76.19
355.718	85.19
355.945	85.19
356.172	78.19
356.399	84.19
356.626	97.19
356.853	93.19
357.08	83.19
357.307	89.19
357.534	84.19
357.761	83.19
357.988	80.19
358.215	73.19
358.441	91.19
358.668	79.19
358.895	81.19
359.122	87.19
359.349	92.19
359.576	73.19
359.802	78.19
360.029	76.19
360.256	87.19
360.483	92.19
360.709	75.19
360.936	80.19
361.163	80.19
361.39	99.19
361.616	67.19
361.843	75.19
362.07	81.19
362.296	87.19
362.523	89.19
362.749	77.19
362.976	86.19
363.203	75.19
363.429	78.19
363.656	90.19
363.882	72.19
364.109	77.19
364.335	93.19
364.562	92.19
364.788	79.19
365.015	89.19
365.241	88.19
365.468	86.19
365.694	86.19
365.92	75.19
366.147	91.19
366.373	93.19
366.599	85.19
366.826	76.19
367.052	76.19
367.278	102.19
367.505	74.19
367.731	99.19
367.957	84.19
368.184	88.19
368.41	68.19
368.636	92.19
368.862	91.19
369.089	87.19
369.315	86.19
369.541	66.19
369.767	85.19
369.993	80.19
370.219	97.19
370.445	85.19
370.672	100.19
370.898	89.19
371.124	80.19
371.35	92.19
371.576	89.19
371.802	79.19
372.028	89.19
372.254	80.19
372.48	90.19
372.706	93.19
372.932	92.19
373.158	62.19
373.384	83.19
373.61	78.19
373.835	100.19
374.061	76.19
374.287	86.19
374.513	93.19
374.739	86.19
374.965	84.19
375.191	87.19
375.416	83.19
375.642	82.19
375.868	90.19
376.094	84.19
376.319	75.19
376.545	100.19
376.771	98.19
376.997	85.19
377.222	78.19
377.448	84.19
377.674	79.19
377.899	79.19
378.125	90.19
378.35	83.19
378.576	84.19
378.802	82.19
379.027	88.19
379.253	60.19
379.478	93.19
379.704	82.19
379.929	73.19
380.155	80.19
380.38	77.19
380.606	88.19
380.831	82.19
381.057	75.19
381.282	83.19
381.507	76.19
381.733	94.19
381.958	90.19
382.184	96.19
382.409	87.19
382.634	84.19
382.86	75.19
383.085	88.19
383.31	88.19
383.535	78.19
383.761	81.19
383.986	75.19
384.211	86.19
384.436	85.19
384.662	78.19
384.887	87.19
385.112	82.19
385.337	84.19
385.562	78.19
385.787	84.19
386.013	92.19
386.238	65.19
386.463	89.19
386.688	86.19
386.913	88.19
387.138	69.19
387.363	79.19
387.588	75.19
387.813	89.19
388.038	90.19
388.263	93.19
388.488	93.19
388.713	84.19
388.938	83.19
389.163	80.19
389.387	62.19
389.612	71.19
389.837	70.19
390.062	80.19
390.287	80.19
390.512	78.19
390.736	93.19
390.961	93.19
391.186	78.19
391.411	86.19
391.636	91.19
391.86	84.19
392.085	58.19
392.31	100.19
392.534	78.19
392.759	77.19
392.984	87.19
393.208	74.19
393.433	70.19
393.658	84.19
393.882	77.19
394.107	72.19
394.331	96.19
394.556	89.19
394.78	78.19
395.005	86.19
395.229	78.19
395.454	82.19
395.678	77.19
395.903	76.19
396.127	96.19
396.352	87.19
396.576	73.19
396.801	82.19
397.025	86.19
397.249	85.19
397.474	92.19
397.698	67.19
397.922	83.19
398.147	93.19
398.371	90.19
398.595	81.19
398.82	78.19
399.044	86.19
399.268	84.19
399.492	77.19
399.717	75.19
399.941	98.19
400.165	78.19
400.389	89.19
400.613	76.19
400.837	80.19
401.062	81.19
401.286	84.19
401.51	81.19
401.734	80.19
401.958	93.19
402.182	85.19
402.406	103.19
402.63	83.19
402.854	86.19
403.078	77.19
403.302	85.19
403.526	81.19
403.75	84.19
403.974	75.19
404.198	83.19
404.422	80.19
404.645	84.19
404.869	88.19
405.093	77.19
405.317	94.19
405.541	92.19
405.765	76.19
405.988	82.19
406.212	86.19
406.436	78.19
406.66	82.19
406.883	86.19
407.107	90.19
407.331	83.19
407.555	73.19
407.778	91.19
408.002	79.19
408.226	89.19
408.449	70.19
408.673	88.19
408.896	87.19
409.12	88.19
409.344	87.19
409.567	99.19
409.791	78.19
410.014	78.19
410.238	91.19
410.461	94.19
410.685	98.19
410.908	85.19
411.132	85.19
411.355	78.19
411.578	92.19
411.802	91.19
412.025	88.19
412.249	81.19
412.472	71.19
412.695	84.19
412.919	88.19
413.142	75.19
413.365	94.19
413.589	72.19
413.812	73.19
414.035	87.19
414.258	80.19
414.482	88.19
414.705	79.19
414.928	73.19
415.151	92.19
415.374	96.19
415.597	84.19
415.821	81.19
416.044	84.19
416.267	79.19
416.49	93.19
416.713	108.19
416.936	89.19
417.159	89.19
417.382	84.19
417.605	84.19
417.828	84.19
418.051	94.19
418.274	92.19
418.497	95.19
418.72	78.19
418.943	91.19
419.166	93.19
419.389	90.19
419.611	96.19
419.834	105.19
420.057	86.19
420.28	82.19
420.503	86.19
420.726	86.19
420.948	88.19
421.171	88.19
421.394	86.19
421.617	87.19
421.839	80.19
422.062	76.19
422.285	76.19
422.507	81.19
422.73	101.19
422.953	88.19
423.175	93.19
423.398	88.19
423.621	81.19
423.843	84.19
424.066	83.19
424.288	82.19
424.511	99.19
424.733	104.19
424.956	89.19
425.178	99.19
425.401	98.19
425.623	94.19
425.846	83.19
426.068	84.19
426.291	93.19
426.513	103.19
426.735	94.19
426.958	87.19
427.18	89.19
427.402	98.19
427.625	80.19
427.847	92.19
428.069	88.19
428.292	90.19
428.514	83.19
428.736	93.19
428.958	80.19
429.181	77.19
429.403	92.19
429.625	98.19
429.847	98.19
430.069	94.19
430.292	88.19
430.514	93.19
430.736	82.19
430.958	91.19
431.18	73.19
431.402	87.19
431.624	91.19
431.846	81.19
432.068	84.19
432.29	90.19
432.512	84.19
432.734	90.19
432.956	92.19
433.178	92.19
433.4	83.19
433.622	93.19
433.844	97.19
434.066	91.19
434.287	93.19
434.509	79.19
434.731	81.19
434.953	93.19
435.175	83.19
435.397	86.19
435.618	81.19
435.84	90.19
436.062	101.19
436.284	93.19
436.505	80.19
436.727	92.19
436.949	95.19
437.17	87.19
437.392	88.19
437.614	77.19
437.835	84.19
438.057	80.19
438.278	90.19
438.5	105.19
438.721	88.19
438.943	97.19
439.165	92.19
439.386	99.19
439.608	76.19
439.829	92.19
440.05	97.19
440.272	88.19
440.493	97.19
440.715	86.19
440.936	83.19
441.158	93.19
441.379	92.19
441.6	101.19
441.822	95.19
442.043	101.19
442.264	85.19
442.486	85.19
442.707	81.19
442.928	97.19
443.149	92.19
443.371	89.19
443.592	102.19
443.813	102.19
444.034	93.19
444.255	78.19
444.476	100.19
444.698	97.19
444.919	84.19
445.14	204.19
445.361	160.19
445.582	101.19
445.803	100.19
446.024	75.19
446.245	84.19
446.466	85.19
446.687	100.19
446.908	92.19
447.129	88.19
447.35	100.19
447.571	98.19
447.792	99.19
448.013	96.19
448.234	90.19
448.455	92.19
448.675	96.19
448.896	102.19
449.117	90.19
449.338	93.19
449.559	101.19
449.779	94.19
450	94.19
450.221	100.19
450.442	102.19
450.662	89.19
450.883	96.19
451.104	101.19
451.324	75.19
451.545	80.19
451.766	84.19
451.986	84.19
452.207	91.19
452.428	94.19
452.648	81.19
452.869	76.19
453.089	80.19
453.31	81.19
453.53	81.19
453.751	95.19
453.971	81.19
454.192	73.19
454.412	75.19
454.633	80.19
454.853	85.19
455.073	100.19
455.294	88.19
455.514	81.19
455.734	85.19
455.955	87.19
456.175	94.19
456.395	90.19
456.616	83.19
456.836	84.19
457.056	90.19
457.276	94.19
457.497	87.19
457.717	91.19
457.937	91.19
458.157	88.19
458.377	85.19
458.598	75.19
458.818	92.19
459.038	82.19
459.258	77.19
459.478	88.19
459.698	85.19
459.918	72.19
460.138	84.19
460.358	84.19
460.578	79.19
460.798	85.19
461.018	73.19
461.238	90.19
461.458	87.19
461.678	93.19
461.898	76.19
462.118	87.19
462.338	100.19
462.558	87.19
462.777	73.19
462.997	92.19
463.217	92.19
463.437	81.19
463.657	78.19
463.876	94.19
464.096	89.19
464.316	85.19
464.536	84.19
464.755	80.19
464.975	77.19
465.195	74.19
465.414	75.19
465.634	80.19
465.854	92.19
466.073	84.19
466.293	96.19
466.512	84.19
466.732	93.19
466.951	71.19
467.171	90.19
467.391	94.19
467.61	78.19
467.829	97.19
468.049	87.19
468.268	95.19
468.488	89.19
468.707	85.19
468.927	78.19
469.146	85.19
469.365	105.19
469.585	86.19
469.804	81.19
470.023	73.19
470.243	87.19
470.462	92.19
470.681	87.19
470.901	93.19
471.12	91.19
471.339	83.19
471.558	93.19
471.777	89.19
471.997	86.19
472.216	83.19
472.435	90.19
472.654	78.19
472.873	83.19
473.092	85.19
473.311	88.19
473.53	91.19
473.749	95.19
473.968	85.19
474.187	89.19
474.406	76.19
474.625	85.19
474.844	80.19
475.063	87.19
475.282	91.19
475.501	104.19
475.72	98.19
475.939	84.19
476.158	86.19
476.377	94.19
476.596	100.19
476.814	79.19
477.033	94.19
477.252	88.19
477.471	92.19
477.69	91.19
477.908	91.19
478.127	95.19
478.346	96.19
478.564	94.19
478.783	98.19
479.002	88.19
479.22	100.19
479.439	114.19
479.658	86.19
479.876	76.19
480.095	82.19
480.313	90.19
480.532	79.19
480.751	85.19
480.969	93.19
481.188	82.19
481.406	86.19
481.624	93.19
481.843	75.19
482.061	85.19
482.28	88.19
482.498	89.19
482.717	84.19
482.935	78.19
483.153	77.19
483.372	96.19
483.59	89.19
483.808	81.19
484.027	88.19
484.245	95.19
484.463	88.19
484.681	97.19
484.9	91.19
485.118	105.19
485.336	94.19
485.554	102.19
485.772	85.19
485.99	93.19
486.209	86.19
486.427	87.19
486.645	82.19
486.863	87.19
487.081	82.19
487.299	98.19
487.517	91.19
487.735	92.19
487.953	71.19
488.171	101.19
488.389	90.19
488.607	95.19
488.825	101.19
489.043	92.19
489.261	89.19
489.479	82.19
489.696	86.19
489.914	91.19
490.132	86.19
490.35	98.19
490.568	95.19
490.786	81.19
491.003	92.19
491.221	89.19
491.439	89.19
491.657	91.19
491.874	112.19
492.092	105.19
492.31	112.19
492.527	116.19
492.745	106.19
492.963	112.19
493.18	95.19
493.398	90.19
493.615	85.19
493.833	100.19
494.05	106.19
494.268	85.19
494.485	81.19
494.703	99.19
494.92	97.19
495.138	93.19
495.355	84.19
495.573	89.19
495.79	101.19
496.008	100.19
496.225	115.19
496.442	96.19
496.66	119.19
496.877	92.19
497.094	73.19
497.312	86.19
497.529	73.19
497.746	93.19
497.963	90.19
498.181	99.19
498.398	94.19
498.615	93.19
498.832	81.19
499.049	98.19
499.267	90.19
499.484	84.19
499.701	99.19
499.918	101.19
500.135	93.19
500.352	93.19
500.569	96.19
500.786	92.19
501.003	87.19
501.22	85.19
501.437	90.19
501.654	87.19
501.871	93.19
502.088	100.19
502.305	86.19
502.522	85.19
502.739	77.19
502.956	85.19
503.172	94.19
503.389	91.19
503.606	81.19
503.823	88.19
504.04	85.19
504.256	90.19
504.473	89.19
504.69	85.19
504.907	90.19
505.123	89.19
505.34	77.19
505.557	81.19
505.773	92.19
505.99	108.19
506.207	91.19
506.423	93.19
506.64	94.19
506.856	102.19
507.073	92.19
507.289	81.19
507.506	80.19
507.722	93.19
507.939	78.19
508.155	90.19
508.372	92.19
508.588	91.19
508.805	88.19
509.021	97.19
509.238	86.19
509.454	100.19
509.67	78.19
509.887	91.19
510.103	95.19
510.319	88.19
510.536	78.19
510.752	81.19
510.968	83.19
511.184	75.19
511.401	66.19
511.617	84.19
511.833	95.19
512.049	81.19
512.265	85.19
512.481	90.19
512.698	76.19
512.914	84.19
513.13	84.19
513.346	83.19
513.562	76.19
513.778	79.19
513.994	103.19
514.21	84.19
514.426	93.19
514.642	76.19
514.858	75.19
515.074	84.19
515.29	78.19
515.506	72.19
515.721	81.19
515.937	76.19
516.153	76.19
516.369	73.19
516.585	90.19
516.801	79.19
517.016	83.19
517.232	72.19
517.448	92.19
517.664	68.19
517.879	77.19
518.095	79.19
518.311	84.19
518.527	77.19
