Data from Zn(NO3)2Standard.Agarose3%.GreenCap.LampEnergy10E.O_HRD10591_15-07-58-946.txt Node
Date: Mon Jul 22 15:07:58 EDT 2019
User: cochatt
Spectrometer: HR+D1059
Trigger mode: 1
Integration Time (sec): 1.000000E-1
Scans to average: 1
Electric dark correction enabled: true
Nonlinearity correction enabled: false
Boxcar width: 0
XAxis mode: Wavelengths
Number of Pixels in Spectrum: 2048
>>>>>Begin Spectral Data<<<<<
223.165	-12.56
223.4	-12.56
223.635	-12.56
223.869	-15.56
224.104	-10.56
224.338	-12.56
224.573	-28.56
224.808	-16.56
225.042	-2.56
225.277	-17.56
225.511	3.44
225.746	-8.56
225.98	-1.56
226.215	15.44
226.449	22.44
226.683	15.44
226.918	34.44
227.152	35.44
227.387	43.44
227.621	47.44
227.856	67.44
228.09	38.44
228.324	45.44
228.559	58.44
228.793	63.44
229.027	68.44
229.262	64.44
229.496	67.44
229.73	62.44
229.964	71.44
230.199	70.44
230.433	74.44
230.667	72.44
230.901	64.44
231.136	79.44
231.37	74.44
231.604	73.44
231.838	75.44
232.072	85.44
232.306	95.44
232.541	108.44
232.775	99.44
233.009	86.44
233.243	83.44
233.477	87.44
233.711	92.44
233.945	92.44
234.179	74.44
234.413	87.44
234.647	81.44
234.881	93.44
235.115	64.44
235.349	93.44
235.583	94.44
235.817	75.44
236.051	90.44
236.285	64.44
236.519	79.44
236.753	81.44
236.987	90.44
237.221	80.44
237.455	80.44
237.689	83.44
237.922	75.44
238.156	77.44
238.39	76.44
238.624	65.44
238.858	93.44
239.091	71.44
239.325	68.44
239.559	74.44
239.793	74.44
240.027	89.44
240.26	85.44
240.494	79.44
240.728	75.44
240.961	88.44
241.195	88.44
241.429	73.44
241.662	85.44
241.896	80.44
242.13	76.44
242.363	95.44
242.597	76.44
242.83	71.44
243.064	71.44
243.298	84.44
243.531	79.44
243.765	72.44
243.998	78.44
244.232	71.44
244.465	64.44
244.699	85.44
244.932	86.44
245.166	91.44
245.399	78.44
245.633	85.44
245.866	79.44
246.099	89.44
246.333	84.44
246.566	76.44
246.8	88.44
247.033	63.44
247.266	75.44
247.5	73.44
247.733	78.44
247.966	88.44
248.2	87.44
248.433	70.44
248.666	89.44
248.899	82.44
249.133	80.44
249.366	86.44
249.599	80.44
249.832	81.44
250.066	84.44
250.299	79.44
250.532	76.44
250.765	74.44
250.998	83.44
251.231	77.44
251.465	88.44
251.698	81.44
251.931	83.44
252.164	76.44
252.397	83.44
252.63	88.44
252.863	89.44
253.096	79.44
253.329	79.44
253.562	94.44
253.795	89.44
254.028	94.44
254.261	81.44
254.494	84.44
254.727	80.44
254.96	77.44
255.193	83.44
255.426	79.44
255.659	71.44
255.892	83.44
256.124	84.44
256.357	74.44
256.59	75.44
256.823	82.44
257.056	76.44
257.289	72.44
257.521	86.44
257.754	85.44
257.987	77.44
258.22	79.44
258.452	77.44
258.685	87.44
258.918	80.44
259.151	71.44
259.383	88.44
259.616	69.44
259.849	79.44
260.081	79.44
260.314	78.44
260.547	75.44
260.779	91.44
261.012	95.44
261.244	72.44
261.477	80.44
261.71	85.44
261.942	75.44
262.175	75.44
262.407	72.44
262.64	85.44
262.872	96.44
263.105	86.44
263.337	84.44
263.57	72.44
263.802	92.44
264.035	95.44
264.267	90.44
264.499	82.44
264.732	92.44
264.964	81.44
265.197	91.44
265.429	105.44
265.661	83.44
265.894	88.44
266.126	77.44
266.358	74.44
266.591	95.44
266.823	99.44
267.055	80.44
267.287	80.44
267.52	84.44
267.752	91.44
267.984	84.44
268.216	104.44
268.448	93.44
268.681	87.44
268.913	83.44
269.145	85.44
269.377	96.44
269.609	78.44
269.841	76.44
270.073	91.44
270.306	86.44
270.538	91.44
270.77	80.44
271.002	95.44
271.234	93.44
271.466	79.44
271.698	94.44
271.93	83.44
272.162	87.44
272.394	75.44
272.626	89.44
272.858	93.44
273.09	91.44
273.322	96.44
273.553	96.44
273.785	81.44
274.017	94.44
274.249	95.44
274.481	88.44
274.713	80.44
274.945	70.44
275.176	91.44
275.408	87.44
275.64	73.44
275.872	101.44
276.104	81.44
276.335	83.44
276.567	76.44
276.799	85.44
277.031	94.44
277.262	97.44
277.494	102.44
277.726	90.44
277.957	83.44
278.189	78.44
278.421	86.44
278.652	87.44
278.884	81.44
279.115	86.44
279.347	99.44
279.579	78.44
279.81	84.44
280.042	88.44
280.273	73.44
280.505	82.44
280.736	79.44
280.968	81.44
281.199	86.44
281.431	97.44
281.662	88.44
281.894	95.44
282.125	91.44
282.356	87.44
282.588	89.44
282.819	81.44
283.051	69.44
283.282	91.44
283.513	97.44
283.745	91.44
283.976	93.44
284.207	76.44
284.439	79.44
284.67	79.44
284.901	73.44
285.132	78.44
285.364	85.44
285.595	93.44
285.826	93.44
286.057	100.44
286.288	80.44
286.52	83.44
286.751	92.44
286.982	92.44
287.213	90.44
287.444	92.44
287.675	108.44
287.906	96.44
288.138	90.44
288.369	89.44
288.6	87.44
288.831	94.44
289.062	91.44
289.293	90.44
289.524	92.44
289.755	94.44
289.986	93.44
290.217	80.44
290.448	67.44
290.679	102.44
290.91	88.44
291.141	85.44
291.371	86.44
291.602	87.44
291.833	99.44
292.064	88.44
292.295	92.44
292.526	69.44
292.757	98.44
292.987	77.44
293.218	72.44
293.449	93.44
293.68	91.44
293.91	95.44
294.141	90.44
294.372	76.44
294.603	95.44
294.833	79.44
295.064	85.44
295.295	95.44
295.525	91.44
295.756	106.44
295.987	76.44
296.217	100.44
296.448	84.44
296.679	89.44
296.909	101.44
297.14	67.44
297.37	86.44
297.601	86.44
297.831	81.44
298.062	92.44
298.292	90.44
298.523	81.44
298.753	76.44
298.984	80.44
299.214	90.44
299.445	91.44
299.675	80.44
299.905	89.44
300.136	91.44
300.366	83.44
300.597	92.44
300.827	100.44
301.057	73.44
301.288	87.44
301.518	87.44
301.748	91.44
301.979	83.44
302.209	95.44
302.439	92.44
302.669	93.44
302.9	74.44
303.13	76.44
303.36	96.44
303.59	99.44
303.82	108.44
304.051	92.44
304.281	74.44
304.511	92.44
304.741	93.44
304.971	80.44
305.201	82.44
305.431	93.44
305.661	82.44
305.891	77.44
306.121	93.44
306.352	90.44
306.582	100.44
306.812	91.44
307.042	91.44
307.272	97.44
307.502	94.44
307.731	99.44
307.961	91.44
308.191	73.44
308.421	84.44
308.651	99.44
308.881	80.44
309.111	102.44
309.341	79.44
309.571	94.44
309.8	93.44
310.03	97.44
310.26	93.44
310.49	100.44
310.72	78.44
310.949	75.44
311.179	80.44
311.409	87.44
311.639	82.44
311.868	80.44
312.098	96.44
312.328	95.44
312.557	69.44
312.787	87.44
313.017	85.44
313.246	97.44
313.476	88.44
313.706	78.44
313.935	99.44
314.165	101.44
314.394	91.44
314.624	95.44
314.853	110.44
315.083	105.44
315.312	85.44
315.542	75.44
315.771	89.44
316.001	76.44
316.23	80.44
316.46	86.44
316.689	92.44
316.919	68.44
317.148	80.44
317.377	94.44
317.607	92.44
317.836	77.44
318.065	91.44
318.295	91.44
318.524	89.44
318.753	95.44
318.983	83.44
319.212	81.44
319.441	91.44
319.67	83.44
319.9	94.44
320.129	83.44
320.358	81.44
320.587	80.44
320.816	96.44
321.046	87.44
321.275	91.44
321.504	99.44
321.733	79.44
321.962	95.44
322.191	86.44
322.42	82.44
322.649	108.44
322.878	96.44
323.108	80.44
323.337	88.44
323.566	90.44
323.795	84.44
324.024	81.44
324.253	86.44
324.482	80.44
324.71	70.44
324.939	78.44
325.168	79.44
325.397	84.44
325.626	66.44
325.855	96.44
326.084	101.44
326.313	85.44
326.542	87.44
326.77	100.44
326.999	86.44
327.228	80.44
327.457	72.44
327.686	76.44
327.914	92.44
328.143	84.44
328.372	97.44
328.6	93.44
328.829	91.44
329.058	84.44
329.287	90.44
329.515	79.44
329.744	86.44
329.972	91.44
330.201	85.44
330.43	106.44
330.658	74.44
330.887	98.44
331.115	87.44
331.344	93.44
331.572	90.44
331.801	96.44
332.03	91.44
332.258	77.44
332.486	87.44
332.715	79.44
332.943	80.44
333.172	85.44
333.4	80.44
333.629	92.44
333.857	90.44
334.085	81.44
334.314	88.44
334.542	91.44
334.771	98.44
334.999	87.44
335.227	97.44
335.455	90.44
335.684	83.44
335.912	93.44
336.14	79.44
336.369	77.44
336.597	88.44
336.825	84.44
337.053	81.44
337.281	99.44
337.51	79.44
337.738	93.44
337.966	86.44
338.194	87.44
338.422	86.44
338.65	108.44
338.878	84.44
339.106	94.44
339.334	94.44
339.562	92.44
339.79	107.44
340.018	90.44
340.246	91.44
340.474	93.44
340.702	92.44
340.93	92.44
341.158	101.44
341.386	75.44
341.614	85.44
341.842	69.44
342.07	94.44
342.298	90.44
342.526	94.44
342.754	93.44
342.981	96.44
343.209	98.44
343.437	88.44
343.665	93.44
343.893	71.44
344.12	81.44
344.348	87.44
344.576	83.44
344.804	72.44
345.031	97.44
345.259	83.44
345.487	91.44
345.714	102.44
345.942	101.44
346.17	90.44
346.397	92.44
346.625	98.44
346.853	96.44
347.08	74.44
347.308	99.44
347.535	81.44
347.763	81.44
347.99	100.44
348.218	83.44
348.445	84.44
348.673	90.44
348.9	95.44
349.128	94.44
349.355	85.44
349.583	91.44
349.81	81.44
350.037	78.44
350.265	76.44
350.492	72.44
350.72	87.44
350.947	93.44
351.174	91.44
351.402	83.44
351.629	80.44
351.856	91.44
352.083	77.44
352.311	85.44
352.538	86.44
352.765	77.44
352.992	94.44
353.22	99.44
353.447	85.44
353.674	99.44
353.901	94.44
354.128	87.44
354.355	91.44
354.583	87.44
354.81	92.44
355.037	91.44
355.264	95.44
355.491	81.44
355.718	100.44
355.945	89.44
356.172	88.44
356.399	92.44
356.626	73.44
356.853	77.44
357.08	90.44
357.307	88.44
357.534	98.44
357.761	73.44
357.988	86.44
358.215	95.44
358.441	95.44
358.668	88.44
358.895	86.44
359.122	84.44
359.349	95.44
359.576	98.44
359.802	101.44
360.029	86.44
360.256	82.44
360.483	93.44
360.709	90.44
360.936	80.44
361.163	92.44
361.39	79.44
361.616	99.44
361.843	81.44
362.07	87.44
362.296	92.44
362.523	75.44
362.749	87.44
362.976	103.44
363.203	89.44
363.429	86.44
363.656	80.44
363.882	81.44
364.109	88.44
364.335	91.44
364.562	88.44
364.788	83.44
365.015	100.44
365.241	95.44
365.468	99.44
365.694	96.44
365.92	93.44
366.147	85.44
366.373	80.44
366.599	84.44
366.826	96.44
367.052	88.44
367.278	84.44
367.505	80.44
367.731	88.44
367.957	85.44
368.184	92.44
368.41	91.44
368.636	93.44
368.862	98.44
369.089	81.44
369.315	80.44
369.541	105.44
369.767	102.44
369.993	96.44
370.219	81.44
370.445	92.44
370.672	75.44
370.898	94.44
371.124	104.44
371.35	99.44
371.576	97.44
371.802	99.44
372.028	88.44
372.254	91.44
372.48	85.44
372.706	95.44
372.932	107.44
373.158	86.44
373.384	78.44
373.61	88.44
373.835	97.44
374.061	97.44
374.287	91.44
374.513	83.44
374.739	97.44
374.965	83.44
375.191	99.44
375.416	87.44
375.642	97.44
375.868	100.44
376.094	78.44
376.319	98.44
376.545	88.44
376.771	75.44
376.997	91.44
377.222	83.44
377.448	96.44
377.674	92.44
377.899	91.44
378.125	93.44
378.35	107.44
378.576	97.44
378.802	92.44
379.027	98.44
379.253	94.44
379.478	86.44
379.704	99.44
379.929	90.44
380.155	89.44
380.38	88.44
380.606	100.44
380.831	99.44
381.057	92.44
381.282	99.44
381.507	88.44
381.733	87.44
381.958	78.44
382.184	84.44
382.409	93.44
382.634	82.44
382.86	91.44
383.085	104.44
383.31	84.44
383.535	105.44
383.761	92.44
383.986	81.44
384.211	78.44
384.436	78.44
384.662	90.44
384.887	97.44
385.112	94.44
385.337	95.44
385.562	90.44
385.787	107.44
386.013	103.44
386.238	103.44
386.463	94.44
386.688	79.44
386.913	89.44
387.138	91.44
387.363	76.44
387.588	97.44
387.813	91.44
388.038	96.44
388.263	93.44
388.488	84.44
388.713	90.44
388.938	100.44
389.163	86.44
389.387	96.44
389.612	81.44
389.837	85.44
390.062	91.44
390.287	96.44
390.512	94.44
390.736	87.44
390.961	102.44
391.186	103.44
391.411	90.44
391.636	92.44
391.86	89.44
392.085	97.44
392.31	98.44
392.534	83.44
392.759	105.44
392.984	100.44
393.208	88.44
393.433	97.44
393.658	96.44
393.882	86.44
394.107	97.44
394.331	104.44
394.556	86.44
394.78	86.44
395.005	91.44
395.229	96.44
395.454	103.44
395.678	99.44
395.903	89.44
396.127	104.44
396.352	98.44
396.576	95.44
396.801	95.44
397.025	84.44
397.249	99.44
397.474	113.44
397.698	99.44
397.922	111.44
398.147	96.44
398.371	96.44
398.595	105.44
398.82	88.44
399.044	87.44
399.268	103.44
399.492	103.44
399.717	110.44
399.941	104.44
400.165	112.44
400.389	95.44
400.613	97.44
400.837	91.44
401.062	103.44
401.286	93.44
401.51	102.44
401.734	96.44
401.958	95.44
402.182	104.44
402.406	96.44
402.63	102.44
402.854	107.44
403.078	98.44
403.302	97.44
403.526	100.44
403.75	99.44
403.974	81.44
404.198	97.44
404.422	97.44
404.645	99.44
404.869	110.44
405.093	97.44
405.317	103.44
405.541	107.44
405.765	101.44
405.988	102.44
406.212	101.44
406.436	100.44
406.66	101.44
406.883	107.44
407.107	101.44
407.331	111.44
407.555	98.44
407.778	111.44
408.002	96.44
408.226	99.44
408.449	101.44
408.673	99.44
408.896	106.44
409.12	100.44
409.344	103.44
409.567	93.44
409.791	108.44
410.014	100.44
410.238	91.44
410.461	91.44
410.685	103.44
410.908	105.44
411.132	101.44
411.355	102.44
411.578	99.44
411.802	110.44
412.025	90.44
412.249	102.44
412.472	101.44
412.695	110.44
412.919	93.44
413.142	106.44
413.365	101.44
413.589	99.44
413.812	93.44
414.035	104.44
414.258	108.44
414.482	98.44
414.705	96.44
414.928	114.44
415.151	99.44
415.374	87.44
415.597	92.44
415.821	103.44
416.044	102.44
416.267	93.44
416.49	97.44
416.713	102.44
416.936	108.44
417.159	94.44
417.382	105.44
417.605	94.44
417.828	104.44
418.051	111.44
418.274	121.44
418.497	109.44
418.72	108.44
418.943	103.44
419.166	116.44
419.389	118.44
419.611	104.44
419.834	109.44
420.057	94.44
420.28	102.44
420.503	112.44
420.726	103.44
420.948	119.44
421.171	111.44
421.394	127.44
421.617	123.44
421.839	110.44
422.062	100.44
422.285	110.44
422.507	97.44
422.73	101.44
422.953	108.44
423.175	101.44
423.398	111.44
423.621	121.44
423.843	102.44
424.066	117.44
424.288	119.44
424.511	116.44
424.733	115.44
424.956	105.44
425.178	91.44
425.401	95.44
425.623	107.44
425.846	102.44
426.068	111.44
426.291	102.44
426.513	105.44
426.735	120.44
426.958	112.44
427.18	99.44
427.402	108.44
427.625	100.44
427.847	104.44
428.069	105.44
428.292	105.44
428.514	90.44
428.736	100.44
428.958	116.44
429.181	99.44
429.403	108.44
429.625	112.44
429.847	109.44
430.069	110.44
430.292	120.44
430.514	126.44
430.736	127.44
430.958	122.44
431.18	120.44
431.402	96.44
431.624	100.44
431.846	105.44
432.068	95.44
432.29	92.44
432.512	88.44
432.734	103.44
432.956	99.44
433.178	104.44
433.4	117.44
433.622	101.44
433.844	97.44
434.066	99.44
434.287	111.44
434.509	92.44
434.731	103.44
434.953	94.44
435.175	93.44
435.397	106.44
435.618	105.44
435.84	91.44
436.062	118.44
436.284	101.44
436.505	110.44
436.727	116.44
436.949	121.44
437.17	110.44
437.392	95.44
437.614	98.44
437.835	95.44
438.057	92.44
438.278	91.44
438.5	97.44
438.721	117.44
438.943	116.44
439.165	118.44
439.386	112.44
439.608	108.44
439.829	116.44
440.05	123.44
440.272	120.44
440.493	122.44
440.715	103.44
440.936	125.44
441.158	117.44
441.379	115.44
441.6	112.44
441.822	107.44
442.043	107.44
442.264	122.44
442.486	118.44
442.707	112.44
442.928	100.44
443.149	116.44
443.371	90.44
443.592	105.44
443.813	112.44
444.034	146.44
444.255	115.44
444.476	101.44
444.698	111.44
444.919	126.44
445.14	212.44
445.361	154.44
445.582	115.44
445.803	117.44
446.024	111.44
446.245	121.44
446.466	129.44
446.687	112.44
446.908	119.44
447.129	129.44
447.35	125.44
447.571	131.44
447.792	118.44
448.013	107.44
448.234	117.44
448.455	110.44
448.675	117.44
448.896	108.44
449.117	121.44
449.338	125.44
449.559	109.44
449.779	106.44
450	113.44
450.221	109.44
450.442	104.44
450.662	98.44
450.883	113.44
451.104	108.44
451.324	120.44
451.545	103.44
451.766	117.44
451.986	101.44
452.207	104.44
452.428	100.44
452.648	129.44
452.869	112.44
453.089	92.44
453.31	94.44
453.53	87.44
453.751	89.44
453.971	98.44
454.192	95.44
454.412	98.44
454.633	99.44
454.853	109.44
455.073	100.44
455.294	112.44
455.514	94.44
455.734	104.44
455.955	117.44
456.175	89.44
456.395	106.44
456.616	97.44
456.836	92.44
457.056	77.44
457.276	100.44
457.497	100.44
457.717	81.44
457.937	110.44
458.157	113.44
458.377	105.44
458.598	105.44
458.818	89.44
459.038	78.44
459.258	85.44
459.478	105.44
459.698	95.44
459.918	91.44
460.138	92.44
460.358	96.44
460.578	103.44
460.798	101.44
461.018	102.44
461.238	99.44
461.458	97.44
461.678	98.44
461.898	115.44
462.118	103.44
462.338	95.44
462.558	102.44
462.777	102.44
462.997	91.44
463.217	95.44
463.437	93.44
463.657	77.44
463.876	101.44
464.096	93.44
464.316	92.44
464.536	99.44
464.755	104.44
464.975	106.44
465.195	98.44
465.414	104.44
465.634	96.44
465.854	106.44
466.073	117.44
466.293	99.44
466.512	115.44
466.732	117.44
466.951	109.44
467.171	112.44
467.391	99.44
467.61	100.44
467.829	114.44
468.049	118.44
468.268	100.44
468.488	108.44
468.707	119.44
468.927	120.44
469.146	117.44
469.365	105.44
469.585	124.44
469.804	118.44
470.023	111.44
470.243	121.44
470.462	113.44
470.681	115.44
470.901	105.44
471.12	119.44
471.339	107.44
471.558	120.44
471.777	122.44
471.997	111.44
472.216	122.44
472.435	107.44
472.654	84.44
472.873	96.44
473.092	104.44
473.311	121.44
473.53	102.44
473.749	113.44
473.968	122.44
474.187	112.44
474.406	103.44
474.625	100.44
474.844	109.44
475.063	103.44
475.282	97.44
475.501	100.44
475.72	99.44
475.939	108.44
476.158	102.44
476.377	110.44
476.596	100.44
476.814	85.44
477.033	96.44
477.252	102.44
477.471	101.44
477.69	118.44
477.908	121.44
478.127	123.44
478.346	113.44
478.564	113.44
478.783	109.44
479.002	121.44
479.22	102.44
479.439	123.44
479.658	99.44
479.876	105.44
480.095	93.44
480.313	101.44
480.532	106.44
480.751	111.44
480.969	100.44
481.188	87.44
481.406	93.44
481.624	90.44
481.843	89.44
482.061	85.44
482.28	111.44
482.498	101.44
482.717	92.44
482.935	96.44
483.153	117.44
483.372	107.44
483.59	123.44
483.808	112.44
484.027	115.44
484.245	119.44
484.463	121.44
484.681	120.44
484.9	116.44
485.118	104.44
485.336	121.44
485.554	96.44
485.772	98.44
485.99	100.44
486.209	114.44
486.427	108.44
486.645	101.44
486.863	115.44
487.081	108.44
487.299	110.44
487.517	117.44
487.735	119.44
487.953	117.44
488.171	133.44
488.389	131.44
488.607	95.44
488.825	115.44
489.043	122.44
489.261	116.44
489.479	104.44
489.696	105.44
489.914	110.44
490.132	110.44
490.35	111.44
490.568	120.44
490.786	125.44
491.003	140.44
491.221	141.44
491.439	127.44
491.657	137.44
491.874	128.44
492.092	149.44
492.31	163.44
492.527	155.44
492.745	138.44
492.963	139.44
493.18	126.44
493.398	148.44
493.615	148.44
493.833	145.44
494.05	131.44
494.268	135.44
494.485	123.44
494.703	130.44
494.92	126.44
495.138	131.44
495.355	129.44
495.573	125.44
495.79	134.44
496.008	132.44
496.225	126.44
496.442	149.44
496.66	126.44
496.877	135.44
497.094	132.44
497.312	122.44
497.529	138.44
497.746	114.44
497.963	120.44
498.181	109.44
498.398	124.44
498.615	110.44
498.832	111.44
499.049	101.44
499.267	108.44
499.484	107.44
499.701	115.44
499.918	112.44
500.135	119.44
500.352	125.44
500.569	116.44
500.786	106.44
501.003	107.44
501.22	118.44
501.437	125.44
501.654	118.44
501.871	102.44
502.088	108.44
502.305	119.44
502.522	109.44
502.739	127.44
502.956	112.44
503.172	110.44
503.389	120.44
503.606	107.44
503.823	102.44
504.04	127.44
504.256	120.44
504.473	105.44
504.69	119.44
504.907	114.44
505.123	102.44
505.34	101.44
505.557	109.44
505.773	104.44
505.99	115.44
506.207	115.44
506.423	111.44
506.64	95.44
506.856	113.44
507.073	113.44
507.289	111.44
507.506	115.44
507.722	103.44
507.939	106.44
508.155	95.44
508.372	94.44
508.588	108.44
508.805	86.44
509.021	100.44
509.238	110.44
509.454	86.44
509.67	100.44
509.887	92.44
510.103	95.44
510.319	89.44
510.536	95.44
510.752	86.44
510.968	86.44
511.184	91.44
511.401	80.44
511.617	77.44
511.833	97.44
512.049	91.44
512.265	103.44
512.481	104.44
512.698	99.44
512.914	102.44
513.13	97.44
