Data from Zn(NO3)2Standard.Agarose3%.GreenCap.LampEnergy10E.O_HRD10591_15-08-38-950.txt Node
Date: Mon Jul 22 15:08:38 EDT 2019
User: cochatt
Spectrometer: HR+D1059
Trigger mode: 1
Integration Time (sec): 1.000000E-1
Scans to average: 1
Electric dark correction enabled: true
Nonlinearity correction enabled: false
Boxcar width: 0
XAxis mode: Wavelengths
Number of Pixels in Spectrum: 2048
>>>>>Begin Spectral Data<<<<<
223.165	-22.19
223.4	-22.19
223.635	-22.19
223.869	-7.19
224.104	-21.19
224.338	-9.19
224.573	-13.19
224.808	-27.19
225.042	-10.19
225.277	0.81
225.511	-5.19
225.746	3.81
225.98	5.81
226.215	12.81
226.449	27.81
226.683	12.81
226.918	15.81
227.152	35.81
227.387	30.81
227.621	44.81
227.856	49.81
228.09	33.81
228.324	51.81
228.559	59.81
228.793	56.81
229.027	58.81
229.262	58.81
229.496	58.81
229.73	79.81
229.964	72.81
230.199	70.81
230.433	56.81
230.667	78.81
230.901	82.81
231.136	69.81
231.37	81.81
231.604	97.81
231.838	88.81
232.072	81.81
232.306	77.81
232.541	67.81
232.775	74.81
233.009	76.81
233.243	65.81
233.477	66.81
233.711	89.81
233.945	81.81
234.179	74.81
234.413	86.81
234.647	73.81
234.881	71.81
235.115	80.81
235.349	77.81
235.583	68.81
235.817	70.81
236.051	93.81
236.285	101.81
236.519	71.81
236.753	64.81
236.987	67.81
237.221	73.81
237.455	77.81
237.689	74.81
237.922	69.81
238.156	83.81
238.39	72.81
238.624	77.81
238.858	76.81
239.091	68.81
239.325	78.81
239.559	79.81
239.793	76.81
240.027	81.81
240.26	76.81
240.494	80.81
240.728	82.81
240.961	91.81
241.195	85.81
241.429	72.81
241.662	80.81
241.896	64.81
242.13	69.81
242.363	86.81
242.597	70.81
242.83	94.81
243.064	76.81
243.298	76.81
243.531	67.81
243.765	74.81
243.998	89.81
244.232	100.81
244.465	76.81
244.699	70.81
244.932	65.81
245.166	76.81
245.399	76.81
245.633	75.81
245.866	82.81
246.099	81.81
246.333	74.81
246.566	88.81
246.8	73.81
247.033	61.81
247.266	68.81
247.5	84.81
247.733	78.81
247.966	81.81
248.2	76.81
248.433	80.81
248.666	84.81
248.899	88.81
249.133	73.81
249.366	75.81
249.599	73.81
249.832	89.81
250.066	81.81
250.299	80.81
250.532	81.81
250.765	76.81
250.998	78.81
251.231	76.81
251.465	83.81
251.698	75.81
251.931	79.81
252.164	84.81
252.397	80.81
252.63	76.81
252.863	83.81
253.096	87.81
253.329	87.81
253.562	82.81
253.795	75.81
254.028	77.81
254.261	90.81
254.494	102.81
254.727	88.81
254.96	76.81
255.193	75.81
255.426	78.81
255.659	81.81
255.892	86.81
256.124	86.81
256.357	67.81
256.59	74.81
256.823	81.81
257.056	72.81
257.289	82.81
257.521	77.81
257.754	74.81
257.987	67.81
258.22	97.81
258.452	86.81
258.685	82.81
258.918	83.81
259.151	88.81
259.383	81.81
259.616	76.81
259.849	85.81
260.081	73.81
260.314	79.81
260.547	94.81
260.779	72.81
261.012	77.81
261.244	95.81
261.477	87.81
261.71	93.81
261.942	89.81
262.175	83.81
262.407	84.81
262.64	76.81
262.872	98.81
263.105	89.81
263.337	83.81
263.57	69.81
263.802	78.81
264.035	81.81
264.267	60.81
264.499	84.81
264.732	86.81
264.964	78.81
265.197	74.81
265.429	84.81
265.661	85.81
265.894	74.81
266.126	68.81
266.358	90.81
266.591	85.81
266.823	67.81
267.055	80.81
267.287	88.81
267.52	79.81
267.752	70.81
267.984	85.81
268.216	83.81
268.448	93.81
268.681	85.81
268.913	88.81
269.145	92.81
269.377	92.81
269.609	100.81
269.841	93.81
270.073	87.81
270.306	93.81
270.538	85.81
270.77	86.81
271.002	77.81
271.234	67.81
271.466	96.81
271.698	86.81
271.93	78.81
272.162	81.81
272.394	78.81
272.626	73.81
272.858	92.81
273.09	94.81
273.322	98.81
273.553	86.81
273.785	84.81
274.017	97.81
274.249	82.81
274.481	85.81
274.713	90.81
274.945	73.81
275.176	75.81
275.408	98.81
275.64	82.81
275.872	91.81
276.104	102.81
276.335	77.81
276.567	97.81
276.799	86.81
277.031	82.81
277.262	86.81
277.494	89.81
277.726	84.81
277.957	89.81
278.189	95.81
278.421	80.81
278.652	88.81
278.884	81.81
279.115	90.81
279.347	79.81
279.579	82.81
279.81	91.81
280.042	79.81
280.273	82.81
280.505	81.81
280.736	95.81
280.968	79.81
281.199	90.81
281.431	79.81
281.662	94.81
281.894	86.81
282.125	70.81
282.356	87.81
282.588	80.81
282.819	84.81
283.051	77.81
283.282	82.81
283.513	88.81
283.745	93.81
283.976	90.81
284.207	83.81
284.439	85.81
284.67	85.81
284.901	81.81
285.132	83.81
285.364	76.81
285.595	89.81
285.826	76.81
286.057	75.81
286.288	77.81
286.52	96.81
286.751	78.81
286.982	88.81
287.213	93.81
287.444	88.81
287.675	91.81
287.906	73.81
288.138	81.81
288.369	79.81
288.6	67.81
288.831	76.81
289.062	86.81
289.293	89.81
289.524	85.81
289.755	83.81
289.986	89.81
290.217	80.81
290.448	78.81
290.679	76.81
290.91	81.81
291.141	92.81
291.371	83.81
291.602	71.81
291.833	94.81
292.064	89.81
292.295	86.81
292.526	88.81
292.757	96.81
292.987	83.81
293.218	91.81
293.449	73.81
293.68	84.81
293.91	96.81
294.141	86.81
294.372	76.81
294.603	98.81
294.833	90.81
295.064	75.81
295.295	84.81
295.525	93.81
295.756	73.81
295.987	77.81
296.217	70.81
296.448	92.81
296.679	75.81
296.909	78.81
297.14	76.81
297.37	86.81
297.601	78.81
297.831	84.81
298.062	84.81
298.292	91.81
298.523	85.81
298.753	76.81
298.984	82.81
299.214	75.81
299.445	86.81
299.675	83.81
299.905	81.81
300.136	95.81
300.366	85.81
300.597	84.81
300.827	80.81
301.057	81.81
301.288	76.81
301.518	92.81
301.748	88.81
301.979	77.81
302.209	75.81
302.439	86.81
302.669	78.81
302.9	88.81
303.13	92.81
303.36	76.81
303.59	89.81
303.82	82.81
304.051	78.81
304.281	93.81
304.511	90.81
304.741	91.81
304.971	85.81
305.201	65.81
305.431	89.81
305.661	89.81
305.891	95.81
306.121	93.81
306.352	94.81
306.582	81.81
306.812	73.81
307.042	85.81
307.272	76.81
307.502	77.81
307.731	89.81
307.961	97.81
308.191	88.81
308.421	86.81
308.651	102.81
308.881	83.81
309.111	89.81
309.341	83.81
309.571	69.81
309.8	86.81
310.03	77.81
310.26	85.81
310.49	101.81
310.72	88.81
310.949	84.81
311.179	90.81
311.409	85.81
311.639	94.81
311.868	85.81
312.098	93.81
312.328	85.81
312.557	65.81
312.787	86.81
313.017	93.81
313.246	71.81
313.476	80.81
313.706	69.81
313.935	82.81
314.165	84.81
314.394	84.81
314.624	85.81
314.853	74.81
315.083	84.81
315.312	88.81
315.542	81.81
315.771	93.81
316.001	77.81
316.23	85.81
316.46	81.81
316.689	96.81
316.919	84.81
317.148	118.81
317.377	83.81
317.607	96.81
317.836	85.81
318.065	83.81
318.295	90.81
318.524	75.81
318.753	90.81
318.983	68.81
319.212	89.81
319.441	77.81
319.67	85.81
319.9	82.81
320.129	81.81
320.358	81.81
320.587	87.81
320.816	75.81
321.046	78.81
321.275	77.81
321.504	78.81
321.733	84.81
321.962	93.81
322.191	70.81
322.42	78.81
322.649	97.81
322.878	78.81
323.108	87.81
323.337	87.81
323.566	83.81
323.795	80.81
324.024	78.81
324.253	75.81
324.482	82.81
324.71	81.81
324.939	86.81
325.168	78.81
325.397	91.81
325.626	88.81
325.855	77.81
326.084	84.81
326.313	82.81
326.542	83.81
326.77	82.81
326.999	75.81
327.228	91.81
327.457	89.81
327.686	68.81
327.914	81.81
328.143	88.81
328.372	83.81
328.6	81.81
328.829	86.81
329.058	74.81
329.287	91.81
329.515	85.81
329.744	105.81
329.972	88.81
330.201	82.81
330.43	88.81
330.658	92.81
330.887	89.81
331.115	88.81
331.344	95.81
331.572	77.81
331.801	68.81
332.03	76.81
332.258	71.81
332.486	81.81
332.715	92.81
332.943	96.81
333.172	89.81
333.4	88.81
333.629	106.81
333.857	89.81
334.085	88.81
334.314	84.81
334.542	78.81
334.771	91.81
334.999	94.81
335.227	84.81
335.455	81.81
335.684	100.81
335.912	73.81
336.14	62.81
336.369	72.81
336.597	80.81
336.825	94.81
337.053	83.81
337.281	90.81
337.51	90.81
337.738	89.81
337.966	86.81
338.194	87.81
338.422	78.81
338.65	93.81
338.878	80.81
339.106	81.81
339.334	98.81
339.562	83.81
339.79	93.81
340.018	95.81
340.246	87.81
340.474	97.81
340.702	94.81
340.93	81.81
341.158	93.81
341.386	82.81
341.614	76.81
341.842	80.81
342.07	72.81
342.298	77.81
342.526	70.81
342.754	72.81
342.981	78.81
343.209	93.81
343.437	91.81
343.665	91.81
343.893	80.81
344.12	88.81
344.348	91.81
344.576	78.81
344.804	78.81
345.031	91.81
345.259	102.81
345.487	103.81
345.714	89.81
345.942	90.81
346.17	83.81
346.397	87.81
346.625	80.81
346.853	78.81
347.08	94.81
347.308	80.81
347.535	75.81
347.763	95.81
347.99	92.81
348.218	92.81
348.445	93.81
348.673	93.81
348.9	77.81
349.128	83.81
349.355	80.81
349.583	85.81
349.81	77.81
350.037	77.81
350.265	90.81
350.492	78.81
350.72	84.81
350.947	91.81
351.174	79.81
351.402	102.81
351.629	86.81
351.856	76.81
352.083	70.81
352.311	82.81
352.538	79.81
352.765	82.81
352.992	83.81
353.22	85.81
353.447	88.81
353.674	84.81
353.901	85.81
354.128	76.81
354.355	76.81
354.583	74.81
354.81	92.81
355.037	76.81
355.264	89.81
355.491	89.81
355.718	68.81
355.945	86.81
356.172	76.81
356.399	85.81
356.626	79.81
356.853	78.81
357.08	91.81
357.307	95.81
357.534	82.81
357.761	89.81
357.988	79.81
358.215	85.81
358.441	72.81
358.668	83.81
358.895	96.81
359.122	84.81
359.349	80.81
359.576	90.81
359.802	82.81
360.029	84.81
360.256	85.81
360.483	83.81
360.709	91.81
360.936	90.81
361.163	91.81
361.39	91.81
361.616	94.81
361.843	86.81
362.07	68.81
362.296	90.81
362.523	86.81
362.749	66.81
362.976	90.81
363.203	90.81
363.429	74.81
363.656	99.81
363.882	78.81
364.109	83.81
364.335	85.81
364.562	81.81
364.788	85.81
365.015	86.81
365.241	96.81
365.468	82.81
365.694	89.81
365.92	92.81
366.147	67.81
366.373	74.81
366.599	78.81
366.826	88.81
367.052	82.81
367.278	84.81
367.505	87.81
367.731	80.81
367.957	92.81
368.184	92.81
368.41	77.81
368.636	97.81
368.862	77.81
369.089	82.81
369.315	94.81
369.541	93.81
369.767	82.81
369.993	96.81
370.219	85.81
370.445	91.81
370.672	96.81
370.898	84.81
371.124	88.81
371.35	77.81
371.576	73.81
371.802	88.81
372.028	86.81
372.254	89.81
372.48	87.81
372.706	85.81
372.932	86.81
373.158	85.81
373.384	89.81
373.61	91.81
373.835	87.81
374.061	81.81
374.287	77.81
374.513	58.81
374.739	79.81
374.965	86.81
375.191	97.81
375.416	91.81
375.642	102.81
375.868	86.81
376.094	102.81
376.319	96.81
376.545	77.81
376.771	60.81
376.997	88.81
377.222	77.81
377.448	100.81
377.674	92.81
377.899	77.81
378.125	93.81
378.35	80.81
378.576	77.81
378.802	87.81
379.027	105.81
379.253	87.81
379.478	98.81
379.704	98.81
379.929	88.81
380.155	84.81
380.38	81.81
380.606	84.81
380.831	100.81
381.057	100.81
381.282	88.81
381.507	95.81
381.733	82.81
381.958	81.81
382.184	87.81
382.409	82.81
382.634	84.81
382.86	75.81
383.085	86.81
383.31	92.81
383.535	105.81
383.761	84.81
383.986	79.81
384.211	82.81
384.436	78.81
384.662	81.81
384.887	79.81
385.112	96.81
385.337	96.81
385.562	97.81
385.787	89.81
386.013	91.81
386.238	101.81
386.463	92.81
386.688	84.81
386.913	97.81
387.138	89.81
387.363	92.81
387.588	93.81
387.813	87.81
388.038	101.81
388.263	98.81
388.488	100.81
388.713	97.81
388.938	90.81
389.163	90.81
389.387	81.81
389.612	97.81
389.837	87.81
390.062	76.81
390.287	85.81
390.512	92.81
390.736	97.81
390.961	88.81
391.186	90.81
391.411	93.81
391.636	93.81
391.86	91.81
392.085	90.81
392.31	91.81
392.534	89.81
392.759	82.81
392.984	98.81
393.208	92.81
393.433	96.81
393.658	103.81
393.882	97.81
394.107	86.81
394.331	108.81
394.556	88.81
394.78	91.81
395.005	97.81
395.229	118.81
395.454	84.81
395.678	81.81
395.903	101.81
396.127	84.81
396.352	93.81
396.576	93.81
396.801	100.81
397.025	80.81
397.249	98.81
397.474	110.81
397.698	106.81
397.922	94.81
398.147	92.81
398.371	88.81
398.595	96.81
398.82	114.81
399.044	107.81
399.268	96.81
399.492	109.81
399.717	93.81
399.941	96.81
400.165	84.81
400.389	76.81
400.613	79.81
400.837	97.81
401.062	91.81
401.286	95.81
401.51	105.81
401.734	90.81
401.958	95.81
402.182	92.81
402.406	97.81
402.63	110.81
402.854	98.81
403.078	113.81
403.302	108.81
403.526	100.81
403.75	101.81
403.974	85.81
404.198	91.81
404.422	99.81
404.645	82.81
404.869	99.81
405.093	102.81
405.317	105.81
405.541	89.81
405.765	101.81
405.988	86.81
406.212	116.81
406.436	104.81
406.66	102.81
406.883	95.81
407.107	92.81
407.331	89.81
407.555	94.81
407.778	88.81
408.002	91.81
408.226	92.81
408.449	88.81
408.673	95.81
408.896	103.81
409.12	92.81
409.344	100.81
409.567	92.81
409.791	92.81
410.014	102.81
410.238	85.81
410.461	92.81
410.685	91.81
410.908	104.81
411.132	95.81
411.355	94.81
411.578	113.81
411.802	98.81
412.025	107.81
412.249	92.81
412.472	111.81
412.695	86.81
412.919	101.81
413.142	112.81
413.365	92.81
413.589	99.81
413.812	103.81
414.035	96.81
414.258	118.81
414.482	98.81
414.705	101.81
414.928	106.81
415.151	100.81
415.374	98.81
415.597	106.81
415.821	102.81
416.044	100.81
416.267	98.81
416.49	99.81
416.713	96.81
416.936	102.81
417.159	103.81
417.382	95.81
417.605	88.81
417.828	86.81
418.051	92.81
418.274	97.81
418.497	104.81
418.72	104.81
418.943	104.81
419.166	115.81
419.389	111.81
419.611	109.81
419.834	103.81
420.057	98.81
420.28	93.81
420.503	95.81
420.726	100.81
420.948	99.81
421.171	91.81
421.394	87.81
421.617	99.81
421.839	107.81
422.062	94.81
422.285	107.81
422.507	112.81
422.73	105.81
422.953	103.81
423.175	108.81
423.398	112.81
423.621	92.81
423.843	106.81
424.066	104.81
424.288	113.81
424.511	107.81
424.733	121.81
424.956	112.81
425.178	106.81
425.401	126.81
425.623	101.81
425.846	98.81
426.068	121.81
426.291	102.81
426.513	109.81
426.735	98.81
426.958	99.81
427.18	93.81
427.402	124.81
427.625	109.81
427.847	103.81
428.069	113.81
428.292	100.81
428.514	103.81
428.736	98.81
428.958	115.81
429.181	104.81
429.403	96.81
429.625	105.81
429.847	89.81
430.069	105.81
430.292	92.81
430.514	99.81
430.736	102.81
430.958	104.81
431.18	103.81
431.402	109.81
431.624	90.81
431.846	90.81
432.068	91.81
432.29	82.81
432.512	93.81
432.734	95.81
432.956	113.81
433.178	107.81
433.4	102.81
433.622	104.81
433.844	97.81
434.066	93.81
434.287	105.81
434.509	106.81
434.731	89.81
434.953	97.81
435.175	97.81
435.397	107.81
435.618	100.81
435.84	77.81
436.062	98.81
436.284	97.81
436.505	119.81
436.727	114.81
436.949	114.81
437.17	92.81
437.392	112.81
437.614	100.81
437.835	89.81
438.057	77.81
438.278	99.81
438.5	105.81
438.721	106.81
438.943	112.81
439.165	120.81
439.386	101.81
439.608	105.81
439.829	125.81
440.05	109.81
440.272	120.81
440.493	112.81
440.715	105.81
440.936	112.81
441.158	105.81
441.379	108.81
441.6	109.81
441.822	98.81
442.043	112.81
442.264	108.81
442.486	114.81
442.707	112.81
442.928	105.81
443.149	110.81
443.371	106.81
443.592	100.81
443.813	109.81
444.034	106.81
444.255	116.81
444.476	112.81
444.698	105.81
444.919	128.81
445.14	247.81
445.361	174.81
445.582	111.81
445.803	97.81
446.024	102.81
446.245	125.81
446.466	109.81
446.687	123.81
446.908	108.81
447.129	128.81
447.35	104.81
447.571	124.81
447.792	114.81
448.013	116.81
448.234	123.81
448.455	118.81
448.675	94.81
448.896	114.81
449.117	119.81
449.338	107.81
449.559	110.81
449.779	105.81
450	97.81
450.221	106.81
450.442	108.81
450.662	119.81
450.883	114.81
451.104	113.81
451.324	102.81
451.545	96.81
451.766	105.81
451.986	109.81
452.207	97.81
452.428	103.81
452.648	100.81
452.869	90.81
453.089	81.81
453.31	98.81
453.53	103.81
453.751	92.81
453.971	101.81
454.192	90.81
454.412	94.81
454.633	85.81
454.853	117.81
455.073	105.81
455.294	104.81
455.514	91.81
455.734	96.81
455.955	96.81
456.175	93.81
456.395	97.81
456.616	103.81
456.836	89.81
457.056	94.81
457.276	87.81
457.497	90.81
457.717	89.81
457.937	85.81
458.157	96.81
458.377	101.81
458.598	82.81
458.818	89.81
459.038	78.81
459.258	77.81
459.478	78.81
459.698	84.81
459.918	78.81
460.138	87.81
460.358	88.81
460.578	95.81
460.798	104.81
461.018	82.81
461.238	78.81
461.458	100.81
461.678	94.81
461.898	104.81
462.118	99.81
462.338	106.81
462.558	92.81
462.777	93.81
462.997	96.81
463.217	85.81
463.437	92.81
463.657	86.81
463.876	94.81
464.096	84.81
464.316	90.81
464.536	97.81
464.755	106.81
464.975	101.81
465.195	109.81
465.414	104.81
465.634	91.81
465.854	93.81
466.073	102.81
466.293	115.81
466.512	104.81
466.732	100.81
466.951	123.81
467.171	89.81
467.391	89.81
467.61	106.81
467.829	106.81
468.049	118.81
468.268	106.81
468.488	115.81
468.707	105.81
468.927	118.81
469.146	107.81
469.365	114.81
469.585	89.81
469.804	114.81
470.023	123.81
470.243	98.81
470.462	109.81
470.681	105.81
470.901	113.81
471.12	119.81
471.339	101.81
471.558	128.81
471.777	118.81
471.997	110.81
472.216	100.81
472.435	104.81
472.654	97.81
472.873	105.81
473.092	104.81
473.311	109.81
473.53	99.81
473.749	96.81
473.968	106.81
474.187	94.81
474.406	84.81
474.625	98.81
474.844	115.81
475.063	98.81
475.282	116.81
475.501	104.81
475.72	108.81
475.939	100.81
476.158	99.81
476.377	94.81
476.596	96.81
476.814	97.81
477.033	98.81
477.252	97.81
477.471	101.81
477.69	118.81
477.908	124.81
478.127	130.81
478.346	122.81
478.564	98.81
478.783	102.81
479.002	104.81
479.22	105.81
479.439	110.81
479.658	106.81
479.876	98.81
480.095	83.81
480.313	91.81
480.532	98.81
480.751	106.81
480.969	93.81
481.188	80.81
481.406	84.81
481.624	85.81
481.843	90.81
482.061	86.81
482.28	96.81
482.498	101.81
482.717	93.81
482.935	115.81
483.153	109.81
483.372	119.81
483.59	117.81
483.808	118.81
484.027	115.81
484.245	103.81
484.463	104.81
484.681	133.81
484.9	120.81
485.118	124.81
485.336	103.81
485.554	101.81
485.772	96.81
485.99	86.81
486.209	98.81
486.427	83.81
486.645	95.81
486.863	110.81
487.081	121.81
487.299	116.81
487.517	116.81
487.735	131.81
487.953	142.81
488.171	116.81
488.389	129.81
488.607	112.81
488.825	117.81
489.043	109.81
489.261	102.81
489.479	110.81
489.696	111.81
489.914	122.81
490.132	106.81
490.35	130.81
490.568	116.81
490.786	128.81
491.003	130.81
491.221	126.81
491.439	127.81
491.657	140.81
491.874	139.81
492.092	151.81
492.31	152.81
492.527	155.81
492.745	132.81
492.963	123.81
493.18	149.81
493.398	138.81
493.615	126.81
493.833	134.81
494.05	136.81
494.268	111.81
494.485	137.81
494.703	123.81
494.92	128.81
495.138	140.81
495.355	126.81
495.573	125.81
495.79	109.81
496.008	124.81
496.225	136.81
496.442	119.81
496.66	128.81
496.877	125.81
497.094	131.81
497.312	123.81
497.529	112.81
497.746	125.81
497.963	113.81
498.181	114.81
498.398	120.81
498.615	99.81
498.832	92.81
499.049	112.81
499.267	93.81
499.484	112.81
499.701	118.81
499.918	103.81
500.135	122.81
500.352	114.81
500.569	126.81
500.786	113.81
501.003	117.81
501.22	105.81
501.437	110.81
501.654	106.81
501.871	105.81
502.088	93.81
502.305	109.81
502.522	104.81
502.739	124.81
502.956	110.81
503.172	110.81
503.389	105.81
503.606	120.81
503.823	99.81
504.04	99.81
504.256	100.81
504.473	104.81
504.69	105.81
504.907	108.81
505.123	107.81
505.34	101.81
505.557	114.81
505.773	104.81
505.99	109.81
506.207	115.81
506.423	107.81
506.64	108.81
506.856	96.81
507.073	93.81
507.289	96.81
507.506	117.81
507.722	90.81
507.939	84.81
508.155	90.81
508.372	103.81
508.588	94.81
508.805	95.81
509.021	101.81
509.238	97.81
509.454	97.81
509.67	91.81
509.887	88.81
510.103	93.81
510.319	90.81
510.536	91.81
510.752	89.81
510.968	84.81
511.184	92.81
511.401	81.81
511.617	77.81
511.833	77.81
512.049	98.81
512.265	86.81
512.481	81.81
512.698	87.81
512.914	106.81
513.13	87.81
513.346	89.81
513.562	97.81
513.778	101.81
513.994	88.81
514.21	100.81
514.426	83.81
514.642	89.81
