Data from Zn(NO3)2Standard.Agarose3%.GreenCap.LampEnergy10E.O_HRD10591_15-05-53-942.txt Node
Date: Mon Jul 22 15:05:53 EDT 2019
User: cochatt
Spectrometer: HR+D1059
Trigger mode: 1
Integration Time (sec): 1.000000E-1
Scans to average: 1
Electric dark correction enabled: true
Nonlinearity correction enabled: false
Boxcar width: 0
XAxis mode: Wavelengths
Number of Pixels in Spectrum: 2048
>>>>>Begin Spectral Data<<<<<
223.165	-0.31
223.4	-0.31
223.635	-0.31
223.869	-31.31
224.104	-21.31
224.338	-3.31
224.573	-11.31
224.808	-9.31
225.042	-5.31
225.277	2.69
225.511	-15.31
225.746	1.69
225.98	5.69
226.215	-4.31
226.449	18.69
226.683	14.69
226.918	30.69
227.152	27.69
227.387	33.69
227.621	42.69
227.856	42.69
228.09	43.69
228.324	49.69
228.559	59.69
228.793	49.69
229.027	66.69
229.262	58.69
229.496	54.69
229.73	72.69
229.964	69.69
230.199	82.69
230.433	73.69
230.667	83.69
230.901	70.69
231.136	70.69
231.37	89.69
231.604	84.69
231.838	84.69
232.072	83.69
232.306	65.69
232.541	79.69
232.775	81.69
233.009	71.69
233.243	82.69
233.477	90.69
233.711	83.69
233.945	63.69
234.179	76.69
234.413	86.69
234.647	72.69
234.881	76.69
235.115	75.69
235.349	82.69
235.583	89.69
235.817	75.69
236.051	88.69
236.285	74.69
236.519	80.69
236.753	76.69
236.987	80.69
237.221	60.69
237.455	71.69
237.689	80.69
237.922	73.69
238.156	65.69
238.39	74.69
238.624	71.69
238.858	65.69
239.091	64.69
239.325	69.69
239.559	73.69
239.793	86.69
240.027	88.69
240.26	69.69
240.494	83.69
240.728	75.69
240.961	67.69
241.195	94.69
241.429	73.69
241.662	82.69
241.896	81.69
242.13	75.69
242.363	62.69
242.597	79.69
242.83	82.69
243.064	75.69
243.298	69.69
243.531	70.69
243.765	72.69
243.998	79.69
244.232	66.69
244.465	80.69
244.699	77.69
244.932	64.69
245.166	73.69
245.399	87.69
245.633	80.69
245.866	81.69
246.099	77.69
246.333	77.69
246.566	62.69
246.8	71.69
247.033	75.69
247.266	58.69
247.5	82.69
247.733	81.69
247.966	71.69
248.2	75.69
248.433	73.69
248.666	79.69
248.899	75.69
249.133	68.69
249.366	73.69
249.599	78.69
249.832	73.69
250.066	80.69
250.299	72.69
250.532	84.69
250.765	82.69
250.998	70.69
251.231	66.69
251.465	72.69
251.698	74.69
251.931	63.69
252.164	88.69
252.397	79.69
252.63	73.69
252.863	65.69
253.096	82.69
253.329	88.69
253.562	81.69
253.795	66.69
254.028	64.69
254.261	91.69
254.494	89.69
254.727	76.69
254.96	76.69
255.193	73.69
255.426	70.69
255.659	79.69
255.892	64.69
256.124	81.69
256.357	88.69
256.59	90.69
256.823	80.69
257.056	74.69
257.289	75.69
257.521	91.69
257.754	90.69
257.987	96.69
258.22	83.69
258.452	79.69
258.685	78.69
258.918	83.69
259.151	78.69
259.383	91.69
259.616	76.69
259.849	92.69
260.081	77.69
260.314	78.69
260.547	79.69
260.779	58.69
261.012	80.69
261.244	79.69
261.477	86.69
261.71	78.69
261.942	72.69
262.175	82.69
262.407	76.69
262.64	72.69
262.872	95.69
263.105	80.69
263.337	80.69
263.57	83.69
263.802	88.69
264.035	63.69
264.267	70.69
264.499	79.69
264.732	80.69
264.964	76.69
265.197	88.69
265.429	90.69
265.661	72.69
265.894	83.69
266.126	84.69
266.358	81.69
266.591	77.69
266.823	90.69
267.055	82.69
267.287	87.69
267.52	82.69
267.752	70.69
267.984	79.69
268.216	80.69
268.448	82.69
268.681	80.69
268.913	83.69
269.145	67.69
269.377	92.69
269.609	77.69
269.841	90.69
270.073	94.69
270.306	97.69
270.538	81.69
270.77	81.69
271.002	80.69
271.234	73.69
271.466	81.69
271.698	92.69
271.93	83.69
272.162	88.69
272.394	71.69
272.626	80.69
272.858	98.69
273.09	91.69
273.322	71.69
273.553	79.69
273.785	91.69
274.017	93.69
274.249	94.69
274.481	83.69
274.713	79.69
274.945	85.69
275.176	92.69
275.408	82.69
275.64	87.69
275.872	96.69
276.104	72.69
276.335	73.69
276.567	78.69
276.799	79.69
277.031	81.69
277.262	79.69
277.494	78.69
277.726	87.69
277.957	77.69
278.189	96.69
278.421	76.69
278.652	77.69
278.884	72.69
279.115	65.69
279.347	97.69
279.579	88.69
279.81	86.69
280.042	82.69
280.273	64.69
280.505	71.69
280.736	90.69
280.968	86.69
281.199	95.69
281.431	90.69
281.662	69.69
281.894	76.69
282.125	80.69
282.356	74.69
282.588	95.69
282.819	80.69
283.051	81.69
283.282	93.69
283.513	83.69
283.745	91.69
283.976	95.69
284.207	92.69
284.439	75.69
284.67	94.69
284.901	88.69
285.132	89.69
285.364	74.69
285.595	86.69
285.826	68.69
286.057	96.69
286.288	81.69
286.52	96.69
286.751	75.69
286.982	78.69
287.213	77.69
287.444	80.69
287.675	92.69
287.906	77.69
288.138	85.69
288.369	72.69
288.6	95.69
288.831	75.69
289.062	71.69
289.293	90.69
289.524	76.69
289.755	94.69
289.986	81.69
290.217	83.69
290.448	80.69
290.679	79.69
290.91	88.69
291.141	90.69
291.371	84.69
291.602	94.69
291.833	74.69
292.064	84.69
292.295	85.69
292.526	77.69
292.757	70.69
292.987	66.69
293.218	87.69
293.449	79.69
293.68	79.69
293.91	84.69
294.141	89.69
294.372	77.69
294.603	96.69
294.833	84.69
295.064	91.69
295.295	69.69
295.525	86.69
295.756	76.69
295.987	92.69
296.217	83.69
296.448	74.69
296.679	85.69
296.909	80.69
297.14	73.69
297.37	77.69
297.601	93.69
297.831	84.69
298.062	80.69
298.292	86.69
298.523	89.69
298.753	74.69
298.984	73.69
299.214	69.69
299.445	87.69
299.675	82.69
299.905	89.69
300.136	81.69
300.366	81.69
300.597	88.69
300.827	86.69
301.057	83.69
301.288	95.69
301.518	87.69
301.748	95.69
301.979	81.69
302.209	71.69
302.439	96.69
302.669	73.69
302.9	77.69
303.13	75.69
303.36	91.69
303.59	77.69
303.82	103.69
304.051	88.69
304.281	83.69
304.511	82.69
304.741	87.69
304.971	82.69
305.201	80.69
305.431	79.69
305.661	88.69
305.891	84.69
306.121	80.69
306.352	89.69
306.582	82.69
306.812	84.69
307.042	94.69
307.272	76.69
307.502	82.69
307.731	78.69
307.961	96.69
308.191	76.69
308.421	85.69
308.651	91.69
308.881	97.69
309.111	84.69
309.341	73.69
309.571	78.69
309.8	79.69
310.03	81.69
310.26	70.69
310.49	84.69
310.72	81.69
310.949	77.69
311.179	79.69
311.409	67.69
311.639	87.69
311.868	71.69
312.098	78.69
312.328	75.69
312.557	95.69
312.787	72.69
313.017	76.69
313.246	72.69
313.476	94.69
313.706	79.69
313.935	85.69
314.165	87.69
314.394	80.69
314.624	82.69
314.853	78.69
315.083	94.69
315.312	83.69
315.542	69.69
315.771	81.69
316.001	81.69
316.23	85.69
316.46	77.69
316.689	94.69
316.919	80.69
317.148	73.69
317.377	80.69
317.607	82.69
317.836	81.69
318.065	87.69
318.295	84.69
318.524	72.69
318.753	69.69
318.983	61.69
319.212	66.69
319.441	75.69
319.67	87.69
319.9	96.69
320.129	87.69
320.358	83.69
320.587	77.69
320.816	97.69
321.046	82.69
321.275	91.69
321.504	71.69
321.733	86.69
321.962	80.69
322.191	81.69
322.42	83.69
322.649	91.69
322.878	72.69
323.108	82.69
323.337	94.69
323.566	78.69
323.795	71.69
324.024	84.69
324.253	75.69
324.482	96.69
324.71	104.69
324.939	81.69
325.168	91.69
325.397	76.69
325.626	85.69
325.855	96.69
326.084	88.69
326.313	88.69
326.542	71.69
326.77	86.69
326.999	98.69
327.228	84.69
327.457	75.69
327.686	95.69
327.914	84.69
328.143	84.69
328.372	86.69
328.6	80.69
328.829	91.69
329.058	70.69
329.287	79.69
329.515	84.69
329.744	84.69
329.972	83.69
330.201	82.69
330.43	72.69
330.658	94.69
330.887	81.69
331.115	92.69
331.344	76.69
331.572	71.69
331.801	89.69
332.03	72.69
332.258	80.69
332.486	83.69
332.715	84.69
332.943	84.69
333.172	92.69
333.4	84.69
333.629	88.69
333.857	87.69
334.085	75.69
334.314	85.69
334.542	83.69
334.771	87.69
334.999	78.69
335.227	88.69
335.455	88.69
335.684	85.69
335.912	93.69
336.14	91.69
336.369	85.69
336.597	72.69
336.825	79.69
337.053	70.69
337.281	77.69
337.51	82.69
337.738	85.69
337.966	89.69
338.194	78.69
338.422	82.69
338.65	72.69
338.878	97.69
339.106	80.69
339.334	92.69
339.562	81.69
339.79	78.69
340.018	81.69
340.246	74.69
340.474	76.69
340.702	67.69
340.93	90.69
341.158	78.69
341.386	78.69
341.614	76.69
341.842	81.69
342.07	84.69
342.298	82.69
342.526	80.69
342.754	79.69
342.981	90.69
343.209	83.69
343.437	84.69
343.665	94.69
343.893	74.69
344.12	87.69
344.348	68.69
344.576	65.69
344.804	96.69
345.031	87.69
345.259	81.69
345.487	75.69
345.714	79.69
345.942	85.69
346.17	90.69
346.397	81.69
346.625	82.69
346.853	89.69
347.08	85.69
347.308	93.69
347.535	69.69
347.763	76.69
347.99	93.69
348.218	84.69
348.445	78.69
348.673	92.69
348.9	84.69
349.128	82.69
349.355	96.69
349.583	75.69
349.81	81.69
350.037	90.69
350.265	96.69
350.492	86.69
350.72	101.69
350.947	87.69
351.174	87.69
351.402	82.69
351.629	90.69
351.856	82.69
352.083	86.69
352.311	82.69
352.538	87.69
352.765	90.69
352.992	84.69
353.22	92.69
353.447	76.69
353.674	74.69
353.901	92.69
354.128	77.69
354.355	70.69
354.583	96.69
354.81	86.69
355.037	83.69
355.264	79.69
355.491	71.69
355.718	87.69
355.945	79.69
356.172	79.69
356.399	82.69
356.626	59.69
356.853	82.69
357.08	72.69
357.307	92.69
357.534	81.69
357.761	77.69
357.988	83.69
358.215	86.69
358.441	80.69
358.668	87.69
358.895	82.69
359.122	93.69
359.349	85.69
359.576	92.69
359.802	78.69
360.029	79.69
360.256	82.69
360.483	86.69
360.709	90.69
360.936	79.69
361.163	84.69
361.39	85.69
361.616	82.69
361.843	90.69
362.07	86.69
362.296	87.69
362.523	76.69
362.749	96.69
362.976	88.69
363.203	77.69
363.429	83.69
363.656	89.69
363.882	85.69
364.109	88.69
364.335	92.69
364.562	81.69
364.788	88.69
365.015	83.69
365.241	95.69
365.468	85.69
365.694	68.69
365.92	91.69
366.147	102.69
366.373	74.69
366.599	79.69
366.826	83.69
367.052	80.69
367.278	88.69
367.505	76.69
367.731	100.69
367.957	90.69
368.184	84.69
368.41	77.69
368.636	78.69
368.862	86.69
369.089	84.69
369.315	83.69
369.541	70.69
369.767	82.69
369.993	79.69
370.219	75.69
370.445	86.69
370.672	83.69
370.898	82.69
371.124	89.69
371.35	99.69
371.576	79.69
371.802	87.69
372.028	83.69
372.254	91.69
372.48	85.69
372.706	102.69
372.932	81.69
373.158	80.69
373.384	86.69
373.61	85.69
373.835	89.69
374.061	89.69
374.287	83.69
374.513	95.69
374.739	97.69
374.965	88.69
375.191	87.69
375.416	76.69
375.642	84.69
375.868	76.69
376.094	81.69
376.319	91.69
376.545	86.69
376.771	90.69
376.997	86.69
377.222	84.69
377.448	67.69
377.674	82.69
377.899	83.69
378.125	79.69
378.35	87.69
378.576	91.69
378.802	94.69
379.027	88.69
379.253	83.69
379.478	80.69
379.704	84.69
379.929	85.69
380.155	95.69
380.38	89.69
380.606	78.69
380.831	84.69
381.057	84.69
381.282	84.69
381.507	80.69
381.733	94.69
381.958	79.69
382.184	85.69
382.409	100.69
382.634	96.69
382.86	87.69
383.085	81.69
383.31	90.69
383.535	95.69
383.761	81.69
383.986	106.69
384.211	85.69
384.436	86.69
384.662	85.69
384.887	86.69
385.112	72.69
385.337	85.69
385.562	103.69
385.787	88.69
386.013	93.69
386.238	90.69
386.463	83.69
386.688	99.69
386.913	68.69
387.138	82.69
387.363	79.69
387.588	84.69
387.813	81.69
388.038	95.69
388.263	94.69
388.488	77.69
388.713	96.69
388.938	95.69
389.163	77.69
389.387	83.69
389.612	91.69
389.837	85.69
390.062	94.69
390.287	85.69
390.512	86.69
390.736	92.69
390.961	86.69
391.186	93.69
391.411	72.69
391.636	83.69
391.86	77.69
392.085	90.69
392.31	77.69
392.534	63.69
392.759	88.69
392.984	104.69
393.208	88.69
393.433	93.69
393.658	92.69
393.882	103.69
394.107	92.69
394.331	92.69
394.556	84.69
394.78	91.69
395.005	89.69
395.229	104.69
395.454	89.69
395.678	90.69
395.903	85.69
396.127	88.69
396.352	93.69
396.576	97.69
396.801	101.69
397.025	106.69
397.249	98.69
397.474	94.69
397.698	94.69
397.922	79.69
398.147	88.69
398.371	90.69
398.595	90.69
398.82	78.69
399.044	89.69
399.268	93.69
399.492	97.69
399.717	98.69
399.941	96.69
400.165	91.69
400.389	78.69
400.613	88.69
400.837	92.69
401.062	82.69
401.286	95.69
401.51	89.69
401.734	88.69
401.958	92.69
402.182	89.69
402.406	88.69
402.63	94.69
402.854	86.69
403.078	116.69
403.302	99.69
403.526	90.69
403.75	98.69
403.974	94.69
404.198	89.69
404.422	99.69
404.645	91.69
404.869	108.69
405.093	84.69
405.317	92.69
405.541	96.69
405.765	105.69
405.988	107.69
406.212	87.69
406.436	100.69
406.66	93.69
406.883	95.69
407.107	99.69
407.331	98.69
407.555	83.69
407.778	98.69
408.002	94.69
408.226	93.69
408.449	92.69
408.673	110.69
408.896	91.69
409.12	98.69
409.344	96.69
409.567	115.69
409.791	108.69
410.014	91.69
410.238	99.69
410.461	99.69
410.685	106.69
410.908	88.69
411.132	95.69
411.355	76.69
411.578	107.69
411.802	108.69
412.025	94.69
412.249	98.69
412.472	116.69
412.695	101.69
412.919	102.69
413.142	97.69
413.365	90.69
413.589	104.69
413.812	91.69
414.035	104.69
414.258	107.69
414.482	97.69
414.705	108.69
414.928	85.69
415.151	89.69
415.374	117.69
415.597	97.69
415.821	100.69
416.044	90.69
416.267	99.69
416.49	127.69
416.713	96.69
416.936	96.69
417.159	101.69
417.382	93.69
417.605	99.69
417.828	105.69
418.051	97.69
418.274	101.69
418.497	99.69
418.72	89.69
418.943	103.69
419.166	112.69
419.389	108.69
419.611	96.69
419.834	119.69
420.057	105.69
420.28	104.69
420.503	97.69
420.726	104.69
420.948	95.69
421.171	111.69
421.394	115.69
421.617	95.69
421.839	122.69
422.062	105.69
422.285	110.69
422.507	93.69
422.73	94.69
422.953	111.69
423.175	96.69
423.398	101.69
423.621	112.69
423.843	104.69
424.066	97.69
424.288	95.69
424.511	99.69
424.733	117.69
424.956	111.69
425.178	100.69
425.401	91.69
425.623	104.69
425.846	103.69
426.068	100.69
426.291	97.69
426.513	108.69
426.735	111.69
426.958	104.69
427.18	99.69
427.402	103.69
427.625	91.69
427.847	103.69
428.069	112.69
428.292	95.69
428.514	94.69
428.736	108.69
428.958	103.69
429.181	111.69
429.403	105.69
429.625	100.69
429.847	91.69
430.069	107.69
430.292	100.69
430.514	89.69
430.736	98.69
430.958	118.69
431.18	102.69
431.402	119.69
431.624	102.69
431.846	99.69
432.068	90.69
432.29	95.69
432.512	100.69
432.734	93.69
432.956	105.69
433.178	101.69
433.4	99.69
433.622	96.69
433.844	111.69
434.066	100.69
434.287	78.69
434.509	90.69
434.731	98.69
434.953	102.69
435.175	96.69
435.397	98.69
435.618	96.69
435.84	102.69
436.062	93.69
436.284	97.69
436.505	114.69
436.727	102.69
436.949	104.69
437.17	107.69
437.392	116.69
437.614	99.69
437.835	110.69
438.057	105.69
438.278	112.69
438.5	107.69
438.721	94.69
438.943	109.69
439.165	100.69
439.386	106.69
439.608	114.69
439.829	85.69
440.05	118.69
440.272	105.69
440.493	101.69
440.715	104.69
440.936	103.69
441.158	112.69
441.379	103.69
441.6	103.69
441.822	104.69
442.043	103.69
442.264	103.69
442.486	110.69
442.707	115.69
442.928	99.69
443.149	99.69
443.371	126.69
443.592	114.69
443.813	116.69
444.034	95.69
444.255	103.69
444.476	116.69
444.698	112.69
444.919	115.69
445.14	245.69
445.361	164.69
445.582	120.69
445.803	105.69
446.024	105.69
446.245	122.69
446.466	115.69
446.687	112.69
446.908	110.69
447.129	116.69
447.35	99.69
447.571	98.69
447.792	120.69
448.013	115.69
448.234	107.69
448.455	119.69
448.675	116.69
448.896	108.69
449.117	108.69
449.338	102.69
449.559	106.69
449.779	114.69
450	119.69
450.221	114.69
450.442	102.69
450.662	110.69
450.883	96.69
451.104	100.69
451.324	123.69
451.545	106.69
451.766	106.69
451.986	99.69
452.207	99.69
452.428	105.69
452.648	105.69
452.869	110.69
453.089	108.69
453.31	101.69
453.53	107.69
453.751	89.69
453.971	96.69
454.192	90.69
454.412	98.69
454.633	97.69
454.853	113.69
455.073	99.69
455.294	102.69
455.514	97.69
455.734	95.69
455.955	91.69
456.175	104.69
456.395	95.69
456.616	88.69
456.836	106.69
457.056	95.69
457.276	90.69
457.497	84.69
457.717	78.69
457.937	78.69
458.157	87.69
458.377	95.69
458.598	86.69
458.818	87.69
459.038	74.69
459.258	82.69
459.478	89.69
459.698	88.69
459.918	77.69
460.138	78.69
460.358	86.69
460.578	104.69
460.798	95.69
461.018	100.69
461.238	98.69
461.458	93.69
461.678	90.69
461.898	97.69
462.118	105.69
462.338	87.69
462.558	89.69
462.777	92.69
462.997	97.69
463.217	95.69
463.437	95.69
463.657	87.69
463.876	93.69
464.096	98.69
464.316	87.69
464.536	94.69
464.755	82.69
464.975	105.69
465.195	99.69
465.414	107.69
465.634	99.69
465.854	87.69
466.073	105.69
466.293	96.69
466.512	105.69
466.732	103.69
466.951	107.69
467.171	96.69
467.391	107.69
467.61	95.69
467.829	124.69
468.049	113.69
468.268	98.69
468.488	100.69
468.707	98.69
468.927	100.69
469.146	96.69
469.365	118.69
469.585	101.69
469.804	98.69
470.023	114.69
470.243	122.69
470.462	112.69
470.681	93.69
470.901	105.69
471.12	99.69
471.339	101.69
471.558	114.69
471.777	123.69
471.997	106.69
472.216	90.69
472.435	93.69
472.654	81.69
472.873	107.69
473.092	105.69
473.311	93.69
473.53	98.69
473.749	94.69
473.968	101.69
474.187	115.69
474.406	101.69
474.625	106.69
474.844	105.69
475.063	89.69
475.282	111.69
475.501	110.69
475.72	110.69
475.939	99.69
476.158	105.69
476.377	115.69
476.596	104.69
476.814	92.69
477.033	81.69
477.252	111.69
477.471	106.69
477.69	100.69
477.908	93.69
478.127	108.69
478.346	114.69
478.564	117.69
478.783	104.69
479.002	102.69
479.22	100.69
479.439	99.69
479.658	100.69
479.876	106.69
480.095	103.69
480.313	92.69
480.532	107.69
480.751	89.69
480.969	75.69
481.188	97.69
481.406	83.69
481.624	98.69
481.843	90.69
482.061	87.69
482.28	91.69
482.498	114.69
482.717	87.69
482.935	113.69
483.153	117.69
483.372	124.69
483.59	122.69
483.808	110.69
484.027	114.69
484.245	110.69
484.463	115.69
484.681	110.69
484.9	90.69
485.118	105.69
485.336	101.69
485.554	97.69
485.772	100.69
485.99	79.69
486.209	93.69
486.427	92.69
486.645	104.69
486.863	102.69
487.081	112.69
487.299	98.69
487.517	99.69
487.735	120.69
487.953	135.69
488.171	115.69
488.389	115.69
488.607	120.69
488.825	111.69
489.043	102.69
489.261	105.69
489.479	116.69
489.696	121.69
489.914	103.69
490.132	110.69
490.35	116.69
490.568	114.69
490.786	104.69
491.003	128.69
491.221	128.69
491.439	135.69
491.657	143.69
491.874	156.69
492.092	142.69
492.31	160.69
492.527	146.69
492.745	130.69
492.963	139.69
493.18	129.69
493.398	129.69
493.615	121.69
493.833	139.69
494.05	116.69
494.268	132.69
494.485	130.69
494.703	123.69
494.92	120.69
495.138	126.69
495.355	129.69
495.573	132.69
495.79	133.69
496.008	117.69
496.225	117.69
496.442	122.69
496.66	122.69
496.877	135.69
497.094	128.69
497.312	104.69
497.529	118.69
497.746	118.69
497.963	119.69
498.181	109.69
498.398	96.69
498.615	102.69
498.832	103.69
499.049	115.69
499.267	104.69
499.484	98.69
499.701	99.69
499.918	96.69
500.135	114.69
500.352	118.69
500.569	99.69
500.786	115.69
501.003	107.69
501.22	122.69
501.437	112.69
501.654	99.69
501.871	109.69
502.088	105.69
502.305	105.69
502.522	119.69
502.739	103.69
502.956	104.69
503.172	100.69
503.389	95.69
503.606	93.69
503.823	103.69
504.04	89.69
504.256	97.69
504.473	94.69
504.69	99.69
504.907	98.69
505.123	101.69
505.34	97.69
505.557	113.69
505.773	97.69
505.99	99.69
506.207	96.69
506.423	98.69
506.64	112.69
506.856	102.69
507.073	96.69
507.289	92.69
507.506	97.69
507.722	88.69
507.939	106.69
508.155	110.69
508.372	90.69
508.588	98.69
508.805	107.69
509.021	91.69
509.238	85.69
509.454	77.69
509.67	89.69
509.887	100.69
510.103	85.69
510.319	85.69
510.536	88.69
510.752	76.69
510.968	86.69
511.184	80.69
511.401	97.69
511.617	91.69
511.833	87.69
512.049	93.69
512.265	90.69
512.481	74.69
512.698	95.69
512.914	90.69
513.13	87.69
513.346	85.69
513.562	89.69
513.778	80.69
513.994	79.69
514.21	74.69
514.426	86.69
514.642	74.69
514.858	84.69
515.074	82.69
515.29	78.69
