Data from Zn(NO3)2Standard.Agarose3%.GreenCap.LampEnergy5.5.E.O_HRD10591_15-00-44-768.txt Node
Date: Mon Jul 22 15:00:44 EDT 2019
User: cochatt
Spectrometer: HR+D1059
Trigger mode: 1
Integration Time (sec): 1.000000E-1
Scans to average: 1
Electric dark correction enabled: true
Nonlinearity correction enabled: false
Boxcar width: 0
XAxis mode: Wavelengths
Number of Pixels in Spectrum: 2048
>>>>>Begin Spectral Data<<<<<
223.165	-15.56
223.4	-15.56
223.635	-15.56
223.869	-23.56
224.104	-5.56
224.338	-9.56
224.573	-10.56
224.808	-12.56
225.042	-11.56
225.277	-4.56
225.511	-10.56
225.746	-6.56
225.98	9.44
226.215	12.44
226.449	19.44
226.683	17.44
226.918	23.44
227.152	28.44
227.387	21.44
227.621	40.44
227.856	37.44
228.09	37.44
228.324	52.44
228.559	56.44
228.793	60.44
229.027	69.44
229.262	58.44
229.496	56.44
229.73	70.44
229.964	64.44
230.199	73.44
230.433	84.44
230.667	70.44
230.901	72.44
231.136	78.44
231.37	78.44
231.604	68.44
231.838	67.44
232.072	77.44
232.306	83.44
232.541	73.44
232.775	83.44
233.009	75.44
233.243	94.44
233.477	91.44
233.711	94.44
233.945	86.44
234.179	70.44
234.413	75.44
234.647	89.44
234.881	76.44
235.115	73.44
235.349	85.44
235.583	87.44
235.817	74.44
236.051	73.44
236.285	77.44
236.519	64.44
236.753	80.44
236.987	82.44
237.221	80.44
237.455	72.44
237.689	67.44
237.922	71.44
238.156	66.44
238.39	73.44
238.624	76.44
238.858	94.44
239.091	69.44
239.325	90.44
239.559	85.44
239.793	91.44
240.027	79.44
240.26	76.44
240.494	64.44
240.728	61.44
240.961	79.44
241.195	68.44
241.429	72.44
241.662	72.44
241.896	66.44
242.13	85.44
242.363	70.44
242.597	91.44
242.83	85.44
243.064	68.44
243.298	61.44
243.531	74.44
243.765	73.44
243.998	77.44
244.232	75.44
244.465	74.44
244.699	69.44
244.932	78.44
245.166	89.44
245.399	73.44
245.633	79.44
245.866	76.44
246.099	86.44
246.333	68.44
246.566	84.44
246.8	73.44
247.033	84.44
247.266	71.44
247.5	77.44
247.733	75.44
247.966	66.44
248.2	67.44
248.433	76.44
248.666	79.44
248.899	87.44
249.133	81.44
249.366	81.44
249.599	86.44
249.832	91.44
250.066	81.44
250.299	83.44
250.532	60.44
250.765	72.44
250.998	80.44
251.231	85.44
251.465	89.44
251.698	79.44
251.931	72.44
252.164	79.44
252.397	73.44
252.63	84.44
252.863	79.44
253.096	77.44
253.329	73.44
253.562	75.44
253.795	86.44
254.028	92.44
254.261	72.44
254.494	73.44
254.727	79.44
254.96	71.44
255.193	79.44
255.426	74.44
255.659	88.44
255.892	78.44
256.124	82.44
256.357	80.44
256.59	76.44
256.823	75.44
257.056	78.44
257.289	79.44
257.521	80.44
257.754	71.44
257.987	86.44
258.22	73.44
258.452	85.44
258.685	73.44
258.918	84.44
259.151	75.44
259.383	81.44
259.616	83.44
259.849	74.44
260.081	77.44
260.314	84.44
260.547	86.44
260.779	80.44
261.012	77.44
261.244	81.44
261.477	95.44
261.71	83.44
261.942	82.44
262.175	76.44
262.407	81.44
262.64	77.44
262.872	81.44
263.105	92.44
263.337	74.44
263.57	82.44
263.802	82.44
264.035	87.44
264.267	70.44
264.499	83.44
264.732	88.44
264.964	78.44
265.197	77.44
265.429	83.44
265.661	72.44
265.894	90.44
266.126	81.44
266.358	91.44
266.591	96.44
266.823	77.44
267.055	76.44
267.287	77.44
267.52	86.44
267.752	76.44
267.984	90.44
268.216	75.44
268.448	79.44
268.681	90.44
268.913	75.44
269.145	87.44
269.377	80.44
269.609	78.44
269.841	113.44
270.073	84.44
270.306	82.44
270.538	71.44
270.77	83.44
271.002	82.44
271.234	66.44
271.466	73.44
271.698	96.44
271.93	88.44
272.162	75.44
272.394	85.44
272.626	76.44
272.858	83.44
273.09	71.44
273.322	77.44
273.553	84.44
273.785	75.44
274.017	95.44
274.249	91.44
274.481	83.44
274.713	79.44
274.945	87.44
275.176	85.44
275.408	93.44
275.64	85.44
275.872	80.44
276.104	96.44
276.335	83.44
276.567	92.44
276.799	73.44
277.031	85.44
277.262	78.44
277.494	81.44
277.726	71.44
277.957	79.44
278.189	93.44
278.421	101.44
278.652	98.44
278.884	77.44
279.115	89.44
279.347	86.44
279.579	86.44
279.81	89.44
280.042	84.44
280.273	85.44
280.505	92.44
280.736	84.44
280.968	74.44
281.199	71.44
281.431	77.44
281.662	71.44
281.894	92.44
282.125	83.44
282.356	76.44
282.588	78.44
282.819	79.44
283.051	73.44
283.282	89.44
283.513	79.44
283.745	88.44
283.976	94.44
284.207	69.44
284.439	99.44
284.67	93.44
284.901	81.44
285.132	96.44
285.364	93.44
285.595	76.44
285.826	71.44
286.057	87.44
286.288	69.44
286.52	83.44
286.751	76.44
286.982	88.44
287.213	71.44
287.444	82.44
287.675	82.44
287.906	78.44
288.138	84.44
288.369	75.44
288.6	95.44
288.831	84.44
289.062	69.44
289.293	77.44
289.524	86.44
289.755	80.44
289.986	90.44
290.217	81.44
290.448	80.44
290.679	93.44
290.91	87.44
291.141	81.44
291.371	73.44
291.602	95.44
291.833	76.44
292.064	81.44
292.295	88.44
292.526	77.44
292.757	82.44
292.987	88.44
293.218	84.44
293.449	91.44
293.68	83.44
293.91	92.44
294.141	92.44
294.372	96.44
294.603	87.44
294.833	95.44
295.064	67.44
295.295	77.44
295.525	84.44
295.756	90.44
295.987	76.44
296.217	85.44
296.448	91.44
296.679	64.44
296.909	91.44
297.14	86.44
297.37	84.44
297.601	75.44
297.831	92.44
298.062	85.44
298.292	73.44
298.523	83.44
298.753	78.44
298.984	89.44
299.214	83.44
299.445	78.44
299.675	87.44
299.905	77.44
300.136	90.44
300.366	93.44
300.597	81.44
300.827	84.44
301.057	92.44
301.288	76.44
301.518	93.44
301.748	85.44
301.979	91.44
302.209	84.44
302.439	89.44
302.669	90.44
302.9	99.44
303.13	84.44
303.36	77.44
303.59	90.44
303.82	80.44
304.051	81.44
304.281	93.44
304.511	86.44
304.741	86.44
304.971	87.44
305.201	75.44
305.431	87.44
305.661	95.44
305.891	77.44
306.121	86.44
306.352	93.44
306.582	81.44
306.812	96.44
307.042	96.44
307.272	80.44
307.502	89.44
307.731	77.44
307.961	73.44
308.191	77.44
308.421	85.44
308.651	85.44
308.881	74.44
309.111	83.44
309.341	74.44
309.571	100.44
309.8	83.44
310.03	65.44
310.26	83.44
310.49	83.44
310.72	92.44
310.949	85.44
311.179	84.44
311.409	73.44
311.639	80.44
311.868	87.44
312.098	82.44
312.328	84.44
312.557	90.44
312.787	82.44
313.017	94.44
313.246	78.44
313.476	82.44
313.706	89.44
313.935	87.44
314.165	81.44
314.394	84.44
314.624	97.44
314.853	80.44
315.083	81.44
315.312	86.44
315.542	91.44
315.771	87.44
316.001	89.44
316.23	84.44
316.46	80.44
316.689	73.44
316.919	83.44
317.148	75.44
317.377	89.44
317.607	71.44
317.836	71.44
318.065	80.44
318.295	76.44
318.524	96.44
318.753	104.44
318.983	68.44
319.212	72.44
319.441	83.44
319.67	84.44
319.9	73.44
320.129	78.44
320.358	81.44
320.587	94.44
320.816	90.44
321.046	77.44
321.275	88.44
321.504	76.44
321.733	96.44
321.962	85.44
322.191	67.44
322.42	80.44
322.649	75.44
322.878	83.44
323.108	84.44
323.337	78.44
323.566	85.44
323.795	96.44
324.024	101.44
324.253	87.44
324.482	77.44
324.71	77.44
324.939	95.44
325.168	77.44
325.397	86.44
325.626	75.44
325.855	85.44
326.084	83.44
326.313	97.44
326.542	93.44
326.77	91.44
326.999	101.44
327.228	81.44
327.457	81.44
327.686	89.44
327.914	80.44
328.143	75.44
328.372	81.44
328.6	83.44
328.829	80.44
329.058	97.44
329.287	71.44
329.515	87.44
329.744	85.44
329.972	85.44
330.201	89.44
330.43	85.44
330.658	73.44
330.887	91.44
331.115	65.44
331.344	91.44
331.572	75.44
331.801	90.44
332.03	85.44
332.258	80.44
332.486	85.44
332.715	77.44
332.943	86.44
333.172	89.44
333.4	95.44
333.629	96.44
333.857	91.44
334.085	85.44
334.314	75.44
334.542	85.44
334.771	91.44
334.999	81.44
335.227	81.44
335.455	75.44
335.684	83.44
335.912	99.44
336.14	88.44
336.369	84.44
336.597	92.44
336.825	97.44
337.053	78.44
337.281	95.44
337.51	92.44
337.738	78.44
337.966	71.44
338.194	91.44
338.422	83.44
338.65	86.44
338.878	80.44
339.106	92.44
339.334	82.44
339.562	89.44
339.79	79.44
340.018	88.44
340.246	84.44
340.474	85.44
340.702	85.44
340.93	86.44
341.158	88.44
341.386	83.44
341.614	78.44
341.842	99.44
342.07	77.44
342.298	86.44
342.526	82.44
342.754	76.44
342.981	74.44
343.209	73.44
343.437	69.44
343.665	85.44
343.893	73.44
344.12	83.44
344.348	73.44
344.576	81.44
344.804	95.44
345.031	85.44
345.259	74.44
345.487	83.44
345.714	91.44
345.942	81.44
346.17	87.44
346.397	92.44
346.625	65.44
346.853	83.44
347.08	83.44
347.308	86.44
347.535	80.44
347.763	72.44
347.99	83.44
348.218	94.44
348.445	80.44
348.673	71.44
348.9	95.44
349.128	77.44
349.355	83.44
349.583	90.44
349.81	82.44
350.037	88.44
350.265	80.44
350.492	71.44
350.72	75.44
350.947	76.44
351.174	84.44
351.402	100.44
351.629	72.44
351.856	79.44
352.083	85.44
352.311	88.44
352.538	89.44
352.765	68.44
352.992	83.44
353.22	80.44
353.447	80.44
353.674	80.44
353.901	83.44
354.128	84.44
354.355	80.44
354.583	107.44
354.81	93.44
355.037	82.44
355.264	97.44
355.491	95.44
355.718	91.44
355.945	90.44
356.172	95.44
356.399	84.44
356.626	84.44
356.853	71.44
357.08	86.44
357.307	74.44
357.534	84.44
357.761	67.44
357.988	86.44
358.215	90.44
358.441	91.44
358.668	81.44
358.895	90.44
359.122	86.44
359.349	82.44
359.576	84.44
359.802	85.44
360.029	81.44
360.256	84.44
360.483	89.44
360.709	79.44
360.936	86.44
361.163	83.44
361.39	81.44
361.616	77.44
361.843	73.44
362.07	88.44
362.296	75.44
362.523	74.44
362.749	81.44
362.976	77.44
363.203	82.44
363.429	79.44
363.656	81.44
363.882	83.44
364.109	83.44
364.335	79.44
364.562	76.44
364.788	77.44
365.015	78.44
365.241	84.44
365.468	95.44
365.694	85.44
365.92	87.44
366.147	75.44
366.373	82.44
366.599	82.44
366.826	76.44
367.052	90.44
367.278	77.44
367.505	89.44
367.731	95.44
367.957	85.44
368.184	90.44
368.41	90.44
368.636	87.44
368.862	95.44
369.089	78.44
369.315	84.44
369.541	75.44
369.767	82.44
369.993	83.44
370.219	71.44
370.445	67.44
370.672	84.44
370.898	91.44
371.124	77.44
371.35	82.44
371.576	98.44
371.802	88.44
372.028	88.44
372.254	99.44
372.48	77.44
372.706	67.44
372.932	73.44
373.158	93.44
373.384	77.44
373.61	92.44
373.835	90.44
374.061	96.44
374.287	78.44
374.513	94.44
374.739	83.44
374.965	75.44
375.191	76.44
375.416	84.44
375.642	99.44
375.868	88.44
376.094	99.44
376.319	90.44
376.545	89.44
376.771	83.44
376.997	88.44
377.222	90.44
377.448	86.44
377.674	85.44
377.899	99.44
378.125	85.44
378.35	91.44
378.576	82.44
378.802	74.44
379.027	85.44
379.253	96.44
379.478	105.44
379.704	90.44
379.929	99.44
380.155	84.44
380.38	85.44
380.606	91.44
380.831	82.44
381.057	92.44
381.282	87.44
381.507	81.44
381.733	84.44
381.958	84.44
382.184	74.44
382.409	82.44
382.634	82.44
382.86	77.44
383.085	99.44
383.31	82.44
383.535	85.44
383.761	82.44
383.986	92.44
384.211	77.44
384.436	77.44
384.662	92.44
384.887	89.44
385.112	84.44
385.337	84.44
385.562	76.44
385.787	88.44
386.013	99.44
386.238	83.44
386.463	80.44
386.688	84.44
386.913	84.44
387.138	87.44
387.363	91.44
387.588	87.44
387.813	91.44
388.038	85.44
388.263	86.44
388.488	79.44
388.713	87.44
388.938	77.44
389.163	70.44
389.387	79.44
389.612	67.44
389.837	86.44
390.062	95.44
390.287	80.44
390.512	80.44
390.736	83.44
390.961	85.44
391.186	68.44
391.411	85.44
391.636	71.44
391.86	85.44
392.085	84.44
392.31	98.44
392.534	85.44
392.759	77.44
392.984	73.44
393.208	86.44
393.433	81.44
393.658	89.44
393.882	76.44
394.107	84.44
394.331	67.44
394.556	84.44
394.78	73.44
395.005	69.44
395.229	65.44
395.454	81.44
395.678	81.44
395.903	75.44
396.127	87.44
396.352	68.44
396.576	70.44
396.801	76.44
397.025	91.44
397.249	73.44
397.474	89.44
397.698	85.44
397.922	88.44
398.147	77.44
398.371	79.44
398.595	75.44
398.82	93.44
399.044	80.44
399.268	83.44
399.492	89.44
399.717	83.44
399.941	90.44
400.165	87.44
400.389	67.44
400.613	87.44
400.837	73.44
401.062	78.44
401.286	88.44
401.51	78.44
401.734	95.44
401.958	89.44
402.182	86.44
402.406	85.44
402.63	91.44
402.854	72.44
403.078	63.44
403.302	81.44
403.526	78.44
403.75	79.44
403.974	81.44
404.198	85.44
404.422	80.44
404.645	88.44
404.869	95.44
405.093	76.44
405.317	95.44
405.541	89.44
405.765	82.44
405.988	95.44
406.212	85.44
406.436	79.44
406.66	70.44
406.883	79.44
407.107	74.44
407.331	87.44
407.555	94.44
407.778	83.44
408.002	80.44
408.226	74.44
408.449	90.44
408.673	83.44
408.896	81.44
409.12	82.44
409.344	79.44
409.567	86.44
409.791	79.44
410.014	88.44
410.238	76.44
410.461	95.44
410.685	84.44
410.908	76.44
411.132	90.44
411.355	98.44
411.578	102.44
411.802	89.44
412.025	86.44
412.249	74.44
412.472	76.44
412.695	80.44
412.919	89.44
413.142	93.44
413.365	87.44
413.589	91.44
413.812	87.44
414.035	81.44
414.258	81.44
414.482	66.44
414.705	93.44
414.928	88.44
415.151	88.44
415.374	98.44
415.597	89.44
415.821	98.44
416.044	76.44
416.267	100.44
416.49	86.44
416.713	91.44
416.936	84.44
417.159	107.44
417.382	85.44
417.605	73.44
417.828	78.44
418.051	91.44
418.274	94.44
418.497	88.44
418.72	86.44
418.943	88.44
419.166	81.44
419.389	99.44
419.611	91.44
419.834	96.44
420.057	86.44
420.28	83.44
420.503	102.44
420.726	89.44
420.948	77.44
421.171	81.44
421.394	79.44
421.617	93.44
421.839	91.44
422.062	78.44
422.285	73.44
422.507	100.44
422.73	73.44
422.953	86.44
423.175	78.44
423.398	88.44
423.621	93.44
423.843	92.44
424.066	89.44
424.288	80.44
424.511	83.44
424.733	80.44
424.956	78.44
425.178	91.44
425.401	101.44
425.623	75.44
425.846	87.44
426.068	90.44
426.291	89.44
426.513	83.44
426.735	97.44
426.958	89.44
427.18	89.44
427.402	80.44
427.625	81.44
427.847	76.44
428.069	76.44
428.292	75.44
428.514	80.44
428.736	77.44
428.958	88.44
429.181	81.44
429.403	84.44
429.625	83.44
429.847	90.44
430.069	93.44
430.292	84.44
430.514	79.44
430.736	91.44
430.958	81.44
431.18	96.44
431.402	87.44
431.624	99.44
431.846	95.44
432.068	92.44
432.29	85.44
432.512	91.44
432.734	87.44
432.956	88.44
433.178	92.44
433.4	92.44
433.622	87.44
433.844	82.44
434.066	97.44
434.287	88.44
434.509	74.44
434.731	92.44
434.953	80.44
435.175	95.44
435.397	94.44
435.618	83.44
435.84	74.44
436.062	80.44
436.284	81.44
436.505	80.44
436.727	80.44
436.949	96.44
437.17	91.44
437.392	83.44
437.614	83.44
437.835	88.44
438.057	83.44
438.278	93.44
438.5	84.44
438.721	85.44
438.943	101.44
439.165	97.44
439.386	99.44
439.608	98.44
439.829	83.44
440.05	73.44
440.272	81.44
440.493	93.44
440.715	79.44
440.936	101.44
441.158	87.44
441.379	101.44
441.6	93.44
441.822	106.44
442.043	88.44
442.264	87.44
442.486	83.44
442.707	84.44
442.928	73.44
443.149	100.44
443.371	97.44
443.592	95.44
443.813	84.44
444.034	91.44
444.255	70.44
444.476	89.44
444.698	84.44
444.919	90.44
445.14	186.44
445.361	127.44
445.582	87.44
445.803	84.44
446.024	93.44
446.245	91.44
446.466	96.44
446.687	79.44
446.908	90.44
447.129	89.44
447.35	101.44
447.571	85.44
447.792	95.44
448.013	92.44
448.234	91.44
448.455	84.44
448.675	93.44
448.896	88.44
449.117	85.44
449.338	108.44
449.559	93.44
449.779	90.44
450	80.44
450.221	84.44
450.442	76.44
450.662	73.44
450.883	99.44
451.104	98.44
451.324	92.44
451.545	80.44
451.766	95.44
451.986	94.44
452.207	77.44
452.428	85.44
452.648	81.44
452.869	93.44
453.089	81.44
453.31	86.44
453.53	74.44
453.751	83.44
453.971	81.44
454.192	87.44
454.412	73.44
454.633	90.44
454.853	86.44
455.073	72.44
455.294	93.44
455.514	86.44
455.734	79.44
455.955	84.44
456.175	81.44
456.395	90.44
456.616	87.44
456.836	72.44
457.056	75.44
457.276	81.44
457.497	71.44
457.717	85.44
457.937	99.44
458.157	85.44
458.377	86.44
458.598	88.44
458.818	79.44
459.038	85.44
459.258	74.44
459.478	72.44
459.698	78.44
459.918	83.44
460.138	81.44
460.358	80.44
460.578	68.44
460.798	86.44
461.018	90.44
461.238	85.44
461.458	67.44
461.678	65.44
461.898	86.44
462.118	92.44
462.338	74.44
462.558	88.44
462.777	80.44
462.997	84.44
463.217	76.44
463.437	93.44
463.657	81.44
463.876	86.44
464.096	85.44
464.316	81.44
464.536	80.44
464.755	84.44
464.975	99.44
465.195	75.44
465.414	83.44
465.634	81.44
465.854	85.44
466.073	84.44
466.293	99.44
466.512	96.44
466.732	98.44
466.951	80.44
467.171	80.44
467.391	77.44
467.61	95.44
467.829	87.44
468.049	96.44
468.268	85.44
468.488	79.44
468.707	83.44
468.927	88.44
469.146	95.44
469.365	88.44
469.585	83.44
469.804	65.44
470.023	86.44
470.243	92.44
470.462	97.44
470.681	104.44
470.901	90.44
471.12	92.44
471.339	84.44
471.558	84.44
471.777	95.44
471.997	79.44
472.216	83.44
472.435	90.44
472.654	88.44
472.873	85.44
473.092	98.44
473.311	85.44
473.53	87.44
473.749	92.44
473.968	88.44
474.187	85.44
474.406	103.44
474.625	95.44
474.844	73.44
475.063	85.44
475.282	97.44
475.501	80.44
475.72	99.44
475.939	90.44
476.158	93.44
476.377	95.44
476.596	90.44
476.814	79.44
477.033	86.44
477.252	99.44
477.471	98.44
477.69	87.44
477.908	76.44
478.127	90.44
478.346	88.44
478.564	97.44
478.783	81.44
479.002	96.44
479.22	97.44
479.439	88.44
479.658	83.44
479.876	85.44
480.095	72.44
480.313	99.44
480.532	88.44
480.751	83.44
480.969	79.44
481.188	87.44
481.406	86.44
481.624	99.44
481.843	78.44
482.061	90.44
482.28	93.44
482.498	89.44
482.717	74.44
482.935	77.44
483.153	82.44
483.372	83.44
483.59	86.44
483.808	95.44
484.027	91.44
484.245	91.44
484.463	93.44
484.681	92.44
484.9	86.44
485.118	95.44
485.336	93.44
485.554	81.44
485.772	90.44
485.99	89.44
486.209	95.44
486.427	83.44
486.645	83.44
486.863	70.44
487.081	99.44
487.299	93.44
487.517	81.44
487.735	94.44
487.953	104.44
488.171	105.44
488.389	108.44
488.607	90.44
488.825	89.44
489.043	95.44
489.261	92.44
489.479	91.44
489.696	84.44
489.914	88.44
490.132	95.44
490.35	83.44
490.568	87.44
490.786	99.44
491.003	99.44
491.221	89.44
491.439	97.44
491.657	98.44
491.874	98.44
492.092	98.44
492.31	110.44
492.527	114.44
492.745	105.44
492.963	101.44
493.18	84.44
493.398	97.44
493.615	96.44
493.833	104.44
494.05	101.44
494.268	87.44
494.485	104.44
494.703	86.44
494.92	95.44
495.138	83.44
495.355	100.44
495.573	88.44
495.79	100.44
496.008	97.44
496.225	92.44
496.442	88.44
496.66	108.44
496.877	106.44
497.094	101.44
497.312	85.44
497.529	94.44
497.746	80.44
497.963	99.44
498.181	81.44
498.398	83.44
498.615	80.44
498.832	70.44
499.049	85.44
499.267	85.44
499.484	99.44
499.701	97.44
499.918	88.44
500.135	81.44
500.352	89.44
500.569	77.44
500.786	103.44
501.003	92.44
501.22	97.44
501.437	103.44
501.654	93.44
501.871	85.44
502.088	92.44
502.305	91.44
502.522	76.44
502.739	85.44
502.956	100.44
503.172	72.44
503.389	97.44
503.606	84.44
503.823	81.44
504.04	92.44
504.256	91.44
504.473	91.44
504.69	93.44
504.907	103.44
505.123	91.44
505.34	83.44
505.557	94.44
505.773	94.44
505.99	84.44
506.207	78.44
506.423	92.44
506.64	83.44
506.856	98.44
507.073	109.44
507.289	98.44
507.506	93.44
507.722	85.44
507.939	87.44
508.155	82.44
508.372	65.44
508.588	96.44
508.805	85.44
509.021	94.44
509.238	70.44
509.454	85.44
509.67	73.44
509.887	98.44
510.103	95.44
510.319	79.44
510.536	92.44
510.752	72.44
510.968	80.44
511.184	78.44
511.401	75.44
511.617	88.44
511.833	83.44
512.049	76.44
512.265	80.44
512.481	85.44
512.698	89.44
512.914	83.44
513.13	77.44
513.346	86.44
513.562	85.44
513.778	80.44
513.994	93.44
514.21	72.44
514.426	81.44
514.642	90.44
514.858	75.44
515.074	92.44
515.29	91.44
515.506	84.44
515.721	79.44
515.937	81.44
516.153	82.44
516.369	89.44
516.585	79.44
516.801	88.44
517.016	78.44
517.232	91.44
517.448	85.44
517.664	76.44
517.879	96.44
518.095	80.44
518.311	82.44
518.527	90.44
518.742	90.44
