Data from Zn(NO3)2Standard.Agarose3%.GreenCap.LampEnergy10E.O_HRD10591_15-07-37-945.txt Node
Date: Mon Jul 22 15:07:37 EDT 2019
User: cochatt
Spectrometer: HR+D1059
Trigger mode: 1
Integration Time (sec): 1.000000E-1
Scans to average: 1
Electric dark correction enabled: true
Nonlinearity correction enabled: false
Boxcar width: 0
XAxis mode: Wavelengths
Number of Pixels in Spectrum: 2048
>>>>>Begin Spectral Data<<<<<
223.165	-13.06
223.4	-13.06
223.635	-13.06
223.869	-7.06
224.104	-20.06
224.338	-29.06
224.573	-14.06
224.808	-4.06
225.042	-15.06
225.277	4.94
225.511	-3.06
225.746	-8.06
225.98	-0.06
226.215	5.94
226.449	11.94
226.683	27.94
226.918	32.94
227.152	29.94
227.387	26.94
227.621	36.94
227.856	42.94
228.09	46.94
228.324	36.94
228.559	52.94
228.793	55.94
229.027	48.94
229.262	64.94
229.496	69.94
229.73	62.94
229.964	66.94
230.199	72.94
230.433	81.94
230.667	71.94
230.901	73.94
231.136	79.94
231.37	75.94
231.604	86.94
231.838	72.94
232.072	88.94
232.306	85.94
232.541	78.94
232.775	78.94
233.009	85.94
233.243	78.94
233.477	80.94
233.711	74.94
233.945	80.94
234.179	66.94
234.413	75.94
234.647	89.94
234.881	83.94
235.115	81.94
235.349	85.94
235.583	82.94
235.817	83.94
236.051	74.94
236.285	68.94
236.519	70.94
236.753	67.94
236.987	78.94
237.221	69.94
237.455	70.94
237.689	65.94
237.922	63.94
238.156	63.94
238.39	71.94
238.624	63.94
238.858	73.94
239.091	78.94
239.325	71.94
239.559	83.94
239.793	73.94
240.027	78.94
240.26	96.94
240.494	78.94
240.728	66.94
240.961	77.94
241.195	66.94
241.429	68.94
241.662	67.94
241.896	66.94
242.13	67.94
242.363	75.94
242.597	80.94
242.83	79.94
243.064	75.94
243.298	82.94
243.531	72.94
243.765	68.94
243.998	82.94
244.232	83.94
244.465	84.94
244.699	88.94
244.932	84.94
245.166	80.94
245.399	79.94
245.633	71.94
245.866	74.94
246.099	71.94
246.333	69.94
246.566	80.94
246.8	55.94
247.033	83.94
247.266	68.94
247.5	69.94
247.733	76.94
247.966	86.94
248.2	89.94
248.433	74.94
248.666	81.94
248.899	79.94
249.133	78.94
249.366	86.94
249.599	86.94
249.832	83.94
250.066	81.94
250.299	73.94
250.532	87.94
250.765	70.94
250.998	70.94
251.231	78.94
251.465	74.94
251.698	79.94
251.931	73.94
252.164	83.94
252.397	76.94
252.63	67.94
252.863	87.94
253.096	85.94
253.329	71.94
253.562	75.94
253.795	86.94
254.028	81.94
254.261	87.94
254.494	85.94
254.727	80.94
254.96	92.94
255.193	63.94
255.426	81.94
255.659	82.94
255.892	66.94
256.124	73.94
256.357	89.94
256.59	83.94
256.823	78.94
257.056	74.94
257.289	88.94
257.521	80.94
257.754	71.94
257.987	79.94
258.22	81.94
258.452	69.94
258.685	86.94
258.918	77.94
259.151	70.94
259.383	61.94
259.616	81.94
259.849	78.94
260.081	88.94
260.314	73.94
260.547	72.94
260.779	83.94
261.012	83.94
261.244	83.94
261.477	104.94
261.71	95.94
261.942	75.94
262.175	72.94
262.407	87.94
262.64	86.94
262.872	86.94
263.105	70.94
263.337	64.94
263.57	85.94
263.802	80.94
264.035	88.94
264.267	80.94
264.499	85.94
264.732	69.94
264.964	65.94
265.197	67.94
265.429	80.94
265.661	95.94
265.894	85.94
266.126	80.94
266.358	85.94
266.591	84.94
266.823	83.94
267.055	78.94
267.287	89.94
267.52	79.94
267.752	87.94
267.984	88.94
268.216	76.94
268.448	71.94
268.681	69.94
268.913	70.94
269.145	82.94
269.377	82.94
269.609	77.94
269.841	79.94
270.073	81.94
270.306	84.94
270.538	89.94
270.77	74.94
271.002	84.94
271.234	85.94
271.466	63.94
271.698	79.94
271.93	79.94
272.162	66.94
272.394	89.94
272.626	85.94
272.858	80.94
273.09	73.94
273.322	80.94
273.553	80.94
273.785	77.94
274.017	81.94
274.249	82.94
274.481	96.94
274.713	75.94
274.945	82.94
275.176	103.94
275.408	80.94
275.64	91.94
275.872	69.94
276.104	88.94
276.335	63.94
276.567	82.94
276.799	85.94
277.031	82.94
277.262	83.94
277.494	83.94
277.726	85.94
277.957	82.94
278.189	75.94
278.421	81.94
278.652	80.94
278.884	97.94
279.115	89.94
279.347	75.94
279.579	87.94
279.81	92.94
280.042	79.94
280.273	75.94
280.505	83.94
280.736	66.94
280.968	84.94
281.199	94.94
281.431	78.94
281.662	82.94
281.894	83.94
282.125	81.94
282.356	75.94
282.588	81.94
282.819	94.94
283.051	91.94
283.282	82.94
283.513	78.94
283.745	105.94
283.976	90.94
284.207	89.94
284.439	79.94
284.67	90.94
284.901	91.94
285.132	100.94
285.364	89.94
285.595	80.94
285.826	73.94
286.057	79.94
286.288	90.94
286.52	74.94
286.751	67.94
286.982	82.94
287.213	95.94
287.444	81.94
287.675	90.94
287.906	97.94
288.138	83.94
288.369	70.94
288.6	69.94
288.831	82.94
289.062	90.94
289.293	85.94
289.524	83.94
289.755	91.94
289.986	86.94
290.217	77.94
290.448	94.94
290.679	87.94
290.91	82.94
291.141	86.94
291.371	91.94
291.602	93.94
291.833	88.94
292.064	87.94
292.295	77.94
292.526	71.94
292.757	92.94
292.987	87.94
293.218	76.94
293.449	86.94
293.68	85.94
293.91	70.94
294.141	89.94
294.372	81.94
294.603	87.94
294.833	83.94
295.064	75.94
295.295	80.94
295.525	85.94
295.756	81.94
295.987	75.94
296.217	89.94
296.448	88.94
296.679	75.94
296.909	90.94
297.14	80.94
297.37	86.94
297.601	85.94
297.831	77.94
298.062	73.94
298.292	77.94
298.523	83.94
298.753	81.94
298.984	85.94
299.214	75.94
299.445	90.94
299.675	74.94
299.905	80.94
300.136	82.94
300.366	91.94
300.597	85.94
300.827	90.94
301.057	82.94
301.288	75.94
301.518	78.94
301.748	90.94
301.979	93.94
302.209	79.94
302.439	81.94
302.669	83.94
302.9	88.94
303.13	74.94
303.36	80.94
303.59	81.94
303.82	76.94
304.051	84.94
304.281	96.94
304.511	78.94
304.741	73.94
304.971	88.94
305.201	80.94
305.431	89.94
305.661	74.94
305.891	89.94
306.121	86.94
306.352	84.94
306.582	79.94
306.812	88.94
307.042	80.94
307.272	76.94
307.502	79.94
307.731	78.94
307.961	84.94
308.191	79.94
308.421	95.94
308.651	85.94
308.881	89.94
309.111	79.94
309.341	72.94
309.571	76.94
309.8	80.94
310.03	93.94
310.26	74.94
310.49	78.94
310.72	89.94
310.949	82.94
311.179	57.94
311.409	81.94
311.639	78.94
311.868	94.94
312.098	70.94
312.328	83.94
312.557	83.94
312.787	83.94
313.017	81.94
313.246	85.94
313.476	83.94
313.706	85.94
313.935	86.94
314.165	82.94
314.394	81.94
314.624	91.94
314.853	83.94
315.083	76.94
315.312	83.94
315.542	80.94
315.771	85.94
316.001	75.94
316.23	101.94
316.46	79.94
316.689	98.94
316.919	80.94
317.148	75.94
317.377	84.94
317.607	93.94
317.836	83.94
318.065	93.94
318.295	99.94
318.524	82.94
318.753	88.94
318.983	89.94
319.212	81.94
319.441	80.94
319.67	78.94
319.9	79.94
320.129	81.94
320.358	93.94
320.587	87.94
320.816	94.94
321.046	90.94
321.275	80.94
321.504	67.94
321.733	94.94
321.962	97.94
322.191	81.94
322.42	87.94
322.649	75.94
322.878	86.94
323.108	82.94
323.337	91.94
323.566	91.94
323.795	80.94
324.024	90.94
324.253	93.94
324.482	85.94
324.71	97.94
324.939	77.94
325.168	94.94
325.397	89.94
325.626	80.94
325.855	89.94
326.084	80.94
326.313	86.94
326.542	78.94
326.77	83.94
326.999	80.94
327.228	66.94
327.457	78.94
327.686	70.94
327.914	89.94
328.143	85.94
328.372	69.94
328.6	68.94
328.829	102.94
329.058	69.94
329.287	83.94
329.515	84.94
329.744	79.94
329.972	83.94
330.201	74.94
330.43	80.94
330.658	84.94
330.887	86.94
331.115	93.94
331.344	82.94
331.572	75.94
331.801	78.94
332.03	82.94
332.258	80.94
332.486	88.94
332.715	91.94
332.943	97.94
333.172	79.94
333.4	92.94
333.629	98.94
333.857	84.94
334.085	89.94
334.314	76.94
334.542	85.94
334.771	81.94
334.999	68.94
335.227	71.94
335.455	73.94
335.684	86.94
335.912	93.94
336.14	70.94
336.369	87.94
336.597	79.94
336.825	89.94
337.053	97.94
337.281	75.94
337.51	88.94
337.738	91.94
337.966	84.94
338.194	81.94
338.422	77.94
338.65	70.94
338.878	78.94
339.106	66.94
339.334	92.94
339.562	83.94
339.79	76.94
340.018	81.94
340.246	83.94
340.474	81.94
340.702	87.94
340.93	93.94
341.158	87.94
341.386	79.94
341.614	84.94
341.842	82.94
342.07	97.94
342.298	74.94
342.526	72.94
342.754	95.94
342.981	94.94
343.209	78.94
343.437	100.94
343.665	84.94
343.893	87.94
344.12	64.94
344.348	83.94
344.576	90.94
344.804	85.94
345.031	80.94
345.259	74.94
345.487	81.94
345.714	89.94
345.942	100.94
346.17	88.94
346.397	69.94
346.625	82.94
346.853	92.94
347.08	77.94
347.308	73.94
347.535	77.94
347.763	91.94
347.99	69.94
348.218	74.94
348.445	82.94
348.673	89.94
348.9	96.94
349.128	79.94
349.355	71.94
349.583	85.94
349.81	75.94
350.037	83.94
350.265	76.94
350.492	109.94
350.72	74.94
350.947	99.94
351.174	90.94
351.402	86.94
351.629	90.94
351.856	86.94
352.083	83.94
352.311	77.94
352.538	80.94
352.765	77.94
352.992	81.94
353.22	89.94
353.447	94.94
353.674	76.94
353.901	79.94
354.128	77.94
354.355	95.94
354.583	71.94
354.81	81.94
355.037	78.94
355.264	80.94
355.491	69.94
355.718	73.94
355.945	74.94
356.172	77.94
356.399	86.94
356.626	89.94
356.853	75.94
357.08	78.94
357.307	69.94
357.534	85.94
357.761	85.94
357.988	94.94
358.215	90.94
358.441	92.94
358.668	80.94
358.895	81.94
359.122	84.94
359.349	75.94
359.576	87.94
359.802	91.94
360.029	72.94
360.256	95.94
360.483	90.94
360.709	80.94
360.936	74.94
361.163	80.94
361.39	73.94
361.616	71.94
361.843	70.94
362.07	68.94
362.296	78.94
362.523	75.94
362.749	74.94
362.976	73.94
363.203	89.94
363.429	78.94
363.656	72.94
363.882	95.94
364.109	77.94
364.335	69.94
364.562	92.94
364.788	81.94
365.015	98.94
365.241	80.94
365.468	92.94
365.694	72.94
365.92	68.94
366.147	91.94
366.373	82.94
366.599	82.94
366.826	87.94
367.052	85.94
367.278	73.94
367.505	72.94
367.731	83.94
367.957	72.94
368.184	98.94
368.41	74.94
368.636	81.94
368.862	72.94
369.089	80.94
369.315	84.94
369.541	90.94
369.767	93.94
369.993	85.94
370.219	86.94
370.445	73.94
370.672	82.94
370.898	80.94
371.124	82.94
371.35	89.94
371.576	75.94
371.802	86.94
372.028	83.94
372.254	79.94
372.48	85.94
372.706	92.94
372.932	86.94
373.158	86.94
373.384	104.94
373.61	78.94
373.835	97.94
374.061	86.94
374.287	88.94
374.513	78.94
374.739	78.94
374.965	84.94
375.191	77.94
375.416	88.94
375.642	88.94
375.868	82.94
376.094	88.94
376.319	76.94
376.545	78.94
376.771	67.94
376.997	90.94
377.222	72.94
377.448	90.94
377.674	80.94
377.899	73.94
378.125	93.94
378.35	78.94
378.576	81.94
378.802	80.94
379.027	84.94
379.253	84.94
379.478	82.94
379.704	79.94
379.929	75.94
380.155	85.94
380.38	90.94
380.606	94.94
380.831	79.94
381.057	87.94
381.282	74.94
381.507	84.94
381.733	94.94
381.958	92.94
382.184	81.94
382.409	73.94
382.634	82.94
382.86	86.94
383.085	82.94
383.31	93.94
383.535	81.94
383.761	79.94
383.986	82.94
384.211	96.94
384.436	81.94
384.662	81.94
384.887	70.94
385.112	83.94
385.337	88.94
385.562	87.94
385.787	87.94
386.013	85.94
386.238	74.94
386.463	79.94
386.688	94.94
386.913	79.94
387.138	98.94
387.363	94.94
387.588	88.94
387.813	88.94
388.038	70.94
388.263	88.94
388.488	83.94
388.713	93.94
388.938	85.94
389.163	97.94
389.387	80.94
389.612	91.94
389.837	103.94
390.062	103.94
390.287	85.94
390.512	75.94
390.736	91.94
390.961	89.94
391.186	91.94
391.411	94.94
391.636	75.94
391.86	87.94
392.085	91.94
392.31	99.94
392.534	79.94
392.759	75.94
392.984	82.94
393.208	80.94
393.433	93.94
393.658	79.94
393.882	84.94
394.107	82.94
394.331	97.94
394.556	86.94
394.78	78.94
395.005	97.94
395.229	87.94
395.454	81.94
395.678	90.94
395.903	95.94
396.127	82.94
396.352	89.94
396.576	96.94
396.801	85.94
397.025	84.94
397.249	81.94
397.474	93.94
397.698	88.94
397.922	87.94
398.147	96.94
398.371	79.94
398.595	96.94
398.82	79.94
399.044	100.94
399.268	91.94
399.492	94.94
399.717	73.94
399.941	97.94
400.165	94.94
400.389	84.94
400.613	95.94
400.837	102.94
401.062	88.94
401.286	102.94
401.51	95.94
401.734	96.94
401.958	95.94
402.182	87.94
402.406	95.94
402.63	94.94
402.854	99.94
403.078	85.94
403.302	84.94
403.526	102.94
403.75	90.94
403.974	99.94
404.198	100.94
404.422	86.94
404.645	92.94
404.869	96.94
405.093	87.94
405.317	99.94
405.541	99.94
405.765	86.94
405.988	101.94
406.212	106.94
406.436	93.94
406.66	94.94
406.883	111.94
407.107	90.94
407.331	78.94
407.555	90.94
407.778	80.94
408.002	100.94
408.226	90.94
408.449	99.94
408.673	97.94
408.896	115.94
409.12	91.94
409.344	102.94
409.567	86.94
409.791	91.94
410.014	93.94
410.238	91.94
410.461	94.94
410.685	99.94
410.908	106.94
411.132	95.94
411.355	96.94
411.578	93.94
411.802	106.94
412.025	87.94
412.249	96.94
412.472	98.94
412.695	101.94
412.919	111.94
413.142	91.94
413.365	92.94
413.589	95.94
413.812	96.94
414.035	106.94
414.258	105.94
414.482	94.94
414.705	87.94
414.928	88.94
415.151	88.94
415.374	110.94
415.597	99.94
415.821	102.94
416.044	94.94
416.267	85.94
416.49	102.94
416.713	94.94
416.936	108.94
417.159	96.94
417.382	88.94
417.605	115.94
417.828	107.94
418.051	91.94
418.274	114.94
418.497	92.94
418.72	98.94
418.943	89.94
419.166	111.94
419.389	106.94
419.611	91.94
419.834	98.94
420.057	106.94
420.28	113.94
420.503	102.94
420.726	110.94
420.948	107.94
421.171	97.94
421.394	118.94
421.617	102.94
421.839	115.94
422.062	102.94
422.285	111.94
422.507	98.94
422.73	102.94
422.953	90.94
423.175	89.94
423.398	111.94
423.621	79.94
423.843	108.94
424.066	87.94
424.288	99.94
424.511	114.94
424.733	112.94
424.956	110.94
425.178	97.94
425.401	105.94
425.623	96.94
425.846	111.94
426.068	96.94
426.291	103.94
426.513	101.94
426.735	99.94
426.958	98.94
427.18	107.94
427.402	110.94
427.625	109.94
427.847	113.94
428.069	95.94
428.292	99.94
428.514	94.94
428.736	88.94
428.958	89.94
429.181	100.94
429.403	92.94
429.625	106.94
429.847	102.94
430.069	105.94
430.292	110.94
430.514	101.94
430.736	99.94
430.958	87.94
431.18	97.94
431.402	104.94
431.624	95.94
431.846	90.94
432.068	73.94
432.29	91.94
432.512	111.94
432.734	99.94
432.956	87.94
433.178	94.94
433.4	86.94
433.622	106.94
433.844	107.94
434.066	101.94
434.287	82.94
434.509	75.94
434.731	100.94
434.953	95.94
435.175	95.94
435.397	104.94
435.618	110.94
435.84	99.94
436.062	93.94
436.284	101.94
436.505	90.94
436.727	100.94
436.949	95.94
437.17	97.94
437.392	81.94
437.614	98.94
437.835	88.94
438.057	88.94
438.278	100.94
438.5	95.94
438.721	111.94
438.943	111.94
439.165	105.94
439.386	100.94
439.608	99.94
439.829	111.94
440.05	105.94
440.272	107.94
440.493	126.94
440.715	117.94
440.936	109.94
441.158	104.94
441.379	102.94
441.6	112.94
441.822	89.94
442.043	104.94
442.264	99.94
442.486	118.94
442.707	101.94
442.928	99.94
443.149	98.94
443.371	98.94
443.592	113.94
443.813	104.94
444.034	98.94
444.255	98.94
444.476	114.94
444.698	111.94
444.919	115.94
445.14	237.94
445.361	165.94
445.582	111.94
445.803	122.94
446.024	103.94
446.245	107.94
446.466	105.94
446.687	102.94
446.908	96.94
447.129	114.94
447.35	101.94
447.571	111.94
447.792	117.94
448.013	96.94
448.234	111.94
448.455	105.94
448.675	100.94
448.896	110.94
449.117	97.94
449.338	109.94
449.559	105.94
449.779	98.94
450	98.94
450.221	99.94
450.442	96.94
450.662	98.94
450.883	92.94
451.104	104.94
451.324	84.94
451.545	90.94
451.766	96.94
451.986	105.94
452.207	97.94
452.428	104.94
452.648	102.94
452.869	95.94
453.089	111.94
453.31	97.94
453.53	98.94
453.751	101.94
453.971	98.94
454.192	87.94
454.412	101.94
454.633	95.94
454.853	91.94
455.073	107.94
455.294	94.94
455.514	99.94
455.734	112.94
455.955	85.94
456.175	90.94
456.395	98.94
456.616	103.94
456.836	80.94
457.056	102.94
457.276	93.94
457.497	99.94
457.717	104.94
457.937	97.94
458.157	100.94
458.377	91.94
458.598	101.94
458.818	63.94
459.038	82.94
459.258	67.94
459.478	89.94
459.698	79.94
459.918	94.94
460.138	84.94
460.358	91.94
460.578	97.94
460.798	98.94
461.018	99.94
461.238	109.94
461.458	92.94
461.678	111.94
461.898	104.94
462.118	103.94
462.338	88.94
462.558	97.94
462.777	83.94
462.997	109.94
463.217	89.94
463.437	93.94
463.657	101.94
463.876	88.94
464.096	87.94
464.316	84.94
464.536	93.94
464.755	88.94
464.975	99.94
465.195	99.94
465.414	102.94
465.634	89.94
465.854	98.94
466.073	100.94
466.293	94.94
466.512	97.94
466.732	81.94
466.951	105.94
467.171	105.94
467.391	95.94
467.61	112.94
467.829	118.94
468.049	103.94
468.268	102.94
468.488	108.94
468.707	99.94
468.927	104.94
469.146	98.94
469.365	117.94
469.585	110.94
469.804	107.94
470.023	110.94
470.243	103.94
470.462	104.94
470.681	111.94
470.901	102.94
471.12	113.94
471.339	113.94
471.558	101.94
471.777	115.94
471.997	90.94
472.216	112.94
472.435	101.94
472.654	94.94
472.873	115.94
473.092	110.94
473.311	109.94
473.53	102.94
473.749	119.94
473.968	109.94
474.187	90.94
474.406	101.94
474.625	102.94
474.844	107.94
475.063	119.94
475.282	110.94
475.501	100.94
475.72	104.94
475.939	93.94
476.158	87.94
476.377	92.94
476.596	98.94
476.814	98.94
477.033	84.94
477.252	107.94
477.471	96.94
477.69	109.94
477.908	115.94
478.127	115.94
478.346	91.94
478.564	107.94
478.783	100.94
479.002	97.94
479.22	125.94
479.439	98.94
479.658	96.94
479.876	100.94
480.095	90.94
480.313	102.94
480.532	104.94
480.751	85.94
480.969	93.94
481.188	91.94
481.406	79.94
481.624	87.94
481.843	89.94
482.061	83.94
482.28	94.94
482.498	93.94
482.717	90.94
482.935	87.94
483.153	102.94
483.372	95.94
483.59	119.94
483.808	104.94
484.027	93.94
484.245	104.94
484.463	117.94
484.681	125.94
484.9	115.94
485.118	102.94
485.336	105.94
485.554	110.94
485.772	85.94
485.99	82.94
486.209	103.94
486.427	101.94
486.645	98.94
486.863	101.94
487.081	107.94
487.299	98.94
487.517	100.94
487.735	125.94
487.953	143.94
488.171	110.94
488.389	121.94
488.607	112.94
488.825	101.94
489.043	98.94
489.261	103.94
489.479	105.94
489.696	116.94
489.914	113.94
490.132	93.94
490.35	119.94
490.568	111.94
490.786	124.94
491.003	131.94
491.221	146.94
491.439	113.94
491.657	129.94
491.874	149.94
492.092	160.94
492.31	154.94
492.527	137.94
492.745	140.94
492.963	134.94
493.18	115.94
493.398	120.94
493.615	121.94
493.833	121.94
494.05	129.94
494.268	125.94
494.485	119.94
494.703	133.94
494.92	127.94
495.138	135.94
495.355	130.94
495.573	122.94
495.79	111.94
496.008	130.94
496.225	111.94
496.442	117.94
496.66	125.94
496.877	127.94
497.094	121.94
497.312	115.94
497.529	111.94
497.746	111.94
497.963	103.94
498.181	118.94
498.398	111.94
498.615	111.94
498.832	109.94
499.049	97.94
499.267	98.94
499.484	109.94
499.701	94.94
499.918	105.94
500.135	107.94
500.352	111.94
500.569	135.94
500.786	103.94
501.003	116.94
501.22	119.94
501.437	96.94
501.654	109.94
501.871	105.94
502.088	106.94
502.305	102.94
502.522	109.94
502.739	118.94
502.956	101.94
503.172	102.94
503.389	97.94
503.606	98.94
503.823	88.94
504.04	112.94
504.256	110.94
504.473	111.94
504.69	104.94
504.907	98.94
505.123	110.94
505.34	116.94
505.557	95.94
505.773	106.94
505.99	87.94
506.207	104.94
506.423	104.94
506.64	103.94
506.856	112.94
507.073	96.94
507.289	118.94
507.506	103.94
507.722	95.94
507.939	93.94
508.155	96.94
508.372	90.94
508.588	101.94
508.805	85.94
509.021	87.94
509.238	98.94
509.454	100.94
509.67	98.94
509.887	98.94
510.103	96.94
510.319	82.94
510.536	85.94
510.752	85.94
510.968	80.94
511.184	96.94
511.401	70.94
511.617	84.94
511.833	91.94
512.049	79.94
512.265	102.94
512.481	103.94
512.698	96.94
512.914	90.94
513.13	82.94
513.346	82.94
513.562	93.94
513.778	101.94
513.994	84.94
514.21	87.94
514.426	86.94
514.642	81.94
514.858	81.94
515.074	94.94
515.29	85.94
515.506	84.94
