Data from Zn(NO3)2Standard.Agarose3%.GreenCap.LampEnergy10E.O_HRD10591_15-07-55-946.txt Node
Date: Mon Jul 22 15:07:55 EDT 2019
User: cochatt
Spectrometer: HR+D1059
Trigger mode: 1
Integration Time (sec): 1.000000E-1
Scans to average: 1
Electric dark correction enabled: true
Nonlinearity correction enabled: false
Boxcar width: 0
XAxis mode: Wavelengths
Number of Pixels in Spectrum: 2048
>>>>>Begin Spectral Data<<<<<
223.165	-3.56
223.4	-3.56
223.635	-3.56
223.869	-10.56
224.104	-17.56
224.338	-16.56
224.573	-12.56
224.808	-18.56
225.042	-6.56
225.277	-20.56
225.511	-2.56
225.746	19.44
225.98	0.44
226.215	11.44
226.449	12.44
226.683	21.44
226.918	17.44
227.152	26.44
227.387	43.44
227.621	51.44
227.856	38.44
228.09	41.44
228.324	35.44
228.559	65.44
228.793	64.44
229.027	63.44
229.262	52.44
229.496	58.44
229.73	66.44
229.964	74.44
230.199	71.44
230.433	78.44
230.667	76.44
230.901	83.44
231.136	83.44
231.37	76.44
231.604	79.44
231.838	76.44
232.072	83.44
232.306	85.44
232.541	82.44
232.775	81.44
233.009	84.44
233.243	89.44
233.477	87.44
233.711	72.44
233.945	75.44
234.179	75.44
234.413	83.44
234.647	80.44
234.881	88.44
235.115	82.44
235.349	78.44
235.583	77.44
235.817	93.44
236.051	95.44
236.285	85.44
236.519	86.44
236.753	88.44
236.987	64.44
237.221	79.44
237.455	66.44
237.689	78.44
237.922	83.44
238.156	66.44
238.39	80.44
238.624	63.44
238.858	80.44
239.091	74.44
239.325	72.44
239.559	87.44
239.793	79.44
240.027	90.44
240.26	81.44
240.494	83.44
240.728	83.44
240.961	65.44
241.195	67.44
241.429	82.44
241.662	93.44
241.896	75.44
242.13	72.44
242.363	71.44
242.597	74.44
242.83	71.44
243.064	64.44
243.298	78.44
243.531	58.44
243.765	80.44
243.998	95.44
244.232	79.44
244.465	67.44
244.699	78.44
244.932	65.44
245.166	71.44
245.399	63.44
245.633	71.44
245.866	69.44
246.099	77.44
246.333	88.44
246.566	91.44
246.8	74.44
247.033	82.44
247.266	70.44
247.5	73.44
247.733	78.44
247.966	77.44
248.2	90.44
248.433	78.44
248.666	89.44
248.899	59.44
249.133	88.44
249.366	68.44
249.599	89.44
249.832	86.44
250.066	92.44
250.299	84.44
250.532	78.44
250.765	84.44
250.998	77.44
251.231	71.44
251.465	74.44
251.698	81.44
251.931	91.44
252.164	88.44
252.397	91.44
252.63	79.44
252.863	92.44
253.096	75.44
253.329	65.44
253.562	61.44
253.795	93.44
254.028	75.44
254.261	73.44
254.494	60.44
254.727	83.44
254.96	83.44
255.193	83.44
255.426	89.44
255.659	83.44
255.892	84.44
256.124	82.44
256.357	85.44
256.59	92.44
256.823	78.44
257.056	71.44
257.289	80.44
257.521	76.44
257.754	70.44
257.987	88.44
258.22	75.44
258.452	83.44
258.685	81.44
258.918	82.44
259.151	81.44
259.383	76.44
259.616	76.44
259.849	77.44
260.081	76.44
260.314	72.44
260.547	77.44
260.779	75.44
261.012	78.44
261.244	83.44
261.477	92.44
261.71	82.44
261.942	62.44
262.175	85.44
262.407	77.44
262.64	92.44
262.872	82.44
263.105	83.44
263.337	79.44
263.57	88.44
263.802	90.44
264.035	76.44
264.267	91.44
264.499	79.44
264.732	74.44
264.964	81.44
265.197	79.44
265.429	78.44
265.661	81.44
265.894	87.44
266.126	86.44
266.358	74.44
266.591	75.44
266.823	85.44
267.055	75.44
267.287	82.44
267.52	75.44
267.752	81.44
267.984	92.44
268.216	84.44
268.448	91.44
268.681	83.44
268.913	88.44
269.145	96.44
269.377	89.44
269.609	81.44
269.841	92.44
270.073	74.44
270.306	77.44
270.538	85.44
270.77	81.44
271.002	92.44
271.234	84.44
271.466	93.44
271.698	78.44
271.93	73.44
272.162	91.44
272.394	84.44
272.626	80.44
272.858	78.44
273.09	84.44
273.322	66.44
273.553	89.44
273.785	76.44
274.017	90.44
274.249	85.44
274.481	91.44
274.713	71.44
274.945	82.44
275.176	77.44
275.408	85.44
275.64	88.44
275.872	78.44
276.104	82.44
276.335	76.44
276.567	80.44
276.799	78.44
277.031	90.44
277.262	103.44
277.494	68.44
277.726	78.44
277.957	69.44
278.189	76.44
278.421	67.44
278.652	81.44
278.884	61.44
279.115	85.44
279.347	84.44
279.579	83.44
279.81	85.44
280.042	87.44
280.273	86.44
280.505	83.44
280.736	82.44
280.968	81.44
281.199	67.44
281.431	86.44
281.662	88.44
281.894	81.44
282.125	97.44
282.356	92.44
282.588	88.44
282.819	65.44
283.051	89.44
283.282	88.44
283.513	82.44
283.745	86.44
283.976	91.44
284.207	75.44
284.439	81.44
284.67	65.44
284.901	76.44
285.132	77.44
285.364	83.44
285.595	93.44
285.826	81.44
286.057	88.44
286.288	77.44
286.52	70.44
286.751	80.44
286.982	86.44
287.213	73.44
287.444	82.44
287.675	79.44
287.906	83.44
288.138	92.44
288.369	81.44
288.6	80.44
288.831	97.44
289.062	95.44
289.293	87.44
289.524	91.44
289.755	79.44
289.986	93.44
290.217	78.44
290.448	83.44
290.679	79.44
290.91	80.44
291.141	80.44
291.371	68.44
291.602	83.44
291.833	82.44
292.064	83.44
292.295	87.44
292.526	91.44
292.757	69.44
292.987	83.44
293.218	82.44
293.449	92.44
293.68	80.44
293.91	91.44
294.141	88.44
294.372	81.44
294.603	79.44
294.833	81.44
295.064	87.44
295.295	73.44
295.525	76.44
295.756	84.44
295.987	87.44
296.217	83.44
296.448	83.44
296.679	81.44
296.909	96.44
297.14	81.44
297.37	89.44
297.601	92.44
297.831	81.44
298.062	101.44
298.292	82.44
298.523	73.44
298.753	74.44
298.984	81.44
299.214	81.44
299.445	81.44
299.675	92.44
299.905	88.44
300.136	81.44
300.366	87.44
300.597	84.44
300.827	95.44
301.057	81.44
301.288	77.44
301.518	77.44
301.748	81.44
301.979	87.44
302.209	90.44
302.439	82.44
302.669	80.44
302.9	87.44
303.13	92.44
303.36	88.44
303.59	72.44
303.82	80.44
304.051	74.44
304.281	90.44
304.511	89.44
304.741	89.44
304.971	76.44
305.201	74.44
305.431	73.44
305.661	83.44
305.891	76.44
306.121	68.44
306.352	75.44
306.582	97.44
306.812	82.44
307.042	83.44
307.272	91.44
307.502	69.44
307.731	92.44
307.961	70.44
308.191	81.44
308.421	100.44
308.651	100.44
308.881	91.44
309.111	91.44
309.341	78.44
309.571	94.44
309.8	92.44
310.03	79.44
310.26	80.44
310.49	75.44
310.72	85.44
310.949	74.44
311.179	68.44
311.409	80.44
311.639	90.44
311.868	91.44
312.098	91.44
312.328	93.44
312.557	79.44
312.787	88.44
313.017	87.44
313.246	82.44
313.476	82.44
313.706	76.44
313.935	77.44
314.165	82.44
314.394	79.44
314.624	87.44
314.853	77.44
315.083	85.44
315.312	74.44
315.542	83.44
315.771	99.44
316.001	77.44
316.23	84.44
316.46	85.44
316.689	77.44
316.919	81.44
317.148	78.44
317.377	85.44
317.607	75.44
317.836	78.44
318.065	89.44
318.295	91.44
318.524	88.44
318.753	85.44
318.983	75.44
319.212	75.44
319.441	76.44
319.67	72.44
319.9	84.44
320.129	78.44
320.358	77.44
320.587	84.44
320.816	85.44
321.046	88.44
321.275	86.44
321.504	87.44
321.733	74.44
321.962	77.44
322.191	81.44
322.42	88.44
322.649	86.44
322.878	77.44
323.108	81.44
323.337	85.44
323.566	87.44
323.795	69.44
324.024	100.44
324.253	81.44
324.482	79.44
324.71	75.44
324.939	87.44
325.168	85.44
325.397	92.44
325.626	82.44
325.855	81.44
326.084	77.44
326.313	85.44
326.542	87.44
326.77	90.44
326.999	75.44
327.228	80.44
327.457	86.44
327.686	75.44
327.914	89.44
328.143	85.44
328.372	77.44
328.6	89.44
328.829	76.44
329.058	81.44
329.287	83.44
329.515	88.44
329.744	88.44
329.972	80.44
330.201	92.44
330.43	92.44
330.658	90.44
330.887	82.44
331.115	82.44
331.344	69.44
331.572	80.44
331.801	85.44
332.03	84.44
332.258	80.44
332.486	86.44
332.715	72.44
332.943	82.44
333.172	83.44
333.4	77.44
333.629	80.44
333.857	79.44
334.085	80.44
334.314	68.44
334.542	88.44
334.771	91.44
334.999	82.44
335.227	89.44
335.455	70.44
335.684	81.44
335.912	74.44
336.14	78.44
336.369	90.44
336.597	72.44
336.825	80.44
337.053	75.44
337.281	76.44
337.51	83.44
337.738	81.44
337.966	94.44
338.194	90.44
338.422	77.44
338.65	84.44
338.878	85.44
339.106	80.44
339.334	75.44
339.562	77.44
339.79	91.44
340.018	82.44
340.246	62.44
340.474	92.44
340.702	85.44
340.93	81.44
341.158	79.44
341.386	86.44
341.614	87.44
341.842	80.44
342.07	77.44
342.298	74.44
342.526	72.44
342.754	76.44
342.981	84.44
343.209	84.44
343.437	70.44
343.665	77.44
343.893	91.44
344.12	82.44
344.348	79.44
344.576	81.44
344.804	87.44
345.031	83.44
345.259	92.44
345.487	78.44
345.714	81.44
345.942	84.44
346.17	83.44
346.397	83.44
346.625	86.44
346.853	77.44
347.08	85.44
347.308	85.44
347.535	80.44
347.763	86.44
347.99	85.44
348.218	77.44
348.445	76.44
348.673	84.44
348.9	76.44
349.128	79.44
349.355	69.44
349.583	83.44
349.81	81.44
350.037	82.44
350.265	81.44
350.492	87.44
350.72	87.44
350.947	75.44
351.174	82.44
351.402	101.44
351.629	83.44
351.856	74.44
352.083	90.44
352.311	70.44
352.538	89.44
352.765	83.44
352.992	87.44
353.22	83.44
353.447	86.44
353.674	80.44
353.901	81.44
354.128	92.44
354.355	91.44
354.583	78.44
354.81	92.44
355.037	80.44
355.264	77.44
355.491	81.44
355.718	80.44
355.945	83.44
356.172	92.44
356.399	81.44
356.626	88.44
356.853	82.44
357.08	92.44
357.307	88.44
357.534	97.44
357.761	82.44
357.988	80.44
358.215	72.44
358.441	92.44
358.668	85.44
358.895	80.44
359.122	92.44
359.349	86.44
359.576	80.44
359.802	78.44
360.029	83.44
360.256	78.44
360.483	79.44
360.709	89.44
360.936	82.44
361.163	94.44
361.39	72.44
361.616	77.44
361.843	71.44
362.07	82.44
362.296	80.44
362.523	71.44
362.749	74.44
362.976	93.44
363.203	85.44
363.429	89.44
363.656	74.44
363.882	94.44
364.109	101.44
364.335	83.44
364.562	81.44
364.788	76.44
365.015	84.44
365.241	77.44
365.468	79.44
365.694	83.44
365.92	92.44
366.147	76.44
366.373	77.44
366.599	86.44
366.826	91.44
367.052	78.44
367.278	80.44
367.505	86.44
367.731	93.44
367.957	68.44
368.184	85.44
368.41	87.44
368.636	80.44
368.862	91.44
369.089	95.44
369.315	75.44
369.541	86.44
369.767	75.44
369.993	86.44
370.219	75.44
370.445	88.44
370.672	72.44
370.898	84.44
371.124	90.44
371.35	87.44
371.576	86.44
371.802	83.44
372.028	72.44
372.254	74.44
372.48	87.44
372.706	83.44
372.932	72.44
373.158	85.44
373.384	84.44
373.61	104.44
373.835	85.44
374.061	81.44
374.287	76.44
374.513	97.44
374.739	87.44
374.965	89.44
375.191	89.44
375.416	83.44
375.642	90.44
375.868	92.44
376.094	75.44
376.319	82.44
376.545	81.44
376.771	90.44
376.997	95.44
377.222	75.44
377.448	91.44
377.674	91.44
377.899	85.44
378.125	92.44
378.35	101.44
378.576	86.44
378.802	76.44
379.027	104.44
379.253	83.44
379.478	79.44
379.704	70.44
379.929	95.44
380.155	88.44
380.38	96.44
380.606	90.44
380.831	76.44
381.057	77.44
381.282	95.44
381.507	76.44
381.733	79.44
381.958	97.44
382.184	88.44
382.409	93.44
382.634	84.44
382.86	84.44
383.085	93.44
383.31	96.44
383.535	84.44
383.761	80.44
383.986	79.44
384.211	93.44
384.436	71.44
384.662	92.44
384.887	87.44
385.112	75.44
385.337	88.44
385.562	97.44
385.787	95.44
386.013	110.44
386.238	91.44
386.463	85.44
386.688	87.44
386.913	82.44
387.138	86.44
387.363	80.44
387.588	88.44
387.813	92.44
388.038	86.44
388.263	87.44
388.488	87.44
388.713	81.44
388.938	84.44
389.163	88.44
389.387	93.44
389.612	103.44
389.837	85.44
390.062	95.44
390.287	89.44
390.512	98.44
390.736	92.44
390.961	91.44
391.186	96.44
391.411	92.44
391.636	105.44
391.86	73.44
392.085	87.44
392.31	76.44
392.534	93.44
392.759	96.44
392.984	82.44
393.208	82.44
393.433	85.44
393.658	87.44
393.882	92.44
394.107	106.44
394.331	106.44
394.556	89.44
394.78	77.44
395.005	100.44
395.229	108.44
395.454	77.44
395.678	91.44
395.903	88.44
396.127	92.44
396.352	87.44
396.576	90.44
396.801	87.44
397.025	81.44
397.249	96.44
397.474	96.44
397.698	89.44
397.922	92.44
398.147	99.44
398.371	92.44
398.595	101.44
398.82	78.44
399.044	93.44
399.268	92.44
399.492	107.44
399.717	84.44
399.941	86.44
400.165	94.44
400.389	97.44
400.613	86.44
400.837	81.44
401.062	92.44
401.286	92.44
401.51	97.44
401.734	91.44
401.958	81.44
402.182	102.44
402.406	90.44
402.63	85.44
402.854	87.44
403.078	88.44
403.302	101.44
403.526	99.44
403.75	117.44
403.974	97.44
404.198	90.44
404.422	92.44
404.645	85.44
404.869	92.44
405.093	105.44
405.317	94.44
405.541	92.44
405.765	74.44
405.988	104.44
406.212	99.44
406.436	92.44
406.66	105.44
406.883	92.44
407.107	107.44
407.331	85.44
407.555	101.44
407.778	97.44
408.002	107.44
408.226	94.44
408.449	103.44
408.673	91.44
408.896	108.44
409.12	113.44
409.344	101.44
409.567	95.44
409.791	89.44
410.014	99.44
410.238	103.44
410.461	119.44
410.685	111.44
410.908	87.44
411.132	98.44
411.355	108.44
411.578	94.44
411.802	103.44
412.025	99.44
412.249	99.44
412.472	97.44
412.695	94.44
412.919	87.44
413.142	121.44
413.365	99.44
413.589	123.44
413.812	99.44
414.035	95.44
414.258	106.44
414.482	95.44
414.705	111.44
414.928	98.44
415.151	102.44
415.374	112.44
415.597	92.44
415.821	89.44
416.044	103.44
416.267	113.44
416.49	104.44
416.713	93.44
416.936	125.44
417.159	116.44
417.382	90.44
417.605	98.44
417.828	101.44
418.051	92.44
418.274	106.44
418.497	73.44
418.72	106.44
418.943	99.44
419.166	102.44
419.389	112.44
419.611	119.44
419.834	104.44
420.057	99.44
420.28	121.44
420.503	97.44
420.726	91.44
420.948	94.44
421.171	95.44
421.394	105.44
421.617	100.44
421.839	92.44
422.062	105.44
422.285	121.44
422.507	108.44
422.73	97.44
422.953	111.44
423.175	95.44
423.398	99.44
423.621	104.44
423.843	92.44
424.066	93.44
424.288	95.44
424.511	112.44
424.733	105.44
424.956	110.44
425.178	118.44
425.401	111.44
425.623	100.44
425.846	95.44
426.068	100.44
426.291	120.44
426.513	117.44
426.735	96.44
426.958	105.44
427.18	101.44
427.402	104.44
427.625	97.44
427.847	111.44
428.069	93.44
428.292	97.44
428.514	101.44
428.736	97.44
428.958	96.44
429.181	111.44
429.403	111.44
429.625	111.44
429.847	116.44
430.069	112.44
430.292	101.44
430.514	113.44
430.736	105.44
430.958	89.44
431.18	114.44
431.402	90.44
431.624	91.44
431.846	89.44
432.068	88.44
432.29	76.44
432.512	88.44
432.734	101.44
432.956	115.44
433.178	106.44
433.4	114.44
433.622	78.44
433.844	103.44
434.066	106.44
434.287	99.44
434.509	80.44
434.731	86.44
434.953	93.44
435.175	91.44
435.397	108.44
435.618	75.44
435.84	88.44
436.062	101.44
436.284	105.44
436.505	106.44
436.727	94.44
436.949	107.44
437.17	99.44
437.392	109.44
437.614	98.44
437.835	92.44
438.057	92.44
438.278	92.44
438.5	105.44
438.721	95.44
438.943	97.44
439.165	105.44
439.386	101.44
439.608	97.44
439.829	105.44
440.05	112.44
440.272	107.44
440.493	113.44
440.715	111.44
440.936	99.44
441.158	103.44
441.379	117.44
441.6	111.44
441.822	113.44
442.043	116.44
442.264	101.44
442.486	111.44
442.707	99.44
442.928	111.44
443.149	107.44
443.371	113.44
443.592	113.44
443.813	117.44
444.034	111.44
444.255	119.44
444.476	96.44
444.698	111.44
444.919	104.44
445.14	246.44
445.361	165.44
445.582	119.44
445.803	111.44
446.024	103.44
446.245	121.44
446.466	119.44
446.687	124.44
446.908	121.44
447.129	113.44
447.35	111.44
447.571	105.44
447.792	113.44
448.013	121.44
448.234	104.44
448.455	118.44
448.675	103.44
448.896	107.44
449.117	122.44
449.338	111.44
449.559	113.44
449.779	115.44
450	104.44
450.221	111.44
450.442	119.44
450.662	97.44
450.883	106.44
451.104	108.44
451.324	97.44
451.545	106.44
451.766	106.44
451.986	108.44
452.207	105.44
452.428	99.44
452.648	95.44
452.869	105.44
453.089	88.44
453.31	102.44
453.53	101.44
453.751	87.44
453.971	81.44
454.192	91.44
454.412	95.44
454.633	111.44
454.853	109.44
455.073	95.44
455.294	98.44
455.514	97.44
455.734	97.44
455.955	92.44
456.175	99.44
456.395	97.44
456.616	98.44
456.836	98.44
457.056	108.44
457.276	107.44
457.497	95.44
457.717	96.44
457.937	85.44
458.157	87.44
458.377	92.44
458.598	92.44
458.818	88.44
459.038	92.44
459.258	96.44
459.478	90.44
459.698	86.44
459.918	92.44
460.138	98.44
460.358	89.44
460.578	96.44
460.798	103.44
461.018	101.44
461.238	97.44
461.458	105.44
461.678	96.44
461.898	103.44
462.118	99.44
462.338	95.44
462.558	90.44
462.777	93.44
462.997	96.44
463.217	102.44
463.437	90.44
463.657	98.44
463.876	105.44
464.096	95.44
464.316	83.44
464.536	101.44
464.755	96.44
464.975	93.44
465.195	95.44
465.414	100.44
465.634	89.44
465.854	109.44
466.073	115.44
466.293	111.44
466.512	112.44
466.732	100.44
466.951	87.44
467.171	99.44
467.391	108.44
467.61	99.44
467.829	104.44
468.049	103.44
468.268	108.44
468.488	99.44
468.707	115.44
468.927	111.44
469.146	106.44
469.365	100.44
469.585	96.44
469.804	104.44
470.023	123.44
470.243	111.44
470.462	114.44
470.681	116.44
470.901	98.44
471.12	117.44
471.339	119.44
471.558	117.44
471.777	111.44
471.997	98.44
472.216	95.44
472.435	91.44
472.654	87.44
472.873	84.44
473.092	107.44
473.311	87.44
473.53	90.44
473.749	103.44
473.968	113.44
474.187	104.44
474.406	103.44
474.625	103.44
474.844	96.44
475.063	89.44
475.282	99.44
475.501	98.44
475.72	106.44
475.939	115.44
476.158	101.44
476.377	104.44
476.596	115.44
476.814	104.44
477.033	98.44
477.252	89.44
477.471	103.44
477.69	109.44
477.908	127.44
478.127	113.44
478.346	112.44
478.564	111.44
478.783	103.44
479.002	99.44
479.22	94.44
479.439	97.44
479.658	95.44
479.876	99.44
480.095	101.44
480.313	92.44
480.532	99.44
480.751	102.44
480.969	84.44
481.188	87.44
481.406	85.44
481.624	86.44
481.843	81.44
482.061	102.44
482.28	113.44
482.498	102.44
482.717	93.44
482.935	92.44
483.153	102.44
483.372	127.44
483.59	114.44
483.808	120.44
484.027	115.44
484.245	106.44
484.463	113.44
484.681	123.44
484.9	116.44
485.118	122.44
485.336	112.44
485.554	96.44
485.772	90.44
485.99	87.44
486.209	91.44
486.427	81.44
486.645	88.44
486.863	100.44
487.081	113.44
487.299	91.44
487.517	103.44
487.735	119.44
487.953	125.44
488.171	124.44
488.389	131.44
488.607	110.44
488.825	114.44
489.043	101.44
489.261	124.44
489.479	113.44
489.696	100.44
489.914	111.44
490.132	120.44
490.35	115.44
490.568	117.44
490.786	127.44
491.003	133.44
491.221	133.44
491.439	152.44
491.657	133.44
491.874	127.44
492.092	153.44
492.31	145.44
492.527	155.44
492.745	155.44
492.963	139.44
493.18	118.44
493.398	121.44
493.615	125.44
493.833	115.44
494.05	127.44
494.268	131.44
494.485	120.44
494.703	114.44
494.92	127.44
495.138	115.44
495.355	123.44
495.573	108.44
495.79	134.44
496.008	125.44
496.225	129.44
496.442	118.44
496.66	125.44
496.877	123.44
497.094	124.44
497.312	130.44
497.529	121.44
497.746	114.44
497.963	114.44
498.181	90.44
498.398	99.44
498.615	93.44
498.832	108.44
499.049	92.44
499.267	99.44
499.484	117.44
499.701	109.44
499.918	94.44
500.135	100.44
500.352	125.44
500.569	124.44
500.786	112.44
501.003	126.44
501.22	116.44
501.437	117.44
501.654	119.44
501.871	103.44
502.088	95.44
502.305	107.44
502.522	101.44
502.739	111.44
502.956	108.44
503.172	119.44
503.389	106.44
503.606	97.44
503.823	87.44
504.04	102.44
504.256	99.44
504.473	102.44
504.69	95.44
504.907	101.44
505.123	103.44
505.34	115.44
505.557	108.44
505.773	90.44
505.99	99.44
506.207	106.44
506.423	88.44
506.64	107.44
506.856	88.44
507.073	93.44
507.289	96.44
507.506	106.44
507.722	89.44
507.939	104.44
508.155	105.44
508.372	106.44
508.588	88.44
508.805	83.44
509.021	110.44
509.238	96.44
509.454	99.44
509.67	106.44
509.887	88.44
510.103	84.44
510.319	92.44
510.536	89.44
510.752	79.44
510.968	91.44
511.184	68.44
511.401	89.44
511.617	77.44
511.833	81.44
512.049	84.44
512.265	87.44
512.481	91.44
512.698	88.44
512.914	86.44
513.13	77.44
513.346	81.44
513.562	82.44
513.778	73.44
513.994	89.44
514.21	59.44
514.426	80.44
514.642	101.44
514.858	83.44
515.074	97.44
