Data from Zn(NO3)2Standard.Agarose3%.GreenCap.LampEnergy10E.O_HRD10591_15-09-00-952.txt Node
Date: Mon Jul 22 15:09:00 EDT 2019
User: cochatt
Spectrometer: HR+D1059
Trigger mode: 1
Integration Time (sec): 1.000000E-1
Scans to average: 1
Electric dark correction enabled: true
Nonlinearity correction enabled: false
Boxcar width: 0
XAxis mode: Wavelengths
Number of Pixels in Spectrum: 2048
>>>>>Begin Spectral Data<<<<<
223.165	-11.62
223.4	-11.62
223.635	-11.62
223.869	-34.62
224.104	-24.62
224.338	-24.62
224.573	-2.62
224.808	-1.62
225.042	-4.62
225.277	-18.62
225.511	-2.62
225.746	6.38
225.98	10.38
226.215	0.38
226.449	18.38
226.683	27.38
226.918	29.38
227.152	33.38
227.387	50.38
227.621	27.38
227.856	39.38
228.09	57.38
228.324	47.38
228.559	68.38
228.793	47.38
229.027	60.38
229.262	72.38
229.496	75.38
229.73	78.38
229.964	63.38
230.199	65.38
230.433	54.38
230.667	83.38
230.901	84.38
231.136	58.38
231.37	75.38
231.604	71.38
231.838	60.38
232.072	76.38
232.306	79.38
232.541	76.38
232.775	85.38
233.009	81.38
233.243	70.38
233.477	97.38
233.711	84.38
233.945	74.38
234.179	70.38
234.413	77.38
234.647	88.38
234.881	80.38
235.115	90.38
235.349	73.38
235.583	72.38
235.817	80.38
236.051	60.38
236.285	77.38
236.519	84.38
236.753	83.38
236.987	93.38
237.221	69.38
237.455	70.38
237.689	70.38
237.922	75.38
238.156	67.38
238.39	81.38
238.624	61.38
238.858	68.38
239.091	77.38
239.325	60.38
239.559	77.38
239.793	80.38
240.027	80.38
240.26	89.38
240.494	67.38
240.728	74.38
240.961	66.38
241.195	83.38
241.429	74.38
241.662	85.38
241.896	77.38
242.13	93.38
242.363	77.38
242.597	57.38
242.83	75.38
243.064	61.38
243.298	80.38
243.531	81.38
243.765	84.38
243.998	88.38
244.232	70.38
244.465	69.38
244.699	73.38
244.932	78.38
245.166	74.38
245.399	68.38
245.633	90.38
245.866	73.38
246.099	73.38
246.333	71.38
246.566	81.38
246.8	66.38
247.033	69.38
247.266	61.38
247.5	77.38
247.733	74.38
247.966	71.38
248.2	69.38
248.433	86.38
248.666	78.38
248.899	67.38
249.133	68.38
249.366	90.38
249.599	80.38
249.832	78.38
250.066	86.38
250.299	67.38
250.532	85.38
250.765	86.38
250.998	87.38
251.231	80.38
251.465	76.38
251.698	70.38
251.931	73.38
252.164	90.38
252.397	90.38
252.63	82.38
252.863	81.38
253.096	89.38
253.329	93.38
253.562	78.38
253.795	78.38
254.028	82.38
254.261	72.38
254.494	78.38
254.727	80.38
254.96	85.38
255.193	93.38
255.426	74.38
255.659	79.38
255.892	86.38
256.124	77.38
256.357	65.38
256.59	70.38
256.823	77.38
257.056	71.38
257.289	85.38
257.521	82.38
257.754	83.38
257.987	86.38
258.22	87.38
258.452	71.38
258.685	76.38
258.918	81.38
259.151	80.38
259.383	73.38
259.616	101.38
259.849	81.38
260.081	73.38
260.314	70.38
260.547	72.38
260.779	83.38
261.012	84.38
261.244	77.38
261.477	74.38
261.71	87.38
261.942	77.38
262.175	87.38
262.407	68.38
262.64	64.38
262.872	87.38
263.105	88.38
263.337	94.38
263.57	82.38
263.802	69.38
264.035	80.38
264.267	70.38
264.499	81.38
264.732	85.38
264.964	66.38
265.197	89.38
265.429	84.38
265.661	86.38
265.894	81.38
266.126	89.38
266.358	91.38
266.591	79.38
266.823	81.38
267.055	79.38
267.287	84.38
267.52	66.38
267.752	70.38
267.984	79.38
268.216	70.38
268.448	86.38
268.681	98.38
268.913	83.38
269.145	85.38
269.377	74.38
269.609	72.38
269.841	93.38
270.073	84.38
270.306	75.38
270.538	88.38
270.77	82.38
271.002	88.38
271.234	82.38
271.466	75.38
271.698	74.38
271.93	78.38
272.162	80.38
272.394	72.38
272.626	76.38
272.858	67.38
273.09	75.38
273.322	76.38
273.553	82.38
273.785	81.38
274.017	67.38
274.249	93.38
274.481	79.38
274.713	75.38
274.945	82.38
275.176	78.38
275.408	78.38
275.64	78.38
275.872	70.38
276.104	79.38
276.335	88.38
276.567	71.38
276.799	79.38
277.031	73.38
277.262	86.38
277.494	92.38
277.726	73.38
277.957	82.38
278.189	74.38
278.421	80.38
278.652	77.38
278.884	98.38
279.115	85.38
279.347	72.38
279.579	76.38
279.81	87.38
280.042	77.38
280.273	83.38
280.505	81.38
280.736	80.38
280.968	75.38
281.199	77.38
281.431	73.38
281.662	87.38
281.894	75.38
282.125	96.38
282.356	81.38
282.588	85.38
282.819	84.38
283.051	84.38
283.282	80.38
283.513	96.38
283.745	95.38
283.976	82.38
284.207	87.38
284.439	85.38
284.67	88.38
284.901	65.38
285.132	83.38
285.364	89.38
285.595	75.38
285.826	77.38
286.057	91.38
286.288	75.38
286.52	77.38
286.751	87.38
286.982	79.38
287.213	92.38
287.444	85.38
287.675	84.38
287.906	79.38
288.138	74.38
288.369	74.38
288.6	76.38
288.831	63.38
289.062	83.38
289.293	76.38
289.524	82.38
289.755	80.38
289.986	88.38
290.217	78.38
290.448	67.38
290.679	81.38
290.91	80.38
291.141	78.38
291.371	76.38
291.602	72.38
291.833	87.38
292.064	80.38
292.295	93.38
292.526	85.38
292.757	77.38
292.987	74.38
293.218	89.38
293.449	90.38
293.68	71.38
293.91	86.38
294.141	75.38
294.372	75.38
294.603	78.38
294.833	69.38
295.064	70.38
295.295	88.38
295.525	74.38
295.756	81.38
295.987	69.38
296.217	74.38
296.448	83.38
296.679	96.38
296.909	75.38
297.14	80.38
297.37	73.38
297.601	84.38
297.831	75.38
298.062	81.38
298.292	81.38
298.523	81.38
298.753	89.38
298.984	86.38
299.214	69.38
299.445	87.38
299.675	79.38
299.905	74.38
300.136	71.38
300.366	75.38
300.597	73.38
300.827	96.38
301.057	78.38
301.288	89.38
301.518	85.38
301.748	76.38
301.979	94.38
302.209	81.38
302.439	81.38
302.669	75.38
302.9	75.38
303.13	90.38
303.36	93.38
303.59	104.38
303.82	75.38
304.051	87.38
304.281	80.38
304.511	73.38
304.741	74.38
304.971	96.38
305.201	84.38
305.431	67.38
305.661	77.38
305.891	91.38
306.121	92.38
306.352	85.38
306.582	79.38
306.812	94.38
307.042	74.38
307.272	75.38
307.502	80.38
307.731	85.38
307.961	83.38
308.191	78.38
308.421	90.38
308.651	80.38
308.881	62.38
309.111	79.38
309.341	82.38
309.571	87.38
309.8	78.38
310.03	88.38
310.26	84.38
310.49	81.38
310.72	77.38
310.949	76.38
311.179	64.38
311.409	73.38
311.639	82.38
311.868	75.38
312.098	98.38
312.328	77.38
312.557	84.38
312.787	73.38
313.017	89.38
313.246	75.38
313.476	72.38
313.706	78.38
313.935	87.38
314.165	90.38
314.394	82.38
314.624	80.38
314.853	83.38
315.083	70.38
315.312	79.38
315.542	84.38
315.771	77.38
316.001	72.38
316.23	88.38
316.46	68.38
316.689	75.38
316.919	87.38
317.148	73.38
317.377	96.38
317.607	85.38
317.836	87.38
318.065	81.38
318.295	92.38
318.524	76.38
318.753	78.38
318.983	75.38
319.212	84.38
319.441	82.38
319.67	89.38
319.9	91.38
320.129	75.38
320.358	89.38
320.587	74.38
320.816	73.38
321.046	78.38
321.275	85.38
321.504	66.38
321.733	69.38
321.962	79.38
322.191	86.38
322.42	79.38
322.649	79.38
322.878	84.38
323.108	80.38
323.337	81.38
323.566	84.38
323.795	81.38
324.024	69.38
324.253	71.38
324.482	95.38
324.71	85.38
324.939	86.38
325.168	81.38
325.397	74.38
325.626	75.38
325.855	84.38
326.084	75.38
326.313	83.38
326.542	83.38
326.77	72.38
326.999	71.38
327.228	81.38
327.457	74.38
327.686	89.38
327.914	88.38
328.143	97.38
328.372	66.38
328.6	90.38
328.829	78.38
329.058	69.38
329.287	78.38
329.515	83.38
329.744	79.38
329.972	92.38
330.201	97.38
330.43	88.38
330.658	71.38
330.887	83.38
331.115	68.38
331.344	92.38
331.572	89.38
331.801	72.38
332.03	71.38
332.258	73.38
332.486	83.38
332.715	79.38
332.943	77.38
333.172	88.38
333.4	85.38
333.629	83.38
333.857	84.38
334.085	90.38
334.314	78.38
334.542	62.38
334.771	68.38
334.999	80.38
335.227	68.38
335.455	75.38
335.684	96.38
335.912	80.38
336.14	80.38
336.369	79.38
336.597	87.38
336.825	82.38
337.053	73.38
337.281	79.38
337.51	77.38
337.738	86.38
337.966	84.38
338.194	83.38
338.422	94.38
338.65	81.38
338.878	73.38
339.106	82.38
339.334	65.38
339.562	78.38
339.79	75.38
340.018	83.38
340.246	82.38
340.474	85.38
340.702	74.38
340.93	81.38
341.158	88.38
341.386	67.38
341.614	85.38
341.842	77.38
342.07	81.38
342.298	82.38
342.526	83.38
342.754	77.38
342.981	78.38
343.209	82.38
343.437	76.38
343.665	77.38
343.893	89.38
344.12	84.38
344.348	81.38
344.576	76.38
344.804	72.38
345.031	87.38
345.259	79.38
345.487	82.38
345.714	82.38
345.942	84.38
346.17	72.38
346.397	78.38
346.625	87.38
346.853	77.38
347.08	73.38
347.308	80.38
347.535	80.38
347.763	70.38
347.99	81.38
348.218	90.38
348.445	90.38
348.673	85.38
348.9	84.38
349.128	74.38
349.355	72.38
349.583	73.38
349.81	78.38
350.037	85.38
350.265	77.38
350.492	89.38
350.72	81.38
350.947	74.38
351.174	76.38
351.402	73.38
351.629	79.38
351.856	69.38
352.083	92.38
352.311	85.38
352.538	76.38
352.765	83.38
352.992	83.38
353.22	81.38
353.447	73.38
353.674	88.38
353.901	83.38
354.128	75.38
354.355	81.38
354.583	80.38
354.81	72.38
355.037	93.38
355.264	93.38
355.491	86.38
355.718	68.38
355.945	81.38
356.172	89.38
356.399	75.38
356.626	80.38
356.853	74.38
357.08	82.38
357.307	84.38
357.534	90.38
357.761	82.38
357.988	71.38
358.215	86.38
358.441	80.38
358.668	76.38
358.895	89.38
359.122	78.38
359.349	80.38
359.576	83.38
359.802	73.38
360.029	74.38
360.256	79.38
360.483	74.38
360.709	88.38
360.936	77.38
361.163	70.38
361.39	95.38
361.616	67.38
361.843	89.38
362.07	76.38
362.296	75.38
362.523	81.38
362.749	65.38
362.976	86.38
363.203	76.38
363.429	80.38
363.656	73.38
363.882	70.38
364.109	84.38
364.335	76.38
364.562	76.38
364.788	85.38
365.015	80.38
365.241	88.38
365.468	81.38
365.694	69.38
365.92	74.38
366.147	79.38
366.373	75.38
366.599	86.38
366.826	61.38
367.052	82.38
367.278	81.38
367.505	82.38
367.731	94.38
367.957	82.38
368.184	96.38
368.41	88.38
368.636	83.38
368.862	82.38
369.089	79.38
369.315	80.38
369.541	80.38
369.767	77.38
369.993	85.38
370.219	87.38
370.445	82.38
370.672	86.38
370.898	97.38
371.124	81.38
371.35	82.38
371.576	85.38
371.802	74.38
372.028	72.38
372.254	69.38
372.48	89.38
372.706	85.38
372.932	82.38
373.158	92.38
373.384	73.38
373.61	71.38
373.835	89.38
374.061	83.38
374.287	86.38
374.513	77.38
374.739	98.38
374.965	89.38
375.191	83.38
375.416	96.38
375.642	87.38
375.868	81.38
376.094	76.38
376.319	103.38
376.545	74.38
376.771	69.38
376.997	85.38
377.222	73.38
377.448	98.38
377.674	71.38
377.899	82.38
378.125	86.38
378.35	83.38
378.576	89.38
378.802	94.38
379.027	86.38
379.253	77.38
379.478	97.38
379.704	81.38
379.929	88.38
380.155	86.38
380.38	81.38
380.606	86.38
380.831	78.38
381.057	94.38
381.282	101.38
381.507	83.38
381.733	84.38
381.958	85.38
382.184	94.38
382.409	84.38
382.634	90.38
382.86	76.38
383.085	86.38
383.31	72.38
383.535	87.38
383.761	85.38
383.986	83.38
384.211	81.38
384.436	78.38
384.662	77.38
384.887	75.38
385.112	86.38
385.337	77.38
385.562	82.38
385.787	93.38
386.013	82.38
386.238	75.38
386.463	83.38
386.688	81.38
386.913	99.38
387.138	87.38
387.363	82.38
387.588	88.38
387.813	81.38
388.038	99.38
388.263	101.38
388.488	92.38
388.713	91.38
388.938	91.38
389.163	86.38
389.387	85.38
389.612	93.38
389.837	78.38
390.062	90.38
390.287	76.38
390.512	88.38
390.736	90.38
390.961	93.38
391.186	76.38
391.411	83.38
391.636	95.38
391.86	78.38
392.085	96.38
392.31	85.38
392.534	97.38
392.759	83.38
392.984	87.38
393.208	93.38
393.433	86.38
393.658	77.38
393.882	84.38
394.107	86.38
394.331	87.38
394.556	112.38
394.78	98.38
395.005	94.38
395.229	85.38
395.454	78.38
395.678	93.38
395.903	106.38
396.127	86.38
396.352	85.38
396.576	90.38
396.801	56.38
397.025	84.38
397.249	88.38
397.474	90.38
397.698	87.38
397.922	87.38
398.147	88.38
398.371	103.38
398.595	86.38
398.82	79.38
399.044	102.38
399.268	90.38
399.492	92.38
399.717	102.38
399.941	96.38
400.165	87.38
400.389	86.38
400.613	105.38
400.837	103.38
401.062	91.38
401.286	109.38
401.51	85.38
401.734	93.38
401.958	99.38
402.182	86.38
402.406	99.38
402.63	97.38
402.854	90.38
403.078	95.38
403.302	94.38
403.526	79.38
403.75	96.38
403.974	88.38
404.198	105.38
404.422	85.38
404.645	87.38
404.869	96.38
405.093	100.38
405.317	113.38
405.541	89.38
405.765	83.38
405.988	94.38
406.212	92.38
406.436	94.38
406.66	97.38
406.883	96.38
407.107	112.38
407.331	91.38
407.555	86.38
407.778	88.38
408.002	109.38
408.226	111.38
408.449	103.38
408.673	99.38
408.896	103.38
409.12	110.38
409.344	99.38
409.567	95.38
409.791	103.38
410.014	94.38
410.238	99.38
410.461	73.38
410.685	93.38
410.908	110.38
411.132	88.38
411.355	97.38
411.578	100.38
411.802	86.38
412.025	97.38
412.249	87.38
412.472	99.38
412.695	101.38
412.919	97.38
413.142	97.38
413.365	107.38
413.589	102.38
413.812	93.38
414.035	111.38
414.258	98.38
414.482	92.38
414.705	99.38
414.928	94.38
415.151	92.38
415.374	111.38
415.597	101.38
415.821	83.38
416.044	97.38
416.267	101.38
416.49	97.38
416.713	112.38
416.936	111.38
417.159	90.38
417.382	96.38
417.605	103.38
417.828	98.38
418.051	96.38
418.274	114.38
418.497	102.38
418.72	105.38
418.943	109.38
419.166	98.38
419.389	98.38
419.611	89.38
419.834	105.38
420.057	104.38
420.28	94.38
420.503	95.38
420.726	110.38
420.948	106.38
421.171	85.38
421.394	103.38
421.617	106.38
421.839	109.38
422.062	97.38
422.285	93.38
422.507	118.38
422.73	109.38
422.953	104.38
423.175	107.38
423.398	100.38
423.621	103.38
423.843	111.38
424.066	106.38
424.288	97.38
424.511	114.38
424.733	97.38
424.956	109.38
425.178	105.38
425.401	93.38
425.623	103.38
425.846	111.38
426.068	91.38
426.291	113.38
426.513	91.38
426.735	103.38
426.958	108.38
427.18	114.38
427.402	114.38
427.625	99.38
427.847	95.38
428.069	109.38
428.292	106.38
428.514	100.38
428.736	111.38
428.958	89.38
429.181	112.38
429.403	102.38
429.625	102.38
429.847	99.38
430.069	101.38
430.292	95.38
430.514	108.38
430.736	113.38
430.958	107.38
431.18	96.38
431.402	97.38
431.624	101.38
431.846	94.38
432.068	111.38
432.29	97.38
432.512	101.38
432.734	88.38
432.956	110.38
433.178	104.38
433.4	102.38
433.622	109.38
433.844	105.38
434.066	102.38
434.287	103.38
434.509	97.38
434.731	88.38
434.953	94.38
435.175	105.38
435.397	112.38
435.618	88.38
435.84	85.38
436.062	102.38
436.284	97.38
436.505	123.38
436.727	100.38
436.949	115.38
437.17	98.38
437.392	108.38
437.614	101.38
437.835	110.38
438.057	99.38
438.278	79.38
438.5	101.38
438.721	118.38
438.943	105.38
439.165	104.38
439.386	95.38
439.608	102.38
439.829	111.38
440.05	113.38
440.272	105.38
440.493	113.38
440.715	110.38
440.936	119.38
441.158	107.38
441.379	95.38
441.6	114.38
441.822	107.38
442.043	113.38
442.264	99.38
442.486	123.38
442.707	108.38
442.928	111.38
443.149	113.38
443.371	112.38
443.592	96.38
443.813	106.38
444.034	108.38
444.255	110.38
444.476	103.38
444.698	111.38
444.919	116.38
445.14	221.38
445.361	181.38
445.582	117.38
445.803	114.38
446.024	115.38
446.245	119.38
446.466	110.38
446.687	119.38
446.908	119.38
447.129	119.38
447.35	115.38
447.571	118.38
447.792	115.38
448.013	106.38
448.234	120.38
448.455	107.38
448.675	109.38
448.896	105.38
449.117	101.38
449.338	100.38
449.559	84.38
449.779	116.38
450	104.38
450.221	113.38
450.442	104.38
450.662	90.38
450.883	106.38
451.104	114.38
451.324	100.38
451.545	109.38
451.766	99.38
451.986	99.38
452.207	104.38
452.428	98.38
452.648	106.38
452.869	97.38
453.089	93.38
453.31	89.38
453.53	93.38
453.751	82.38
453.971	89.38
454.192	95.38
454.412	90.38
454.633	87.38
454.853	106.38
455.073	82.38
455.294	103.38
455.514	100.38
455.734	102.38
455.955	100.38
456.175	96.38
456.395	95.38
456.616	108.38
456.836	104.38
457.056	89.38
457.276	84.38
457.497	95.38
457.717	97.38
457.937	96.38
458.157	95.38
458.377	94.38
458.598	74.38
458.818	89.38
459.038	90.38
459.258	87.38
459.478	89.38
459.698	89.38
459.918	82.38
460.138	96.38
460.358	100.38
460.578	101.38
460.798	100.38
461.018	102.38
461.238	91.38
461.458	96.38
461.678	96.38
461.898	86.38
462.118	94.38
462.338	104.38
462.558	86.38
462.777	84.38
462.997	94.38
463.217	93.38
463.437	82.38
463.657	85.38
463.876	98.38
464.096	107.38
464.316	101.38
464.536	91.38
464.755	106.38
464.975	105.38
465.195	103.38
465.414	98.38
465.634	97.38
465.854	87.38
466.073	113.38
466.293	100.38
466.512	102.38
466.732	102.38
466.951	88.38
467.171	101.38
467.391	111.38
467.61	94.38
467.829	109.38
468.049	109.38
468.268	99.38
468.488	109.38
468.707	105.38
468.927	103.38
469.146	111.38
469.365	115.38
469.585	96.38
469.804	121.38
470.023	115.38
470.243	117.38
470.462	100.38
470.681	108.38
470.901	106.38
471.12	115.38
471.339	110.38
471.558	105.38
471.777	95.38
471.997	100.38
472.216	110.38
472.435	106.38
472.654	101.38
472.873	77.38
473.092	107.38
473.311	92.38
473.53	103.38
473.749	94.38
473.968	94.38
474.187	96.38
474.406	101.38
474.625	114.38
474.844	102.38
475.063	107.38
475.282	101.38
475.501	100.38
475.72	102.38
475.939	96.38
476.158	101.38
476.377	102.38
476.596	101.38
476.814	90.38
477.033	90.38
477.252	98.38
477.471	101.38
477.69	94.38
477.908	93.38
478.127	115.38
478.346	113.38
478.564	110.38
478.783	111.38
479.002	106.38
479.22	109.38
479.439	111.38
479.658	122.38
479.876	93.38
480.095	87.38
480.313	106.38
480.532	105.38
480.751	101.38
480.969	86.38
481.188	78.38
481.406	91.38
481.624	87.38
481.843	72.38
482.061	77.38
482.28	94.38
482.498	84.38
482.717	114.38
482.935	99.38
483.153	103.38
483.372	120.38
483.59	117.38
483.808	105.38
484.027	105.38
484.245	109.38
484.463	123.38
484.681	133.38
484.9	102.38
485.118	121.38
485.336	116.38
485.554	82.38
485.772	81.38
485.99	87.38
486.209	84.38
486.427	99.38
486.645	89.38
486.863	117.38
487.081	110.38
487.299	107.38
487.517	107.38
487.735	108.38
487.953	131.38
488.171	124.38
488.389	118.38
488.607	122.38
488.825	97.38
489.043	90.38
489.261	119.38
489.479	106.38
489.696	113.38
489.914	103.38
490.132	111.38
490.35	123.38
490.568	119.38
490.786	122.38
491.003	116.38
491.221	122.38
491.439	135.38
491.657	135.38
491.874	137.38
492.092	136.38
492.31	141.38
492.527	141.38
492.745	135.38
492.963	146.38
493.18	141.38
493.398	125.38
493.615	131.38
493.833	127.38
494.05	119.38
494.268	133.38
494.485	127.38
494.703	129.38
494.92	128.38
495.138	136.38
495.355	124.38
495.573	110.38
495.79	142.38
496.008	114.38
496.225	135.38
496.442	136.38
496.66	126.38
496.877	119.38
497.094	112.38
497.312	103.38
497.529	107.38
497.746	125.38
497.963	117.38
498.181	116.38
498.398	92.38
498.615	97.38
498.832	115.38
499.049	98.38
499.267	100.38
499.484	114.38
499.701	104.38
499.918	94.38
500.135	102.38
500.352	115.38
500.569	113.38
500.786	125.38
501.003	120.38
501.22	110.38
501.437	128.38
501.654	94.38
501.871	112.38
502.088	103.38
502.305	117.38
502.522	109.38
502.739	105.38
502.956	98.38
503.172	110.38
503.389	85.38
503.606	104.38
503.823	101.38
504.04	101.38
504.256	106.38
504.473	99.38
504.69	87.38
504.907	111.38
505.123	100.38
505.34	103.38
505.557	94.38
505.773	106.38
505.99	105.38
506.207	86.38
506.423	111.38
506.64	112.38
506.856	95.38
507.073	88.38
507.289	100.38
507.506	98.38
507.722	81.38
507.939	104.38
508.155	91.38
508.372	85.38
508.588	101.38
508.805	101.38
509.021	90.38
509.238	100.38
509.454	93.38
509.67	88.38
509.887	95.38
510.103	84.38
510.319	90.38
510.536	81.38
510.752	88.38
510.968	99.38
511.184	83.38
511.401	89.38
511.617	75.38
511.833	78.38
512.049	90.38
512.265	86.38
512.481	88.38
512.698	74.38
512.914	76.38
513.13	93.38
513.346	85.38
513.562	87.38
513.778	96.38
513.994	86.38
514.21	90.38
514.426	101.38
514.642	90.38
514.858	83.38
515.074	68.38
