Data from Zn(NO3)2Standard.Agarose3%.GreenCap.LampEnergy10E.O_HRD10591_15-07-51-946.txt Node
Date: Mon Jul 22 15:07:51 EDT 2019
User: cochatt
Spectrometer: HR+D1059
Trigger mode: 1
Integration Time (sec): 1.000000E-1
Scans to average: 1
Electric dark correction enabled: true
Nonlinearity correction enabled: false
Boxcar width: 0
XAxis mode: Wavelengths
Number of Pixels in Spectrum: 2048
>>>>>Begin Spectral Data<<<<<
223.165	-6.75
223.4	-6.75
223.635	-6.75
223.869	-4.75
224.104	-22.75
224.338	-10.75
224.573	-5.75
224.808	-15.75
225.042	6.25
225.277	1.25
225.511	-15.75
225.746	-3.75
225.98	3.25
226.215	2.25
226.449	-2.75
226.683	13.25
226.918	23.25
227.152	39.25
227.387	22.25
227.621	34.25
227.856	48.25
228.09	32.25
228.324	49.25
228.559	49.25
228.793	57.25
229.027	61.25
229.262	63.25
229.496	59.25
229.73	75.25
229.964	50.25
230.199	77.25
230.433	81.25
230.667	78.25
230.901	74.25
231.136	82.25
231.37	62.25
231.604	80.25
231.838	70.25
232.072	71.25
232.306	83.25
232.541	80.25
232.775	82.25
233.009	94.25
233.243	99.25
233.477	81.25
233.711	75.25
233.945	84.25
234.179	54.25
234.413	66.25
234.647	101.25
234.881	85.25
235.115	74.25
235.349	84.25
235.583	74.25
235.817	90.25
236.051	83.25
236.285	81.25
236.519	66.25
236.753	76.25
236.987	75.25
237.221	81.25
237.455	73.25
237.689	78.25
237.922	73.25
238.156	77.25
238.39	67.25
238.624	72.25
238.858	59.25
239.091	68.25
239.325	63.25
239.559	80.25
239.793	74.25
240.027	66.25
240.26	73.25
240.494	61.25
240.728	70.25
240.961	71.25
241.195	70.25
241.429	71.25
241.662	85.25
241.896	81.25
242.13	76.25
242.363	74.25
242.597	83.25
242.83	72.25
243.064	81.25
243.298	98.25
243.531	74.25
243.765	78.25
243.998	74.25
244.232	78.25
244.465	73.25
244.699	74.25
244.932	67.25
245.166	69.25
245.399	71.25
245.633	77.25
245.866	74.25
246.099	75.25
246.333	75.25
246.566	80.25
246.8	74.25
247.033	64.25
247.266	66.25
247.5	82.25
247.733	74.25
247.966	72.25
248.2	80.25
248.433	61.25
248.666	86.25
248.899	81.25
249.133	87.25
249.366	96.25
249.599	69.25
249.832	80.25
250.066	81.25
250.299	66.25
250.532	75.25
250.765	76.25
250.998	78.25
251.231	69.25
251.465	77.25
251.698	72.25
251.931	68.25
252.164	76.25
252.397	82.25
252.63	71.25
252.863	70.25
253.096	82.25
253.329	72.25
253.562	97.25
253.795	74.25
254.028	76.25
254.261	82.25
254.494	81.25
254.727	79.25
254.96	74.25
255.193	72.25
255.426	77.25
255.659	65.25
255.892	83.25
256.124	88.25
256.357	82.25
256.59	77.25
256.823	82.25
257.056	68.25
257.289	78.25
257.521	86.25
257.754	72.25
257.987	83.25
258.22	65.25
258.452	78.25
258.685	85.25
258.918	81.25
259.151	82.25
259.383	74.25
259.616	71.25
259.849	78.25
260.081	76.25
260.314	82.25
260.547	70.25
260.779	75.25
261.012	78.25
261.244	70.25
261.477	66.25
261.71	74.25
261.942	90.25
262.175	93.25
262.407	82.25
262.64	74.25
262.872	72.25
263.105	63.25
263.337	67.25
263.57	86.25
263.802	79.25
264.035	86.25
264.267	86.25
264.499	74.25
264.732	73.25
264.964	82.25
265.197	69.25
265.429	74.25
265.661	73.25
265.894	82.25
266.126	89.25
266.358	76.25
266.591	82.25
266.823	83.25
267.055	73.25
267.287	71.25
267.52	71.25
267.752	77.25
267.984	82.25
268.216	83.25
268.448	89.25
268.681	84.25
268.913	55.25
269.145	73.25
269.377	66.25
269.609	77.25
269.841	85.25
270.073	83.25
270.306	79.25
270.538	85.25
270.77	74.25
271.002	86.25
271.234	84.25
271.466	87.25
271.698	76.25
271.93	83.25
272.162	82.25
272.394	92.25
272.626	90.25
272.858	89.25
273.09	78.25
273.322	84.25
273.553	82.25
273.785	81.25
274.017	88.25
274.249	70.25
274.481	78.25
274.713	63.25
274.945	70.25
275.176	78.25
275.408	81.25
275.64	75.25
275.872	76.25
276.104	73.25
276.335	84.25
276.567	87.25
276.799	78.25
277.031	86.25
277.262	81.25
277.494	79.25
277.726	90.25
277.957	82.25
278.189	70.25
278.421	79.25
278.652	95.25
278.884	87.25
279.115	75.25
279.347	90.25
279.579	65.25
279.81	71.25
280.042	81.25
280.273	66.25
280.505	83.25
280.736	78.25
280.968	88.25
281.199	85.25
281.431	85.25
281.662	75.25
281.894	74.25
282.125	89.25
282.356	81.25
282.588	79.25
282.819	85.25
283.051	64.25
283.282	72.25
283.513	74.25
283.745	66.25
283.976	89.25
284.207	79.25
284.439	81.25
284.67	82.25
284.901	80.25
285.132	76.25
285.364	74.25
285.595	86.25
285.826	86.25
286.057	95.25
286.288	81.25
286.52	88.25
286.751	91.25
286.982	77.25
287.213	78.25
287.444	81.25
287.675	101.25
287.906	93.25
288.138	79.25
288.369	86.25
288.6	74.25
288.831	87.25
289.062	70.25
289.293	81.25
289.524	83.25
289.755	90.25
289.986	87.25
290.217	81.25
290.448	87.25
290.679	68.25
290.91	97.25
291.141	72.25
291.371	83.25
291.602	82.25
291.833	73.25
292.064	87.25
292.295	82.25
292.526	72.25
292.757	63.25
292.987	85.25
293.218	73.25
293.449	77.25
293.68	64.25
293.91	84.25
294.141	84.25
294.372	95.25
294.603	87.25
294.833	81.25
295.064	83.25
295.295	88.25
295.525	77.25
295.756	86.25
295.987	75.25
296.217	94.25
296.448	87.25
296.679	73.25
296.909	89.25
297.14	57.25
297.37	88.25
297.601	77.25
297.831	87.25
298.062	79.25
298.292	85.25
298.523	81.25
298.753	74.25
298.984	73.25
299.214	69.25
299.445	81.25
299.675	70.25
299.905	79.25
300.136	78.25
300.366	85.25
300.597	86.25
300.827	73.25
301.057	77.25
301.288	82.25
301.518	83.25
301.748	84.25
301.979	92.25
302.209	85.25
302.439	81.25
302.669	91.25
302.9	83.25
303.13	82.25
303.36	79.25
303.59	78.25
303.82	69.25
304.051	86.25
304.281	76.25
304.511	91.25
304.741	79.25
304.971	78.25
305.201	70.25
305.431	91.25
305.661	84.25
305.891	84.25
306.121	85.25
306.352	90.25
306.582	87.25
306.812	76.25
307.042	86.25
307.272	91.25
307.502	85.25
307.731	81.25
307.961	86.25
308.191	78.25
308.421	89.25
308.651	88.25
308.881	81.25
309.111	67.25
309.341	95.25
309.571	79.25
309.8	87.25
310.03	78.25
310.26	90.25
310.49	84.25
310.72	84.25
310.949	92.25
311.179	85.25
311.409	81.25
311.639	85.25
311.868	85.25
312.098	64.25
312.328	89.25
312.557	81.25
312.787	72.25
313.017	98.25
313.246	90.25
313.476	81.25
313.706	81.25
313.935	87.25
314.165	79.25
314.394	82.25
314.624	83.25
314.853	92.25
315.083	87.25
315.312	74.25
315.542	86.25
315.771	76.25
316.001	94.25
316.23	79.25
316.46	84.25
316.689	73.25
316.919	83.25
317.148	75.25
317.377	95.25
317.607	89.25
317.836	84.25
318.065	73.25
318.295	83.25
318.524	78.25
318.753	91.25
318.983	84.25
319.212	75.25
319.441	83.25
319.67	74.25
319.9	80.25
320.129	82.25
320.358	73.25
320.587	94.25
320.816	62.25
321.046	66.25
321.275	85.25
321.504	89.25
321.733	88.25
321.962	81.25
322.191	90.25
322.42	81.25
322.649	81.25
322.878	94.25
323.108	86.25
323.337	72.25
323.566	70.25
323.795	82.25
324.024	74.25
324.253	90.25
324.482	89.25
324.71	85.25
324.939	74.25
325.168	68.25
325.397	87.25
325.626	87.25
325.855	82.25
326.084	88.25
326.313	88.25
326.542	72.25
326.77	90.25
326.999	79.25
327.228	79.25
327.457	77.25
327.686	74.25
327.914	86.25
328.143	74.25
328.372	80.25
328.6	81.25
328.829	84.25
329.058	64.25
329.287	80.25
329.515	79.25
329.744	93.25
329.972	86.25
330.201	75.25
330.43	89.25
330.658	72.25
330.887	70.25
331.115	74.25
331.344	80.25
331.572	88.25
331.801	77.25
332.03	71.25
332.258	93.25
332.486	85.25
332.715	80.25
332.943	86.25
333.172	74.25
333.4	79.25
333.629	69.25
333.857	80.25
334.085	93.25
334.314	89.25
334.542	87.25
334.771	81.25
334.999	73.25
335.227	77.25
335.455	84.25
335.684	89.25
335.912	91.25
336.14	87.25
336.369	107.25
336.597	76.25
336.825	81.25
337.053	83.25
337.281	78.25
337.51	75.25
337.738	79.25
337.966	79.25
338.194	81.25
338.422	79.25
338.65	61.25
338.878	83.25
339.106	85.25
339.334	94.25
339.562	76.25
339.79	75.25
340.018	85.25
340.246	85.25
340.474	82.25
340.702	89.25
340.93	67.25
341.158	71.25
341.386	86.25
341.614	91.25
341.842	81.25
342.07	93.25
342.298	65.25
342.526	72.25
342.754	77.25
342.981	67.25
343.209	74.25
343.437	94.25
343.665	79.25
343.893	93.25
344.12	80.25
344.348	82.25
344.576	84.25
344.804	80.25
345.031	77.25
345.259	81.25
345.487	95.25
345.714	82.25
345.942	90.25
346.17	68.25
346.397	86.25
346.625	76.25
346.853	89.25
347.08	73.25
347.308	77.25
347.535	84.25
347.763	81.25
347.99	72.25
348.218	81.25
348.445	72.25
348.673	70.25
348.9	76.25
349.128	67.25
349.355	89.25
349.583	75.25
349.81	74.25
350.037	75.25
350.265	80.25
350.492	86.25
350.72	73.25
350.947	80.25
351.174	77.25
351.402	80.25
351.629	75.25
351.856	77.25
352.083	83.25
352.311	93.25
352.538	88.25
352.765	83.25
352.992	78.25
353.22	74.25
353.447	78.25
353.674	82.25
353.901	75.25
354.128	78.25
354.355	93.25
354.583	70.25
354.81	83.25
355.037	70.25
355.264	79.25
355.491	89.25
355.718	80.25
355.945	89.25
356.172	81.25
356.399	82.25
356.626	80.25
356.853	82.25
357.08	80.25
357.307	67.25
357.534	76.25
357.761	82.25
357.988	78.25
358.215	86.25
358.441	86.25
358.668	85.25
358.895	81.25
359.122	94.25
359.349	86.25
359.576	83.25
359.802	88.25
360.029	67.25
360.256	70.25
360.483	86.25
360.709	73.25
360.936	71.25
361.163	79.25
361.39	75.25
361.616	71.25
361.843	86.25
362.07	79.25
362.296	66.25
362.523	89.25
362.749	80.25
362.976	85.25
363.203	76.25
363.429	82.25
363.656	93.25
363.882	78.25
364.109	79.25
364.335	79.25
364.562	81.25
364.788	82.25
365.015	74.25
365.241	85.25
365.468	81.25
365.694	80.25
365.92	78.25
366.147	87.25
366.373	83.25
366.599	85.25
366.826	79.25
367.052	84.25
367.278	79.25
367.505	86.25
367.731	93.25
367.957	85.25
368.184	87.25
368.41	81.25
368.636	88.25
368.862	91.25
369.089	93.25
369.315	81.25
369.541	78.25
369.767	73.25
369.993	93.25
370.219	85.25
370.445	74.25
370.672	70.25
370.898	75.25
371.124	88.25
371.35	92.25
371.576	99.25
371.802	97.25
372.028	77.25
372.254	92.25
372.48	73.25
372.706	89.25
372.932	83.25
373.158	79.25
373.384	79.25
373.61	78.25
373.835	101.25
374.061	92.25
374.287	82.25
374.513	84.25
374.739	88.25
374.965	81.25
375.191	75.25
375.416	81.25
375.642	82.25
375.868	88.25
376.094	87.25
376.319	72.25
376.545	88.25
376.771	89.25
376.997	90.25
377.222	96.25
377.448	81.25
377.674	91.25
377.899	89.25
378.125	87.25
378.35	85.25
378.576	86.25
378.802	75.25
379.027	91.25
379.253	78.25
379.478	98.25
379.704	84.25
379.929	70.25
380.155	85.25
380.38	82.25
380.606	82.25
380.831	80.25
381.057	78.25
381.282	85.25
381.507	98.25
381.733	81.25
381.958	79.25
382.184	88.25
382.409	87.25
382.634	86.25
382.86	81.25
383.085	89.25
383.31	84.25
383.535	84.25
383.761	78.25
383.986	70.25
384.211	74.25
384.436	97.25
384.662	67.25
384.887	89.25
385.112	94.25
385.337	89.25
385.562	87.25
385.787	97.25
386.013	95.25
386.238	92.25
386.463	94.25
386.688	85.25
386.913	87.25
387.138	89.25
387.363	84.25
387.588	86.25
387.813	94.25
388.038	91.25
388.263	95.25
388.488	81.25
388.713	87.25
388.938	81.25
389.163	77.25
389.387	99.25
389.612	85.25
389.837	95.25
390.062	88.25
390.287	97.25
390.512	88.25
390.736	74.25
390.961	86.25
391.186	84.25
391.411	86.25
391.636	83.25
391.86	99.25
392.085	85.25
392.31	87.25
392.534	90.25
392.759	91.25
392.984	84.25
393.208	90.25
393.433	86.25
393.658	86.25
393.882	81.25
394.107	86.25
394.331	100.25
394.556	92.25
394.78	72.25
395.005	80.25
395.229	84.25
395.454	90.25
395.678	85.25
395.903	80.25
396.127	74.25
396.352	86.25
396.576	99.25
396.801	87.25
397.025	90.25
397.249	91.25
397.474	94.25
397.698	81.25
397.922	80.25
398.147	87.25
398.371	74.25
398.595	111.25
398.82	101.25
399.044	88.25
399.268	88.25
399.492	80.25
399.717	99.25
399.941	99.25
400.165	111.25
400.389	89.25
400.613	89.25
400.837	86.25
401.062	98.25
401.286	94.25
401.51	89.25
401.734	98.25
401.958	85.25
402.182	88.25
402.406	90.25
402.63	109.25
402.854	88.25
403.078	93.25
403.302	89.25
403.526	99.25
403.75	105.25
403.974	93.25
404.198	90.25
404.422	92.25
404.645	83.25
404.869	109.25
405.093	83.25
405.317	97.25
405.541	84.25
405.765	93.25
405.988	107.25
406.212	103.25
406.436	106.25
406.66	99.25
406.883	86.25
407.107	94.25
407.331	98.25
407.555	93.25
407.778	84.25
408.002	91.25
408.226	115.25
408.449	97.25
408.673	90.25
408.896	112.25
409.12	102.25
409.344	96.25
409.567	86.25
409.791	97.25
410.014	101.25
410.238	106.25
410.461	89.25
410.685	102.25
410.908	98.25
411.132	89.25
411.355	106.25
411.578	90.25
411.802	101.25
412.025	89.25
412.249	96.25
412.472	94.25
412.695	92.25
412.919	83.25
413.142	93.25
413.365	91.25
413.589	99.25
413.812	89.25
414.035	105.25
414.258	102.25
414.482	91.25
414.705	97.25
414.928	103.25
415.151	86.25
415.374	105.25
415.597	94.25
415.821	102.25
416.044	101.25
416.267	96.25
416.49	111.25
416.713	109.25
416.936	100.25
417.159	105.25
417.382	95.25
417.605	100.25
417.828	94.25
418.051	101.25
418.274	108.25
418.497	119.25
418.72	106.25
418.943	98.25
419.166	91.25
419.389	117.25
419.611	91.25
419.834	111.25
420.057	98.25
420.28	105.25
420.503	91.25
420.726	100.25
420.948	98.25
421.171	101.25
421.394	95.25
421.617	101.25
421.839	104.25
422.062	94.25
422.285	99.25
422.507	103.25
422.73	98.25
422.953	94.25
423.175	96.25
423.398	86.25
423.621	95.25
423.843	99.25
424.066	93.25
424.288	104.25
424.511	106.25
424.733	107.25
424.956	124.25
425.178	101.25
425.401	95.25
425.623	110.25
425.846	92.25
426.068	94.25
426.291	98.25
426.513	112.25
426.735	93.25
426.958	105.25
427.18	111.25
427.402	97.25
427.625	95.25
427.847	103.25
428.069	100.25
428.292	94.25
428.514	101.25
428.736	92.25
428.958	98.25
429.181	98.25
429.403	106.25
429.625	92.25
429.847	109.25
430.069	112.25
430.292	90.25
430.514	89.25
430.736	100.25
430.958	106.25
431.18	103.25
431.402	92.25
431.624	103.25
431.846	84.25
432.068	71.25
432.29	98.25
432.512	101.25
432.734	101.25
432.956	111.25
433.178	99.25
433.4	93.25
433.622	90.25
433.844	119.25
434.066	107.25
434.287	95.25
434.509	80.25
434.731	88.25
434.953	106.25
435.175	101.25
435.397	110.25
435.618	94.25
435.84	91.25
436.062	99.25
436.284	107.25
436.505	103.25
436.727	84.25
436.949	99.25
437.17	101.25
437.392	90.25
437.614	97.25
437.835	99.25
438.057	95.25
438.278	76.25
438.5	100.25
438.721	104.25
438.943	113.25
439.165	115.25
439.386	118.25
439.608	110.25
439.829	113.25
440.05	110.25
440.272	111.25
440.493	111.25
440.715	95.25
440.936	121.25
441.158	105.25
441.379	100.25
441.6	116.25
441.822	100.25
442.043	103.25
442.264	109.25
442.486	95.25
442.707	94.25
442.928	118.25
443.149	95.25
443.371	113.25
443.592	113.25
443.813	102.25
444.034	114.25
444.255	106.25
444.476	104.25
444.698	91.25
444.919	99.25
445.14	208.25
445.361	163.25
445.582	125.25
445.803	96.25
446.024	116.25
446.245	128.25
446.466	109.25
446.687	99.25
446.908	115.25
447.129	113.25
447.35	109.25
447.571	121.25
447.792	116.25
448.013	109.25
448.234	90.25
448.455	99.25
448.675	119.25
448.896	102.25
449.117	90.25
449.338	99.25
449.559	111.25
449.779	107.25
450	101.25
450.221	115.25
450.442	99.25
450.662	115.25
450.883	98.25
451.104	94.25
451.324	103.25
451.545	110.25
451.766	89.25
451.986	90.25
452.207	106.25
452.428	91.25
452.648	86.25
452.869	89.25
453.089	94.25
453.31	94.25
453.53	99.25
453.751	89.25
453.971	88.25
454.192	97.25
454.412	101.25
454.633	98.25
454.853	98.25
455.073	103.25
455.294	97.25
455.514	97.25
455.734	92.25
455.955	90.25
456.175	85.25
456.395	88.25
456.616	94.25
456.836	86.25
457.056	86.25
457.276	93.25
457.497	79.25
457.717	90.25
457.937	96.25
458.157	102.25
458.377	92.25
458.598	63.25
458.818	103.25
459.038	96.25
459.258	85.25
459.478	74.25
459.698	83.25
459.918	103.25
460.138	90.25
460.358	102.25
460.578	88.25
460.798	98.25
461.018	83.25
461.238	87.25
461.458	97.25
461.678	103.25
461.898	100.25
462.118	83.25
462.338	87.25
462.558	84.25
462.777	84.25
462.997	87.25
463.217	83.25
463.437	96.25
463.657	87.25
463.876	98.25
464.096	79.25
464.316	92.25
464.536	85.25
464.755	96.25
464.975	92.25
465.195	102.25
465.414	109.25
465.634	99.25
465.854	96.25
466.073	93.25
466.293	112.25
466.512	104.25
466.732	106.25
466.951	113.25
467.171	93.25
467.391	104.25
467.61	104.25
467.829	107.25
468.049	120.25
468.268	90.25
468.488	116.25
468.707	110.25
468.927	116.25
469.146	99.25
469.365	104.25
469.585	113.25
469.804	105.25
470.023	119.25
470.243	116.25
470.462	107.25
470.681	112.25
470.901	109.25
471.12	119.25
471.339	109.25
471.558	95.25
471.777	103.25
471.997	106.25
472.216	110.25
472.435	91.25
472.654	77.25
472.873	89.25
473.092	86.25
473.311	97.25
473.53	105.25
473.749	101.25
473.968	94.25
474.187	94.25
474.406	97.25
474.625	109.25
474.844	116.25
475.063	102.25
475.282	76.25
475.501	90.25
475.72	102.25
475.939	90.25
476.158	113.25
476.377	105.25
476.596	91.25
476.814	112.25
477.033	95.25
477.252	101.25
477.471	86.25
477.69	96.25
477.908	114.25
478.127	112.25
478.346	93.25
478.564	93.25
478.783	117.25
479.002	115.25
479.22	105.25
479.439	110.25
479.658	89.25
479.876	97.25
480.095	103.25
480.313	100.25
480.532	96.25
480.751	102.25
480.969	101.25
481.188	96.25
481.406	90.25
481.624	77.25
481.843	63.25
482.061	90.25
482.28	99.25
482.498	86.25
482.717	86.25
482.935	103.25
483.153	113.25
483.372	97.25
483.59	125.25
483.808	97.25
484.027	111.25
484.245	91.25
484.463	116.25
484.681	121.25
484.9	101.25
485.118	109.25
485.336	115.25
485.554	106.25
485.772	81.25
485.99	99.25
486.209	93.25
486.427	105.25
486.645	100.25
486.863	101.25
487.081	105.25
487.299	102.25
487.517	110.25
487.735	105.25
487.953	134.25
488.171	131.25
488.389	114.25
488.607	121.25
488.825	117.25
489.043	115.25
489.261	105.25
489.479	98.25
489.696	101.25
489.914	98.25
490.132	119.25
490.35	111.25
490.568	130.25
490.786	127.25
491.003	120.25
491.221	115.25
491.439	129.25
491.657	126.25
491.874	140.25
492.092	151.25
492.31	147.25
492.527	140.25
492.745	150.25
492.963	143.25
493.18	138.25
493.398	122.25
493.615	125.25
493.833	114.25
494.05	115.25
494.268	120.25
494.485	129.25
494.703	126.25
494.92	107.25
495.138	117.25
495.355	132.25
495.573	116.25
495.79	121.25
496.008	117.25
496.225	130.25
496.442	121.25
496.66	121.25
496.877	123.25
497.094	118.25
497.312	121.25
497.529	117.25
497.746	106.25
497.963	103.25
498.181	104.25
498.398	112.25
498.615	121.25
498.832	92.25
499.049	96.25
499.267	101.25
499.484	102.25
499.701	98.25
499.918	119.25
500.135	101.25
500.352	115.25
500.569	96.25
500.786	104.25
501.003	118.25
501.22	111.25
501.437	110.25
501.654	97.25
501.871	104.25
502.088	117.25
502.305	110.25
502.522	91.25
502.739	101.25
502.956	107.25
503.172	100.25
503.389	96.25
503.606	103.25
503.823	89.25
504.04	117.25
504.256	102.25
504.473	116.25
504.69	85.25
504.907	107.25
505.123	101.25
505.34	90.25
505.557	102.25
505.773	106.25
505.99	94.25
506.207	93.25
506.423	98.25
506.64	93.25
506.856	98.25
507.073	103.25
507.289	99.25
507.506	105.25
507.722	97.25
507.939	110.25
508.155	89.25
508.372	103.25
508.588	82.25
508.805	92.25
509.021	89.25
509.238	92.25
509.454	74.25
509.67	80.25
509.887	88.25
510.103	82.25
510.319	95.25
510.536	73.25
510.752	78.25
510.968	80.25
511.184	82.25
511.401	78.25
511.617	103.25
511.833	95.25
512.049	85.25
512.265	81.25
512.481	82.25
512.698	91.25
512.914	85.25
513.13	83.25
513.346	82.25
513.562	92.25
513.778	79.25
513.994	84.25
514.21	85.25
514.426	90.25
514.642	90.25
514.858	92.25
515.074	90.25
515.29	99.25
515.506	86.25
515.721	81.25
