Data from Zn(NO3)2Standard.Agarose3%.GreenCap.LampEnergy5.5.E.O_HRD10591_15-03-43-768.txt Node
Date: Mon Jul 22 15:03:43 EDT 2019
User: cochatt
Spectrometer: HR+D1059
Trigger mode: 1
Integration Time (sec): 1.000000E-1
Scans to average: 1
Electric dark correction enabled: true
Nonlinearity correction enabled: false
Boxcar width: 0
XAxis mode: Wavelengths
Number of Pixels in Spectrum: 2048
>>>>>Begin Spectral Data<<<<<
223.165	0.94
223.4	0.94
223.635	0.94
223.869	-31.06
224.104	-15.06
224.338	-5.06
224.573	-6.06
224.808	-16.06
225.042	0.94
225.277	-2.06
225.511	-11.06
225.746	-8.06
225.98	0.94
226.215	10.94
226.449	11.94
226.683	14.94
226.918	20.94
227.152	32.94
227.387	30.94
227.621	38.94
227.856	43.94
228.09	37.94
228.324	49.94
228.559	54.94
228.793	55.94
229.027	58.94
229.262	80.94
229.496	58.94
229.73	57.94
229.964	71.94
230.199	64.94
230.433	78.94
230.667	88.94
230.901	79.94
231.136	86.94
231.37	85.94
231.604	86.94
231.838	80.94
232.072	88.94
232.306	83.94
232.541	96.94
232.775	83.94
233.009	95.94
233.243	87.94
233.477	84.94
233.711	83.94
233.945	81.94
234.179	64.94
234.413	77.94
234.647	90.94
234.881	76.94
235.115	79.94
235.349	78.94
235.583	94.94
235.817	77.94
236.051	71.94
236.285	81.94
236.519	83.94
236.753	63.94
236.987	56.94
237.221	81.94
237.455	96.94
237.689	77.94
237.922	77.94
238.156	72.94
238.39	68.94
238.624	88.94
238.858	72.94
239.091	84.94
239.325	73.94
239.559	92.94
239.793	77.94
240.027	80.94
240.26	77.94
240.494	92.94
240.728	92.94
240.961	85.94
241.195	69.94
241.429	79.94
241.662	84.94
241.896	72.94
242.13	73.94
242.363	81.94
242.597	78.94
242.83	67.94
243.064	72.94
243.298	75.94
243.531	86.94
243.765	79.94
243.998	87.94
244.232	82.94
244.465	69.94
244.699	82.94
244.932	85.94
245.166	83.94
245.399	82.94
245.633	80.94
245.866	87.94
246.099	87.94
246.333	80.94
246.566	84.94
246.8	88.94
247.033	81.94
247.266	87.94
247.5	95.94
247.733	84.94
247.966	87.94
248.2	87.94
248.433	67.94
248.666	88.94
248.899	81.94
249.133	83.94
249.366	78.94
249.599	82.94
249.832	82.94
250.066	77.94
250.299	90.94
250.532	73.94
250.765	87.94
250.998	70.94
251.231	75.94
251.465	85.94
251.698	95.94
251.931	80.94
252.164	88.94
252.397	77.94
252.63	94.94
252.863	76.94
253.096	87.94
253.329	82.94
253.562	89.94
253.795	81.94
254.028	82.94
254.261	76.94
254.494	78.94
254.727	76.94
254.96	84.94
255.193	81.94
255.426	87.94
255.659	96.94
255.892	92.94
256.124	78.94
256.357	85.94
256.59	88.94
256.823	74.94
257.056	87.94
257.289	95.94
257.521	82.94
257.754	96.94
257.987	96.94
258.22	76.94
258.452	77.94
258.685	80.94
258.918	100.94
259.151	84.94
259.383	81.94
259.616	72.94
259.849	92.94
260.081	77.94
260.314	77.94
260.547	81.94
260.779	80.94
261.012	78.94
261.244	75.94
261.477	87.94
261.71	67.94
261.942	76.94
262.175	78.94
262.407	81.94
262.64	92.94
262.872	76.94
263.105	85.94
263.337	86.94
263.57	86.94
263.802	93.94
264.035	87.94
264.267	89.94
264.499	85.94
264.732	88.94
264.964	84.94
265.197	94.94
265.429	95.94
265.661	83.94
265.894	73.94
266.126	99.94
266.358	84.94
266.591	95.94
266.823	81.94
267.055	94.94
267.287	87.94
267.52	99.94
267.752	85.94
267.984	85.94
268.216	77.94
268.448	78.94
268.681	81.94
268.913	76.94
269.145	78.94
269.377	98.94
269.609	91.94
269.841	91.94
270.073	84.94
270.306	71.94
270.538	86.94
270.77	79.94
271.002	91.94
271.234	85.94
271.466	84.94
271.698	81.94
271.93	74.94
272.162	89.94
272.394	95.94
272.626	69.94
272.858	79.94
273.09	85.94
273.322	92.94
273.553	76.94
273.785	76.94
274.017	90.94
274.249	85.94
274.481	91.94
274.713	97.94
274.945	92.94
275.176	93.94
275.408	91.94
275.64	82.94
275.872	78.94
276.104	85.94
276.335	95.94
276.567	88.94
276.799	76.94
277.031	81.94
277.262	97.94
277.494	97.94
277.726	89.94
277.957	94.94
278.189	89.94
278.421	98.94
278.652	106.94
278.884	97.94
279.115	80.94
279.347	79.94
279.579	84.94
279.81	90.94
280.042	89.94
280.273	91.94
280.505	84.94
280.736	87.94
280.968	78.94
281.199	72.94
281.431	99.94
281.662	86.94
281.894	81.94
282.125	101.94
282.356	80.94
282.588	105.94
282.819	95.94
283.051	92.94
283.282	89.94
283.513	82.94
283.745	73.94
283.976	78.94
284.207	100.94
284.439	88.94
284.67	91.94
284.901	75.94
285.132	85.94
285.364	105.94
285.595	85.94
285.826	79.94
286.057	87.94
286.288	75.94
286.52	77.94
286.751	79.94
286.982	81.94
287.213	95.94
287.444	99.94
287.675	93.94
287.906	68.94
288.138	98.94
288.369	84.94
288.6	84.94
288.831	88.94
289.062	86.94
289.293	83.94
289.524	78.94
289.755	73.94
289.986	80.94
290.217	87.94
290.448	83.94
290.679	79.94
290.91	84.94
291.141	90.94
291.371	89.94
291.602	91.94
291.833	80.94
292.064	87.94
292.295	81.94
292.526	88.94
292.757	78.94
292.987	82.94
293.218	89.94
293.449	93.94
293.68	82.94
293.91	87.94
294.141	106.94
294.372	84.94
294.603	87.94
294.833	90.94
295.064	99.94
295.295	102.94
295.525	83.94
295.756	78.94
295.987	81.94
296.217	81.94
296.448	87.94
296.679	87.94
296.909	85.94
297.14	94.94
297.37	84.94
297.601	84.94
297.831	79.94
298.062	69.94
298.292	78.94
298.523	64.94
298.753	92.94
298.984	97.94
299.214	83.94
299.445	80.94
299.675	83.94
299.905	87.94
300.136	88.94
300.366	98.94
300.597	89.94
300.827	97.94
301.057	88.94
301.288	78.94
301.518	93.94
301.748	84.94
301.979	74.94
302.209	91.94
302.439	89.94
302.669	73.94
302.9	87.94
303.13	77.94
303.36	87.94
303.59	85.94
303.82	96.94
304.051	82.94
304.281	89.94
304.511	80.94
304.741	72.94
304.971	63.94
305.201	82.94
305.431	90.94
305.661	79.94
305.891	92.94
306.121	78.94
306.352	80.94
306.582	79.94
306.812	78.94
307.042	83.94
307.272	75.94
307.502	81.94
307.731	100.94
307.961	83.94
308.191	74.94
308.421	104.94
308.651	93.94
308.881	95.94
309.111	96.94
309.341	89.94
309.571	80.94
309.8	91.94
310.03	93.94
310.26	78.94
310.49	80.94
310.72	87.94
310.949	96.94
311.179	84.94
311.409	88.94
311.639	75.94
311.868	90.94
312.098	96.94
312.328	91.94
312.557	93.94
312.787	80.94
313.017	79.94
313.246	80.94
313.476	94.94
313.706	81.94
313.935	67.94
314.165	87.94
314.394	77.94
314.624	75.94
314.853	77.94
315.083	83.94
315.312	88.94
315.542	92.94
315.771	92.94
316.001	95.94
316.23	95.94
316.46	86.94
316.689	90.94
316.919	84.94
317.148	91.94
317.377	97.94
317.607	97.94
317.836	88.94
318.065	77.94
318.295	86.94
318.524	78.94
318.753	95.94
318.983	104.94
319.212	91.94
319.441	91.94
319.67	86.94
319.9	81.94
320.129	103.94
320.358	84.94
320.587	78.94
320.816	88.94
321.046	71.94
321.275	96.94
321.504	88.94
321.733	96.94
321.962	95.94
322.191	92.94
322.42	94.94
322.649	84.94
322.878	79.94
323.108	79.94
323.337	87.94
323.566	80.94
323.795	82.94
324.024	91.94
324.253	91.94
324.482	92.94
324.71	86.94
324.939	82.94
325.168	92.94
325.397	89.94
325.626	86.94
325.855	92.94
326.084	101.94
326.313	77.94
326.542	87.94
326.77	101.94
326.999	90.94
327.228	86.94
327.457	101.94
327.686	94.94
327.914	87.94
328.143	91.94
328.372	81.94
328.6	76.94
328.829	85.94
329.058	90.94
329.287	83.94
329.515	82.94
329.744	94.94
329.972	81.94
330.201	82.94
330.43	104.94
330.658	88.94
330.887	83.94
331.115	87.94
331.344	89.94
331.572	92.94
331.801	84.94
332.03	94.94
332.258	80.94
332.486	79.94
332.715	82.94
332.943	90.94
333.172	85.94
333.4	81.94
333.629	83.94
333.857	80.94
334.085	88.94
334.314	91.94
334.542	80.94
334.771	102.94
334.999	88.94
335.227	86.94
335.455	74.94
335.684	83.94
335.912	101.94
336.14	96.94
336.369	75.94
336.597	79.94
336.825	81.94
337.053	86.94
337.281	88.94
337.51	92.94
337.738	84.94
337.966	89.94
338.194	82.94
338.422	83.94
338.65	84.94
338.878	86.94
339.106	68.94
339.334	91.94
339.562	83.94
339.79	91.94
340.018	94.94
340.246	71.94
340.474	84.94
340.702	93.94
340.93	78.94
341.158	78.94
341.386	93.94
341.614	92.94
341.842	87.94
342.07	83.94
342.298	84.94
342.526	79.94
342.754	89.94
342.981	77.94
343.209	77.94
343.437	92.94
343.665	90.94
343.893	81.94
344.12	93.94
344.348	88.94
344.576	89.94
344.804	109.94
345.031	97.94
345.259	78.94
345.487	86.94
345.714	95.94
345.942	99.94
346.17	73.94
346.397	88.94
346.625	85.94
346.853	84.94
347.08	84.94
347.308	94.94
347.535	83.94
347.763	84.94
347.99	84.94
348.218	91.94
348.445	90.94
348.673	88.94
348.9	87.94
349.128	76.94
349.355	74.94
349.583	93.94
349.81	100.94
350.037	88.94
350.265	85.94
350.492	81.94
350.72	81.94
350.947	83.94
351.174	100.94
351.402	91.94
351.629	104.94
351.856	90.94
352.083	92.94
352.311	92.94
352.538	93.94
352.765	87.94
352.992	71.94
353.22	81.94
353.447	86.94
353.674	80.94
353.901	81.94
354.128	85.94
354.355	86.94
354.583	77.94
354.81	84.94
355.037	94.94
355.264	77.94
355.491	89.94
355.718	95.94
355.945	86.94
356.172	95.94
356.399	82.94
356.626	95.94
356.853	78.94
357.08	86.94
357.307	86.94
357.534	88.94
357.761	90.94
357.988	80.94
358.215	84.94
358.441	86.94
358.668	92.94
358.895	80.94
359.122	76.94
359.349	79.94
359.576	90.94
359.802	81.94
360.029	78.94
360.256	84.94
360.483	73.94
360.709	88.94
360.936	90.94
361.163	95.94
361.39	77.94
361.616	80.94
361.843	93.94
362.07	94.94
362.296	87.94
362.523	84.94
362.749	73.94
362.976	80.94
363.203	71.94
363.429	76.94
363.656	80.94
363.882	84.94
364.109	89.94
364.335	84.94
364.562	83.94
364.788	91.94
365.015	97.94
365.241	85.94
365.468	83.94
365.694	75.94
365.92	77.94
366.147	83.94
366.373	84.94
366.599	84.94
366.826	74.94
367.052	88.94
367.278	97.94
367.505	82.94
367.731	81.94
367.957	87.94
368.184	92.94
368.41	87.94
368.636	87.94
368.862	94.94
369.089	81.94
369.315	83.94
369.541	92.94
369.767	99.94
369.993	95.94
370.219	87.94
370.445	88.94
370.672	82.94
370.898	92.94
371.124	82.94
371.35	91.94
371.576	85.94
371.802	85.94
372.028	85.94
372.254	80.94
372.48	80.94
372.706	75.94
372.932	80.94
373.158	81.94
373.384	76.94
373.61	80.94
373.835	84.94
374.061	72.94
374.287	81.94
374.513	87.94
374.739	89.94
374.965	86.94
375.191	88.94
375.416	84.94
375.642	90.94
375.868	95.94
376.094	92.94
376.319	91.94
376.545	95.94
376.771	81.94
376.997	83.94
377.222	77.94
377.448	87.94
377.674	89.94
377.899	89.94
378.125	97.94
378.35	87.94
378.576	82.94
378.802	74.94
379.027	75.94
379.253	86.94
379.478	84.94
379.704	74.94
379.929	89.94
380.155	77.94
380.38	79.94
380.606	89.94
380.831	81.94
381.057	90.94
381.282	64.94
381.507	95.94
381.733	95.94
381.958	74.94
382.184	81.94
382.409	84.94
382.634	81.94
382.86	80.94
383.085	93.94
383.31	92.94
383.535	86.94
383.761	79.94
383.986	87.94
384.211	92.94
384.436	95.94
384.662	69.94
384.887	80.94
385.112	83.94
385.337	81.94
385.562	85.94
385.787	85.94
386.013	100.94
386.238	71.94
386.463	95.94
386.688	94.94
386.913	92.94
387.138	71.94
387.363	89.94
387.588	85.94
387.813	88.94
388.038	83.94
388.263	91.94
388.488	88.94
388.713	74.94
388.938	89.94
389.163	79.94
389.387	80.94
389.612	79.94
389.837	87.94
390.062	79.94
390.287	87.94
390.512	89.94
390.736	73.94
390.961	95.94
391.186	70.94
391.411	75.94
391.636	77.94
391.86	89.94
392.085	92.94
392.31	103.94
392.534	75.94
392.759	84.94
392.984	82.94
393.208	89.94
393.433	91.94
393.658	92.94
393.882	81.94
394.107	84.94
394.331	83.94
394.556	70.94
394.78	87.94
395.005	71.94
395.229	91.94
395.454	83.94
395.678	84.94
395.903	86.94
396.127	73.94
396.352	86.94
396.576	80.94
396.801	101.94
397.025	98.94
397.249	79.94
397.474	79.94
397.698	99.94
397.922	90.94
398.147	82.94
398.371	89.94
398.595	85.94
398.82	86.94
399.044	92.94
399.268	90.94
399.492	73.94
399.717	80.94
399.941	72.94
400.165	82.94
400.389	82.94
400.613	81.94
400.837	95.94
401.062	87.94
401.286	99.94
401.51	86.94
401.734	100.94
401.958	92.94
402.182	95.94
402.406	81.94
402.63	78.94
402.854	84.94
403.078	92.94
403.302	94.94
403.526	102.94
403.75	81.94
403.974	77.94
404.198	86.94
404.422	82.94
404.645	84.94
404.869	80.94
405.093	88.94
405.317	75.94
405.541	97.94
405.765	102.94
405.988	92.94
406.212	84.94
406.436	93.94
406.66	75.94
406.883	92.94
407.107	76.94
407.331	89.94
407.555	85.94
407.778	84.94
408.002	85.94
408.226	87.94
408.449	83.94
408.673	89.94
408.896	97.94
409.12	92.94
409.344	80.94
409.567	79.94
409.791	85.94
410.014	91.94
410.238	84.94
410.461	92.94
410.685	93.94
410.908	77.94
411.132	87.94
411.355	85.94
411.578	91.94
411.802	80.94
412.025	82.94
412.249	85.94
412.472	86.94
412.695	88.94
412.919	87.94
413.142	96.94
413.365	81.94
413.589	88.94
413.812	89.94
414.035	86.94
414.258	82.94
414.482	70.94
414.705	90.94
414.928	98.94
415.151	94.94
415.374	90.94
415.597	102.94
415.821	86.94
416.044	98.94
416.267	91.94
416.49	85.94
416.713	85.94
416.936	86.94
417.159	85.94
417.382	92.94
417.605	90.94
417.828	110.94
418.051	84.94
418.274	84.94
418.497	93.94
418.72	95.94
418.943	93.94
419.166	84.94
419.389	85.94
419.611	85.94
419.834	92.94
420.057	98.94
420.28	87.94
420.503	108.94
420.726	92.94
420.948	84.94
421.171	91.94
421.394	93.94
421.617	94.94
421.839	94.94
422.062	76.94
422.285	90.94
422.507	79.94
422.73	92.94
422.953	76.94
423.175	99.94
423.398	96.94
423.621	73.94
423.843	92.94
424.066	96.94
424.288	92.94
424.511	89.94
424.733	87.94
424.956	96.94
425.178	99.94
425.401	90.94
425.623	95.94
425.846	90.94
426.068	76.94
426.291	86.94
426.513	99.94
426.735	76.94
426.958	91.94
427.18	115.94
427.402	87.94
427.625	99.94
427.847	96.94
428.069	87.94
428.292	93.94
428.514	89.94
428.736	90.94
428.958	101.94
429.181	92.94
429.403	90.94
429.625	92.94
429.847	89.94
430.069	88.94
430.292	87.94
430.514	99.94
430.736	83.94
430.958	88.94
431.18	83.94
431.402	82.94
431.624	92.94
431.846	84.94
432.068	92.94
432.29	87.94
432.512	98.94
432.734	75.94
432.956	100.94
433.178	85.94
433.4	92.94
433.622	103.94
433.844	89.94
434.066	95.94
434.287	90.94
434.509	77.94
434.731	89.94
434.953	79.94
435.175	86.94
435.397	93.94
435.618	98.94
435.84	84.94
436.062	83.94
436.284	84.94
436.505	91.94
436.727	96.94
436.949	89.94
437.17	92.94
437.392	79.94
437.614	96.94
437.835	91.94
438.057	86.94
438.278	95.94
438.5	82.94
438.721	85.94
438.943	71.94
439.165	98.94
439.386	86.94
439.608	100.94
439.829	96.94
440.05	92.94
440.272	90.94
440.493	91.94
440.715	97.94
440.936	79.94
441.158	100.94
441.379	91.94
441.6	92.94
441.822	84.94
442.043	78.94
442.264	95.94
442.486	87.94
442.707	97.94
442.928	84.94
443.149	87.94
443.371	101.94
443.592	87.94
443.813	85.94
444.034	87.94
444.255	93.94
444.476	85.94
444.698	105.94
444.919	88.94
445.14	207.94
445.361	167.94
445.582	103.94
445.803	88.94
446.024	98.94
446.245	91.94
446.466	91.94
446.687	96.94
446.908	108.94
447.129	117.94
447.35	79.94
447.571	90.94
447.792	93.94
448.013	103.94
448.234	81.94
448.455	95.94
448.675	88.94
448.896	96.94
449.117	83.94
449.338	94.94
449.559	87.94
449.779	91.94
450	88.94
450.221	91.94
450.442	88.94
450.662	99.94
450.883	76.94
451.104	97.94
451.324	83.94
451.545	80.94
451.766	98.94
451.986	85.94
452.207	103.94
452.428	95.94
452.648	88.94
452.869	87.94
453.089	91.94
453.31	93.94
453.53	79.94
453.751	77.94
453.971	81.94
454.192	89.94
454.412	81.94
454.633	79.94
454.853	93.94
455.073	75.94
455.294	90.94
455.514	89.94
455.734	91.94
455.955	90.94
456.175	93.94
456.395	78.94
456.616	86.94
456.836	86.94
457.056	95.94
457.276	88.94
457.497	100.94
457.717	90.94
457.937	90.94
458.157	81.94
458.377	68.94
458.598	84.94
458.818	77.94
459.038	91.94
459.258	80.94
459.478	74.94
459.698	81.94
459.918	90.94
460.138	72.94
460.358	80.94
460.578	77.94
460.798	65.94
461.018	88.94
461.238	78.94
461.458	84.94
461.678	97.94
461.898	90.94
462.118	89.94
462.338	94.94
462.558	93.94
462.777	88.94
462.997	80.94
463.217	88.94
463.437	102.94
463.657	99.94
463.876	82.94
464.096	83.94
464.316	78.94
464.536	85.94
464.755	100.94
464.975	96.94
465.195	87.94
465.414	92.94
465.634	91.94
465.854	85.94
466.073	94.94
466.293	100.94
466.512	84.94
466.732	94.94
466.951	94.94
467.171	90.94
467.391	103.94
467.61	78.94
467.829	103.94
468.049	83.94
468.268	85.94
468.488	94.94
468.707	80.94
468.927	93.94
469.146	82.94
469.365	92.94
469.585	101.94
469.804	85.94
470.023	103.94
470.243	90.94
470.462	93.94
470.681	81.94
470.901	101.94
471.12	101.94
471.339	92.94
471.558	85.94
471.777	78.94
471.997	96.94
472.216	92.94
472.435	92.94
472.654	84.94
472.873	84.94
473.092	87.94
473.311	87.94
473.53	95.94
473.749	91.94
473.968	93.94
474.187	84.94
474.406	67.94
474.625	87.94
474.844	75.94
475.063	92.94
475.282	95.94
475.501	77.94
475.72	77.94
475.939	84.94
476.158	95.94
476.377	101.94
476.596	106.94
476.814	95.94
477.033	89.94
477.252	84.94
477.471	80.94
477.69	92.94
477.908	81.94
478.127	104.94
478.346	80.94
478.564	95.94
478.783	99.94
479.002	96.94
479.22	99.94
479.439	97.94
479.658	99.94
479.876	99.94
480.095	83.94
480.313	81.94
480.532	85.94
480.751	97.94
480.969	91.94
481.188	108.94
481.406	85.94
481.624	75.94
481.843	88.94
482.061	77.94
482.28	78.94
482.498	88.94
482.717	91.94
482.935	105.94
483.153	95.94
483.372	87.94
483.59	95.94
483.808	89.94
484.027	103.94
484.245	89.94
484.463	87.94
484.681	79.94
484.9	81.94
485.118	102.94
485.336	99.94
485.554	75.94
485.772	101.94
485.99	86.94
486.209	91.94
486.427	96.94
486.645	85.94
486.863	102.94
487.081	92.94
487.299	90.94
487.517	90.94
487.735	92.94
487.953	111.94
488.171	102.94
488.389	105.94
488.607	103.94
488.825	92.94
489.043	99.94
489.261	95.94
489.479	101.94
489.696	97.94
489.914	93.94
490.132	94.94
490.35	91.94
490.568	109.94
490.786	97.94
491.003	119.94
491.221	96.94
491.439	96.94
491.657	93.94
491.874	103.94
492.092	105.94
492.31	112.94
492.527	115.94
492.745	111.94
492.963	103.94
493.18	103.94
493.398	115.94
493.615	87.94
493.833	116.94
494.05	106.94
494.268	103.94
494.485	89.94
494.703	108.94
494.92	93.94
495.138	105.94
495.355	100.94
495.573	96.94
495.79	110.94
496.008	96.94
496.225	95.94
496.442	95.94
496.66	105.94
496.877	96.94
497.094	106.94
497.312	104.94
497.529	106.94
497.746	96.94
497.963	93.94
498.181	90.94
498.398	81.94
498.615	94.94
498.832	89.94
499.049	86.94
499.267	84.94
499.484	89.94
499.701	111.94
499.918	89.94
500.135	111.94
500.352	106.94
500.569	88.94
500.786	93.94
501.003	104.94
501.22	88.94
501.437	94.94
501.654	99.94
501.871	88.94
502.088	96.94
502.305	112.94
502.522	94.94
502.739	93.94
502.956	99.94
503.172	88.94
503.389	99.94
503.606	80.94
503.823	85.94
504.04	89.94
504.256	91.94
504.473	92.94
504.69	94.94
504.907	95.94
505.123	96.94
505.34	92.94
505.557	91.94
505.773	75.94
505.99	94.94
506.207	101.94
506.423	91.94
506.64	94.94
506.856	95.94
507.073	77.94
507.289	93.94
507.506	81.94
507.722	91.94
507.939	104.94
508.155	92.94
508.372	95.94
508.588	74.94
508.805	84.94
509.021	87.94
509.238	79.94
509.454	85.94
509.67	92.94
509.887	83.94
510.103	91.94
510.319	82.94
510.536	96.94
510.752	83.94
510.968	91.94
511.184	77.94
511.401	90.94
511.617	83.94
511.833	91.94
512.049	87.94
512.265	94.94
512.481	90.94
512.698	91.94
512.914	80.94
513.13	80.94
513.346	84.94
513.562	90.94
513.778	95.94
513.994	84.94
514.21	89.94
514.426	76.94
514.642	93.94
514.858	86.94
515.074	83.94
515.29	93.94
515.506	83.94
515.721	85.94
515.937	93.94
516.153	87.94
516.369	71.94
516.585	96.94
516.801	91.94
517.016	73.94
517.232	79.94
517.448	92.94
517.664	84.94
517.879	100.94
518.095	91.94
