Data from Zn(NO3)2Standard.Agarose3%.GreenCap.LampEnergy5.5.E.O_HRD10591_15-00-58-768.txt Node
Date: Mon Jul 22 15:00:58 EDT 2019
User: cochatt
Spectrometer: HR+D1059
Trigger mode: 1
Integration Time (sec): 1.000000E-1
Scans to average: 1
Electric dark correction enabled: true
Nonlinearity correction enabled: false
Boxcar width: 0
XAxis mode: Wavelengths
Number of Pixels in Spectrum: 2048
>>>>>Begin Spectral Data<<<<<
223.165	-16.81
223.4	-16.81
223.635	-16.81
223.869	-7.81
224.104	-26.81
224.338	-13.81
224.573	-5.81
224.808	-30.81
225.042	-10.81
225.277	-4.81
225.511	-9.81
225.746	4.19
225.98	-0.81
226.215	17.19
226.449	27.19
226.683	23.19
226.918	31.19
227.152	25.19
227.387	42.19
227.621	36.19
227.856	52.19
228.09	47.19
228.324	40.19
228.559	54.19
228.793	61.19
229.027	64.19
229.262	67.19
229.496	60.19
229.73	58.19
229.964	54.19
230.199	71.19
230.433	85.19
230.667	82.19
230.901	82.19
231.136	76.19
231.37	80.19
231.604	77.19
231.838	81.19
232.072	75.19
232.306	84.19
232.541	91.19
232.775	80.19
233.009	71.19
233.243	72.19
233.477	80.19
233.711	91.19
233.945	75.19
234.179	67.19
234.413	82.19
234.647	88.19
234.881	80.19
235.115	86.19
235.349	90.19
235.583	94.19
235.817	81.19
236.051	65.19
236.285	74.19
236.519	75.19
236.753	83.19
236.987	78.19
237.221	87.19
237.455	83.19
237.689	92.19
237.922	92.19
238.156	86.19
238.39	79.19
238.624	65.19
238.858	80.19
239.091	75.19
239.325	79.19
239.559	68.19
239.793	65.19
240.027	76.19
240.26	77.19
240.494	67.19
240.728	66.19
240.961	67.19
241.195	72.19
241.429	62.19
241.662	71.19
241.896	80.19
242.13	80.19
242.363	62.19
242.597	61.19
242.83	87.19
243.064	71.19
243.298	67.19
243.531	73.19
243.765	70.19
243.998	65.19
244.232	76.19
244.465	82.19
244.699	60.19
244.932	70.19
245.166	55.19
245.399	86.19
245.633	95.19
245.866	72.19
246.099	75.19
246.333	89.19
246.566	73.19
246.8	67.19
247.033	64.19
247.266	68.19
247.5	70.19
247.733	78.19
247.966	71.19
248.2	76.19
248.433	64.19
248.666	74.19
248.899	84.19
249.133	77.19
249.366	71.19
249.599	80.19
249.832	75.19
250.066	95.19
250.299	95.19
250.532	72.19
250.765	80.19
250.998	85.19
251.231	77.19
251.465	79.19
251.698	82.19
251.931	90.19
252.164	92.19
252.397	67.19
252.63	77.19
252.863	82.19
253.096	81.19
253.329	79.19
253.562	74.19
253.795	76.19
254.028	79.19
254.261	74.19
254.494	67.19
254.727	86.19
254.96	79.19
255.193	84.19
255.426	79.19
255.659	74.19
255.892	89.19
256.124	74.19
256.357	89.19
256.59	74.19
256.823	64.19
257.056	78.19
257.289	64.19
257.521	88.19
257.754	82.19
257.987	86.19
258.22	83.19
258.452	87.19
258.685	85.19
258.918	84.19
259.151	83.19
259.383	72.19
259.616	85.19
259.849	77.19
260.081	82.19
260.314	90.19
260.547	71.19
260.779	100.19
261.012	75.19
261.244	75.19
261.477	88.19
261.71	83.19
261.942	73.19
262.175	85.19
262.407	80.19
262.64	90.19
262.872	85.19
263.105	85.19
263.337	80.19
263.57	78.19
263.802	70.19
264.035	95.19
264.267	69.19
264.499	82.19
264.732	93.19
264.964	75.19
265.197	92.19
265.429	71.19
265.661	80.19
265.894	75.19
266.126	69.19
266.358	77.19
266.591	73.19
266.823	77.19
267.055	83.19
267.287	90.19
267.52	92.19
267.752	98.19
267.984	83.19
268.216	85.19
268.448	91.19
268.681	88.19
268.913	75.19
269.145	77.19
269.377	87.19
269.609	77.19
269.841	75.19
270.073	82.19
270.306	81.19
270.538	74.19
270.77	76.19
271.002	77.19
271.234	97.19
271.466	85.19
271.698	82.19
271.93	101.19
272.162	75.19
272.394	82.19
272.626	76.19
272.858	80.19
273.09	83.19
273.322	87.19
273.553	74.19
273.785	85.19
274.017	85.19
274.249	95.19
274.481	85.19
274.713	84.19
274.945	74.19
275.176	85.19
275.408	83.19
275.64	90.19
275.872	72.19
276.104	88.19
276.335	69.19
276.567	76.19
276.799	75.19
277.031	72.19
277.262	85.19
277.494	81.19
277.726	67.19
277.957	83.19
278.189	82.19
278.421	80.19
278.652	75.19
278.884	85.19
279.115	88.19
279.347	88.19
279.579	76.19
279.81	84.19
280.042	81.19
280.273	80.19
280.505	65.19
280.736	74.19
280.968	90.19
281.199	81.19
281.431	92.19
281.662	103.19
281.894	92.19
282.125	83.19
282.356	88.19
282.588	88.19
282.819	91.19
283.051	75.19
283.282	68.19
283.513	85.19
283.745	77.19
283.976	80.19
284.207	73.19
284.439	85.19
284.67	99.19
284.901	91.19
285.132	91.19
285.364	83.19
285.595	77.19
285.826	81.19
286.057	89.19
286.288	69.19
286.52	82.19
286.751	76.19
286.982	103.19
287.213	80.19
287.444	88.19
287.675	85.19
287.906	81.19
288.138	87.19
288.369	97.19
288.6	99.19
288.831	81.19
289.062	79.19
289.293	79.19
289.524	82.19
289.755	79.19
289.986	82.19
290.217	80.19
290.448	69.19
290.679	83.19
290.91	92.19
291.141	89.19
291.371	81.19
291.602	82.19
291.833	75.19
292.064	83.19
292.295	82.19
292.526	78.19
292.757	69.19
292.987	81.19
293.218	89.19
293.449	83.19
293.68	79.19
293.91	91.19
294.141	85.19
294.372	81.19
294.603	76.19
294.833	90.19
295.064	97.19
295.295	74.19
295.525	86.19
295.756	112.19
295.987	87.19
296.217	85.19
296.448	81.19
296.679	78.19
296.909	77.19
297.14	80.19
297.37	84.19
297.601	80.19
297.831	80.19
298.062	79.19
298.292	63.19
298.523	83.19
298.753	85.19
298.984	85.19
299.214	95.19
299.445	88.19
299.675	98.19
299.905	87.19
300.136	77.19
300.366	91.19
300.597	87.19
300.827	80.19
301.057	79.19
301.288	84.19
301.518	88.19
301.748	87.19
301.979	83.19
302.209	70.19
302.439	83.19
302.669	72.19
302.9	84.19
303.13	91.19
303.36	84.19
303.59	76.19
303.82	82.19
304.051	85.19
304.281	72.19
304.511	81.19
304.741	78.19
304.971	61.19
305.201	74.19
305.431	80.19
305.661	82.19
305.891	87.19
306.121	83.19
306.352	67.19
306.582	84.19
306.812	74.19
307.042	82.19
307.272	77.19
307.502	83.19
307.731	89.19
307.961	80.19
308.191	78.19
308.421	59.19
308.651	79.19
308.881	85.19
309.111	82.19
309.341	104.19
309.571	90.19
309.8	76.19
310.03	83.19
310.26	80.19
310.49	72.19
310.72	76.19
310.949	75.19
311.179	80.19
311.409	83.19
311.639	90.19
311.868	93.19
312.098	82.19
312.328	88.19
312.557	83.19
312.787	81.19
313.017	82.19
313.246	74.19
313.476	83.19
313.706	79.19
313.935	85.19
314.165	66.19
314.394	90.19
314.624	83.19
314.853	84.19
315.083	99.19
315.312	90.19
315.542	86.19
315.771	86.19
316.001	92.19
316.23	92.19
316.46	71.19
316.689	85.19
316.919	79.19
317.148	89.19
317.377	98.19
317.607	88.19
317.836	83.19
318.065	95.19
318.295	84.19
318.524	85.19
318.753	82.19
318.983	102.19
319.212	80.19
319.441	81.19
319.67	77.19
319.9	71.19
320.129	92.19
320.358	82.19
320.587	84.19
320.816	80.19
321.046	71.19
321.275	90.19
321.504	76.19
321.733	97.19
321.962	65.19
322.191	85.19
322.42	82.19
322.649	81.19
322.878	75.19
323.108	95.19
323.337	84.19
323.566	83.19
323.795	72.19
324.024	94.19
324.253	81.19
324.482	71.19
324.71	74.19
324.939	80.19
325.168	79.19
325.397	84.19
325.626	72.19
325.855	83.19
326.084	91.19
326.313	76.19
326.542	75.19
326.77	87.19
326.999	96.19
327.228	83.19
327.457	75.19
327.686	88.19
327.914	98.19
328.143	96.19
328.372	97.19
328.6	81.19
328.829	93.19
329.058	76.19
329.287	82.19
329.515	86.19
329.744	88.19
329.972	93.19
330.201	103.19
330.43	88.19
330.658	73.19
330.887	69.19
331.115	95.19
331.344	98.19
331.572	88.19
331.801	82.19
332.03	91.19
332.258	79.19
332.486	86.19
332.715	88.19
332.943	86.19
333.172	95.19
333.4	73.19
333.629	81.19
333.857	87.19
334.085	80.19
334.314	94.19
334.542	83.19
334.771	74.19
334.999	92.19
335.227	74.19
335.455	77.19
335.684	84.19
335.912	84.19
336.14	84.19
336.369	84.19
336.597	88.19
336.825	80.19
337.053	84.19
337.281	75.19
337.51	90.19
337.738	80.19
337.966	94.19
338.194	79.19
338.422	96.19
338.65	90.19
338.878	85.19
339.106	92.19
339.334	81.19
339.562	71.19
339.79	75.19
340.018	71.19
340.246	75.19
340.474	90.19
340.702	90.19
340.93	77.19
341.158	91.19
341.386	86.19
341.614	68.19
341.842	105.19
342.07	86.19
342.298	88.19
342.526	83.19
342.754	73.19
342.981	59.19
343.209	89.19
343.437	83.19
343.665	87.19
343.893	88.19
344.12	73.19
344.348	83.19
344.576	87.19
344.804	76.19
345.031	84.19
345.259	88.19
345.487	77.19
345.714	74.19
345.942	96.19
346.17	83.19
346.397	83.19
346.625	98.19
346.853	83.19
347.08	68.19
347.308	87.19
347.535	77.19
347.763	79.19
347.99	74.19
348.218	81.19
348.445	75.19
348.673	89.19
348.9	82.19
349.128	80.19
349.355	81.19
349.583	77.19
349.81	75.19
350.037	82.19
350.265	77.19
350.492	70.19
350.72	92.19
350.947	84.19
351.174	76.19
351.402	80.19
351.629	88.19
351.856	82.19
352.083	87.19
352.311	96.19
352.538	79.19
352.765	83.19
352.992	81.19
353.22	80.19
353.447	90.19
353.674	84.19
353.901	84.19
354.128	78.19
354.355	81.19
354.583	87.19
354.81	83.19
355.037	88.19
355.264	91.19
355.491	76.19
355.718	88.19
355.945	82.19
356.172	95.19
356.399	76.19
356.626	93.19
356.853	85.19
357.08	76.19
357.307	83.19
357.534	75.19
357.761	66.19
357.988	76.19
358.215	82.19
358.441	73.19
358.668	86.19
358.895	83.19
359.122	64.19
359.349	77.19
359.576	77.19
359.802	83.19
360.029	73.19
360.256	73.19
360.483	71.19
360.709	81.19
360.936	86.19
361.163	84.19
361.39	90.19
361.616	78.19
361.843	76.19
362.07	99.19
362.296	71.19
362.523	92.19
362.749	93.19
362.976	85.19
363.203	91.19
363.429	83.19
363.656	84.19
363.882	81.19
364.109	80.19
364.335	89.19
364.562	81.19
364.788	76.19
365.015	81.19
365.241	91.19
365.468	80.19
365.694	83.19
365.92	73.19
366.147	87.19
366.373	76.19
366.599	70.19
366.826	88.19
367.052	91.19
367.278	87.19
367.505	77.19
367.731	87.19
367.957	78.19
368.184	79.19
368.41	72.19
368.636	79.19
368.862	83.19
369.089	76.19
369.315	80.19
369.541	91.19
369.767	79.19
369.993	83.19
370.219	75.19
370.445	73.19
370.672	85.19
370.898	83.19
371.124	91.19
371.35	76.19
371.576	83.19
371.802	69.19
372.028	86.19
372.254	85.19
372.48	76.19
372.706	74.19
372.932	79.19
373.158	70.19
373.384	89.19
373.61	94.19
373.835	82.19
374.061	73.19
374.287	81.19
374.513	81.19
374.739	88.19
374.965	73.19
375.191	75.19
375.416	85.19
375.642	92.19
375.868	85.19
376.094	72.19
376.319	82.19
376.545	84.19
376.771	81.19
376.997	84.19
377.222	87.19
377.448	81.19
377.674	73.19
377.899	76.19
378.125	87.19
378.35	81.19
378.576	92.19
378.802	98.19
379.027	85.19
379.253	80.19
379.478	90.19
379.704	75.19
379.929	86.19
380.155	86.19
380.38	82.19
380.606	90.19
380.831	68.19
381.057	83.19
381.282	79.19
381.507	88.19
381.733	92.19
381.958	77.19
382.184	67.19
382.409	86.19
382.634	74.19
382.86	58.19
383.085	83.19
383.31	87.19
383.535	76.19
383.761	81.19
383.986	85.19
384.211	73.19
384.436	87.19
384.662	76.19
384.887	73.19
385.112	70.19
385.337	87.19
385.562	80.19
385.787	67.19
386.013	91.19
386.238	91.19
386.463	91.19
386.688	73.19
386.913	84.19
387.138	84.19
387.363	82.19
387.588	101.19
387.813	79.19
388.038	79.19
388.263	84.19
388.488	86.19
388.713	82.19
388.938	81.19
389.163	88.19
389.387	75.19
389.612	64.19
389.837	83.19
390.062	95.19
390.287	81.19
390.512	77.19
390.736	77.19
390.961	73.19
391.186	88.19
391.411	83.19
391.636	81.19
391.86	83.19
392.085	83.19
392.31	76.19
392.534	90.19
392.759	87.19
392.984	86.19
393.208	75.19
393.433	88.19
393.658	81.19
393.882	84.19
394.107	86.19
394.331	77.19
394.556	85.19
394.78	92.19
395.005	76.19
395.229	83.19
395.454	87.19
395.678	85.19
395.903	96.19
396.127	79.19
396.352	77.19
396.576	79.19
396.801	64.19
397.025	80.19
397.249	79.19
397.474	94.19
397.698	75.19
397.922	67.19
398.147	73.19
398.371	88.19
398.595	90.19
398.82	83.19
399.044	71.19
399.268	90.19
399.492	91.19
399.717	77.19
399.941	76.19
400.165	63.19
400.389	81.19
400.613	73.19
400.837	87.19
401.062	96.19
401.286	91.19
401.51	77.19
401.734	74.19
401.958	88.19
402.182	90.19
402.406	89.19
402.63	78.19
402.854	87.19
403.078	85.19
403.302	72.19
403.526	91.19
403.75	84.19
403.974	102.19
404.198	92.19
404.422	78.19
404.645	93.19
404.869	91.19
405.093	103.19
405.317	89.19
405.541	95.19
405.765	91.19
405.988	89.19
406.212	90.19
406.436	85.19
406.66	76.19
406.883	85.19
407.107	91.19
407.331	77.19
407.555	73.19
407.778	96.19
408.002	95.19
408.226	102.19
408.449	85.19
408.673	89.19
408.896	87.19
409.12	83.19
409.344	93.19
409.567	79.19
409.791	83.19
410.014	87.19
410.238	79.19
410.461	81.19
410.685	72.19
410.908	82.19
411.132	93.19
411.355	87.19
411.578	93.19
411.802	73.19
412.025	77.19
412.249	89.19
412.472	89.19
412.695	86.19
412.919	94.19
413.142	89.19
413.365	84.19
413.589	81.19
413.812	82.19
414.035	95.19
414.258	87.19
414.482	90.19
414.705	98.19
414.928	95.19
415.151	77.19
415.374	86.19
415.597	84.19
415.821	90.19
416.044	92.19
416.267	83.19
416.49	97.19
416.713	77.19
416.936	89.19
417.159	95.19
417.382	87.19
417.605	83.19
417.828	91.19
418.051	72.19
418.274	83.19
418.497	91.19
418.72	83.19
418.943	74.19
419.166	81.19
419.389	101.19
419.611	89.19
419.834	96.19
420.057	91.19
420.28	86.19
420.503	88.19
420.726	76.19
420.948	95.19
421.171	85.19
421.394	87.19
421.617	83.19
421.839	106.19
422.062	82.19
422.285	84.19
422.507	82.19
422.73	96.19
422.953	94.19
423.175	99.19
423.398	78.19
423.621	72.19
423.843	77.19
424.066	107.19
424.288	92.19
424.511	78.19
424.733	87.19
424.956	83.19
425.178	79.19
425.401	72.19
425.623	87.19
425.846	88.19
426.068	79.19
426.291	85.19
426.513	85.19
426.735	88.19
426.958	83.19
427.18	76.19
427.402	91.19
427.625	76.19
427.847	90.19
428.069	98.19
428.292	91.19
428.514	88.19
428.736	84.19
428.958	99.19
429.181	82.19
429.403	92.19
429.625	83.19
429.847	79.19
430.069	83.19
430.292	84.19
430.514	87.19
430.736	90.19
430.958	84.19
431.18	80.19
431.402	87.19
431.624	95.19
431.846	95.19
432.068	67.19
432.29	90.19
432.512	76.19
432.734	84.19
432.956	101.19
433.178	97.19
433.4	86.19
433.622	98.19
433.844	92.19
434.066	103.19
434.287	87.19
434.509	84.19
434.731	85.19
434.953	90.19
435.175	86.19
435.397	86.19
435.618	75.19
435.84	99.19
436.062	71.19
436.284	95.19
436.505	81.19
436.727	91.19
436.949	81.19
437.17	77.19
437.392	89.19
437.614	92.19
437.835	85.19
438.057	83.19
438.278	76.19
438.5	97.19
438.721	84.19
438.943	99.19
439.165	86.19
439.386	87.19
439.608	99.19
439.829	82.19
440.05	97.19
440.272	82.19
440.493	84.19
440.715	81.19
440.936	80.19
441.158	93.19
441.379	85.19
441.6	97.19
441.822	98.19
442.043	80.19
442.264	88.19
442.486	90.19
442.707	80.19
442.928	100.19
443.149	92.19
443.371	88.19
443.592	84.19
443.813	92.19
444.034	86.19
444.255	87.19
444.476	94.19
444.698	79.19
444.919	93.19
445.14	183.19
445.361	125.19
445.582	101.19
445.803	101.19
446.024	88.19
446.245	95.19
446.466	92.19
446.687	94.19
446.908	100.19
447.129	100.19
447.35	102.19
447.571	87.19
447.792	86.19
448.013	83.19
448.234	80.19
448.455	86.19
448.675	78.19
448.896	86.19
449.117	93.19
449.338	87.19
449.559	95.19
449.779	80.19
450	84.19
450.221	85.19
450.442	91.19
450.662	81.19
450.883	85.19
451.104	91.19
451.324	89.19
451.545	96.19
451.766	85.19
451.986	84.19
452.207	81.19
452.428	96.19
452.648	87.19
452.869	78.19
453.089	84.19
453.31	91.19
453.53	94.19
453.751	94.19
453.971	83.19
454.192	95.19
454.412	82.19
454.633	92.19
454.853	87.19
455.073	92.19
455.294	71.19
455.514	91.19
455.734	79.19
455.955	69.19
456.175	81.19
456.395	77.19
456.616	73.19
456.836	93.19
457.056	75.19
457.276	84.19
457.497	77.19
457.717	83.19
457.937	80.19
458.157	92.19
458.377	92.19
458.598	69.19
458.818	85.19
459.038	92.19
459.258	69.19
459.478	86.19
459.698	88.19
459.918	73.19
460.138	80.19
460.358	85.19
460.578	97.19
460.798	77.19
461.018	83.19
461.238	98.19
461.458	91.19
461.678	85.19
461.898	88.19
462.118	105.19
462.338	99.19
462.558	79.19
462.777	79.19
462.997	84.19
463.217	93.19
463.437	85.19
463.657	84.19
463.876	96.19
464.096	84.19
464.316	90.19
464.536	87.19
464.755	82.19
464.975	83.19
465.195	106.19
465.414	88.19
465.634	85.19
465.854	84.19
466.073	89.19
466.293	83.19
466.512	80.19
466.732	74.19
466.951	94.19
467.171	85.19
467.391	82.19
467.61	81.19
467.829	84.19
468.049	85.19
468.268	83.19
468.488	85.19
468.707	86.19
468.927	98.19
469.146	92.19
469.365	96.19
469.585	92.19
469.804	86.19
470.023	75.19
470.243	81.19
470.462	85.19
470.681	102.19
470.901	88.19
471.12	85.19
471.339	91.19
471.558	87.19
471.777	94.19
471.997	94.19
472.216	89.19
472.435	99.19
472.654	81.19
472.873	71.19
473.092	84.19
473.311	101.19
473.53	100.19
473.749	98.19
473.968	70.19
474.187	87.19
474.406	79.19
474.625	98.19
474.844	99.19
475.063	88.19
475.282	83.19
475.501	89.19
475.72	89.19
475.939	80.19
476.158	79.19
476.377	89.19
476.596	83.19
476.814	87.19
477.033	76.19
477.252	87.19
477.471	69.19
477.69	87.19
477.908	81.19
478.127	84.19
478.346	100.19
478.564	83.19
478.783	87.19
479.002	89.19
479.22	87.19
479.439	84.19
479.658	84.19
479.876	87.19
480.095	80.19
480.313	105.19
480.532	94.19
480.751	79.19
480.969	88.19
481.188	76.19
481.406	83.19
481.624	91.19
481.843	94.19
482.061	84.19
482.28	84.19
482.498	92.19
482.717	101.19
482.935	96.19
483.153	91.19
483.372	92.19
483.59	88.19
483.808	95.19
484.027	124.19
484.245	91.19
484.463	83.19
484.681	101.19
484.9	88.19
485.118	81.19
485.336	84.19
485.554	94.19
485.772	77.19
485.99	63.19
486.209	80.19
486.427	67.19
486.645	94.19
486.863	87.19
487.081	95.19
487.299	77.19
487.517	97.19
487.735	97.19
487.953	95.19
488.171	105.19
488.389	89.19
488.607	85.19
488.825	96.19
489.043	89.19
489.261	87.19
489.479	98.19
489.696	63.19
489.914	83.19
490.132	85.19
490.35	85.19
490.568	90.19
490.786	87.19
491.003	100.19
491.221	115.19
491.439	98.19
491.657	88.19
491.874	91.19
492.092	87.19
492.31	102.19
492.527	112.19
492.745	113.19
492.963	101.19
493.18	108.19
493.398	102.19
493.615	84.19
493.833	99.19
494.05	111.19
494.268	105.19
494.485	101.19
494.703	96.19
494.92	101.19
495.138	83.19
495.355	103.19
495.573	88.19
495.79	86.19
496.008	89.19
496.225	79.19
496.442	92.19
496.66	101.19
496.877	95.19
497.094	95.19
497.312	91.19
497.529	95.19
497.746	96.19
497.963	86.19
498.181	85.19
498.398	89.19
498.615	71.19
498.832	91.19
499.049	97.19
499.267	91.19
499.484	96.19
499.701	99.19
499.918	92.19
500.135	85.19
500.352	82.19
500.569	98.19
500.786	96.19
501.003	96.19
501.22	89.19
501.437	92.19
501.654	94.19
501.871	87.19
502.088	97.19
502.305	97.19
502.522	85.19
502.739	87.19
502.956	82.19
503.172	91.19
503.389	82.19
503.606	74.19
503.823	83.19
504.04	92.19
504.256	89.19
504.473	79.19
504.69	75.19
504.907	95.19
505.123	81.19
505.34	83.19
505.557	88.19
505.773	93.19
505.99	95.19
506.207	91.19
506.423	91.19
506.64	80.19
506.856	83.19
507.073	85.19
507.289	82.19
507.506	91.19
507.722	105.19
507.939	89.19
508.155	96.19
508.372	84.19
508.588	76.19
508.805	83.19
509.021	97.19
509.238	84.19
509.454	69.19
509.67	94.19
509.887	79.19
510.103	63.19
510.319	87.19
510.536	79.19
510.752	77.19
510.968	80.19
511.184	88.19
511.401	74.19
511.617	92.19
511.833	76.19
512.049	103.19
512.265	88.19
512.481	94.19
512.698	76.19
512.914	80.19
513.13	83.19
513.346	76.19
513.562	68.19
513.778	85.19
513.994	77.19
514.21	81.19
514.426	88.19
514.642	88.19
514.858	91.19
515.074	73.19
515.29	74.19
515.506	81.19
515.721	97.19
515.937	82.19
516.153	90.19
516.369	78.19
516.585	80.19
516.801	76.19
517.016	86.19
517.232	90.19
517.448	75.19
517.664	89.19
517.879	87.19
518.095	82.19
518.311	91.19
518.527	84.19
518.742	93.19
