Data from Zn(NO3)2Standard.Agarose3%.GreenCap.LampEnergy5.5.E.O_HRD10591_15-03-04-768.txt Node
Date: Mon Jul 22 15:03:04 EDT 2019
User: cochatt
Spectrometer: HR+D1059
Trigger mode: 1
Integration Time (sec): 1.000000E-1
Scans to average: 1
Electric dark correction enabled: true
Nonlinearity correction enabled: false
Boxcar width: 0
XAxis mode: Wavelengths
Number of Pixels in Spectrum: 2048
>>>>>Begin Spectral Data<<<<<
223.165	-0.56
223.4	-0.56
223.635	-0.56
223.869	-25.56
224.104	-16.56
224.338	-18.56
224.573	-12.56
224.808	-5.56
225.042	-5.56
225.277	-16.56
225.511	-0.56
225.746	-7.56
225.98	11.44
226.215	9.44
226.449	11.44
226.683	30.44
226.918	19.44
227.152	27.44
227.387	28.44
227.621	40.44
227.856	45.44
228.09	58.44
228.324	51.44
228.559	58.44
228.793	56.44
229.027	60.44
229.262	75.44
229.496	63.44
229.73	83.44
229.964	73.44
230.199	69.44
230.433	72.44
230.667	78.44
230.901	74.44
231.136	65.44
231.37	76.44
231.604	71.44
231.838	90.44
232.072	76.44
232.306	90.44
232.541	89.44
232.775	89.44
233.009	77.44
233.243	90.44
233.477	86.44
233.711	77.44
233.945	85.44
234.179	79.44
234.413	94.44
234.647	84.44
234.881	91.44
235.115	85.44
235.349	83.44
235.583	86.44
235.817	86.44
236.051	72.44
236.285	75.44
236.519	88.44
236.753	78.44
236.987	100.44
237.221	83.44
237.455	67.44
237.689	92.44
237.922	73.44
238.156	73.44
238.39	75.44
238.624	88.44
238.858	69.44
239.091	74.44
239.325	89.44
239.559	68.44
239.793	73.44
240.027	73.44
240.26	71.44
240.494	77.44
240.728	66.44
240.961	73.44
241.195	76.44
241.429	72.44
241.662	68.44
241.896	74.44
242.13	74.44
242.363	68.44
242.597	72.44
242.83	86.44
243.064	93.44
243.298	73.44
243.531	72.44
243.765	76.44
243.998	82.44
244.232	83.44
244.465	71.44
244.699	77.44
244.932	74.44
245.166	75.44
245.399	84.44
245.633	79.44
245.866	82.44
246.099	74.44
246.333	92.44
246.566	66.44
246.8	71.44
247.033	79.44
247.266	62.44
247.5	91.44
247.733	83.44
247.966	77.44
248.2	62.44
248.433	100.44
248.666	79.44
248.899	76.44
249.133	72.44
249.366	81.44
249.599	85.44
249.832	70.44
250.066	70.44
250.299	84.44
250.532	98.44
250.765	66.44
250.998	82.44
251.231	75.44
251.465	68.44
251.698	66.44
251.931	80.44
252.164	72.44
252.397	70.44
252.63	77.44
252.863	66.44
253.096	90.44
253.329	76.44
253.562	90.44
253.795	92.44
254.028	81.44
254.261	80.44
254.494	83.44
254.727	86.44
254.96	78.44
255.193	78.44
255.426	91.44
255.659	80.44
255.892	78.44
256.124	85.44
256.357	84.44
256.59	85.44
256.823	81.44
257.056	90.44
257.289	75.44
257.521	86.44
257.754	81.44
257.987	82.44
258.22	89.44
258.452	70.44
258.685	79.44
258.918	76.44
259.151	85.44
259.383	66.44
259.616	82.44
259.849	82.44
260.081	86.44
260.314	84.44
260.547	83.44
260.779	76.44
261.012	93.44
261.244	89.44
261.477	74.44
261.71	79.44
261.942	81.44
262.175	84.44
262.407	83.44
262.64	84.44
262.872	84.44
263.105	85.44
263.337	93.44
263.57	74.44
263.802	78.44
264.035	78.44
264.267	83.44
264.499	91.44
264.732	89.44
264.964	90.44
265.197	85.44
265.429	84.44
265.661	86.44
265.894	89.44
266.126	98.44
266.358	82.44
266.591	79.44
266.823	75.44
267.055	90.44
267.287	93.44
267.52	94.44
267.752	87.44
267.984	83.44
268.216	90.44
268.448	84.44
268.681	83.44
268.913	84.44
269.145	89.44
269.377	68.44
269.609	89.44
269.841	82.44
270.073	87.44
270.306	85.44
270.538	80.44
270.77	87.44
271.002	89.44
271.234	83.44
271.466	97.44
271.698	84.44
271.93	79.44
272.162	86.44
272.394	87.44
272.626	99.44
272.858	84.44
273.09	78.44
273.322	69.44
273.553	71.44
273.785	77.44
274.017	90.44
274.249	86.44
274.481	84.44
274.713	86.44
274.945	99.44
275.176	88.44
275.408	67.44
275.64	91.44
275.872	83.44
276.104	74.44
276.335	84.44
276.567	76.44
276.799	85.44
277.031	87.44
277.262	95.44
277.494	84.44
277.726	77.44
277.957	80.44
278.189	92.44
278.421	82.44
278.652	85.44
278.884	91.44
279.115	85.44
279.347	71.44
279.579	91.44
279.81	90.44
280.042	70.44
280.273	73.44
280.505	97.44
280.736	94.44
280.968	93.44
281.199	86.44
281.431	69.44
281.662	71.44
281.894	81.44
282.125	67.44
282.356	95.44
282.588	76.44
282.819	93.44
283.051	84.44
283.282	91.44
283.513	87.44
283.745	79.44
283.976	98.44
284.207	81.44
284.439	76.44
284.67	85.44
284.901	86.44
285.132	75.44
285.364	77.44
285.595	79.44
285.826	84.44
286.057	94.44
286.288	85.44
286.52	93.44
286.751	91.44
286.982	88.44
287.213	90.44
287.444	99.44
287.675	95.44
287.906	92.44
288.138	88.44
288.369	86.44
288.6	88.44
288.831	79.44
289.062	78.44
289.293	81.44
289.524	87.44
289.755	92.44
289.986	87.44
290.217	84.44
290.448	85.44
290.679	92.44
290.91	72.44
291.141	76.44
291.371	94.44
291.602	80.44
291.833	86.44
292.064	97.44
292.295	84.44
292.526	88.44
292.757	96.44
292.987	94.44
293.218	90.44
293.449	88.44
293.68	79.44
293.91	91.44
294.141	74.44
294.372	90.44
294.603	81.44
294.833	92.44
295.064	77.44
295.295	84.44
295.525	73.44
295.756	86.44
295.987	79.44
296.217	101.44
296.448	73.44
296.679	82.44
296.909	101.44
297.14	84.44
297.37	107.44
297.601	93.44
297.831	85.44
298.062	77.44
298.292	93.44
298.523	97.44
298.753	84.44
298.984	93.44
299.214	77.44
299.445	99.44
299.675	89.44
299.905	93.44
300.136	91.44
300.366	77.44
300.597	86.44
300.827	99.44
301.057	105.44
301.288	97.44
301.518	85.44
301.748	85.44
301.979	87.44
302.209	76.44
302.439	87.44
302.669	93.44
302.9	80.44
303.13	94.44
303.36	86.44
303.59	93.44
303.82	81.44
304.051	97.44
304.281	82.44
304.511	93.44
304.741	90.44
304.971	82.44
305.201	99.44
305.431	85.44
305.661	87.44
305.891	81.44
306.121	87.44
306.352	77.44
306.582	98.44
306.812	80.44
307.042	92.44
307.272	100.44
307.502	90.44
307.731	85.44
307.961	76.44
308.191	75.44
308.421	93.44
308.651	88.44
308.881	79.44
309.111	72.44
309.341	85.44
309.571	78.44
309.8	101.44
310.03	83.44
310.26	78.44
310.49	86.44
310.72	82.44
310.949	94.44
311.179	82.44
311.409	89.44
311.639	85.44
311.868	99.44
312.098	88.44
312.328	84.44
312.557	79.44
312.787	90.44
313.017	74.44
313.246	92.44
313.476	92.44
313.706	73.44
313.935	69.44
314.165	90.44
314.394	93.44
314.624	94.44
314.853	73.44
315.083	85.44
315.312	88.44
315.542	92.44
315.771	93.44
316.001	96.44
316.23	92.44
316.46	73.44
316.689	93.44
316.919	89.44
317.148	78.44
317.377	70.44
317.607	83.44
317.836	92.44
318.065	88.44
318.295	79.44
318.524	84.44
318.753	77.44
318.983	91.44
319.212	86.44
319.441	88.44
319.67	99.44
319.9	85.44
320.129	94.44
320.358	83.44
320.587	76.44
320.816	94.44
321.046	83.44
321.275	81.44
321.504	76.44
321.733	74.44
321.962	85.44
322.191	67.44
322.42	85.44
322.649	89.44
322.878	79.44
323.108	73.44
323.337	77.44
323.566	91.44
323.795	78.44
324.024	83.44
324.253	89.44
324.482	90.44
324.71	81.44
324.939	82.44
325.168	81.44
325.397	83.44
325.626	73.44
325.855	87.44
326.084	77.44
326.313	85.44
326.542	91.44
326.77	92.44
326.999	92.44
327.228	94.44
327.457	80.44
327.686	89.44
327.914	85.44
328.143	83.44
328.372	81.44
328.6	94.44
328.829	92.44
329.058	91.44
329.287	88.44
329.515	93.44
329.744	80.44
329.972	75.44
330.201	84.44
330.43	83.44
330.658	73.44
330.887	89.44
331.115	102.44
331.344	86.44
331.572	93.44
331.801	84.44
332.03	92.44
332.258	81.44
332.486	75.44
332.715	83.44
332.943	77.44
333.172	83.44
333.4	76.44
333.629	79.44
333.857	81.44
334.085	101.44
334.314	86.44
334.542	83.44
334.771	78.44
334.999	79.44
335.227	93.44
335.455	86.44
335.684	94.44
335.912	86.44
336.14	82.44
336.369	93.44
336.597	74.44
336.825	90.44
337.053	72.44
337.281	88.44
337.51	80.44
337.738	89.44
337.966	65.44
338.194	76.44
338.422	84.44
338.65	81.44
338.878	83.44
339.106	73.44
339.334	92.44
339.562	90.44
339.79	84.44
340.018	69.44
340.246	78.44
340.474	82.44
340.702	99.44
340.93	89.44
341.158	89.44
341.386	85.44
341.614	79.44
341.842	77.44
342.07	78.44
342.298	84.44
342.526	89.44
342.754	85.44
342.981	89.44
343.209	87.44
343.437	86.44
343.665	83.44
343.893	83.44
344.12	96.44
344.348	79.44
344.576	104.44
344.804	85.44
345.031	88.44
345.259	94.44
345.487	93.44
345.714	83.44
345.942	85.44
346.17	88.44
346.397	77.44
346.625	72.44
346.853	79.44
347.08	78.44
347.308	94.44
347.535	87.44
347.763	72.44
347.99	94.44
348.218	82.44
348.445	86.44
348.673	79.44
348.9	78.44
349.128	87.44
349.355	87.44
349.583	73.44
349.81	93.44
350.037	84.44
350.265	70.44
350.492	91.44
350.72	83.44
350.947	61.44
351.174	93.44
351.402	94.44
351.629	93.44
351.856	102.44
352.083	87.44
352.311	87.44
352.538	96.44
352.765	77.44
352.992	92.44
353.22	93.44
353.447	73.44
353.674	76.44
353.901	84.44
354.128	79.44
354.355	83.44
354.583	85.44
354.81	81.44
355.037	72.44
355.264	69.44
355.491	69.44
355.718	91.44
355.945	75.44
356.172	97.44
356.399	79.44
356.626	83.44
356.853	92.44
357.08	88.44
357.307	90.44
357.534	75.44
357.761	90.44
357.988	96.44
358.215	103.44
358.441	93.44
358.668	86.44
358.895	81.44
359.122	78.44
359.349	86.44
359.576	83.44
359.802	94.44
360.029	87.44
360.256	91.44
360.483	88.44
360.709	90.44
360.936	87.44
361.163	83.44
361.39	95.44
361.616	86.44
361.843	83.44
362.07	83.44
362.296	82.44
362.523	79.44
362.749	89.44
362.976	90.44
363.203	84.44
363.429	77.44
363.656	72.44
363.882	91.44
364.109	84.44
364.335	83.44
364.562	72.44
364.788	90.44
365.015	87.44
365.241	90.44
365.468	75.44
365.694	88.44
365.92	91.44
366.147	83.44
366.373	86.44
366.599	77.44
366.826	74.44
367.052	79.44
367.278	95.44
367.505	89.44
367.731	76.44
367.957	83.44
368.184	89.44
368.41	78.44
368.636	75.44
368.862	82.44
369.089	81.44
369.315	83.44
369.541	82.44
369.767	83.44
369.993	82.44
370.219	85.44
370.445	87.44
370.672	82.44
370.898	74.44
371.124	71.44
371.35	66.44
371.576	76.44
371.802	84.44
372.028	88.44
372.254	85.44
372.48	89.44
372.706	76.44
372.932	78.44
373.158	84.44
373.384	90.44
373.61	82.44
373.835	90.44
374.061	81.44
374.287	81.44
374.513	89.44
374.739	75.44
374.965	79.44
375.191	96.44
375.416	97.44
375.642	87.44
375.868	82.44
376.094	91.44
376.319	67.44
376.545	84.44
376.771	84.44
376.997	85.44
377.222	74.44
377.448	88.44
377.674	81.44
377.899	83.44
378.125	90.44
378.35	86.44
378.576	79.44
378.802	75.44
379.027	86.44
379.253	88.44
379.478	79.44
379.704	84.44
379.929	83.44
380.155	85.44
380.38	87.44
380.606	87.44
380.831	92.44
381.057	91.44
381.282	70.44
381.507	80.44
381.733	78.44
381.958	78.44
382.184	81.44
382.409	88.44
382.634	78.44
382.86	88.44
383.085	85.44
383.31	90.44
383.535	94.44
383.761	89.44
383.986	89.44
384.211	94.44
384.436	78.44
384.662	88.44
384.887	92.44
385.112	76.44
385.337	75.44
385.562	85.44
385.787	77.44
386.013	90.44
386.238	69.44
386.463	87.44
386.688	78.44
386.913	73.44
387.138	102.44
387.363	94.44
387.588	84.44
387.813	88.44
388.038	86.44
388.263	89.44
388.488	87.44
388.713	91.44
388.938	84.44
389.163	70.44
389.387	91.44
389.612	80.44
389.837	83.44
390.062	84.44
390.287	88.44
390.512	83.44
390.736	88.44
390.961	93.44
391.186	85.44
391.411	83.44
391.636	74.44
391.86	90.44
392.085	75.44
392.31	100.44
392.534	87.44
392.759	88.44
392.984	95.44
393.208	90.44
393.433	83.44
393.658	79.44
393.882	74.44
394.107	86.44
394.331	87.44
394.556	90.44
394.78	95.44
395.005	90.44
395.229	74.44
395.454	101.44
395.678	80.44
395.903	93.44
396.127	101.44
396.352	87.44
396.576	79.44
396.801	79.44
397.025	104.44
397.249	68.44
397.474	94.44
397.698	89.44
397.922	89.44
398.147	78.44
398.371	81.44
398.595	81.44
398.82	82.44
399.044	86.44
399.268	90.44
399.492	78.44
399.717	90.44
399.941	91.44
400.165	87.44
400.389	91.44
400.613	89.44
400.837	84.44
401.062	90.44
401.286	84.44
401.51	79.44
401.734	98.44
401.958	93.44
402.182	89.44
402.406	77.44
402.63	78.44
402.854	86.44
403.078	73.44
403.302	79.44
403.526	79.44
403.75	84.44
403.974	84.44
404.198	87.44
404.422	101.44
404.645	90.44
404.869	89.44
405.093	89.44
405.317	98.44
405.541	88.44
405.765	82.44
405.988	81.44
406.212	92.44
406.436	89.44
406.66	97.44
406.883	93.44
407.107	91.44
407.331	94.44
407.555	77.44
407.778	98.44
408.002	87.44
408.226	99.44
408.449	83.44
408.673	80.44
408.896	96.44
409.12	93.44
409.344	96.44
409.567	88.44
409.791	92.44
410.014	97.44
410.238	90.44
410.461	95.44
410.685	93.44
410.908	98.44
411.132	89.44
411.355	99.44
411.578	85.44
411.802	83.44
412.025	92.44
412.249	107.44
412.472	84.44
412.695	89.44
412.919	78.44
413.142	77.44
413.365	85.44
413.589	90.44
413.812	83.44
414.035	86.44
414.258	87.44
414.482	91.44
414.705	86.44
414.928	84.44
415.151	83.44
415.374	83.44
415.597	94.44
415.821	89.44
416.044	89.44
416.267	88.44
416.49	93.44
416.713	86.44
416.936	95.44
417.159	100.44
417.382	89.44
417.605	78.44
417.828	90.44
418.051	106.44
418.274	99.44
418.497	96.44
418.72	90.44
418.943	80.44
419.166	87.44
419.389	88.44
419.611	102.44
419.834	85.44
420.057	94.44
420.28	68.44
420.503	85.44
420.726	97.44
420.948	79.44
421.171	85.44
421.394	91.44
421.617	88.44
421.839	82.44
422.062	85.44
422.285	94.44
422.507	84.44
422.73	104.44
422.953	84.44
423.175	89.44
423.398	91.44
423.621	75.44
423.843	98.44
424.066	85.44
424.288	74.44
424.511	91.44
424.733	76.44
424.956	94.44
425.178	102.44
425.401	92.44
425.623	81.44
425.846	86.44
426.068	105.44
426.291	90.44
426.513	92.44
426.735	100.44
426.958	96.44
427.18	79.44
427.402	86.44
427.625	75.44
427.847	100.44
428.069	102.44
428.292	88.44
428.514	90.44
428.736	96.44
428.958	84.44
429.181	88.44
429.403	88.44
429.625	88.44
429.847	105.44
430.069	86.44
430.292	89.44
430.514	97.44
430.736	97.44
430.958	85.44
431.18	91.44
431.402	80.44
431.624	89.44
431.846	78.44
432.068	86.44
432.29	87.44
432.512	82.44
432.734	82.44
432.956	96.44
433.178	102.44
433.4	97.44
433.622	106.44
433.844	86.44
434.066	79.44
434.287	81.44
434.509	82.44
434.731	82.44
434.953	88.44
435.175	83.44
435.397	101.44
435.618	106.44
435.84	90.44
436.062	108.44
436.284	77.44
436.505	86.44
436.727	77.44
436.949	81.44
437.17	90.44
437.392	87.44
437.614	94.44
437.835	91.44
438.057	86.44
438.278	90.44
438.5	82.44
438.721	102.44
438.943	105.44
439.165	91.44
439.386	91.44
439.608	106.44
439.829	95.44
440.05	93.44
440.272	82.44
440.493	89.44
440.715	102.44
440.936	98.44
441.158	103.44
441.379	90.44
441.6	100.44
441.822	106.44
442.043	103.44
442.264	90.44
442.486	72.44
442.707	84.44
442.928	97.44
443.149	84.44
443.371	90.44
443.592	99.44
443.813	98.44
444.034	96.44
444.255	100.44
444.476	74.44
444.698	90.44
444.919	77.44
445.14	207.44
445.361	138.44
445.582	88.44
445.803	84.44
446.024	85.44
446.245	95.44
446.466	97.44
446.687	94.44
446.908	89.44
447.129	109.44
447.35	89.44
447.571	93.44
447.792	107.44
448.013	87.44
448.234	92.44
448.455	84.44
448.675	98.44
448.896	98.44
449.117	86.44
449.338	90.44
449.559	94.44
449.779	91.44
450	97.44
450.221	103.44
450.442	93.44
450.662	92.44
450.883	91.44
451.104	93.44
451.324	103.44
451.545	95.44
451.766	88.44
451.986	87.44
452.207	71.44
452.428	86.44
452.648	82.44
452.869	78.44
453.089	87.44
453.31	90.44
453.53	79.44
453.751	94.44
453.971	87.44
454.192	85.44
454.412	86.44
454.633	89.44
454.853	85.44
455.073	93.44
455.294	94.44
455.514	109.44
455.734	98.44
455.955	87.44
456.175	76.44
456.395	77.44
456.616	94.44
456.836	100.44
457.056	89.44
457.276	78.44
457.497	84.44
457.717	87.44
457.937	85.44
458.157	83.44
458.377	90.44
458.598	92.44
458.818	73.44
459.038	73.44
459.258	82.44
459.478	80.44
459.698	94.44
459.918	88.44
460.138	90.44
460.358	89.44
460.578	94.44
460.798	101.44
461.018	70.44
461.238	91.44
461.458	99.44
461.678	99.44
461.898	90.44
462.118	79.44
462.338	91.44
462.558	100.44
462.777	80.44
462.997	78.44
463.217	79.44
463.437	84.44
463.657	93.44
463.876	78.44
464.096	83.44
464.316	94.44
464.536	85.44
464.755	84.44
464.975	98.44
465.195	85.44
465.414	98.44
465.634	88.44
465.854	97.44
466.073	94.44
466.293	103.44
466.512	82.44
466.732	94.44
466.951	84.44
467.171	91.44
467.391	76.44
467.61	93.44
467.829	91.44
468.049	84.44
468.268	81.44
468.488	92.44
468.707	83.44
468.927	94.44
469.146	92.44
469.365	96.44
469.585	92.44
469.804	89.44
470.023	89.44
470.243	92.44
470.462	105.44
470.681	94.44
470.901	106.44
471.12	93.44
471.339	88.44
471.558	95.44
471.777	86.44
471.997	71.44
472.216	92.44
472.435	89.44
472.654	79.44
472.873	98.44
473.092	100.44
473.311	91.44
473.53	104.44
473.749	89.44
473.968	86.44
474.187	92.44
474.406	87.44
474.625	96.44
474.844	99.44
475.063	95.44
475.282	94.44
475.501	95.44
475.72	90.44
475.939	93.44
476.158	93.44
476.377	100.44
476.596	80.44
476.814	83.44
477.033	89.44
477.252	95.44
477.471	91.44
477.69	92.44
477.908	83.44
478.127	102.44
478.346	100.44
478.564	87.44
478.783	86.44
479.002	89.44
479.22	91.44
479.439	95.44
479.658	85.44
479.876	87.44
480.095	93.44
480.313	91.44
480.532	92.44
480.751	97.44
480.969	74.44
481.188	92.44
481.406	81.44
481.624	66.44
481.843	91.44
482.061	76.44
482.28	102.44
482.498	103.44
482.717	102.44
482.935	94.44
483.153	100.44
483.372	102.44
483.59	94.44
483.808	87.44
484.027	108.44
484.245	89.44
484.463	99.44
484.681	102.44
484.9	89.44
485.118	92.44
485.336	85.44
485.554	89.44
485.772	80.44
485.99	84.44
486.209	101.44
486.427	89.44
486.645	91.44
486.863	82.44
487.081	87.44
487.299	78.44
487.517	82.44
487.735	93.44
487.953	90.44
488.171	87.44
488.389	93.44
488.607	113.44
488.825	96.44
489.043	93.44
489.261	90.44
489.479	92.44
489.696	94.44
489.914	90.44
490.132	105.44
490.35	110.44
490.568	104.44
490.786	106.44
491.003	106.44
491.221	114.44
491.439	100.44
491.657	109.44
491.874	110.44
492.092	100.44
492.31	104.44
492.527	123.44
492.745	113.44
492.963	99.44
493.18	99.44
493.398	108.44
493.615	99.44
493.833	119.44
494.05	109.44
494.268	115.44
494.485	86.44
494.703	107.44
494.92	97.44
495.138	110.44
495.355	101.44
495.573	99.44
495.79	104.44
496.008	103.44
496.225	98.44
496.442	96.44
496.66	105.44
496.877	110.44
497.094	89.44
497.312	89.44
497.529	93.44
497.746	104.44
497.963	102.44
498.181	94.44
498.398	94.44
498.615	89.44
498.832	90.44
499.049	94.44
499.267	80.44
499.484	88.44
499.701	92.44
499.918	79.44
500.135	96.44
500.352	94.44
500.569	95.44
500.786	98.44
501.003	95.44
501.22	90.44
501.437	110.44
501.654	80.44
501.871	82.44
502.088	96.44
502.305	110.44
502.522	83.44
502.739	83.44
502.956	103.44
503.172	82.44
503.389	90.44
503.606	85.44
503.823	87.44
504.04	84.44
504.256	91.44
504.473	84.44
504.69	83.44
504.907	86.44
505.123	98.44
505.34	101.44
505.557	85.44
505.773	89.44
505.99	103.44
506.207	97.44
506.423	87.44
506.64	90.44
506.856	95.44
507.073	83.44
507.289	92.44
507.506	89.44
507.722	81.44
507.939	91.44
508.155	87.44
508.372	94.44
508.588	80.44
508.805	94.44
509.021	89.44
509.238	97.44
509.454	89.44
509.67	85.44
509.887	84.44
510.103	81.44
510.319	107.44
510.536	84.44
510.752	80.44
510.968	81.44
511.184	96.44
511.401	98.44
511.617	89.44
511.833	80.44
512.049	94.44
512.265	90.44
512.481	87.44
512.698	84.44
512.914	90.44
513.13	106.44
513.346	111.44
513.562	92.44
513.778	91.44
513.994	76.44
514.21	92.44
514.426	83.44
514.642	82.44
514.858	88.44
515.074	92.44
515.29	84.44
515.506	89.44
515.721	94.44
515.937	91.44
516.153	89.44
516.369	89.44
516.585	88.44
516.801	88.44
517.016	94.44
517.232	94.44
517.448	84.44
517.664	89.44
517.879	108.44
518.095	78.44
