Data from Zn(NO3)2Standard.Agarose3%.GreenCap.LampEnergy10E.O_HRD10591_15-06-07-942.txt Node
Date: Mon Jul 22 15:06:07 EDT 2019
User: cochatt
Spectrometer: HR+D1059
Trigger mode: 1
Integration Time (sec): 1.000000E-1
Scans to average: 1
Electric dark correction enabled: true
Nonlinearity correction enabled: false
Boxcar width: 0
XAxis mode: Wavelengths
Number of Pixels in Spectrum: 2048
>>>>>Begin Spectral Data<<<<<
223.165	-11.12
223.4	-11.12
223.635	-11.12
223.869	-9.12
224.104	-7.12
224.338	5.88
224.573	-15.12
224.808	-24.12
225.042	-9.12
225.277	-9.12
225.511	-4.12
225.746	-8.12
225.98	0.88
226.215	14.88
226.449	8.88
226.683	7.88
226.918	29.88
227.152	28.88
227.387	30.88
227.621	39.88
227.856	34.88
228.09	47.88
228.324	45.88
228.559	59.88
228.793	48.88
229.027	70.88
229.262	63.88
229.496	70.88
229.73	75.88
229.964	73.88
230.199	74.88
230.433	68.88
230.667	77.88
230.901	78.88
231.136	79.88
231.37	75.88
231.604	83.88
231.838	84.88
232.072	80.88
232.306	92.88
232.541	79.88
232.775	88.88
233.009	83.88
233.243	73.88
233.477	78.88
233.711	71.88
233.945	78.88
234.179	87.88
234.413	77.88
234.647	76.88
234.881	79.88
235.115	79.88
235.349	78.88
235.583	81.88
235.817	82.88
236.051	74.88
236.285	75.88
236.519	86.88
236.753	78.88
236.987	84.88
237.221	82.88
237.455	69.88
237.689	83.88
237.922	83.88
238.156	78.88
238.39	77.88
238.624	78.88
238.858	64.88
239.091	62.88
239.325	86.88
239.559	98.88
239.793	82.88
240.027	81.88
240.26	72.88
240.494	74.88
240.728	83.88
240.961	74.88
241.195	84.88
241.429	78.88
241.662	78.88
241.896	82.88
242.13	75.88
242.363	68.88
242.597	86.88
242.83	78.88
243.064	94.88
243.298	83.88
243.531	77.88
243.765	86.88
243.998	81.88
244.232	79.88
244.465	84.88
244.699	79.88
244.932	75.88
245.166	86.88
245.399	66.88
245.633	84.88
245.866	62.88
246.099	78.88
246.333	74.88
246.566	85.88
246.8	82.88
247.033	88.88
247.266	79.88
247.5	86.88
247.733	87.88
247.966	99.88
248.2	80.88
248.433	94.88
248.666	95.88
248.899	82.88
249.133	76.88
249.366	77.88
249.599	83.88
249.832	77.88
250.066	79.88
250.299	85.88
250.532	87.88
250.765	76.88
250.998	80.88
251.231	85.88
251.465	74.88
251.698	76.88
251.931	84.88
252.164	77.88
252.397	86.88
252.63	73.88
252.863	78.88
253.096	85.88
253.329	84.88
253.562	95.88
253.795	82.88
254.028	77.88
254.261	67.88
254.494	82.88
254.727	70.88
254.96	86.88
255.193	79.88
255.426	88.88
255.659	94.88
255.892	90.88
256.124	77.88
256.357	73.88
256.59	74.88
256.823	74.88
257.056	80.88
257.289	71.88
257.521	67.88
257.754	69.88
257.987	75.88
258.22	84.88
258.452	63.88
258.685	69.88
258.918	74.88
259.151	90.88
259.383	76.88
259.616	81.88
259.849	79.88
260.081	84.88
260.314	89.88
260.547	66.88
260.779	83.88
261.012	94.88
261.244	73.88
261.477	76.88
261.71	82.88
261.942	67.88
262.175	82.88
262.407	79.88
262.64	88.88
262.872	80.88
263.105	76.88
263.337	88.88
263.57	76.88
263.802	80.88
264.035	87.88
264.267	96.88
264.499	81.88
264.732	87.88
264.964	102.88
265.197	69.88
265.429	88.88
265.661	77.88
265.894	73.88
266.126	82.88
266.358	96.88
266.591	90.88
266.823	74.88
267.055	78.88
267.287	85.88
267.52	90.88
267.752	89.88
267.984	87.88
268.216	78.88
268.448	84.88
268.681	86.88
268.913	69.88
269.145	71.88
269.377	83.88
269.609	94.88
269.841	92.88
270.073	81.88
270.306	74.88
270.538	88.88
270.77	78.88
271.002	80.88
271.234	89.88
271.466	96.88
271.698	84.88
271.93	90.88
272.162	83.88
272.394	76.88
272.626	86.88
272.858	88.88
273.09	84.88
273.322	98.88
273.553	80.88
273.785	77.88
274.017	75.88
274.249	83.88
274.481	91.88
274.713	87.88
274.945	95.88
275.176	76.88
275.408	88.88
275.64	75.88
275.872	90.88
276.104	83.88
276.335	85.88
276.567	90.88
276.799	88.88
277.031	76.88
277.262	91.88
277.494	92.88
277.726	89.88
277.957	88.88
278.189	75.88
278.421	84.88
278.652	88.88
278.884	77.88
279.115	100.88
279.347	92.88
279.579	84.88
279.81	69.88
280.042	80.88
280.273	77.88
280.505	88.88
280.736	85.88
280.968	76.88
281.199	83.88
281.431	80.88
281.662	85.88
281.894	96.88
282.125	100.88
282.356	86.88
282.588	87.88
282.819	80.88
283.051	78.88
283.282	95.88
283.513	84.88
283.745	79.88
283.976	85.88
284.207	100.88
284.439	91.88
284.67	85.88
284.901	84.88
285.132	80.88
285.364	89.88
285.595	78.88
285.826	84.88
286.057	106.88
286.288	88.88
286.52	87.88
286.751	85.88
286.982	79.88
287.213	74.88
287.444	87.88
287.675	91.88
287.906	85.88
288.138	89.88
288.369	112.88
288.6	77.88
288.831	75.88
289.062	81.88
289.293	64.88
289.524	76.88
289.755	84.88
289.986	92.88
290.217	88.88
290.448	92.88
290.679	73.88
290.91	87.88
291.141	82.88
291.371	75.88
291.602	87.88
291.833	79.88
292.064	91.88
292.295	79.88
292.526	104.88
292.757	85.88
292.987	95.88
293.218	84.88
293.449	76.88
293.68	94.88
293.91	102.88
294.141	94.88
294.372	94.88
294.603	90.88
294.833	79.88
295.064	86.88
295.295	80.88
295.525	79.88
295.756	78.88
295.987	83.88
296.217	81.88
296.448	92.88
296.679	88.88
296.909	87.88
297.14	78.88
297.37	83.88
297.601	64.88
297.831	73.88
298.062	86.88
298.292	96.88
298.523	100.88
298.753	83.88
298.984	89.88
299.214	79.88
299.445	90.88
299.675	95.88
299.905	71.88
300.136	71.88
300.366	81.88
300.597	78.88
300.827	72.88
301.057	85.88
301.288	86.88
301.518	101.88
301.748	84.88
301.979	92.88
302.209	85.88
302.439	90.88
302.669	84.88
302.9	109.88
303.13	95.88
303.36	96.88
303.59	84.88
303.82	81.88
304.051	84.88
304.281	88.88
304.511	84.88
304.741	70.88
304.971	85.88
305.201	87.88
305.431	78.88
305.661	85.88
305.891	85.88
306.121	94.88
306.352	88.88
306.582	77.88
306.812	102.88
307.042	86.88
307.272	79.88
307.502	74.88
307.731	78.88
307.961	87.88
308.191	85.88
308.421	90.88
308.651	95.88
308.881	76.88
309.111	74.88
309.341	80.88
309.571	87.88
309.8	101.88
310.03	87.88
310.26	72.88
310.49	78.88
310.72	80.88
310.949	81.88
311.179	75.88
311.409	73.88
311.639	73.88
311.868	94.88
312.098	87.88
312.328	81.88
312.557	88.88
312.787	87.88
313.017	98.88
313.246	74.88
313.476	65.88
313.706	80.88
313.935	95.88
314.165	82.88
314.394	81.88
314.624	87.88
314.853	94.88
315.083	84.88
315.312	96.88
315.542	94.88
315.771	86.88
316.001	91.88
316.23	93.88
316.46	95.88
316.689	79.88
316.919	82.88
317.148	90.88
317.377	77.88
317.607	78.88
317.836	83.88
318.065	88.88
318.295	83.88
318.524	72.88
318.753	80.88
318.983	80.88
319.212	84.88
319.441	94.88
319.67	91.88
319.9	86.88
320.129	90.88
320.358	103.88
320.587	98.88
320.816	95.88
321.046	88.88
321.275	84.88
321.504	82.88
321.733	91.88
321.962	91.88
322.191	80.88
322.42	94.88
322.649	88.88
322.878	86.88
323.108	83.88
323.337	92.88
323.566	87.88
323.795	93.88
324.024	74.88
324.253	89.88
324.482	69.88
324.71	89.88
324.939	103.88
325.168	88.88
325.397	74.88
325.626	68.88
325.855	89.88
326.084	75.88
326.313	80.88
326.542	77.88
326.77	76.88
326.999	83.88
327.228	96.88
327.457	76.88
327.686	78.88
327.914	85.88
328.143	79.88
328.372	83.88
328.6	87.88
328.829	92.88
329.058	89.88
329.287	82.88
329.515	89.88
329.744	71.88
329.972	104.88
330.201	87.88
330.43	79.88
330.658	106.88
330.887	90.88
331.115	84.88
331.344	82.88
331.572	75.88
331.801	86.88
332.03	88.88
332.258	97.88
332.486	85.88
332.715	91.88
332.943	73.88
333.172	82.88
333.4	93.88
333.629	79.88
333.857	74.88
334.085	90.88
334.314	87.88
334.542	87.88
334.771	95.88
334.999	80.88
335.227	90.88
335.455	78.88
335.684	99.88
335.912	77.88
336.14	96.88
336.369	88.88
336.597	88.88
336.825	84.88
337.053	82.88
337.281	71.88
337.51	74.88
337.738	80.88
337.966	72.88
338.194	83.88
338.422	94.88
338.65	84.88
338.878	85.88
339.106	86.88
339.334	78.88
339.562	82.88
339.79	86.88
340.018	81.88
340.246	87.88
340.474	92.88
340.702	78.88
340.93	91.88
341.158	83.88
341.386	79.88
341.614	89.88
341.842	69.88
342.07	83.88
342.298	91.88
342.526	89.88
342.754	79.88
342.981	86.88
343.209	72.88
343.437	75.88
343.665	84.88
343.893	92.88
344.12	88.88
344.348	92.88
344.576	61.88
344.804	72.88
345.031	82.88
345.259	87.88
345.487	86.88
345.714	90.88
345.942	82.88
346.17	77.88
346.397	89.88
346.625	87.88
346.853	84.88
347.08	89.88
347.308	73.88
347.535	89.88
347.763	77.88
347.99	96.88
348.218	90.88
348.445	85.88
348.673	95.88
348.9	88.88
349.128	72.88
349.355	70.88
349.583	81.88
349.81	91.88
350.037	96.88
350.265	102.88
350.492	83.88
350.72	84.88
350.947	87.88
351.174	83.88
351.402	81.88
351.629	93.88
351.856	93.88
352.083	77.88
352.311	81.88
352.538	89.88
352.765	91.88
352.992	85.88
353.22	86.88
353.447	85.88
353.674	81.88
353.901	81.88
354.128	79.88
354.355	84.88
354.583	78.88
354.81	78.88
355.037	82.88
355.264	99.88
355.491	84.88
355.718	91.88
355.945	95.88
356.172	88.88
356.399	89.88
356.626	74.88
356.853	88.88
357.08	84.88
357.307	96.88
357.534	78.88
357.761	86.88
357.988	86.88
358.215	95.88
358.441	72.88
358.668	93.88
358.895	84.88
359.122	85.88
359.349	94.88
359.576	85.88
359.802	78.88
360.029	88.88
360.256	81.88
360.483	85.88
360.709	83.88
360.936	81.88
361.163	75.88
361.39	91.88
361.616	94.88
361.843	87.88
362.07	87.88
362.296	72.88
362.523	83.88
362.749	79.88
362.976	92.88
363.203	94.88
363.429	85.88
363.656	96.88
363.882	78.88
364.109	73.88
364.335	89.88
364.562	74.88
364.788	87.88
365.015	96.88
365.241	84.88
365.468	79.88
365.694	81.88
365.92	67.88
366.147	88.88
366.373	71.88
366.599	96.88
366.826	111.88
367.052	79.88
367.278	78.88
367.505	78.88
367.731	97.88
367.957	86.88
368.184	99.88
368.41	81.88
368.636	88.88
368.862	103.88
369.089	76.88
369.315	87.88
369.541	79.88
369.767	86.88
369.993	93.88
370.219	74.88
370.445	87.88
370.672	84.88
370.898	82.88
371.124	85.88
371.35	84.88
371.576	92.88
371.802	103.88
372.028	98.88
372.254	82.88
372.48	88.88
372.706	73.88
372.932	88.88
373.158	82.88
373.384	92.88
373.61	88.88
373.835	92.88
374.061	84.88
374.287	90.88
374.513	87.88
374.739	92.88
374.965	93.88
375.191	88.88
375.416	86.88
375.642	96.88
375.868	86.88
376.094	91.88
376.319	85.88
376.545	87.88
376.771	91.88
376.997	89.88
377.222	84.88
377.448	90.88
377.674	86.88
377.899	83.88
378.125	92.88
378.35	89.88
378.576	94.88
378.802	89.88
379.027	73.88
379.253	96.88
379.478	99.88
379.704	85.88
379.929	85.88
380.155	95.88
380.38	77.88
380.606	82.88
380.831	108.88
381.057	90.88
381.282	78.88
381.507	93.88
381.733	88.88
381.958	86.88
382.184	92.88
382.409	87.88
382.634	96.88
382.86	95.88
383.085	89.88
383.31	87.88
383.535	99.88
383.761	89.88
383.986	93.88
384.211	87.88
384.436	103.88
384.662	90.88
384.887	92.88
385.112	99.88
385.337	100.88
385.562	90.88
385.787	85.88
386.013	101.88
386.238	88.88
386.463	92.88
386.688	96.88
386.913	88.88
387.138	87.88
387.363	109.88
387.588	92.88
387.813	89.88
388.038	88.88
388.263	91.88
388.488	82.88
388.713	84.88
388.938	92.88
389.163	89.88
389.387	83.88
389.612	88.88
389.837	93.88
390.062	89.88
390.287	89.88
390.512	87.88
390.736	102.88
390.961	88.88
391.186	96.88
391.411	97.88
391.636	97.88
391.86	86.88
392.085	106.88
392.31	107.88
392.534	74.88
392.759	94.88
392.984	91.88
393.208	85.88
393.433	103.88
393.658	106.88
393.882	92.88
394.107	88.88
394.331	82.88
394.556	96.88
394.78	91.88
395.005	105.88
395.229	86.88
395.454	102.88
395.678	90.88
395.903	84.88
396.127	99.88
396.352	100.88
396.576	91.88
396.801	90.88
397.025	92.88
397.249	90.88
397.474	83.88
397.698	83.88
397.922	79.88
398.147	104.88
398.371	101.88
398.595	99.88
398.82	87.88
399.044	100.88
399.268	92.88
399.492	96.88
399.717	101.88
399.941	98.88
400.165	87.88
400.389	74.88
400.613	92.88
400.837	83.88
401.062	99.88
401.286	91.88
401.51	92.88
401.734	96.88
401.958	95.88
402.182	90.88
402.406	90.88
402.63	99.88
402.854	95.88
403.078	91.88
403.302	106.88
403.526	104.88
403.75	104.88
403.974	92.88
404.198	106.88
404.422	103.88
404.645	98.88
404.869	99.88
405.093	88.88
405.317	104.88
405.541	105.88
405.765	92.88
405.988	87.88
406.212	110.88
406.436	102.88
406.66	100.88
406.883	106.88
407.107	93.88
407.331	101.88
407.555	97.88
407.778	105.88
408.002	100.88
408.226	95.88
408.449	102.88
408.673	88.88
408.896	100.88
409.12	90.88
409.344	108.88
409.567	102.88
409.791	115.88
410.014	111.88
410.238	99.88
410.461	106.88
410.685	114.88
410.908	101.88
411.132	103.88
411.355	95.88
411.578	96.88
411.802	100.88
412.025	90.88
412.249	95.88
412.472	112.88
412.695	99.88
412.919	102.88
413.142	93.88
413.365	101.88
413.589	101.88
413.812	109.88
414.035	106.88
414.258	101.88
414.482	103.88
414.705	102.88
414.928	100.88
415.151	96.88
415.374	103.88
415.597	84.88
415.821	98.88
416.044	100.88
416.267	92.88
416.49	118.88
416.713	100.88
416.936	106.88
417.159	98.88
417.382	110.88
417.605	106.88
417.828	98.88
418.051	107.88
418.274	94.88
418.497	115.88
418.72	102.88
418.943	105.88
419.166	114.88
419.389	108.88
419.611	96.88
419.834	107.88
420.057	104.88
420.28	106.88
420.503	102.88
420.726	101.88
420.948	109.88
421.171	112.88
421.394	104.88
421.617	107.88
421.839	114.88
422.062	121.88
422.285	109.88
422.507	92.88
422.73	110.88
422.953	107.88
423.175	117.88
423.398	118.88
423.621	118.88
423.843	103.88
424.066	109.88
424.288	106.88
424.511	116.88
424.733	101.88
424.956	111.88
425.178	111.88
425.401	100.88
425.623	109.88
425.846	104.88
426.068	98.88
426.291	94.88
426.513	112.88
426.735	109.88
426.958	107.88
427.18	92.88
427.402	111.88
427.625	103.88
427.847	116.88
428.069	100.88
428.292	104.88
428.514	116.88
428.736	98.88
428.958	102.88
429.181	112.88
429.403	117.88
429.625	111.88
429.847	105.88
430.069	111.88
430.292	87.88
430.514	105.88
430.736	118.88
430.958	95.88
431.18	113.88
431.402	93.88
431.624	90.88
431.846	101.88
432.068	77.88
432.29	79.88
432.512	83.88
432.734	106.88
432.956	126.88
433.178	114.88
433.4	109.88
433.622	118.88
433.844	94.88
434.066	98.88
434.287	87.88
434.509	93.88
434.731	92.88
434.953	98.88
435.175	107.88
435.397	114.88
435.618	96.88
435.84	95.88
436.062	94.88
436.284	101.88
436.505	116.88
436.727	104.88
436.949	119.88
437.17	104.88
437.392	103.88
437.614	113.88
437.835	100.88
438.057	92.88
438.278	87.88
438.5	91.88
438.721	97.88
438.943	102.88
439.165	104.88
439.386	104.88
439.608	105.88
439.829	108.88
440.05	120.88
440.272	98.88
440.493	120.88
440.715	110.88
440.936	102.88
441.158	85.88
441.379	102.88
441.6	106.88
441.822	113.88
442.043	122.88
442.264	108.88
442.486	107.88
442.707	122.88
442.928	124.88
443.149	117.88
443.371	109.88
443.592	99.88
443.813	89.88
444.034	100.88
444.255	107.88
444.476	104.88
444.698	125.88
444.919	126.88
445.14	224.88
445.361	158.88
445.582	127.88
445.803	101.88
446.024	118.88
446.245	108.88
446.466	112.88
446.687	121.88
446.908	121.88
447.129	121.88
447.35	95.88
447.571	118.88
447.792	105.88
448.013	101.88
448.234	114.88
448.455	126.88
448.675	112.88
448.896	108.88
449.117	105.88
449.338	113.88
449.559	119.88
449.779	115.88
450	104.88
450.221	103.88
450.442	110.88
450.662	104.88
450.883	100.88
451.104	114.88
451.324	100.88
451.545	112.88
451.766	115.88
451.986	107.88
452.207	105.88
452.428	104.88
452.648	107.88
452.869	108.88
453.089	103.88
453.31	106.88
453.53	88.88
453.751	77.88
453.971	98.88
454.192	95.88
454.412	100.88
454.633	89.88
454.853	108.88
455.073	105.88
455.294	106.88
455.514	97.88
455.734	114.88
455.955	97.88
456.175	108.88
456.395	108.88
456.616	108.88
456.836	100.88
457.056	102.88
457.276	103.88
457.497	97.88
457.717	92.88
457.937	101.88
458.157	97.88
458.377	101.88
458.598	98.88
458.818	98.88
459.038	102.88
459.258	84.88
459.478	83.88
459.698	85.88
459.918	86.88
460.138	106.88
460.358	103.88
460.578	106.88
460.798	95.88
461.018	85.88
461.238	93.88
461.458	107.88
461.678	93.88
461.898	105.88
462.118	106.88
462.338	96.88
462.558	100.88
462.777	105.88
462.997	115.88
463.217	96.88
463.437	99.88
463.657	110.88
463.876	107.88
464.096	105.88
464.316	101.88
464.536	98.88
464.755	108.88
464.975	97.88
465.195	96.88
465.414	103.88
465.634	96.88
465.854	101.88
466.073	110.88
466.293	116.88
466.512	126.88
466.732	124.88
466.951	108.88
467.171	108.88
467.391	114.88
467.61	111.88
467.829	110.88
468.049	108.88
468.268	103.88
468.488	109.88
468.707	98.88
468.927	108.88
469.146	111.88
469.365	108.88
469.585	112.88
469.804	115.88
470.023	103.88
470.243	125.88
470.462	132.88
470.681	114.88
470.901	108.88
471.12	107.88
471.339	122.88
471.558	112.88
471.777	105.88
471.997	100.88
472.216	104.88
472.435	92.88
472.654	105.88
472.873	95.88
473.092	105.88
473.311	121.88
473.53	109.88
473.749	107.88
473.968	107.88
474.187	101.88
474.406	96.88
474.625	105.88
474.844	127.88
475.063	110.88
475.282	93.88
475.501	84.88
475.72	112.88
475.939	100.88
476.158	105.88
476.377	114.88
476.596	106.88
476.814	103.88
477.033	95.88
477.252	94.88
477.471	102.88
477.69	100.88
477.908	115.88
478.127	109.88
478.346	110.88
478.564	108.88
478.783	112.88
479.002	131.88
479.22	102.88
479.439	114.88
479.658	104.88
479.876	112.88
480.095	103.88
480.313	91.88
480.532	103.88
480.751	106.88
480.969	91.88
481.188	87.88
481.406	98.88
481.624	98.88
481.843	84.88
482.061	91.88
482.28	95.88
482.498	92.88
482.717	101.88
482.935	94.88
483.153	117.88
483.372	114.88
483.59	101.88
483.808	104.88
484.027	107.88
484.245	123.88
484.463	126.88
484.681	128.88
484.9	117.88
485.118	112.88
485.336	117.88
485.554	93.88
485.772	89.88
485.99	100.88
486.209	103.88
486.427	108.88
486.645	86.88
486.863	115.88
487.081	121.88
487.299	99.88
487.517	107.88
487.735	107.88
487.953	136.88
488.171	143.88
488.389	144.88
488.607	112.88
488.825	118.88
489.043	104.88
489.261	118.88
489.479	116.88
489.696	122.88
489.914	110.88
490.132	110.88
490.35	120.88
490.568	132.88
490.786	128.88
491.003	130.88
491.221	131.88
491.439	120.88
491.657	143.88
491.874	145.88
492.092	144.88
492.31	161.88
492.527	148.88
492.745	152.88
492.963	143.88
493.18	139.88
493.398	133.88
493.615	137.88
493.833	118.88
494.05	141.88
494.268	131.88
494.485	139.88
494.703	126.88
494.92	134.88
495.138	130.88
495.355	127.88
495.573	132.88
495.79	137.88
496.008	130.88
496.225	135.88
496.442	127.88
496.66	131.88
496.877	125.88
497.094	117.88
497.312	121.88
497.529	122.88
497.746	119.88
497.963	106.88
498.181	110.88
498.398	118.88
498.615	97.88
498.832	100.88
499.049	123.88
499.267	104.88
499.484	106.88
499.701	106.88
499.918	114.88
500.135	110.88
500.352	114.88
500.569	116.88
500.786	108.88
501.003	109.88
501.22	111.88
501.437	118.88
501.654	114.88
501.871	98.88
502.088	100.88
502.305	117.88
502.522	106.88
502.739	118.88
502.956	118.88
503.172	96.88
503.389	102.88
503.606	124.88
503.823	114.88
504.04	101.88
504.256	104.88
504.473	98.88
504.69	115.88
504.907	107.88
505.123	107.88
505.34	111.88
505.557	109.88
505.773	94.88
505.99	110.88
506.207	111.88
506.423	104.88
506.64	117.88
506.856	100.88
507.073	108.88
507.289	105.88
507.506	101.88
507.722	98.88
507.939	98.88
508.155	92.88
508.372	97.88
508.588	100.88
508.805	102.88
509.021	101.88
509.238	100.88
509.454	96.88
509.67	104.88
509.887	99.88
510.103	92.88
510.319	88.88
510.536	102.88
510.752	76.88
510.968	72.88
511.184	85.88
511.401	72.88
511.617	87.88
511.833	87.88
512.049	95.88
512.265	91.88
512.481	99.88
512.698	77.88
512.914	91.88
513.13	107.88
513.346	85.88
513.562	84.88
513.778	94.88
