Data from Zn(NO3)2Standard.Agarose3%.GreenCap.LampEnergy10E.O_HRD10591_15-07-28-944.txt Node
Date: Mon Jul 22 15:07:28 EDT 2019
User: cochatt
Spectrometer: HR+D1059
Trigger mode: 1
Integration Time (sec): 1.000000E-1
Scans to average: 1
Electric dark correction enabled: true
Nonlinearity correction enabled: false
Boxcar width: 0
XAxis mode: Wavelengths
Number of Pixels in Spectrum: 2048
>>>>>Begin Spectral Data<<<<<
223.165	-24.12
223.4	-24.12
223.635	-24.12
223.869	-10.12
224.104	-21.12
224.338	-18.12
224.573	-7.12
224.808	-9.12
225.042	1.88
225.277	1.88
225.511	2.88
225.746	7.88
225.98	14.88
226.215	7.88
226.449	10.88
226.683	18.88
226.918	9.88
227.152	12.88
227.387	35.88
227.621	31.88
227.856	44.88
228.09	35.88
228.324	50.88
228.559	60.88
228.793	53.88
229.027	69.88
229.262	71.88
229.496	48.88
229.73	65.88
229.964	60.88
230.199	67.88
230.433	84.88
230.667	81.88
230.901	58.88
231.136	82.88
231.37	79.88
231.604	85.88
231.838	87.88
232.072	85.88
232.306	69.88
232.541	79.88
232.775	80.88
233.009	94.88
233.243	78.88
233.477	83.88
233.711	75.88
233.945	85.88
234.179	79.88
234.413	73.88
234.647	78.88
234.881	74.88
235.115	88.88
235.349	86.88
235.583	78.88
235.817	74.88
236.051	74.88
236.285	76.88
236.519	80.88
236.753	81.88
236.987	69.88
237.221	83.88
237.455	73.88
237.689	94.88
237.922	65.88
238.156	72.88
238.39	70.88
238.624	76.88
238.858	72.88
239.091	71.88
239.325	80.88
239.559	98.88
239.793	71.88
240.027	74.88
240.26	74.88
240.494	92.88
240.728	75.88
240.961	74.88
241.195	75.88
241.429	72.88
241.662	67.88
241.896	74.88
242.13	74.88
242.363	86.88
242.597	77.88
242.83	73.88
243.064	81.88
243.298	83.88
243.531	80.88
243.765	71.88
243.998	76.88
244.232	82.88
244.465	64.88
244.699	83.88
244.932	72.88
245.166	81.88
245.399	73.88
245.633	94.88
245.866	74.88
246.099	78.88
246.333	79.88
246.566	69.88
246.8	72.88
247.033	71.88
247.266	83.88
247.5	78.88
247.733	67.88
247.966	86.88
248.2	75.88
248.433	80.88
248.666	69.88
248.899	85.88
249.133	59.88
249.366	77.88
249.599	63.88
249.832	73.88
250.066	81.88
250.299	83.88
250.532	77.88
250.765	81.88
250.998	69.88
251.231	70.88
251.465	79.88
251.698	87.88
251.931	73.88
252.164	71.88
252.397	97.88
252.63	85.88
252.863	80.88
253.096	77.88
253.329	79.88
253.562	75.88
253.795	75.88
254.028	71.88
254.261	85.88
254.494	87.88
254.727	76.88
254.96	72.88
255.193	77.88
255.426	80.88
255.659	97.88
255.892	79.88
256.124	78.88
256.357	60.88
256.59	92.88
256.823	77.88
257.056	76.88
257.289	65.88
257.521	73.88
257.754	76.88
257.987	71.88
258.22	77.88
258.452	77.88
258.685	72.88
258.918	85.88
259.151	89.88
259.383	76.88
259.616	81.88
259.849	78.88
260.081	82.88
260.314	86.88
260.547	83.88
260.779	83.88
261.012	77.88
261.244	81.88
261.477	91.88
261.71	72.88
261.942	82.88
262.175	79.88
262.407	78.88
262.64	66.88
262.872	82.88
263.105	85.88
263.337	92.88
263.57	82.88
263.802	90.88
264.035	90.88
264.267	83.88
264.499	81.88
264.732	81.88
264.964	83.88
265.197	88.88
265.429	65.88
265.661	87.88
265.894	91.88
266.126	69.88
266.358	76.88
266.591	82.88
266.823	86.88
267.055	75.88
267.287	80.88
267.52	71.88
267.752	85.88
267.984	84.88
268.216	69.88
268.448	87.88
268.681	66.88
268.913	82.88
269.145	70.88
269.377	76.88
269.609	93.88
269.841	87.88
270.073	72.88
270.306	89.88
270.538	83.88
270.77	84.88
271.002	88.88
271.234	76.88
271.466	83.88
271.698	77.88
271.93	76.88
272.162	87.88
272.394	91.88
272.626	92.88
272.858	97.88
273.09	73.88
273.322	92.88
273.553	93.88
273.785	90.88
274.017	87.88
274.249	82.88
274.481	90.88
274.713	74.88
274.945	95.88
275.176	88.88
275.408	75.88
275.64	81.88
275.872	87.88
276.104	72.88
276.335	75.88
276.567	78.88
276.799	97.88
277.031	83.88
277.262	94.88
277.494	84.88
277.726	77.88
277.957	83.88
278.189	79.88
278.421	84.88
278.652	90.88
278.884	91.88
279.115	91.88
279.347	80.88
279.579	92.88
279.81	78.88
280.042	79.88
280.273	88.88
280.505	92.88
280.736	90.88
280.968	83.88
281.199	88.88
281.431	76.88
281.662	71.88
281.894	75.88
282.125	73.88
282.356	85.88
282.588	75.88
282.819	78.88
283.051	97.88
283.282	100.88
283.513	80.88
283.745	93.88
283.976	82.88
284.207	63.88
284.439	88.88
284.67	83.88
284.901	89.88
285.132	81.88
285.364	76.88
285.595	77.88
285.826	75.88
286.057	91.88
286.288	92.88
286.52	82.88
286.751	78.88
286.982	85.88
287.213	89.88
287.444	101.88
287.675	83.88
287.906	97.88
288.138	86.88
288.369	77.88
288.6	79.88
288.831	86.88
289.062	90.88
289.293	81.88
289.524	84.88
289.755	67.88
289.986	87.88
290.217	85.88
290.448	78.88
290.679	87.88
290.91	89.88
291.141	83.88
291.371	94.88
291.602	87.88
291.833	86.88
292.064	86.88
292.295	80.88
292.526	84.88
292.757	80.88
292.987	87.88
293.218	83.88
293.449	93.88
293.68	73.88
293.91	76.88
294.141	87.88
294.372	95.88
294.603	89.88
294.833	86.88
295.064	75.88
295.295	83.88
295.525	85.88
295.756	90.88
295.987	79.88
296.217	88.88
296.448	97.88
296.679	86.88
296.909	101.88
297.14	96.88
297.37	95.88
297.601	97.88
297.831	94.88
298.062	84.88
298.292	90.88
298.523	61.88
298.753	66.88
298.984	80.88
299.214	88.88
299.445	87.88
299.675	81.88
299.905	89.88
300.136	92.88
300.366	75.88
300.597	91.88
300.827	82.88
301.057	84.88
301.288	91.88
301.518	99.88
301.748	82.88
301.979	94.88
302.209	94.88
302.439	84.88
302.669	80.88
302.9	79.88
303.13	85.88
303.36	89.88
303.59	83.88
303.82	75.88
304.051	93.88
304.281	76.88
304.511	77.88
304.741	89.88
304.971	100.88
305.201	81.88
305.431	77.88
305.661	88.88
305.891	84.88
306.121	92.88
306.352	91.88
306.582	74.88
306.812	78.88
307.042	85.88
307.272	90.88
307.502	86.88
307.731	94.88
307.961	86.88
308.191	87.88
308.421	82.88
308.651	72.88
308.881	91.88
309.111	91.88
309.341	92.88
309.571	94.88
309.8	80.88
310.03	81.88
310.26	83.88
310.49	88.88
310.72	72.88
310.949	82.88
311.179	79.88
311.409	88.88
311.639	83.88
311.868	70.88
312.098	78.88
312.328	91.88
312.557	81.88
312.787	68.88
313.017	81.88
313.246	80.88
313.476	86.88
313.706	91.88
313.935	86.88
314.165	85.88
314.394	90.88
314.624	82.88
314.853	65.88
315.083	74.88
315.312	65.88
315.542	100.88
315.771	83.88
316.001	80.88
316.23	72.88
316.46	81.88
316.689	84.88
316.919	81.88
317.148	84.88
317.377	79.88
317.607	89.88
317.836	78.88
318.065	85.88
318.295	87.88
318.524	88.88
318.753	84.88
318.983	82.88
319.212	89.88
319.441	83.88
319.67	82.88
319.9	84.88
320.129	74.88
320.358	77.88
320.587	84.88
320.816	74.88
321.046	78.88
321.275	87.88
321.504	83.88
321.733	84.88
321.962	84.88
322.191	90.88
322.42	67.88
322.649	92.88
322.878	78.88
323.108	76.88
323.337	91.88
323.566	81.88
323.795	78.88
324.024	90.88
324.253	89.88
324.482	77.88
324.71	71.88
324.939	87.88
325.168	77.88
325.397	83.88
325.626	81.88
325.855	82.88
326.084	89.88
326.313	92.88
326.542	87.88
326.77	79.88
326.999	83.88
327.228	72.88
327.457	81.88
327.686	84.88
327.914	91.88
328.143	84.88
328.372	82.88
328.6	83.88
328.829	72.88
329.058	85.88
329.287	79.88
329.515	90.88
329.744	89.88
329.972	77.88
330.201	83.88
330.43	87.88
330.658	94.88
330.887	84.88
331.115	79.88
331.344	73.88
331.572	86.88
331.801	78.88
332.03	86.88
332.258	81.88
332.486	108.88
332.715	99.88
332.943	83.88
333.172	84.88
333.4	87.88
333.629	94.88
333.857	80.88
334.085	94.88
334.314	81.88
334.542	86.88
334.771	85.88
334.999	74.88
335.227	83.88
335.455	97.88
335.684	86.88
335.912	83.88
336.14	71.88
336.369	85.88
336.597	83.88
336.825	74.88
337.053	74.88
337.281	88.88
337.51	84.88
337.738	82.88
337.966	74.88
338.194	77.88
338.422	73.88
338.65	92.88
338.878	80.88
339.106	76.88
339.334	86.88
339.562	67.88
339.79	90.88
340.018	94.88
340.246	91.88
340.474	89.88
340.702	79.88
340.93	85.88
341.158	75.88
341.386	74.88
341.614	87.88
341.842	87.88
342.07	88.88
342.298	86.88
342.526	82.88
342.754	74.88
342.981	82.88
343.209	85.88
343.437	88.88
343.665	88.88
343.893	87.88
344.12	99.88
344.348	87.88
344.576	83.88
344.804	81.88
345.031	79.88
345.259	89.88
345.487	73.88
345.714	80.88
345.942	85.88
346.17	80.88
346.397	87.88
346.625	83.88
346.853	75.88
347.08	85.88
347.308	97.88
347.535	80.88
347.763	81.88
347.99	84.88
348.218	87.88
348.445	91.88
348.673	73.88
348.9	85.88
349.128	89.88
349.355	77.88
349.583	83.88
349.81	72.88
350.037	85.88
350.265	88.88
350.492	89.88
350.72	98.88
350.947	93.88
351.174	92.88
351.402	76.88
351.629	89.88
351.856	83.88
352.083	79.88
352.311	87.88
352.538	91.88
352.765	90.88
352.992	95.88
353.22	83.88
353.447	76.88
353.674	83.88
353.901	106.88
354.128	76.88
354.355	86.88
354.583	83.88
354.81	80.88
355.037	79.88
355.264	73.88
355.491	68.88
355.718	87.88
355.945	76.88
356.172	81.88
356.399	86.88
356.626	88.88
356.853	82.88
357.08	90.88
357.307	81.88
357.534	80.88
357.761	83.88
357.988	68.88
358.215	81.88
358.441	95.88
358.668	92.88
358.895	80.88
359.122	71.88
359.349	86.88
359.576	78.88
359.802	89.88
360.029	89.88
360.256	87.88
360.483	75.88
360.709	87.88
360.936	90.88
361.163	94.88
361.39	83.88
361.616	70.88
361.843	86.88
362.07	71.88
362.296	92.88
362.523	80.88
362.749	93.88
362.976	96.88
363.203	66.88
363.429	84.88
363.656	89.88
363.882	75.88
364.109	85.88
364.335	86.88
364.562	82.88
364.788	80.88
365.015	84.88
365.241	68.88
365.468	85.88
365.694	80.88
365.92	96.88
366.147	84.88
366.373	81.88
366.599	87.88
366.826	78.88
367.052	96.88
367.278	87.88
367.505	77.88
367.731	81.88
367.957	78.88
368.184	88.88
368.41	87.88
368.636	84.88
368.862	80.88
369.089	73.88
369.315	83.88
369.541	77.88
369.767	77.88
369.993	82.88
370.219	93.88
370.445	102.88
370.672	85.88
370.898	91.88
371.124	71.88
371.35	70.88
371.576	88.88
371.802	88.88
372.028	81.88
372.254	70.88
372.48	85.88
372.706	87.88
372.932	86.88
373.158	89.88
373.384	96.88
373.61	100.88
373.835	90.88
374.061	71.88
374.287	84.88
374.513	87.88
374.739	83.88
374.965	92.88
375.191	79.88
375.416	92.88
375.642	83.88
375.868	82.88
376.094	75.88
376.319	86.88
376.545	85.88
376.771	88.88
376.997	89.88
377.222	87.88
377.448	92.88
377.674	103.88
377.899	90.88
378.125	84.88
378.35	82.88
378.576	87.88
378.802	97.88
379.027	88.88
379.253	80.88
379.478	79.88
379.704	88.88
379.929	89.88
380.155	86.88
380.38	87.88
380.606	88.88
380.831	105.88
381.057	98.88
381.282	88.88
381.507	96.88
381.733	91.88
381.958	95.88
382.184	91.88
382.409	99.88
382.634	75.88
382.86	99.88
383.085	70.88
383.31	87.88
383.535	76.88
383.761	93.88
383.986	100.88
384.211	94.88
384.436	91.88
384.662	87.88
384.887	93.88
385.112	87.88
385.337	104.88
385.562	89.88
385.787	81.88
386.013	92.88
386.238	100.88
386.463	89.88
386.688	84.88
386.913	91.88
387.138	90.88
387.363	89.88
387.588	104.88
387.813	87.88
388.038	88.88
388.263	105.88
388.488	103.88
388.713	95.88
388.938	69.88
389.163	105.88
389.387	104.88
389.612	83.88
389.837	84.88
390.062	96.88
390.287	70.88
390.512	77.88
390.736	89.88
390.961	95.88
391.186	89.88
391.411	105.88
391.636	91.88
391.86	87.88
392.085	93.88
392.31	82.88
392.534	87.88
392.759	92.88
392.984	96.88
393.208	104.88
393.433	83.88
393.658	82.88
393.882	90.88
394.107	93.88
394.331	100.88
394.556	91.88
394.78	72.88
395.005	97.88
395.229	93.88
395.454	95.88
395.678	94.88
395.903	96.88
396.127	98.88
396.352	92.88
396.576	83.88
396.801	96.88
397.025	86.88
397.249	86.88
397.474	96.88
397.698	92.88
397.922	86.88
398.147	102.88
398.371	81.88
398.595	84.88
398.82	89.88
399.044	77.88
399.268	88.88
399.492	88.88
399.717	88.88
399.941	106.88
400.165	104.88
400.389	98.88
400.613	88.88
400.837	95.88
401.062	85.88
401.286	84.88
401.51	89.88
401.734	90.88
401.958	86.88
402.182	93.88
402.406	95.88
402.63	89.88
402.854	98.88
403.078	85.88
403.302	111.88
403.526	104.88
403.75	92.88
403.974	80.88
404.198	98.88
404.422	104.88
404.645	105.88
404.869	89.88
405.093	96.88
405.317	92.88
405.541	103.88
405.765	102.88
405.988	98.88
406.212	104.88
406.436	92.88
406.66	105.88
406.883	94.88
407.107	93.88
407.331	95.88
407.555	97.88
407.778	90.88
408.002	96.88
408.226	95.88
408.449	94.88
408.673	88.88
408.896	87.88
409.12	99.88
409.344	99.88
409.567	104.88
409.791	85.88
410.014	102.88
410.238	109.88
410.461	95.88
410.685	87.88
410.908	96.88
411.132	97.88
411.355	91.88
411.578	95.88
411.802	98.88
412.025	88.88
412.249	103.88
412.472	109.88
412.695	106.88
412.919	104.88
413.142	95.88
413.365	85.88
413.589	106.88
413.812	102.88
414.035	102.88
414.258	114.88
414.482	88.88
414.705	99.88
414.928	106.88
415.151	105.88
415.374	95.88
415.597	107.88
415.821	89.88
416.044	94.88
416.267	107.88
416.49	113.88
416.713	108.88
416.936	103.88
417.159	116.88
417.382	95.88
417.605	103.88
417.828	102.88
418.051	99.88
418.274	108.88
418.497	108.88
418.72	96.88
418.943	105.88
419.166	118.88
419.389	115.88
419.611	102.88
419.834	103.88
420.057	103.88
420.28	105.88
420.503	102.88
420.726	92.88
420.948	98.88
421.171	101.88
421.394	80.88
421.617	100.88
421.839	117.88
422.062	104.88
422.285	100.88
422.507	118.88
422.73	101.88
422.953	102.88
423.175	111.88
423.398	96.88
423.621	107.88
423.843	92.88
424.066	102.88
424.288	108.88
424.511	115.88
424.733	108.88
424.956	108.88
425.178	124.88
425.401	113.88
425.623	100.88
425.846	102.88
426.068	92.88
426.291	104.88
426.513	101.88
426.735	111.88
426.958	83.88
427.18	94.88
427.402	112.88
427.625	102.88
427.847	101.88
428.069	116.88
428.292	101.88
428.514	111.88
428.736	109.88
428.958	101.88
429.181	98.88
429.403	94.88
429.625	97.88
429.847	111.88
430.069	113.88
430.292	113.88
430.514	108.88
430.736	95.88
430.958	102.88
431.18	108.88
431.402	83.88
431.624	100.88
431.846	102.88
432.068	87.88
432.29	100.88
432.512	88.88
432.734	90.88
432.956	110.88
433.178	111.88
433.4	106.88
433.622	111.88
433.844	110.88
434.066	82.88
434.287	93.88
434.509	99.88
434.731	86.88
434.953	84.88
435.175	105.88
435.397	103.88
435.618	96.88
435.84	87.88
436.062	97.88
436.284	92.88
436.505	118.88
436.727	124.88
436.949	97.88
437.17	105.88
437.392	96.88
437.614	99.88
437.835	102.88
438.057	94.88
438.278	89.88
438.5	96.88
438.721	117.88
438.943	90.88
439.165	120.88
439.386	101.88
439.608	129.88
439.829	119.88
440.05	114.88
440.272	100.88
440.493	103.88
440.715	114.88
440.936	96.88
441.158	105.88
441.379	118.88
441.6	107.88
441.822	104.88
442.043	119.88
442.264	111.88
442.486	121.88
442.707	107.88
442.928	99.88
443.149	103.88
443.371	117.88
443.592	113.88
443.813	114.88
444.034	114.88
444.255	118.88
444.476	113.88
444.698	116.88
444.919	108.88
445.14	209.88
445.361	160.88
445.582	107.88
445.803	117.88
446.024	108.88
446.245	127.88
446.466	103.88
446.687	117.88
446.908	121.88
447.129	103.88
447.35	110.88
447.571	120.88
447.792	106.88
448.013	98.88
448.234	102.88
448.455	108.88
448.675	121.88
448.896	108.88
449.117	118.88
449.338	122.88
449.559	95.88
449.779	111.88
450	111.88
450.221	114.88
450.442	114.88
450.662	117.88
450.883	106.88
451.104	107.88
451.324	104.88
451.545	108.88
451.766	108.88
451.986	110.88
452.207	104.88
452.428	93.88
452.648	107.88
452.869	99.88
453.089	101.88
453.31	107.88
453.53	83.88
453.751	81.88
453.971	96.88
454.192	83.88
454.412	87.88
454.633	104.88
454.853	88.88
455.073	92.88
455.294	93.88
455.514	81.88
455.734	89.88
455.955	103.88
456.175	99.88
456.395	89.88
456.616	114.88
456.836	80.88
457.056	91.88
457.276	88.88
457.497	83.88
457.717	116.88
457.937	103.88
458.157	105.88
458.377	91.88
458.598	93.88
458.818	81.88
459.038	77.88
459.258	76.88
459.478	73.88
459.698	78.88
459.918	83.88
460.138	98.88
460.358	99.88
460.578	96.88
460.798	92.88
461.018	97.88
461.238	107.88
461.458	104.88
461.678	95.88
461.898	96.88
462.118	90.88
462.338	98.88
462.558	109.88
462.777	97.88
462.997	89.88
463.217	98.88
463.437	107.88
463.657	101.88
463.876	107.88
464.096	89.88
464.316	93.88
464.536	90.88
464.755	86.88
464.975	104.88
465.195	116.88
465.414	92.88
465.634	95.88
465.854	100.88
466.073	107.88
466.293	98.88
466.512	109.88
466.732	108.88
466.951	115.88
467.171	103.88
467.391	113.88
467.61	102.88
467.829	106.88
468.049	107.88
468.268	107.88
468.488	106.88
468.707	100.88
468.927	117.88
469.146	113.88
469.365	106.88
469.585	119.88
469.804	117.88
470.023	106.88
470.243	104.88
470.462	109.88
470.681	102.88
470.901	111.88
471.12	100.88
471.339	123.88
471.558	107.88
471.777	111.88
471.997	100.88
472.216	103.88
472.435	106.88
472.654	108.88
472.873	101.88
473.092	101.88
473.311	96.88
473.53	104.88
473.749	105.88
473.968	103.88
474.187	99.88
474.406	101.88
474.625	109.88
474.844	101.88
475.063	104.88
475.282	108.88
475.501	98.88
475.72	103.88
475.939	106.88
476.158	118.88
476.377	95.88
476.596	108.88
476.814	108.88
477.033	103.88
477.252	77.88
477.471	103.88
477.69	109.88
477.908	114.88
478.127	117.88
478.346	100.88
478.564	102.88
478.783	105.88
479.002	125.88
479.22	107.88
479.439	109.88
479.658	101.88
479.876	93.88
480.095	92.88
480.313	100.88
480.532	101.88
480.751	93.88
480.969	95.88
481.188	90.88
481.406	100.88
481.624	90.88
481.843	81.88
482.061	100.88
482.28	106.88
482.498	109.88
482.717	103.88
482.935	109.88
483.153	111.88
483.372	107.88
483.59	111.88
483.808	109.88
484.027	100.88
484.245	106.88
484.463	121.88
484.681	125.88
484.9	109.88
485.118	122.88
485.336	106.88
485.554	86.88
485.772	91.88
485.99	89.88
486.209	83.88
486.427	92.88
486.645	96.88
486.863	104.88
487.081	114.88
487.299	119.88
487.517	106.88
487.735	130.88
487.953	123.88
488.171	131.88
488.389	120.88
488.607	124.88
488.825	117.88
489.043	106.88
489.261	112.88
489.479	109.88
489.696	113.88
489.914	118.88
490.132	116.88
490.35	135.88
490.568	115.88
490.786	125.88
491.003	132.88
491.221	123.88
491.439	129.88
491.657	139.88
491.874	125.88
492.092	138.88
492.31	167.88
492.527	148.88
492.745	139.88
492.963	151.88
493.18	124.88
493.398	137.88
493.615	120.88
493.833	139.88
494.05	132.88
494.268	134.88
494.485	130.88
494.703	135.88
494.92	127.88
495.138	130.88
495.355	136.88
495.573	121.88
495.79	131.88
496.008	124.88
496.225	131.88
496.442	116.88
496.66	119.88
496.877	127.88
497.094	127.88
497.312	125.88
497.529	134.88
497.746	121.88
497.963	115.88
498.181	98.88
498.398	108.88
498.615	98.88
498.832	93.88
499.049	101.88
499.267	103.88
499.484	119.88
499.701	95.88
499.918	108.88
500.135	92.88
500.352	115.88
500.569	117.88
500.786	106.88
501.003	104.88
501.22	115.88
501.437	119.88
501.654	109.88
501.871	108.88
502.088	121.88
502.305	111.88
502.522	98.88
502.739	111.88
502.956	122.88
503.172	111.88
503.389	95.88
503.606	123.88
503.823	100.88
504.04	97.88
504.256	105.88
504.473	101.88
504.69	116.88
504.907	102.88
505.123	108.88
505.34	105.88
505.557	104.88
505.773	101.88
505.99	93.88
506.207	96.88
506.423	104.88
506.64	107.88
506.856	111.88
507.073	90.88
507.289	113.88
507.506	106.88
507.722	96.88
507.939	108.88
508.155	99.88
508.372	96.88
508.588	93.88
508.805	105.88
509.021	91.88
509.238	96.88
509.454	79.88
509.67	82.88
509.887	83.88
510.103	81.88
510.319	77.88
510.536	84.88
510.752	79.88
510.968	80.88
511.184	82.88
511.401	92.88
511.617	86.88
511.833	100.88
512.049	90.88
512.265	84.88
512.481	95.88
512.698	94.88
512.914	85.88
513.13	95.88
513.346	92.88
513.562	80.88
513.778	92.88
513.994	99.88
514.21	91.88
514.426	85.88
