Data from Zn(NO3)2Standard.Agarose3%.GreenCap.LampEnergy5.5.E.O_HRD10591_15-03-18-768.txt Node
Date: Mon Jul 22 15:03:18 EDT 2019
User: cochatt
Spectrometer: HR+D1059
Trigger mode: 1
Integration Time (sec): 1.000000E-1
Scans to average: 1
Electric dark correction enabled: true
Nonlinearity correction enabled: false
Boxcar width: 0
XAxis mode: Wavelengths
Number of Pixels in Spectrum: 2048
>>>>>Begin Spectral Data<<<<<
223.165	-16.5
223.4	-16.5
223.635	-16.5
223.869	-1.5
224.104	-7.5
224.338	-11.5
224.573	-15.5
224.808	-19.5
225.042	-13.5
225.277	-14.5
225.511	1.5
225.746	17.5
225.98	1.5
226.215	1.5
226.449	6.5
226.683	12.5
226.918	32.5
227.152	26.5
227.387	52.5
227.621	28.5
227.856	51.5
228.09	44.5
228.324	45.5
228.559	60.5
228.793	50.5
229.027	52.5
229.262	62.5
229.496	65.5
229.73	81.5
229.964	71.5
230.199	66.5
230.433	80.5
230.667	68.5
230.901	78.5
231.136	85.5
231.37	86.5
231.604	80.5
231.838	74.5
232.072	83.5
232.306	83.5
232.541	71.5
232.775	75.5
233.009	82.5
233.243	80.5
233.477	87.5
233.711	82.5
233.945	104.5
234.179	81.5
234.413	80.5
234.647	71.5
234.881	78.5
235.115	68.5
235.349	88.5
235.583	78.5
235.817	95.5
236.051	73.5
236.285	79.5
236.519	85.5
236.753	90.5
236.987	72.5
237.221	84.5
237.455	84.5
237.689	78.5
237.922	81.5
238.156	60.5
238.39	72.5
238.624	77.5
238.858	79.5
239.091	72.5
239.325	80.5
239.559	65.5
239.793	71.5
240.027	76.5
240.26	68.5
240.494	75.5
240.728	85.5
240.961	67.5
241.195	81.5
241.429	83.5
241.662	80.5
241.896	83.5
242.13	77.5
242.363	76.5
242.597	86.5
242.83	84.5
243.064	79.5
243.298	71.5
243.531	79.5
243.765	88.5
243.998	65.5
244.232	79.5
244.465	79.5
244.699	73.5
244.932	77.5
245.166	85.5
245.399	70.5
245.633	83.5
245.866	82.5
246.099	68.5
246.333	80.5
246.566	70.5
246.8	65.5
247.033	64.5
247.266	82.5
247.5	72.5
247.733	82.5
247.966	83.5
248.2	84.5
248.433	73.5
248.666	96.5
248.899	99.5
249.133	76.5
249.366	71.5
249.599	78.5
249.832	82.5
250.066	76.5
250.299	78.5
250.532	88.5
250.765	72.5
250.998	71.5
251.231	83.5
251.465	71.5
251.698	82.5
251.931	74.5
252.164	86.5
252.397	86.5
252.63	74.5
252.863	83.5
253.096	78.5
253.329	83.5
253.562	77.5
253.795	102.5
254.028	93.5
254.261	74.5
254.494	84.5
254.727	74.5
254.96	88.5
255.193	80.5
255.426	91.5
255.659	87.5
255.892	69.5
256.124	79.5
256.357	87.5
256.59	94.5
256.823	67.5
257.056	86.5
257.289	68.5
257.521	75.5
257.754	78.5
257.987	58.5
258.22	84.5
258.452	76.5
258.685	87.5
258.918	89.5
259.151	72.5
259.383	84.5
259.616	76.5
259.849	87.5
260.081	87.5
260.314	72.5
260.547	77.5
260.779	75.5
261.012	67.5
261.244	72.5
261.477	80.5
261.71	86.5
261.942	80.5
262.175	78.5
262.407	94.5
262.64	73.5
262.872	73.5
263.105	87.5
263.337	82.5
263.57	84.5
263.802	79.5
264.035	68.5
264.267	88.5
264.499	61.5
264.732	88.5
264.964	79.5
265.197	82.5
265.429	84.5
265.661	95.5
265.894	76.5
266.126	86.5
266.358	72.5
266.591	89.5
266.823	100.5
267.055	80.5
267.287	81.5
267.52	76.5
267.752	73.5
267.984	89.5
268.216	83.5
268.448	68.5
268.681	79.5
268.913	75.5
269.145	86.5
269.377	84.5
269.609	76.5
269.841	84.5
270.073	82.5
270.306	83.5
270.538	75.5
270.77	82.5
271.002	78.5
271.234	80.5
271.466	79.5
271.698	81.5
271.93	90.5
272.162	89.5
272.394	93.5
272.626	78.5
272.858	80.5
273.09	79.5
273.322	81.5
273.553	89.5
273.785	86.5
274.017	79.5
274.249	87.5
274.481	83.5
274.713	94.5
274.945	86.5
275.176	80.5
275.408	86.5
275.64	89.5
275.872	93.5
276.104	79.5
276.335	98.5
276.567	86.5
276.799	100.5
277.031	79.5
277.262	80.5
277.494	87.5
277.726	72.5
277.957	86.5
278.189	80.5
278.421	76.5
278.652	87.5
278.884	92.5
279.115	90.5
279.347	86.5
279.579	95.5
279.81	77.5
280.042	85.5
280.273	84.5
280.505	80.5
280.736	86.5
280.968	81.5
281.199	75.5
281.431	62.5
281.662	77.5
281.894	84.5
282.125	99.5
282.356	77.5
282.588	88.5
282.819	94.5
283.051	84.5
283.282	82.5
283.513	100.5
283.745	81.5
283.976	85.5
284.207	81.5
284.439	92.5
284.67	90.5
284.901	81.5
285.132	85.5
285.364	89.5
285.595	95.5
285.826	65.5
286.057	83.5
286.288	87.5
286.52	75.5
286.751	77.5
286.982	88.5
287.213	85.5
287.444	72.5
287.675	92.5
287.906	88.5
288.138	95.5
288.369	93.5
288.6	75.5
288.831	89.5
289.062	92.5
289.293	93.5
289.524	78.5
289.755	89.5
289.986	90.5
290.217	80.5
290.448	80.5
290.679	95.5
290.91	95.5
291.141	91.5
291.371	81.5
291.602	83.5
291.833	80.5
292.064	90.5
292.295	79.5
292.526	81.5
292.757	86.5
292.987	83.5
293.218	96.5
293.449	87.5
293.68	78.5
293.91	95.5
294.141	96.5
294.372	82.5
294.603	76.5
294.833	86.5
295.064	99.5
295.295	89.5
295.525	101.5
295.756	81.5
295.987	66.5
296.217	75.5
296.448	91.5
296.679	85.5
296.909	70.5
297.14	86.5
297.37	91.5
297.601	101.5
297.831	90.5
298.062	96.5
298.292	95.5
298.523	93.5
298.753	88.5
298.984	98.5
299.214	85.5
299.445	90.5
299.675	91.5
299.905	90.5
300.136	72.5
300.366	86.5
300.597	74.5
300.827	91.5
301.057	78.5
301.288	96.5
301.518	88.5
301.748	81.5
301.979	83.5
302.209	91.5
302.439	87.5
302.669	90.5
302.9	89.5
303.13	95.5
303.36	88.5
303.59	91.5
303.82	82.5
304.051	72.5
304.281	91.5
304.511	81.5
304.741	90.5
304.971	83.5
305.201	71.5
305.431	86.5
305.661	90.5
305.891	88.5
306.121	83.5
306.352	81.5
306.582	82.5
306.812	72.5
307.042	101.5
307.272	91.5
307.502	86.5
307.731	84.5
307.961	80.5
308.191	111.5
308.421	80.5
308.651	88.5
308.881	82.5
309.111	82.5
309.341	87.5
309.571	84.5
309.8	92.5
310.03	87.5
310.26	72.5
310.49	92.5
310.72	76.5
310.949	87.5
311.179	91.5
311.409	88.5
311.639	78.5
311.868	91.5
312.098	77.5
312.328	77.5
312.557	91.5
312.787	84.5
313.017	104.5
313.246	87.5
313.476	101.5
313.706	101.5
313.935	76.5
314.165	74.5
314.394	84.5
314.624	68.5
314.853	92.5
315.083	94.5
315.312	91.5
315.542	80.5
315.771	88.5
316.001	79.5
316.23	87.5
316.46	75.5
316.689	94.5
316.919	78.5
317.148	79.5
317.377	87.5
317.607	94.5
317.836	80.5
318.065	76.5
318.295	95.5
318.524	87.5
318.753	87.5
318.983	82.5
319.212	79.5
319.441	81.5
319.67	92.5
319.9	90.5
320.129	82.5
320.358	79.5
320.587	93.5
320.816	94.5
321.046	67.5
321.275	84.5
321.504	95.5
321.733	88.5
321.962	77.5
322.191	78.5
322.42	99.5
322.649	96.5
322.878	92.5
323.108	95.5
323.337	84.5
323.566	84.5
323.795	92.5
324.024	72.5
324.253	73.5
324.482	90.5
324.71	88.5
324.939	79.5
325.168	78.5
325.397	85.5
325.626	85.5
325.855	89.5
326.084	82.5
326.313	91.5
326.542	80.5
326.77	77.5
326.999	87.5
327.228	95.5
327.457	91.5
327.686	94.5
327.914	88.5
328.143	83.5
328.372	82.5
328.6	71.5
328.829	87.5
329.058	79.5
329.287	99.5
329.515	76.5
329.744	77.5
329.972	83.5
330.201	89.5
330.43	80.5
330.658	83.5
330.887	101.5
331.115	65.5
331.344	82.5
331.572	94.5
331.801	85.5
332.03	81.5
332.258	92.5
332.486	79.5
332.715	87.5
332.943	83.5
333.172	78.5
333.4	87.5
333.629	96.5
333.857	88.5
334.085	81.5
334.314	87.5
334.542	88.5
334.771	93.5
334.999	87.5
335.227	101.5
335.455	85.5
335.684	89.5
335.912	83.5
336.14	86.5
336.369	89.5
336.597	86.5
336.825	79.5
337.053	83.5
337.281	82.5
337.51	75.5
337.738	85.5
337.966	81.5
338.194	99.5
338.422	85.5
338.65	90.5
338.878	75.5
339.106	71.5
339.334	80.5
339.562	88.5
339.79	88.5
340.018	80.5
340.246	92.5
340.474	90.5
340.702	96.5
340.93	85.5
341.158	90.5
341.386	86.5
341.614	95.5
341.842	92.5
342.07	95.5
342.298	84.5
342.526	90.5
342.754	86.5
342.981	85.5
343.209	80.5
343.437	84.5
343.665	78.5
343.893	77.5
344.12	88.5
344.348	69.5
344.576	71.5
344.804	93.5
345.031	89.5
345.259	87.5
345.487	83.5
345.714	76.5
345.942	81.5
346.17	87.5
346.397	79.5
346.625	90.5
346.853	84.5
347.08	93.5
347.308	90.5
347.535	89.5
347.763	88.5
347.99	79.5
348.218	84.5
348.445	88.5
348.673	87.5
348.9	78.5
349.128	78.5
349.355	87.5
349.583	80.5
349.81	102.5
350.037	88.5
350.265	81.5
350.492	79.5
350.72	86.5
350.947	77.5
351.174	89.5
351.402	96.5
351.629	91.5
351.856	84.5
352.083	86.5
352.311	100.5
352.538	88.5
352.765	85.5
352.992	86.5
353.22	71.5
353.447	83.5
353.674	79.5
353.901	90.5
354.128	86.5
354.355	88.5
354.583	67.5
354.81	87.5
355.037	88.5
355.264	92.5
355.491	88.5
355.718	66.5
355.945	83.5
356.172	69.5
356.399	109.5
356.626	94.5
356.853	92.5
357.08	82.5
357.307	88.5
357.534	73.5
357.761	74.5
357.988	102.5
358.215	90.5
358.441	78.5
358.668	86.5
358.895	100.5
359.122	91.5
359.349	68.5
359.576	86.5
359.802	99.5
360.029	75.5
360.256	93.5
360.483	102.5
360.709	85.5
360.936	90.5
361.163	91.5
361.39	73.5
361.616	82.5
361.843	90.5
362.07	90.5
362.296	88.5
362.523	82.5
362.749	76.5
362.976	82.5
363.203	81.5
363.429	83.5
363.656	88.5
363.882	86.5
364.109	67.5
364.335	83.5
364.562	84.5
364.788	79.5
365.015	84.5
365.241	82.5
365.468	60.5
365.694	79.5
365.92	89.5
366.147	90.5
366.373	82.5
366.599	103.5
366.826	92.5
367.052	87.5
367.278	72.5
367.505	96.5
367.731	84.5
367.957	86.5
368.184	76.5
368.41	88.5
368.636	88.5
368.862	81.5
369.089	78.5
369.315	81.5
369.541	80.5
369.767	82.5
369.993	79.5
370.219	87.5
370.445	93.5
370.672	95.5
370.898	91.5
371.124	84.5
371.35	84.5
371.576	81.5
371.802	94.5
372.028	84.5
372.254	81.5
372.48	79.5
372.706	101.5
372.932	85.5
373.158	91.5
373.384	87.5
373.61	98.5
373.835	79.5
374.061	74.5
374.287	90.5
374.513	92.5
374.739	92.5
374.965	92.5
375.191	85.5
375.416	93.5
375.642	78.5
375.868	78.5
376.094	87.5
376.319	84.5
376.545	89.5
376.771	79.5
376.997	83.5
377.222	77.5
377.448	95.5
377.674	70.5
377.899	77.5
378.125	83.5
378.35	78.5
378.576	90.5
378.802	90.5
379.027	98.5
379.253	83.5
379.478	89.5
379.704	90.5
379.929	94.5
380.155	85.5
380.38	86.5
380.606	90.5
380.831	88.5
381.057	93.5
381.282	85.5
381.507	86.5
381.733	83.5
381.958	94.5
382.184	74.5
382.409	77.5
382.634	90.5
382.86	82.5
383.085	70.5
383.31	86.5
383.535	89.5
383.761	76.5
383.986	95.5
384.211	89.5
384.436	71.5
384.662	92.5
384.887	93.5
385.112	72.5
385.337	74.5
385.562	86.5
385.787	70.5
386.013	81.5
386.238	92.5
386.463	92.5
386.688	82.5
386.913	84.5
387.138	79.5
387.363	71.5
387.588	90.5
387.813	83.5
388.038	99.5
388.263	87.5
388.488	87.5
388.713	90.5
388.938	82.5
389.163	76.5
389.387	77.5
389.612	98.5
389.837	87.5
390.062	80.5
390.287	86.5
390.512	86.5
390.736	85.5
390.961	82.5
391.186	97.5
391.411	79.5
391.636	85.5
391.86	95.5
392.085	76.5
392.31	94.5
392.534	85.5
392.759	91.5
392.984	78.5
393.208	91.5
393.433	76.5
393.658	84.5
393.882	85.5
394.107	82.5
394.331	88.5
394.556	84.5
394.78	86.5
395.005	79.5
395.229	93.5
395.454	82.5
395.678	88.5
395.903	93.5
396.127	75.5
396.352	86.5
396.576	88.5
396.801	83.5
397.025	86.5
397.249	91.5
397.474	85.5
397.698	92.5
397.922	90.5
398.147	93.5
398.371	84.5
398.595	91.5
398.82	72.5
399.044	78.5
399.268	83.5
399.492	90.5
399.717	92.5
399.941	89.5
400.165	92.5
400.389	86.5
400.613	83.5
400.837	91.5
401.062	75.5
401.286	86.5
401.51	86.5
401.734	87.5
401.958	98.5
402.182	94.5
402.406	79.5
402.63	84.5
402.854	89.5
403.078	100.5
403.302	83.5
403.526	86.5
403.75	106.5
403.974	80.5
404.198	93.5
404.422	82.5
404.645	85.5
404.869	86.5
405.093	86.5
405.317	77.5
405.541	88.5
405.765	86.5
405.988	89.5
406.212	92.5
406.436	97.5
406.66	86.5
406.883	90.5
407.107	76.5
407.331	92.5
407.555	86.5
407.778	88.5
408.002	79.5
408.226	81.5
408.449	94.5
408.673	81.5
408.896	86.5
409.12	86.5
409.344	88.5
409.567	78.5
409.791	77.5
410.014	79.5
410.238	94.5
410.461	93.5
410.685	81.5
410.908	74.5
411.132	78.5
411.355	86.5
411.578	85.5
411.802	94.5
412.025	88.5
412.249	79.5
412.472	91.5
412.695	93.5
412.919	88.5
413.142	87.5
413.365	83.5
413.589	88.5
413.812	81.5
414.035	110.5
414.258	95.5
414.482	101.5
414.705	90.5
414.928	93.5
415.151	82.5
415.374	95.5
415.597	81.5
415.821	82.5
416.044	87.5
416.267	94.5
416.49	79.5
416.713	94.5
416.936	87.5
417.159	75.5
417.382	90.5
417.605	101.5
417.828	73.5
418.051	94.5
418.274	85.5
418.497	85.5
418.72	94.5
418.943	80.5
419.166	73.5
419.389	93.5
419.611	91.5
419.834	97.5
420.057	93.5
420.28	83.5
420.503	88.5
420.726	99.5
420.948	85.5
421.171	86.5
421.394	88.5
421.617	76.5
421.839	80.5
422.062	91.5
422.285	96.5
422.507	87.5
422.73	95.5
422.953	68.5
423.175	92.5
423.398	99.5
423.621	75.5
423.843	90.5
424.066	100.5
424.288	94.5
424.511	95.5
424.733	79.5
424.956	82.5
425.178	93.5
425.401	86.5
425.623	93.5
425.846	83.5
426.068	88.5
426.291	84.5
426.513	79.5
426.735	88.5
426.958	82.5
427.18	76.5
427.402	84.5
427.625	87.5
427.847	77.5
428.069	90.5
428.292	91.5
428.514	76.5
428.736	87.5
428.958	90.5
429.181	78.5
429.403	77.5
429.625	95.5
429.847	99.5
430.069	91.5
430.292	94.5
430.514	84.5
430.736	103.5
430.958	91.5
431.18	87.5
431.402	95.5
431.624	87.5
431.846	81.5
432.068	84.5
432.29	76.5
432.512	90.5
432.734	99.5
432.956	93.5
433.178	84.5
433.4	81.5
433.622	105.5
433.844	88.5
434.066	88.5
434.287	94.5
434.509	90.5
434.731	92.5
434.953	86.5
435.175	92.5
435.397	102.5
435.618	86.5
435.84	87.5
436.062	82.5
436.284	91.5
436.505	96.5
436.727	85.5
436.949	105.5
437.17	69.5
437.392	75.5
437.614	98.5
437.835	92.5
438.057	78.5
438.278	92.5
438.5	91.5
438.721	87.5
438.943	91.5
439.165	94.5
439.386	98.5
439.608	103.5
439.829	91.5
440.05	90.5
440.272	96.5
440.493	78.5
440.715	91.5
440.936	95.5
441.158	88.5
441.379	84.5
441.6	79.5
441.822	100.5
442.043	81.5
442.264	103.5
442.486	95.5
442.707	91.5
442.928	86.5
443.149	87.5
443.371	92.5
443.592	92.5
443.813	88.5
444.034	90.5
444.255	88.5
444.476	82.5
444.698	82.5
444.919	84.5
445.14	226.5
445.361	158.5
445.582	100.5
445.803	108.5
446.024	91.5
446.245	103.5
446.466	90.5
446.687	93.5
446.908	86.5
447.129	97.5
447.35	99.5
447.571	103.5
447.792	92.5
448.013	96.5
448.234	92.5
448.455	93.5
448.675	83.5
448.896	74.5
449.117	80.5
449.338	86.5
449.559	89.5
449.779	100.5
450	77.5
450.221	91.5
450.442	109.5
450.662	78.5
450.883	87.5
451.104	96.5
451.324	107.5
451.545	91.5
451.766	84.5
451.986	78.5
452.207	72.5
452.428	85.5
452.648	91.5
452.869	87.5
453.089	76.5
453.31	89.5
453.53	82.5
453.751	81.5
453.971	90.5
454.192	95.5
454.412	75.5
454.633	86.5
454.853	83.5
455.073	75.5
455.294	96.5
455.514	94.5
455.734	83.5
455.955	88.5
456.175	88.5
456.395	86.5
456.616	100.5
456.836	86.5
457.056	93.5
457.276	96.5
457.497	93.5
457.717	89.5
457.937	77.5
458.157	90.5
458.377	89.5
458.598	71.5
458.818	86.5
459.038	82.5
459.258	87.5
459.478	96.5
459.698	92.5
459.918	84.5
460.138	102.5
460.358	87.5
460.578	81.5
460.798	85.5
461.018	78.5
461.238	80.5
461.458	89.5
461.678	90.5
461.898	93.5
462.118	85.5
462.338	80.5
462.558	93.5
462.777	84.5
462.997	86.5
463.217	94.5
463.437	74.5
463.657	73.5
463.876	86.5
464.096	100.5
464.316	88.5
464.536	85.5
464.755	98.5
464.975	98.5
465.195	95.5
465.414	79.5
465.634	94.5
465.854	96.5
466.073	86.5
466.293	76.5
466.512	80.5
466.732	95.5
466.951	93.5
467.171	94.5
467.391	78.5
467.61	91.5
467.829	97.5
468.049	90.5
468.268	90.5
468.488	94.5
468.707	93.5
468.927	77.5
469.146	89.5
469.365	78.5
469.585	92.5
469.804	100.5
470.023	96.5
470.243	89.5
470.462	97.5
470.681	81.5
470.901	91.5
471.12	89.5
471.339	105.5
471.558	90.5
471.777	89.5
471.997	86.5
472.216	98.5
472.435	86.5
472.654	94.5
472.873	97.5
473.092	104.5
473.311	90.5
473.53	88.5
473.749	74.5
473.968	93.5
474.187	95.5
474.406	96.5
474.625	82.5
474.844	82.5
475.063	88.5
475.282	90.5
475.501	87.5
475.72	92.5
475.939	87.5
476.158	100.5
476.377	81.5
476.596	90.5
476.814	86.5
477.033	85.5
477.252	88.5
477.471	85.5
477.69	92.5
477.908	94.5
478.127	92.5
478.346	77.5
478.564	96.5
478.783	82.5
479.002	87.5
479.22	83.5
479.439	89.5
479.658	84.5
479.876	84.5
480.095	91.5
480.313	97.5
480.532	94.5
480.751	86.5
480.969	81.5
481.188	93.5
481.406	88.5
481.624	82.5
481.843	90.5
482.061	83.5
482.28	84.5
482.498	69.5
482.717	86.5
482.935	87.5
483.153	107.5
483.372	90.5
483.59	91.5
483.808	93.5
484.027	98.5
484.245	93.5
484.463	86.5
484.681	101.5
484.9	95.5
485.118	92.5
485.336	101.5
485.554	90.5
485.772	82.5
485.99	83.5
486.209	77.5
486.427	85.5
486.645	83.5
486.863	95.5
487.081	104.5
487.299	90.5
487.517	86.5
487.735	98.5
487.953	107.5
488.171	97.5
488.389	99.5
488.607	95.5
488.825	94.5
489.043	82.5
489.261	87.5
489.479	83.5
489.696	96.5
489.914	91.5
490.132	106.5
490.35	100.5
490.568	103.5
490.786	96.5
491.003	91.5
491.221	106.5
491.439	109.5
491.657	88.5
491.874	109.5
492.092	95.5
492.31	116.5
492.527	107.5
492.745	98.5
492.963	107.5
493.18	106.5
493.398	106.5
493.615	99.5
493.833	97.5
494.05	91.5
494.268	95.5
494.485	93.5
494.703	106.5
494.92	97.5
495.138	103.5
495.355	109.5
495.573	93.5
495.79	93.5
496.008	105.5
496.225	94.5
496.442	101.5
496.66	100.5
496.877	97.5
497.094	94.5
497.312	92.5
497.529	106.5
497.746	87.5
497.963	103.5
498.181	98.5
498.398	76.5
498.615	74.5
498.832	102.5
499.049	80.5
499.267	104.5
499.484	93.5
499.701	94.5
499.918	91.5
500.135	90.5
500.352	97.5
500.569	95.5
500.786	94.5
501.003	108.5
501.22	85.5
501.437	89.5
501.654	89.5
501.871	91.5
502.088	97.5
502.305	83.5
502.522	95.5
502.739	91.5
502.956	95.5
503.172	104.5
503.389	94.5
503.606	95.5
503.823	99.5
504.04	75.5
504.256	93.5
504.473	91.5
504.69	86.5
504.907	90.5
505.123	84.5
505.34	93.5
505.557	87.5
505.773	88.5
505.99	93.5
506.207	70.5
506.423	86.5
506.64	92.5
506.856	76.5
507.073	71.5
507.289	94.5
507.506	86.5
507.722	92.5
507.939	93.5
508.155	92.5
508.372	92.5
508.588	86.5
508.805	84.5
509.021	84.5
509.238	74.5
509.454	90.5
509.67	86.5
509.887	82.5
510.103	75.5
510.319	66.5
510.536	90.5
510.752	80.5
510.968	80.5
511.184	87.5
511.401	80.5
511.617	78.5
511.833	94.5
512.049	85.5
512.265	85.5
512.481	82.5
512.698	69.5
512.914	85.5
513.13	90.5
513.346	85.5
513.562	83.5
513.778	85.5
513.994	86.5
514.21	79.5
514.426	83.5
514.642	82.5
514.858	93.5
515.074	92.5
515.29	84.5
515.506	86.5
515.721	91.5
515.937	85.5
516.153	94.5
516.369	83.5
516.585	91.5
516.801	80.5
517.016	101.5
517.232	81.5
517.448	100.5
517.664	96.5
517.879	73.5
518.095	97.5
518.311	86.5
518.527	80.5
518.742	103.5
518.958	66.5
519.173	92.5
519.389	87.5
519.605	84.5
519.82	94.5
520.036	116.5
520.251	86.5
520.467	78.5
520.682	105.5
520.898	71.5
521.113	71.5
521.329	66.5
521.544	80.5
521.76	85.5
521.975	77.5
522.19	94.5
522.406	85.5
522.621	90.5
522.836	76.5
523.052	88.5
523.267	98.5
523.482	86.5
523.698	90.5
523.913	119.5
524.128	75.5
524.343	71.5
524.559	77.5
524.774	82.5
524.989	83.5
525.204	95.5
525.419	111.5
525.634	96.5
525.849	91.5
526.064	86.5
526.28	79.5
526.495	88.5
526.71	81.5
526.925	89.5
527.14	96.5
527.355	83.5
527.57	70.5
527.785	84.5
527.999	87.5
528.214	84.5
528.429	87.5
528.644	80.5
528.859	100.5
529.074	93.5
529.289	89.5
529.503	85.5
529.718	91.5
529.933	88.5
530.148	89.5
530.363	91.5
530.577	88.5
530.792	88.5
531.007	84.5
531.221	75.5
531.436	71.5
531.651	87.5
531.865	81.5
532.08	62.5
532.295	96.5
532.509	74.5
532.724	71.5
532.938	84.5
533.153	92.5
533.367	90.5
533.582	99.5
533.796	88.5
534.011	92.5
534.225	73.5
534.44	84.5
534.654	75.5
534.868	96.5
535.083	90.5
535.297	72.5
535.511	85.5
535.726	89.5
535.94	72.5
536.154	93.5
536.369	91.5
536.583	92.5
536.797	104.5
537.011	87.5
537.225	91.5
537.44	78.5
537.654	75.5
537.868	71.5
538.082	93.5
538.296	93.5
538.51	91.5
