Data from Zn(NO3)2Standard.Agarose3%.GreenCap.LampEnergy5.5.E.O_HRD10591_15-01-15-767.txt Node
Date: Mon Jul 22 15:01:15 EDT 2019
User: cochatt
Spectrometer: HR+D1059
Trigger mode: 1
Integration Time (sec): 1.000000E-1
Scans to average: 1
Electric dark correction enabled: true
Nonlinearity correction enabled: false
Boxcar width: 0
XAxis mode: Wavelengths
Number of Pixels in Spectrum: 2048
>>>>>Begin Spectral Data<<<<<
223.165	-16.81
223.4	-16.81
223.635	-16.81
223.869	-17.81
224.104	-22.81
224.338	-15.81
224.573	-23.81
224.808	0.19
225.042	4.19
225.277	-0.81
225.511	1.19
225.746	2.19
225.98	2.19
226.215	8.19
226.449	10.19
226.683	16.19
226.918	25.19
227.152	28.19
227.387	27.19
227.621	27.19
227.856	34.19
228.09	32.19
228.324	42.19
228.559	54.19
228.793	51.19
229.027	64.19
229.262	79.19
229.496	73.19
229.73	83.19
229.964	71.19
230.199	76.19
230.433	84.19
230.667	59.19
230.901	72.19
231.136	66.19
231.37	76.19
231.604	76.19
231.838	69.19
232.072	85.19
232.306	71.19
232.541	84.19
232.775	82.19
233.009	73.19
233.243	75.19
233.477	74.19
233.711	88.19
233.945	83.19
234.179	89.19
234.413	82.19
234.647	75.19
234.881	100.19
235.115	84.19
235.349	79.19
235.583	70.19
235.817	76.19
236.051	73.19
236.285	72.19
236.519	77.19
236.753	64.19
236.987	78.19
237.221	76.19
237.455	75.19
237.689	75.19
237.922	89.19
238.156	66.19
238.39	75.19
238.624	54.19
238.858	66.19
239.091	72.19
239.325	81.19
239.559	70.19
239.793	69.19
240.027	83.19
240.26	74.19
240.494	77.19
240.728	76.19
240.961	81.19
241.195	80.19
241.429	76.19
241.662	80.19
241.896	74.19
242.13	75.19
242.363	84.19
242.597	63.19
242.83	75.19
243.064	83.19
243.298	69.19
243.531	74.19
243.765	79.19
243.998	71.19
244.232	84.19
244.465	67.19
244.699	70.19
244.932	79.19
245.166	62.19
245.399	63.19
245.633	73.19
245.866	89.19
246.099	80.19
246.333	76.19
246.566	86.19
246.8	83.19
247.033	63.19
247.266	70.19
247.5	67.19
247.733	75.19
247.966	70.19
248.2	63.19
248.433	79.19
248.666	69.19
248.899	76.19
249.133	67.19
249.366	81.19
249.599	74.19
249.832	68.19
250.066	79.19
250.299	67.19
250.532	85.19
250.765	70.19
250.998	66.19
251.231	80.19
251.465	82.19
251.698	80.19
251.931	73.19
252.164	77.19
252.397	67.19
252.63	75.19
252.863	71.19
253.096	72.19
253.329	71.19
253.562	69.19
253.795	76.19
254.028	97.19
254.261	77.19
254.494	75.19
254.727	77.19
254.96	72.19
255.193	76.19
255.426	77.19
255.659	72.19
255.892	76.19
256.124	84.19
256.357	67.19
256.59	80.19
256.823	77.19
257.056	81.19
257.289	76.19
257.521	75.19
257.754	67.19
257.987	68.19
258.22	88.19
258.452	87.19
258.685	74.19
258.918	64.19
259.151	86.19
259.383	77.19
259.616	73.19
259.849	83.19
260.081	72.19
260.314	82.19
260.547	58.19
260.779	79.19
261.012	70.19
261.244	63.19
261.477	92.19
261.71	69.19
261.942	83.19
262.175	75.19
262.407	72.19
262.64	79.19
262.872	74.19
263.105	73.19
263.337	77.19
263.57	84.19
263.802	72.19
264.035	71.19
264.267	74.19
264.499	72.19
264.732	89.19
264.964	79.19
265.197	66.19
265.429	77.19
265.661	76.19
265.894	75.19
266.126	82.19
266.358	85.19
266.591	60.19
266.823	74.19
267.055	82.19
267.287	76.19
267.52	71.19
267.752	73.19
267.984	77.19
268.216	87.19
268.448	87.19
268.681	75.19
268.913	90.19
269.145	89.19
269.377	88.19
269.609	64.19
269.841	93.19
270.073	72.19
270.306	82.19
270.538	79.19
270.77	90.19
271.002	74.19
271.234	85.19
271.466	87.19
271.698	83.19
271.93	78.19
272.162	83.19
272.394	88.19
272.626	80.19
272.858	74.19
273.09	82.19
273.322	82.19
273.553	76.19
273.785	88.19
274.017	57.19
274.249	81.19
274.481	70.19
274.713	86.19
274.945	80.19
275.176	84.19
275.408	92.19
275.64	86.19
275.872	93.19
276.104	88.19
276.335	64.19
276.567	83.19
276.799	84.19
277.031	86.19
277.262	74.19
277.494	80.19
277.726	71.19
277.957	62.19
278.189	73.19
278.421	77.19
278.652	84.19
278.884	65.19
279.115	95.19
279.347	82.19
279.579	77.19
279.81	86.19
280.042	90.19
280.273	78.19
280.505	92.19
280.736	72.19
280.968	71.19
281.199	79.19
281.431	85.19
281.662	80.19
281.894	85.19
282.125	68.19
282.356	62.19
282.588	83.19
282.819	72.19
283.051	84.19
283.282	103.19
283.513	76.19
283.745	88.19
283.976	65.19
284.207	84.19
284.439	79.19
284.67	81.19
284.901	79.19
285.132	71.19
285.364	79.19
285.595	80.19
285.826	89.19
286.057	77.19
286.288	72.19
286.52	81.19
286.751	89.19
286.982	80.19
287.213	75.19
287.444	85.19
287.675	86.19
287.906	81.19
288.138	85.19
288.369	81.19
288.6	94.19
288.831	79.19
289.062	84.19
289.293	80.19
289.524	80.19
289.755	105.19
289.986	80.19
290.217	68.19
290.448	86.19
290.679	84.19
290.91	87.19
291.141	76.19
291.371	90.19
291.602	90.19
291.833	96.19
292.064	97.19
292.295	79.19
292.526	81.19
292.757	82.19
292.987	75.19
293.218	73.19
293.449	75.19
293.68	72.19
293.91	84.19
294.141	74.19
294.372	81.19
294.603	71.19
294.833	68.19
295.064	82.19
295.295	72.19
295.525	73.19
295.756	80.19
295.987	86.19
296.217	93.19
296.448	88.19
296.679	74.19
296.909	80.19
297.14	91.19
297.37	86.19
297.601	82.19
297.831	80.19
298.062	88.19
298.292	75.19
298.523	82.19
298.753	87.19
298.984	88.19
299.214	80.19
299.445	79.19
299.675	65.19
299.905	88.19
300.136	83.19
300.366	74.19
300.597	83.19
300.827	75.19
301.057	80.19
301.288	66.19
301.518	82.19
301.748	80.19
301.979	84.19
302.209	83.19
302.439	88.19
302.669	92.19
302.9	85.19
303.13	81.19
303.36	71.19
303.59	86.19
303.82	87.19
304.051	95.19
304.281	77.19
304.511	75.19
304.741	90.19
304.971	76.19
305.201	87.19
305.431	80.19
305.661	67.19
305.891	87.19
306.121	91.19
306.352	67.19
306.582	78.19
306.812	95.19
307.042	84.19
307.272	79.19
307.502	99.19
307.731	86.19
307.961	93.19
308.191	98.19
308.421	71.19
308.651	76.19
308.881	84.19
309.111	98.19
309.341	88.19
309.571	72.19
309.8	87.19
310.03	81.19
310.26	76.19
310.49	92.19
310.72	87.19
310.949	90.19
311.179	89.19
311.409	74.19
311.639	84.19
311.868	97.19
312.098	71.19
312.328	87.19
312.557	75.19
312.787	65.19
313.017	88.19
313.246	94.19
313.476	96.19
313.706	97.19
313.935	80.19
314.165	81.19
314.394	81.19
314.624	87.19
314.853	71.19
315.083	87.19
315.312	83.19
315.542	86.19
315.771	84.19
316.001	84.19
316.23	83.19
316.46	76.19
316.689	89.19
316.919	78.19
317.148	73.19
317.377	71.19
317.607	76.19
317.836	73.19
318.065	82.19
318.295	86.19
318.524	71.19
318.753	77.19
318.983	80.19
319.212	83.19
319.441	84.19
319.67	88.19
319.9	73.19
320.129	85.19
320.358	86.19
320.587	75.19
320.816	86.19
321.046	73.19
321.275	89.19
321.504	81.19
321.733	95.19
321.962	98.19
322.191	83.19
322.42	86.19
322.649	88.19
322.878	88.19
323.108	72.19
323.337	85.19
323.566	68.19
323.795	76.19
324.024	86.19
324.253	82.19
324.482	55.19
324.71	96.19
324.939	82.19
325.168	80.19
325.397	82.19
325.626	90.19
325.855	90.19
326.084	67.19
326.313	73.19
326.542	85.19
326.77	79.19
326.999	100.19
327.228	76.19
327.457	81.19
327.686	92.19
327.914	78.19
328.143	87.19
328.372	92.19
328.6	82.19
328.829	86.19
329.058	85.19
329.287	88.19
329.515	75.19
329.744	90.19
329.972	80.19
330.201	80.19
330.43	80.19
330.658	82.19
330.887	92.19
331.115	85.19
331.344	83.19
331.572	91.19
331.801	87.19
332.03	80.19
332.258	84.19
332.486	87.19
332.715	72.19
332.943	89.19
333.172	87.19
333.4	78.19
333.629	91.19
333.857	85.19
334.085	91.19
334.314	94.19
334.542	82.19
334.771	90.19
334.999	82.19
335.227	93.19
335.455	72.19
335.684	67.19
335.912	77.19
336.14	90.19
336.369	78.19
336.597	92.19
336.825	84.19
337.053	70.19
337.281	91.19
337.51	72.19
337.738	94.19
337.966	74.19
338.194	74.19
338.422	81.19
338.65	87.19
338.878	72.19
339.106	72.19
339.334	86.19
339.562	76.19
339.79	90.19
340.018	84.19
340.246	77.19
340.474	79.19
340.702	84.19
340.93	80.19
341.158	85.19
341.386	92.19
341.614	82.19
341.842	75.19
342.07	92.19
342.298	86.19
342.526	93.19
342.754	87.19
342.981	88.19
343.209	72.19
343.437	92.19
343.665	69.19
343.893	70.19
344.12	77.19
344.348	75.19
344.576	71.19
344.804	81.19
345.031	96.19
345.259	91.19
345.487	81.19
345.714	88.19
345.942	85.19
346.17	71.19
346.397	85.19
346.625	61.19
346.853	87.19
347.08	70.19
347.308	77.19
347.535	80.19
347.763	91.19
347.99	88.19
348.218	79.19
348.445	76.19
348.673	76.19
348.9	94.19
349.128	95.19
349.355	88.19
349.583	74.19
349.81	88.19
350.037	86.19
350.265	83.19
350.492	70.19
350.72	97.19
350.947	86.19
351.174	72.19
351.402	70.19
351.629	81.19
351.856	70.19
352.083	82.19
352.311	74.19
352.538	88.19
352.765	88.19
352.992	84.19
353.22	73.19
353.447	71.19
353.674	95.19
353.901	80.19
354.128	87.19
354.355	82.19
354.583	102.19
354.81	87.19
355.037	77.19
355.264	80.19
355.491	78.19
355.718	84.19
355.945	80.19
356.172	83.19
356.399	64.19
356.626	86.19
356.853	86.19
357.08	90.19
357.307	97.19
357.534	69.19
357.761	75.19
357.988	72.19
358.215	74.19
358.441	82.19
358.668	73.19
358.895	80.19
359.122	84.19
359.349	73.19
359.576	96.19
359.802	93.19
360.029	88.19
360.256	94.19
360.483	85.19
360.709	87.19
360.936	72.19
361.163	68.19
361.39	84.19
361.616	78.19
361.843	68.19
362.07	84.19
362.296	82.19
362.523	78.19
362.749	83.19
362.976	76.19
363.203	82.19
363.429	84.19
363.656	80.19
363.882	74.19
364.109	76.19
364.335	88.19
364.562	78.19
364.788	85.19
365.015	75.19
365.241	91.19
365.468	98.19
365.694	79.19
365.92	74.19
366.147	74.19
366.373	91.19
366.599	79.19
366.826	80.19
367.052	86.19
367.278	63.19
367.505	75.19
367.731	87.19
367.957	78.19
368.184	86.19
368.41	88.19
368.636	73.19
368.862	92.19
369.089	74.19
369.315	84.19
369.541	92.19
369.767	76.19
369.993	90.19
370.219	72.19
370.445	73.19
370.672	71.19
370.898	82.19
371.124	75.19
371.35	86.19
371.576	86.19
371.802	74.19
372.028	80.19
372.254	83.19
372.48	87.19
372.706	83.19
372.932	75.19
373.158	90.19
373.384	73.19
373.61	80.19
373.835	80.19
374.061	69.19
374.287	86.19
374.513	86.19
374.739	80.19
374.965	91.19
375.191	77.19
375.416	87.19
375.642	91.19
375.868	74.19
376.094	81.19
376.319	81.19
376.545	84.19
376.771	85.19
376.997	83.19
377.222	64.19
377.448	70.19
377.674	82.19
377.899	84.19
378.125	91.19
378.35	91.19
378.576	80.19
378.802	83.19
379.027	82.19
379.253	93.19
379.478	80.19
379.704	90.19
379.929	74.19
380.155	68.19
380.38	69.19
380.606	86.19
380.831	84.19
381.057	90.19
381.282	84.19
381.507	73.19
381.733	86.19
381.958	87.19
382.184	84.19
382.409	95.19
382.634	97.19
382.86	72.19
383.085	86.19
383.31	78.19
383.535	83.19
383.761	81.19
383.986	83.19
384.211	69.19
384.436	94.19
384.662	92.19
384.887	83.19
385.112	80.19
385.337	82.19
385.562	80.19
385.787	82.19
386.013	90.19
386.238	81.19
386.463	80.19
386.688	81.19
386.913	79.19
387.138	81.19
387.363	73.19
387.588	80.19
387.813	84.19
388.038	88.19
388.263	83.19
388.488	87.19
388.713	90.19
388.938	81.19
389.163	83.19
389.387	86.19
389.612	83.19
389.837	70.19
390.062	70.19
390.287	98.19
390.512	97.19
390.736	92.19
390.961	64.19
391.186	87.19
391.411	101.19
391.636	84.19
391.86	71.19
392.085	80.19
392.31	114.19
392.534	95.19
392.759	78.19
392.984	99.19
393.208	91.19
393.433	80.19
393.658	95.19
393.882	80.19
394.107	77.19
394.331	80.19
394.556	76.19
394.78	76.19
395.005	75.19
395.229	69.19
395.454	80.19
395.678	77.19
395.903	76.19
396.127	80.19
396.352	82.19
396.576	68.19
396.801	81.19
397.025	85.19
397.249	77.19
397.474	99.19
397.698	85.19
397.922	74.19
398.147	84.19
398.371	87.19
398.595	79.19
398.82	80.19
399.044	78.19
399.268	71.19
399.492	87.19
399.717	75.19
399.941	94.19
400.165	89.19
400.389	85.19
400.613	71.19
400.837	75.19
401.062	80.19
401.286	96.19
401.51	88.19
401.734	84.19
401.958	73.19
402.182	82.19
402.406	96.19
402.63	89.19
402.854	68.19
403.078	70.19
403.302	62.19
403.526	75.19
403.75	76.19
403.974	88.19
404.198	83.19
404.422	86.19
404.645	76.19
404.869	76.19
405.093	78.19
405.317	72.19
405.541	87.19
405.765	79.19
405.988	73.19
406.212	87.19
406.436	82.19
406.66	94.19
406.883	100.19
407.107	83.19
407.331	73.19
407.555	75.19
407.778	77.19
408.002	84.19
408.226	100.19
408.449	68.19
408.673	89.19
408.896	86.19
409.12	88.19
409.344	82.19
409.567	87.19
409.791	83.19
410.014	84.19
410.238	82.19
410.461	88.19
410.685	95.19
410.908	88.19
411.132	89.19
411.355	80.19
411.578	87.19
411.802	84.19
412.025	82.19
412.249	87.19
412.472	75.19
412.695	79.19
412.919	87.19
413.142	89.19
413.365	80.19
413.589	88.19
413.812	87.19
414.035	92.19
414.258	86.19
414.482	83.19
414.705	80.19
414.928	90.19
415.151	83.19
415.374	70.19
415.597	93.19
415.821	83.19
416.044	85.19
416.267	90.19
416.49	88.19
416.713	103.19
416.936	75.19
417.159	88.19
417.382	76.19
417.605	81.19
417.828	91.19
418.051	86.19
418.274	96.19
418.497	84.19
418.72	84.19
418.943	81.19
419.166	88.19
419.389	78.19
419.611	81.19
419.834	72.19
420.057	81.19
420.28	108.19
420.503	75.19
420.726	81.19
420.948	87.19
421.171	73.19
421.394	76.19
421.617	79.19
421.839	105.19
422.062	90.19
422.285	89.19
422.507	86.19
422.73	88.19
422.953	87.19
423.175	80.19
423.398	76.19
423.621	85.19
423.843	81.19
424.066	84.19
424.288	90.19
424.511	83.19
424.733	88.19
424.956	81.19
425.178	85.19
425.401	88.19
425.623	81.19
425.846	80.19
426.068	82.19
426.291	75.19
426.513	94.19
426.735	98.19
426.958	77.19
427.18	87.19
427.402	89.19
427.625	77.19
427.847	79.19
428.069	69.19
428.292	81.19
428.514	87.19
428.736	66.19
428.958	78.19
429.181	96.19
429.403	96.19
429.625	76.19
429.847	84.19
430.069	95.19
430.292	74.19
430.514	86.19
430.736	85.19
430.958	77.19
431.18	76.19
431.402	80.19
431.624	84.19
431.846	82.19
432.068	82.19
432.29	77.19
432.512	92.19
432.734	82.19
432.956	81.19
433.178	78.19
433.4	102.19
433.622	102.19
433.844	92.19
434.066	93.19
434.287	78.19
434.509	82.19
434.731	87.19
434.953	80.19
435.175	96.19
435.397	91.19
435.618	86.19
435.84	80.19
436.062	79.19
436.284	87.19
436.505	94.19
436.727	72.19
436.949	84.19
437.17	83.19
437.392	83.19
437.614	78.19
437.835	97.19
438.057	86.19
438.278	77.19
438.5	81.19
438.721	82.19
438.943	84.19
439.165	93.19
439.386	103.19
439.608	81.19
439.829	93.19
440.05	97.19
440.272	83.19
440.493	96.19
440.715	99.19
440.936	76.19
441.158	92.19
441.379	77.19
441.6	90.19
441.822	88.19
442.043	94.19
442.264	80.19
442.486	79.19
442.707	84.19
442.928	80.19
443.149	81.19
443.371	87.19
443.592	97.19
443.813	88.19
444.034	90.19
444.255	75.19
444.476	103.19
444.698	87.19
444.919	84.19
445.14	178.19
445.361	134.19
445.582	93.19
445.803	88.19
446.024	83.19
446.245	115.19
446.466	91.19
446.687	89.19
446.908	96.19
447.129	92.19
447.35	101.19
447.571	98.19
447.792	91.19
448.013	96.19
448.234	91.19
448.455	77.19
448.675	97.19
448.896	90.19
449.117	94.19
449.338	84.19
449.559	93.19
449.779	106.19
450	75.19
450.221	73.19
450.442	92.19
450.662	92.19
450.883	92.19
451.104	86.19
451.324	89.19
451.545	87.19
451.766	87.19
451.986	74.19
452.207	80.19
452.428	97.19
452.648	88.19
452.869	70.19
453.089	77.19
453.31	96.19
453.53	79.19
453.751	80.19
453.971	92.19
454.192	76.19
454.412	83.19
454.633	86.19
454.853	91.19
455.073	71.19
455.294	80.19
455.514	93.19
455.734	86.19
455.955	87.19
456.175	85.19
456.395	70.19
456.616	90.19
456.836	87.19
457.056	82.19
457.276	83.19
457.497	72.19
457.717	71.19
457.937	82.19
458.157	89.19
458.377	82.19
458.598	77.19
458.818	69.19
459.038	81.19
459.258	85.19
459.478	81.19
459.698	80.19
459.918	80.19
460.138	88.19
460.358	87.19
460.578	101.19
460.798	71.19
461.018	79.19
461.238	76.19
461.458	84.19
461.678	84.19
461.898	79.19
462.118	87.19
462.338	86.19
462.558	88.19
462.777	76.19
462.997	78.19
463.217	80.19
463.437	88.19
463.657	69.19
463.876	80.19
464.096	92.19
464.316	80.19
464.536	73.19
464.755	89.19
464.975	79.19
465.195	107.19
465.414	88.19
465.634	91.19
465.854	92.19
466.073	89.19
466.293	71.19
466.512	79.19
466.732	84.19
466.951	77.19
467.171	88.19
467.391	92.19
467.61	88.19
467.829	83.19
468.049	79.19
468.268	88.19
468.488	95.19
468.707	90.19
468.927	82.19
469.146	84.19
469.365	82.19
469.585	97.19
469.804	88.19
470.023	91.19
470.243	76.19
470.462	85.19
470.681	83.19
470.901	91.19
471.12	87.19
471.339	88.19
471.558	87.19
471.777	88.19
471.997	92.19
472.216	99.19
472.435	82.19
472.654	83.19
472.873	79.19
473.092	81.19
473.311	87.19
473.53	96.19
473.749	81.19
473.968	86.19
474.187	73.19
474.406	91.19
474.625	86.19
474.844	80.19
475.063	93.19
475.282	91.19
475.501	75.19
475.72	96.19
475.939	95.19
476.158	97.19
476.377	80.19
476.596	89.19
476.814	68.19
477.033	82.19
477.252	90.19
477.471	86.19
477.69	93.19
477.908	89.19
478.127	99.19
478.346	86.19
478.564	95.19
478.783	76.19
479.002	91.19
479.22	87.19
479.439	94.19
479.658	83.19
479.876	81.19
480.095	66.19
480.313	90.19
480.532	89.19
480.751	87.19
480.969	84.19
481.188	77.19
481.406	90.19
481.624	86.19
481.843	93.19
482.061	86.19
482.28	79.19
482.498	84.19
482.717	73.19
482.935	81.19
483.153	94.19
483.372	94.19
483.59	93.19
483.808	91.19
484.027	78.19
484.245	80.19
484.463	87.19
484.681	96.19
484.9	92.19
485.118	105.19
485.336	85.19
485.554	77.19
485.772	90.19
485.99	73.19
486.209	76.19
486.427	87.19
486.645	92.19
486.863	96.19
487.081	104.19
487.299	79.19
487.517	81.19
487.735	83.19
487.953	101.19
488.171	87.19
488.389	80.19
488.607	81.19
488.825	106.19
489.043	94.19
489.261	80.19
489.479	79.19
489.696	91.19
489.914	106.19
490.132	92.19
490.35	102.19
490.568	89.19
490.786	94.19
491.003	99.19
491.221	88.19
491.439	104.19
491.657	96.19
491.874	113.19
492.092	116.19
492.31	104.19
492.527	96.19
492.745	100.19
492.963	92.19
493.18	103.19
493.398	97.19
493.615	95.19
493.833	94.19
494.05	101.19
494.268	94.19
494.485	102.19
494.703	93.19
494.92	90.19
495.138	96.19
495.355	81.19
495.573	103.19
495.79	91.19
496.008	98.19
496.225	94.19
496.442	96.19
496.66	100.19
496.877	102.19
497.094	108.19
497.312	86.19
497.529	113.19
497.746	89.19
497.963	79.19
498.181	81.19
498.398	77.19
498.615	89.19
498.832	99.19
499.049	82.19
499.267	95.19
499.484	91.19
499.701	94.19
499.918	99.19
500.135	101.19
500.352	104.19
500.569	86.19
500.786	94.19
501.003	88.19
501.22	91.19
501.437	82.19
501.654	96.19
501.871	95.19
502.088	82.19
502.305	89.19
502.522	97.19
502.739	78.19
502.956	91.19
503.172	86.19
503.389	82.19
503.606	80.19
503.823	80.19
504.04	91.19
504.256	102.19
504.473	80.19
504.69	87.19
504.907	83.19
505.123	79.19
505.34	81.19
505.557	102.19
505.773	100.19
505.99	83.19
506.207	92.19
506.423	95.19
506.64	79.19
506.856	75.19
507.073	78.19
507.289	90.19
507.506	93.19
507.722	82.19
507.939	75.19
508.155	87.19
508.372	82.19
508.588	88.19
508.805	87.19
509.021	91.19
509.238	95.19
509.454	81.19
509.67	80.19
509.887	78.19
510.103	81.19
510.319	91.19
510.536	86.19
510.752	70.19
510.968	92.19
511.184	85.19
511.401	68.19
511.617	74.19
511.833	84.19
512.049	81.19
512.265	84.19
512.481	90.19
512.698	89.19
512.914	70.19
513.13	87.19
513.346	80.19
513.562	74.19
513.778	95.19
513.994	85.19
514.21	82.19
514.426	96.19
514.642	89.19
514.858	77.19
515.074	82.19
515.29	87.19
515.506	78.19
515.721	79.19
515.937	80.19
516.153	77.19
516.369	82.19
516.585	77.19
516.801	77.19
517.016	87.19
517.232	99.19
517.448	91.19
517.664	85.19
517.879	87.19
518.095	87.19
518.311	75.19
518.527	90.19
518.742	97.19
518.958	89.19
