Data from Zn(NO3)2Standard.Agarose3%.GreenCap.LampEnergy10E.O_HRD10591_15-06-05-942.txt Node
Date: Mon Jul 22 15:06:05 EDT 2019
User: cochatt
Spectrometer: HR+D1059
Trigger mode: 1
Integration Time (sec): 1.000000E-1
Scans to average: 1
Electric dark correction enabled: true
Nonlinearity correction enabled: false
Boxcar width: 0
XAxis mode: Wavelengths
Number of Pixels in Spectrum: 2048
>>>>>Begin Spectral Data<<<<<
223.165	-23.88
223.4	-23.88
223.635	-23.88
223.869	-13.88
224.104	-19.88
224.338	1.12
224.573	-17.88
224.808	-0.88
225.042	-12.88
225.277	-6.88
225.511	-5.88
225.746	9.12
225.98	7.12
226.215	2.12
226.449	15.12
226.683	18.12
226.918	26.12
227.152	23.12
227.387	33.12
227.621	42.12
227.856	50.12
228.09	64.12
228.324	68.12
228.559	55.12
228.793	56.12
229.027	85.12
229.262	69.12
229.496	66.12
229.73	67.12
229.964	72.12
230.199	84.12
230.433	78.12
230.667	89.12
230.901	76.12
231.136	96.12
231.37	82.12
231.604	74.12
231.838	79.12
232.072	91.12
232.306	81.12
232.541	86.12
232.775	102.12
233.009	86.12
233.243	95.12
233.477	101.12
233.711	82.12
233.945	83.12
234.179	85.12
234.413	100.12
234.647	85.12
234.881	91.12
235.115	74.12
235.349	93.12
235.583	89.12
235.817	77.12
236.051	74.12
236.285	77.12
236.519	79.12
236.753	71.12
236.987	82.12
237.221	86.12
237.455	79.12
237.689	82.12
237.922	75.12
238.156	88.12
238.39	66.12
238.624	94.12
238.858	71.12
239.091	80.12
239.325	77.12
239.559	76.12
239.793	88.12
240.027	82.12
240.26	90.12
240.494	94.12
240.728	83.12
240.961	78.12
241.195	86.12
241.429	87.12
241.662	74.12
241.896	65.12
242.13	83.12
242.363	74.12
242.597	80.12
242.83	83.12
243.064	70.12
243.298	81.12
243.531	82.12
243.765	74.12
243.998	82.12
244.232	80.12
244.465	79.12
244.699	90.12
244.932	87.12
245.166	83.12
245.399	87.12
245.633	77.12
245.866	83.12
246.099	81.12
246.333	80.12
246.566	79.12
246.8	79.12
247.033	87.12
247.266	85.12
247.5	80.12
247.733	89.12
247.966	73.12
248.2	83.12
248.433	80.12
248.666	67.12
248.899	74.12
249.133	84.12
249.366	81.12
249.599	89.12
249.832	80.12
250.066	82.12
250.299	97.12
250.532	95.12
250.765	88.12
250.998	82.12
251.231	81.12
251.465	81.12
251.698	83.12
251.931	83.12
252.164	74.12
252.397	80.12
252.63	75.12
252.863	81.12
253.096	82.12
253.329	79.12
253.562	87.12
253.795	87.12
254.028	84.12
254.261	88.12
254.494	86.12
254.727	94.12
254.96	80.12
255.193	81.12
255.426	83.12
255.659	87.12
255.892	82.12
256.124	90.12
256.357	79.12
256.59	66.12
256.823	76.12
257.056	81.12
257.289	85.12
257.521	80.12
257.754	80.12
257.987	78.12
258.22	73.12
258.452	73.12
258.685	80.12
258.918	81.12
259.151	72.12
259.383	66.12
259.616	89.12
259.849	94.12
260.081	87.12
260.314	70.12
260.547	82.12
260.779	85.12
261.012	81.12
261.244	86.12
261.477	91.12
261.71	92.12
261.942	75.12
262.175	82.12
262.407	82.12
262.64	80.12
262.872	83.12
263.105	94.12
263.337	89.12
263.57	86.12
263.802	93.12
264.035	90.12
264.267	79.12
264.499	90.12
264.732	73.12
264.964	88.12
265.197	83.12
265.429	83.12
265.661	84.12
265.894	78.12
266.126	83.12
266.358	75.12
266.591	89.12
266.823	87.12
267.055	89.12
267.287	94.12
267.52	81.12
267.752	90.12
267.984	82.12
268.216	99.12
268.448	90.12
268.681	83.12
268.913	80.12
269.145	74.12
269.377	93.12
269.609	80.12
269.841	79.12
270.073	77.12
270.306	95.12
270.538	94.12
270.77	88.12
271.002	89.12
271.234	110.12
271.466	90.12
271.698	91.12
271.93	93.12
272.162	81.12
272.394	85.12
272.626	84.12
272.858	75.12
273.09	70.12
273.322	84.12
273.553	94.12
273.785	88.12
274.017	81.12
274.249	86.12
274.481	91.12
274.713	103.12
274.945	88.12
275.176	87.12
275.408	97.12
275.64	90.12
275.872	88.12
276.104	93.12
276.335	84.12
276.567	98.12
276.799	89.12
277.031	76.12
277.262	89.12
277.494	84.12
277.726	80.12
277.957	85.12
278.189	72.12
278.421	85.12
278.652	78.12
278.884	85.12
279.115	94.12
279.347	93.12
279.579	90.12
279.81	74.12
280.042	82.12
280.273	74.12
280.505	97.12
280.736	93.12
280.968	97.12
281.199	87.12
281.431	84.12
281.662	104.12
281.894	77.12
282.125	77.12
282.356	95.12
282.588	98.12
282.819	83.12
283.051	84.12
283.282	83.12
283.513	91.12
283.745	96.12
283.976	82.12
284.207	86.12
284.439	81.12
284.67	104.12
284.901	83.12
285.132	85.12
285.364	95.12
285.595	88.12
285.826	90.12
286.057	96.12
286.288	86.12
286.52	87.12
286.751	93.12
286.982	88.12
287.213	80.12
287.444	87.12
287.675	81.12
287.906	96.12
288.138	81.12
288.369	85.12
288.6	92.12
288.831	105.12
289.062	100.12
289.293	83.12
289.524	94.12
289.755	78.12
289.986	93.12
290.217	83.12
290.448	99.12
290.679	87.12
290.91	91.12
291.141	83.12
291.371	88.12
291.602	95.12
291.833	82.12
292.064	87.12
292.295	83.12
292.526	85.12
292.757	80.12
292.987	75.12
293.218	82.12
293.449	92.12
293.68	88.12
293.91	97.12
294.141	97.12
294.372	80.12
294.603	93.12
294.833	76.12
295.064	84.12
295.295	90.12
295.525	87.12
295.756	92.12
295.987	93.12
296.217	94.12
296.448	87.12
296.679	98.12
296.909	91.12
297.14	91.12
297.37	94.12
297.601	71.12
297.831	81.12
298.062	79.12
298.292	77.12
298.523	92.12
298.753	98.12
298.984	103.12
299.214	85.12
299.445	91.12
299.675	86.12
299.905	88.12
300.136	82.12
300.366	81.12
300.597	85.12
300.827	87.12
301.057	77.12
301.288	92.12
301.518	92.12
301.748	79.12
301.979	94.12
302.209	96.12
302.439	93.12
302.669	83.12
302.9	95.12
303.13	104.12
303.36	110.12
303.59	80.12
303.82	95.12
304.051	90.12
304.281	90.12
304.511	90.12
304.741	85.12
304.971	85.12
305.201	90.12
305.431	92.12
305.661	94.12
305.891	86.12
306.121	104.12
306.352	83.12
306.582	81.12
306.812	93.12
307.042	90.12
307.272	97.12
307.502	87.12
307.731	80.12
307.961	71.12
308.191	92.12
308.421	89.12
308.651	92.12
308.881	83.12
309.111	85.12
309.341	89.12
309.571	91.12
309.8	85.12
310.03	84.12
310.26	97.12
310.49	95.12
310.72	82.12
310.949	94.12
311.179	91.12
311.409	86.12
311.639	72.12
311.868	103.12
312.098	79.12
312.328	81.12
312.557	98.12
312.787	101.12
313.017	97.12
313.246	88.12
313.476	81.12
313.706	95.12
313.935	80.12
314.165	82.12
314.394	78.12
314.624	103.12
314.853	79.12
315.083	76.12
315.312	89.12
315.542	83.12
315.771	96.12
316.001	94.12
316.23	65.12
316.46	79.12
316.689	79.12
316.919	89.12
317.148	101.12
317.377	87.12
317.607	99.12
317.836	86.12
318.065	93.12
318.295	89.12
318.524	92.12
318.753	86.12
318.983	79.12
319.212	101.12
319.441	94.12
319.67	86.12
319.9	92.12
320.129	90.12
320.358	81.12
320.587	94.12
320.816	89.12
321.046	93.12
321.275	101.12
321.504	95.12
321.733	104.12
321.962	82.12
322.191	76.12
322.42	86.12
322.649	79.12
322.878	78.12
323.108	85.12
323.337	90.12
323.566	87.12
323.795	92.12
324.024	78.12
324.253	87.12
324.482	95.12
324.71	88.12
324.939	80.12
325.168	82.12
325.397	84.12
325.626	95.12
325.855	97.12
326.084	93.12
326.313	95.12
326.542	92.12
326.77	86.12
326.999	94.12
327.228	72.12
327.457	81.12
327.686	94.12
327.914	79.12
328.143	106.12
328.372	83.12
328.6	90.12
328.829	96.12
329.058	95.12
329.287	85.12
329.515	94.12
329.744	88.12
329.972	93.12
330.201	80.12
330.43	101.12
330.658	79.12
330.887	90.12
331.115	92.12
331.344	85.12
331.572	93.12
331.801	95.12
332.03	87.12
332.258	86.12
332.486	91.12
332.715	97.12
332.943	85.12
333.172	81.12
333.4	88.12
333.629	90.12
333.857	95.12
334.085	94.12
334.314	94.12
334.542	83.12
334.771	72.12
334.999	83.12
335.227	92.12
335.455	77.12
335.684	91.12
335.912	88.12
336.14	75.12
336.369	68.12
336.597	77.12
336.825	77.12
337.053	91.12
337.281	94.12
337.51	89.12
337.738	74.12
337.966	82.12
338.194	80.12
338.422	90.12
338.65	87.12
338.878	90.12
339.106	83.12
339.334	87.12
339.562	83.12
339.79	98.12
340.018	92.12
340.246	85.12
340.474	98.12
340.702	92.12
340.93	87.12
341.158	101.12
341.386	80.12
341.614	93.12
341.842	83.12
342.07	85.12
342.298	77.12
342.526	82.12
342.754	85.12
342.981	84.12
343.209	94.12
343.437	92.12
343.665	88.12
343.893	87.12
344.12	98.12
344.348	84.12
344.576	89.12
344.804	85.12
345.031	92.12
345.259	79.12
345.487	90.12
345.714	86.12
345.942	80.12
346.17	85.12
346.397	78.12
346.625	93.12
346.853	79.12
347.08	78.12
347.308	85.12
347.535	81.12
347.763	95.12
347.99	100.12
348.218	85.12
348.445	87.12
348.673	90.12
348.9	93.12
349.128	101.12
349.355	95.12
349.583	103.12
349.81	87.12
350.037	78.12
350.265	91.12
350.492	93.12
350.72	77.12
350.947	102.12
351.174	97.12
351.402	92.12
351.629	93.12
351.856	79.12
352.083	89.12
352.311	82.12
352.538	86.12
352.765	87.12
352.992	91.12
353.22	79.12
353.447	80.12
353.674	93.12
353.901	95.12
354.128	85.12
354.355	87.12
354.583	87.12
354.81	85.12
355.037	75.12
355.264	69.12
355.491	92.12
355.718	90.12
355.945	95.12
356.172	90.12
356.399	82.12
356.626	97.12
356.853	78.12
357.08	96.12
357.307	85.12
357.534	72.12
357.761	81.12
357.988	86.12
358.215	95.12
358.441	96.12
358.668	89.12
358.895	82.12
359.122	84.12
359.349	78.12
359.576	86.12
359.802	77.12
360.029	77.12
360.256	80.12
360.483	83.12
360.709	98.12
360.936	89.12
361.163	94.12
361.39	88.12
361.616	101.12
361.843	89.12
362.07	90.12
362.296	94.12
362.523	94.12
362.749	99.12
362.976	82.12
363.203	103.12
363.429	86.12
363.656	90.12
363.882	96.12
364.109	91.12
364.335	90.12
364.562	83.12
364.788	98.12
365.015	84.12
365.241	95.12
365.468	98.12
365.694	81.12
365.92	79.12
366.147	96.12
366.373	89.12
366.599	94.12
366.826	82.12
367.052	94.12
367.278	83.12
367.505	87.12
367.731	96.12
367.957	101.12
368.184	85.12
368.41	98.12
368.636	80.12
368.862	83.12
369.089	104.12
369.315	94.12
369.541	92.12
369.767	80.12
369.993	83.12
370.219	90.12
370.445	103.12
370.672	93.12
370.898	90.12
371.124	74.12
371.35	87.12
371.576	85.12
371.802	87.12
372.028	93.12
372.254	81.12
372.48	77.12
372.706	86.12
372.932	95.12
373.158	94.12
373.384	92.12
373.61	96.12
373.835	86.12
374.061	100.12
374.287	93.12
374.513	77.12
374.739	90.12
374.965	86.12
375.191	76.12
375.416	90.12
375.642	110.12
375.868	86.12
376.094	86.12
376.319	92.12
376.545	84.12
376.771	87.12
376.997	95.12
377.222	90.12
377.448	91.12
377.674	93.12
377.899	96.12
378.125	93.12
378.35	85.12
378.576	91.12
378.802	101.12
379.027	100.12
379.253	98.12
379.478	86.12
379.704	82.12
379.929	89.12
380.155	87.12
380.38	87.12
380.606	76.12
380.831	109.12
381.057	98.12
381.282	83.12
381.507	95.12
381.733	91.12
381.958	101.12
382.184	89.12
382.409	90.12
382.634	93.12
382.86	88.12
383.085	95.12
383.31	88.12
383.535	105.12
383.761	100.12
383.986	91.12
384.211	97.12
384.436	102.12
384.662	90.12
384.887	75.12
385.112	92.12
385.337	99.12
385.562	88.12
385.787	95.12
386.013	96.12
386.238	82.12
386.463	81.12
386.688	86.12
386.913	83.12
387.138	99.12
387.363	104.12
387.588	105.12
387.813	102.12
388.038	89.12
388.263	93.12
388.488	103.12
388.713	101.12
388.938	91.12
389.163	92.12
389.387	98.12
389.612	106.12
389.837	105.12
390.062	103.12
390.287	98.12
390.512	88.12
390.736	102.12
390.961	91.12
391.186	104.12
391.411	86.12
391.636	89.12
391.86	91.12
392.085	102.12
392.31	99.12
392.534	92.12
392.759	91.12
392.984	93.12
393.208	106.12
393.433	107.12
393.658	100.12
393.882	108.12
394.107	83.12
394.331	92.12
394.556	95.12
394.78	89.12
395.005	101.12
395.229	85.12
395.454	92.12
395.678	106.12
395.903	92.12
396.127	86.12
396.352	95.12
396.576	84.12
396.801	111.12
397.025	105.12
397.249	85.12
397.474	97.12
397.698	98.12
397.922	98.12
398.147	100.12
398.371	104.12
398.595	96.12
398.82	101.12
399.044	83.12
399.268	87.12
399.492	93.12
399.717	99.12
399.941	95.12
400.165	95.12
400.389	98.12
400.613	82.12
400.837	109.12
401.062	113.12
401.286	95.12
401.51	106.12
401.734	95.12
401.958	97.12
402.182	97.12
402.406	95.12
402.63	112.12
402.854	107.12
403.078	111.12
403.302	96.12
403.526	122.12
403.75	103.12
403.974	94.12
404.198	111.12
404.422	105.12
404.645	98.12
404.869	95.12
405.093	102.12
405.317	100.12
405.541	91.12
405.765	100.12
405.988	100.12
406.212	109.12
406.436	100.12
406.66	115.12
406.883	98.12
407.107	112.12
407.331	96.12
407.555	102.12
407.778	106.12
408.002	116.12
408.226	107.12
408.449	89.12
408.673	100.12
408.896	97.12
409.12	110.12
409.344	97.12
409.567	106.12
409.791	113.12
410.014	106.12
410.238	108.12
410.461	96.12
410.685	107.12
410.908	106.12
411.132	112.12
411.355	93.12
411.578	90.12
411.802	85.12
412.025	99.12
412.249	97.12
412.472	112.12
412.695	119.12
412.919	108.12
413.142	97.12
413.365	109.12
413.589	109.12
413.812	94.12
414.035	111.12
414.258	121.12
414.482	95.12
414.705	117.12
414.928	108.12
415.151	111.12
415.374	104.12
415.597	113.12
415.821	101.12
416.044	96.12
416.267	99.12
416.49	114.12
416.713	97.12
416.936	101.12
417.159	103.12
417.382	111.12
417.605	114.12
417.828	96.12
418.051	102.12
418.274	123.12
418.497	106.12
418.72	100.12
418.943	95.12
419.166	110.12
419.389	118.12
419.611	109.12
419.834	101.12
420.057	108.12
420.28	112.12
420.503	113.12
420.726	111.12
420.948	105.12
421.171	114.12
421.394	117.12
421.617	105.12
421.839	101.12
422.062	124.12
422.285	112.12
422.507	116.12
422.73	109.12
422.953	103.12
423.175	93.12
423.398	99.12
423.621	100.12
423.843	126.12
424.066	119.12
424.288	119.12
424.511	108.12
424.733	103.12
424.956	117.12
425.178	117.12
425.401	102.12
425.623	109.12
425.846	115.12
426.068	107.12
426.291	94.12
426.513	106.12
426.735	114.12
426.958	115.12
427.18	112.12
427.402	104.12
427.625	113.12
427.847	119.12
428.069	127.12
428.292	120.12
428.514	109.12
428.736	89.12
428.958	115.12
429.181	99.12
429.403	99.12
429.625	107.12
429.847	105.12
430.069	108.12
430.292	109.12
430.514	103.12
430.736	107.12
430.958	108.12
431.18	95.12
431.402	110.12
431.624	113.12
431.846	96.12
432.068	93.12
432.29	113.12
432.512	95.12
432.734	107.12
432.956	96.12
433.178	112.12
433.4	112.12
433.622	111.12
433.844	114.12
434.066	118.12
434.287	93.12
434.509	85.12
434.731	84.12
434.953	96.12
435.175	119.12
435.397	105.12
435.618	117.12
435.84	109.12
436.062	107.12
436.284	106.12
436.505	104.12
436.727	117.12
436.949	105.12
437.17	119.12
437.392	104.12
437.614	103.12
437.835	105.12
438.057	91.12
438.278	97.12
438.5	106.12
438.721	114.12
438.943	115.12
439.165	110.12
439.386	118.12
439.608	115.12
439.829	102.12
440.05	119.12
440.272	126.12
440.493	114.12
440.715	111.12
440.936	112.12
441.158	117.12
441.379	118.12
441.6	107.12
441.822	125.12
442.043	114.12
442.264	115.12
442.486	112.12
442.707	121.12
442.928	104.12
443.149	113.12
443.371	112.12
443.592	102.12
443.813	107.12
444.034	103.12
444.255	122.12
444.476	112.12
444.698	117.12
444.919	114.12
445.14	230.12
445.361	153.12
445.582	109.12
445.803	127.12
446.024	123.12
446.245	125.12
446.466	123.12
446.687	118.12
446.908	114.12
447.129	133.12
447.35	124.12
447.571	112.12
447.792	117.12
448.013	112.12
448.234	117.12
448.455	109.12
448.675	110.12
448.896	118.12
449.117	96.12
449.338	122.12
449.559	117.12
449.779	111.12
450	114.12
450.221	109.12
450.442	111.12
450.662	97.12
450.883	102.12
451.104	122.12
451.324	109.12
451.545	105.12
451.766	116.12
451.986	115.12
452.207	98.12
452.428	104.12
452.648	104.12
452.869	99.12
453.089	99.12
453.31	101.12
453.53	97.12
453.751	104.12
453.971	96.12
454.192	102.12
454.412	100.12
454.633	112.12
454.853	109.12
455.073	107.12
455.294	111.12
455.514	118.12
455.734	106.12
455.955	114.12
456.175	100.12
456.395	92.12
456.616	87.12
456.836	93.12
457.056	94.12
457.276	99.12
457.497	98.12
457.717	93.12
457.937	96.12
458.157	88.12
458.377	93.12
458.598	94.12
458.818	82.12
459.038	100.12
459.258	80.12
459.478	79.12
459.698	107.12
459.918	89.12
460.138	102.12
460.358	91.12
460.578	110.12
460.798	112.12
461.018	117.12
461.238	109.12
461.458	104.12
461.678	113.12
461.898	110.12
462.118	97.12
462.338	114.12
462.558	108.12
462.777	87.12
462.997	101.12
463.217	89.12
463.437	100.12
463.657	98.12
463.876	112.12
464.096	91.12
464.316	94.12
464.536	91.12
464.755	111.12
464.975	93.12
465.195	123.12
465.414	112.12
465.634	104.12
465.854	102.12
466.073	101.12
466.293	108.12
466.512	100.12
466.732	111.12
466.951	113.12
467.171	111.12
467.391	123.12
467.61	121.12
467.829	112.12
468.049	115.12
468.268	119.12
468.488	125.12
468.707	107.12
468.927	99.12
469.146	110.12
469.365	115.12
469.585	114.12
469.804	117.12
470.023	108.12
470.243	113.12
470.462	121.12
470.681	106.12
470.901	125.12
471.12	116.12
471.339	113.12
471.558	111.12
471.777	121.12
471.997	120.12
472.216	103.12
472.435	104.12
472.654	89.12
472.873	107.12
473.092	106.12
473.311	110.12
473.53	110.12
473.749	117.12
473.968	119.12
474.187	108.12
474.406	105.12
474.625	96.12
474.844	100.12
475.063	122.12
475.282	105.12
475.501	99.12
475.72	107.12
475.939	100.12
476.158	110.12
476.377	106.12
476.596	127.12
476.814	93.12
477.033	105.12
477.252	84.12
477.471	98.12
477.69	112.12
477.908	116.12
478.127	119.12
478.346	108.12
478.564	104.12
478.783	104.12
479.002	96.12
479.22	113.12
479.439	102.12
479.658	101.12
479.876	98.12
480.095	95.12
480.313	102.12
480.532	106.12
480.751	104.12
480.969	102.12
481.188	89.12
481.406	78.12
481.624	78.12
481.843	79.12
482.061	103.12
482.28	105.12
482.498	98.12
482.717	97.12
482.935	109.12
483.153	104.12
483.372	120.12
483.59	127.12
483.808	113.12
484.027	113.12
484.245	109.12
484.463	116.12
484.681	123.12
484.9	115.12
485.118	112.12
485.336	85.12
485.554	95.12
485.772	93.12
485.99	104.12
486.209	114.12
486.427	97.12
486.645	95.12
486.863	108.12
487.081	123.12
487.299	123.12
487.517	120.12
487.735	123.12
487.953	132.12
488.171	125.12
488.389	130.12
488.607	127.12
488.825	114.12
489.043	123.12
489.261	113.12
489.479	104.12
489.696	126.12
489.914	98.12
490.132	113.12
490.35	128.12
490.568	131.12
490.786	137.12
491.003	120.12
491.221	119.12
491.439	140.12
491.657	130.12
491.874	146.12
492.092	150.12
492.31	174.12
492.527	170.12
492.745	143.12
492.963	131.12
493.18	132.12
493.398	135.12
493.615	141.12
493.833	157.12
494.05	130.12
494.268	128.12
494.485	131.12
494.703	147.12
494.92	133.12
495.138	126.12
495.355	115.12
495.573	123.12
495.79	128.12
496.008	127.12
496.225	130.12
496.442	119.12
496.66	113.12
496.877	129.12
497.094	129.12
497.312	112.12
497.529	119.12
497.746	112.12
497.963	124.12
498.181	103.12
498.398	105.12
498.615	86.12
498.832	99.12
499.049	113.12
499.267	114.12
499.484	115.12
499.701	102.12
499.918	120.12
500.135	101.12
500.352	112.12
500.569	115.12
500.786	115.12
501.003	118.12
501.22	104.12
501.437	112.12
501.654	110.12
501.871	104.12
502.088	106.12
502.305	107.12
502.522	111.12
502.739	117.12
502.956	109.12
503.172	96.12
503.389	106.12
503.606	96.12
503.823	111.12
504.04	128.12
504.256	115.12
504.473	97.12
504.69	97.12
504.907	99.12
505.123	105.12
505.34	98.12
505.557	108.12
505.773	115.12
505.99	106.12
506.207	99.12
506.423	106.12
506.64	113.12
506.856	104.12
507.073	105.12
507.289	107.12
507.506	97.12
507.722	89.12
507.939	107.12
508.155	89.12
508.372	99.12
508.588	111.12
508.805	107.12
509.021	105.12
509.238	96.12
509.454	105.12
509.67	82.12
509.887	98.12
510.103	98.12
510.319	87.12
510.536	86.12
510.752	89.12
510.968	94.12
511.184	78.12
511.401	83.12
511.617	95.12
511.833	88.12
512.049	96.12
512.265	85.12
512.481	87.12
512.698	87.12
512.914	97.12
513.13	100.12
