Data from Zn(NO3)2Standard.Agarose3%.GreenCap.LampEnergy10E.O_HRD10591_15-06-39-942.txt Node
Date: Mon Jul 22 15:06:39 EDT 2019
User: cochatt
Spectrometer: HR+D1059
Trigger mode: 1
Integration Time (sec): 1.000000E-1
Scans to average: 1
Electric dark correction enabled: true
Nonlinearity correction enabled: false
Boxcar width: 0
XAxis mode: Wavelengths
Number of Pixels in Spectrum: 2048
>>>>>Begin Spectral Data<<<<<
223.165	-16.44
223.4	-16.44
223.635	-16.44
223.869	-11.44
224.104	-27.44
224.338	-18.44
224.573	-13.44
224.808	-6.44
225.042	-7.44
225.277	-6.44
225.511	2.56
225.746	-3.44
225.98	8.56
226.215	12.56
226.449	13.56
226.683	11.56
226.918	31.56
227.152	30.56
227.387	29.56
227.621	41.56
227.856	28.56
228.09	35.56
228.324	55.56
228.559	66.56
228.793	49.56
229.027	56.56
229.262	52.56
229.496	55.56
229.73	71.56
229.964	76.56
230.199	62.56
230.433	64.56
230.667	74.56
230.901	90.56
231.136	82.56
231.37	85.56
231.604	87.56
231.838	92.56
232.072	85.56
232.306	83.56
232.541	83.56
232.775	87.56
233.009	73.56
233.243	88.56
233.477	91.56
233.711	74.56
233.945	81.56
234.179	78.56
234.413	72.56
234.647	69.56
234.881	78.56
235.115	65.56
235.349	71.56
235.583	73.56
235.817	74.56
236.051	87.56
236.285	82.56
236.519	73.56
236.753	76.56
236.987	84.56
237.221	75.56
237.455	72.56
237.689	78.56
237.922	69.56
238.156	84.56
238.39	64.56
238.624	51.56
238.858	89.56
239.091	80.56
239.325	67.56
239.559	92.56
239.793	68.56
240.027	93.56
240.26	84.56
240.494	88.56
240.728	87.56
240.961	82.56
241.195	81.56
241.429	66.56
241.662	77.56
241.896	73.56
242.13	75.56
242.363	76.56
242.597	68.56
242.83	72.56
243.064	73.56
243.298	78.56
243.531	78.56
243.765	85.56
243.998	69.56
244.232	76.56
244.465	74.56
244.699	90.56
244.932	61.56
245.166	85.56
245.399	83.56
245.633	70.56
245.866	72.56
246.099	83.56
246.333	75.56
246.566	82.56
246.8	92.56
247.033	89.56
247.266	83.56
247.5	74.56
247.733	81.56
247.966	69.56
248.2	89.56
248.433	74.56
248.666	88.56
248.899	82.56
249.133	79.56
249.366	74.56
249.599	76.56
249.832	75.56
250.066	77.56
250.299	83.56
250.532	73.56
250.765	77.56
250.998	81.56
251.231	64.56
251.465	70.56
251.698	78.56
251.931	89.56
252.164	90.56
252.397	90.56
252.63	73.56
252.863	81.56
253.096	73.56
253.329	78.56
253.562	70.56
253.795	84.56
254.028	78.56
254.261	76.56
254.494	83.56
254.727	82.56
254.96	91.56
255.193	92.56
255.426	72.56
255.659	68.56
255.892	84.56
256.124	70.56
256.357	76.56
256.59	90.56
256.823	80.56
257.056	80.56
257.289	88.56
257.521	76.56
257.754	75.56
257.987	69.56
258.22	94.56
258.452	79.56
258.685	83.56
258.918	86.56
259.151	87.56
259.383	75.56
259.616	76.56
259.849	90.56
260.081	81.56
260.314	83.56
260.547	83.56
260.779	75.56
261.012	82.56
261.244	82.56
261.477	77.56
261.71	81.56
261.942	81.56
262.175	89.56
262.407	85.56
262.64	67.56
262.872	78.56
263.105	78.56
263.337	78.56
263.57	88.56
263.802	84.56
264.035	68.56
264.267	91.56
264.499	86.56
264.732	86.56
264.964	94.56
265.197	88.56
265.429	87.56
265.661	92.56
265.894	77.56
266.126	86.56
266.358	77.56
266.591	75.56
266.823	74.56
267.055	73.56
267.287	92.56
267.52	86.56
267.752	92.56
267.984	88.56
268.216	72.56
268.448	75.56
268.681	86.56
268.913	97.56
269.145	92.56
269.377	106.56
269.609	88.56
269.841	81.56
270.073	65.56
270.306	70.56
270.538	90.56
270.77	81.56
271.002	75.56
271.234	90.56
271.466	88.56
271.698	82.56
271.93	72.56
272.162	84.56
272.394	81.56
272.626	92.56
272.858	88.56
273.09	103.56
273.322	87.56
273.553	78.56
273.785	78.56
274.017	80.56
274.249	94.56
274.481	88.56
274.713	86.56
274.945	77.56
275.176	77.56
275.408	78.56
275.64	80.56
275.872	89.56
276.104	87.56
276.335	78.56
276.567	77.56
276.799	91.56
277.031	96.56
277.262	82.56
277.494	81.56
277.726	83.56
277.957	88.56
278.189	83.56
278.421	80.56
278.652	82.56
278.884	76.56
279.115	84.56
279.347	90.56
279.579	89.56
279.81	97.56
280.042	75.56
280.273	103.56
280.505	83.56
280.736	78.56
280.968	84.56
281.199	82.56
281.431	73.56
281.662	79.56
281.894	76.56
282.125	85.56
282.356	92.56
282.588	87.56
282.819	76.56
283.051	76.56
283.282	97.56
283.513	77.56
283.745	80.56
283.976	75.56
284.207	83.56
284.439	82.56
284.67	85.56
284.901	73.56
285.132	82.56
285.364	92.56
285.595	84.56
285.826	86.56
286.057	78.56
286.288	80.56
286.52	92.56
286.751	87.56
286.982	99.56
287.213	84.56
287.444	77.56
287.675	93.56
287.906	89.56
288.138	85.56
288.369	80.56
288.6	93.56
288.831	91.56
289.062	76.56
289.293	76.56
289.524	75.56
289.755	91.56
289.986	83.56
290.217	92.56
290.448	67.56
290.679	80.56
290.91	92.56
291.141	101.56
291.371	97.56
291.602	98.56
291.833	75.56
292.064	86.56
292.295	89.56
292.526	84.56
292.757	85.56
292.987	74.56
293.218	85.56
293.449	81.56
293.68	86.56
293.91	79.56
294.141	91.56
294.372	94.56
294.603	80.56
294.833	73.56
295.064	80.56
295.295	100.56
295.525	83.56
295.756	95.56
295.987	87.56
296.217	81.56
296.448	73.56
296.679	75.56
296.909	77.56
297.14	107.56
297.37	83.56
297.601	78.56
297.831	82.56
298.062	91.56
298.292	69.56
298.523	81.56
298.753	85.56
298.984	69.56
299.214	79.56
299.445	91.56
299.675	84.56
299.905	86.56
300.136	85.56
300.366	81.56
300.597	92.56
300.827	84.56
301.057	101.56
301.288	92.56
301.518	76.56
301.748	80.56
301.979	78.56
302.209	77.56
302.439	78.56
302.669	89.56
302.9	92.56
303.13	92.56
303.36	105.56
303.59	94.56
303.82	90.56
304.051	90.56
304.281	86.56
304.511	74.56
304.741	82.56
304.971	77.56
305.201	86.56
305.431	80.56
305.661	75.56
305.891	90.56
306.121	87.56
306.352	89.56
306.582	97.56
306.812	91.56
307.042	87.56
307.272	77.56
307.502	89.56
307.731	72.56
307.961	73.56
308.191	88.56
308.421	85.56
308.651	81.56
308.881	97.56
309.111	77.56
309.341	85.56
309.571	68.56
309.8	81.56
310.03	83.56
310.26	88.56
310.49	86.56
310.72	83.56
310.949	68.56
311.179	91.56
311.409	84.56
311.639	87.56
311.868	89.56
312.098	86.56
312.328	79.56
312.557	83.56
312.787	68.56
313.017	89.56
313.246	99.56
313.476	82.56
313.706	72.56
313.935	75.56
314.165	77.56
314.394	73.56
314.624	98.56
314.853	89.56
315.083	87.56
315.312	96.56
315.542	89.56
315.771	89.56
316.001	76.56
316.23	82.56
316.46	81.56
316.689	84.56
316.919	77.56
317.148	100.56
317.377	83.56
317.607	73.56
317.836	91.56
318.065	79.56
318.295	92.56
318.524	96.56
318.753	97.56
318.983	78.56
319.212	92.56
319.441	82.56
319.67	97.56
319.9	85.56
320.129	82.56
320.358	71.56
320.587	76.56
320.816	90.56
321.046	101.56
321.275	80.56
321.504	94.56
321.733	87.56
321.962	93.56
322.191	93.56
322.42	81.56
322.649	86.56
322.878	87.56
323.108	80.56
323.337	85.56
323.566	89.56
323.795	91.56
324.024	84.56
324.253	82.56
324.482	77.56
324.71	73.56
324.939	87.56
325.168	92.56
325.397	65.56
325.626	83.56
325.855	79.56
326.084	84.56
326.313	91.56
326.542	86.56
326.77	67.56
326.999	81.56
327.228	85.56
327.457	81.56
327.686	92.56
327.914	80.56
328.143	81.56
328.372	89.56
328.6	75.56
328.829	100.56
329.058	86.56
329.287	86.56
329.515	71.56
329.744	84.56
329.972	83.56
330.201	86.56
330.43	90.56
330.658	84.56
330.887	90.56
331.115	70.56
331.344	89.56
331.572	76.56
331.801	90.56
332.03	90.56
332.258	92.56
332.486	98.56
332.715	96.56
332.943	95.56
333.172	93.56
333.4	77.56
333.629	78.56
333.857	69.56
334.085	77.56
334.314	77.56
334.542	88.56
334.771	91.56
334.999	83.56
335.227	83.56
335.455	82.56
335.684	93.56
335.912	80.56
336.14	76.56
336.369	78.56
336.597	93.56
336.825	97.56
337.053	90.56
337.281	85.56
337.51	83.56
337.738	77.56
337.966	84.56
338.194	82.56
338.422	83.56
338.65	92.56
338.878	88.56
339.106	74.56
339.334	92.56
339.562	79.56
339.79	90.56
340.018	90.56
340.246	75.56
340.474	85.56
340.702	84.56
340.93	90.56
341.158	82.56
341.386	82.56
341.614	69.56
341.842	83.56
342.07	106.56
342.298	92.56
342.526	90.56
342.754	81.56
342.981	80.56
343.209	76.56
343.437	92.56
343.665	92.56
343.893	78.56
344.12	86.56
344.348	89.56
344.576	79.56
344.804	83.56
345.031	87.56
345.259	81.56
345.487	88.56
345.714	78.56
345.942	100.56
346.17	92.56
346.397	80.56
346.625	92.56
346.853	85.56
347.08	72.56
347.308	76.56
347.535	73.56
347.763	87.56
347.99	78.56
348.218	98.56
348.445	83.56
348.673	79.56
348.9	98.56
349.128	97.56
349.355	76.56
349.583	84.56
349.81	93.56
350.037	88.56
350.265	96.56
350.492	90.56
350.72	76.56
350.947	72.56
351.174	86.56
351.402	75.56
351.629	98.56
351.856	83.56
352.083	90.56
352.311	74.56
352.538	73.56
352.765	86.56
352.992	90.56
353.22	90.56
353.447	74.56
353.674	92.56
353.901	102.56
354.128	87.56
354.355	83.56
354.583	93.56
354.81	91.56
355.037	79.56
355.264	79.56
355.491	85.56
355.718	76.56
355.945	66.56
356.172	76.56
356.399	80.56
356.626	80.56
356.853	90.56
357.08	83.56
357.307	82.56
357.534	71.56
357.761	82.56
357.988	88.56
358.215	76.56
358.441	90.56
358.668	82.56
358.895	92.56
359.122	85.56
359.349	97.56
359.576	84.56
359.802	74.56
360.029	83.56
360.256	88.56
360.483	87.56
360.709	94.56
360.936	97.56
361.163	82.56
361.39	85.56
361.616	79.56
361.843	78.56
362.07	101.56
362.296	93.56
362.523	71.56
362.749	80.56
362.976	96.56
363.203	97.56
363.429	88.56
363.656	76.56
363.882	69.56
364.109	88.56
364.335	92.56
364.562	73.56
364.788	81.56
365.015	93.56
365.241	92.56
365.468	88.56
365.694	83.56
365.92	91.56
366.147	76.56
366.373	101.56
366.599	90.56
366.826	83.56
367.052	89.56
367.278	82.56
367.505	84.56
367.731	65.56
367.957	68.56
368.184	93.56
368.41	75.56
368.636	83.56
368.862	90.56
369.089	85.56
369.315	77.56
369.541	89.56
369.767	88.56
369.993	88.56
370.219	87.56
370.445	101.56
370.672	95.56
370.898	100.56
371.124	97.56
371.35	68.56
371.576	75.56
371.802	74.56
372.028	94.56
372.254	100.56
372.48	93.56
372.706	88.56
372.932	88.56
373.158	87.56
373.384	111.56
373.61	81.56
373.835	93.56
374.061	82.56
374.287	87.56
374.513	80.56
374.739	80.56
374.965	73.56
375.191	88.56
375.416	82.56
375.642	65.56
375.868	81.56
376.094	97.56
376.319	103.56
376.545	90.56
376.771	99.56
376.997	76.56
377.222	102.56
377.448	61.56
377.674	87.56
377.899	84.56
378.125	89.56
378.35	101.56
378.576	88.56
378.802	81.56
379.027	86.56
379.253	101.56
379.478	86.56
379.704	92.56
379.929	83.56
380.155	87.56
380.38	94.56
380.606	98.56
380.831	82.56
381.057	82.56
381.282	88.56
381.507	87.56
381.733	84.56
381.958	85.56
382.184	87.56
382.409	94.56
382.634	84.56
382.86	89.56
383.085	92.56
383.31	83.56
383.535	88.56
383.761	78.56
383.986	84.56
384.211	97.56
384.436	89.56
384.662	94.56
384.887	92.56
385.112	92.56
385.337	92.56
385.562	89.56
385.787	90.56
386.013	88.56
386.238	88.56
386.463	83.56
386.688	90.56
386.913	93.56
387.138	94.56
387.363	87.56
387.588	90.56
387.813	78.56
388.038	87.56
388.263	88.56
388.488	84.56
388.713	90.56
388.938	90.56
389.163	83.56
389.387	109.56
389.612	91.56
389.837	96.56
390.062	105.56
390.287	92.56
390.512	88.56
390.736	77.56
390.961	79.56
391.186	81.56
391.411	86.56
391.636	100.56
391.86	86.56
392.085	83.56
392.31	91.56
392.534	83.56
392.759	89.56
392.984	109.56
393.208	92.56
393.433	81.56
393.658	88.56
393.882	83.56
394.107	87.56
394.331	99.56
394.556	114.56
394.78	99.56
395.005	86.56
395.229	93.56
395.454	84.56
395.678	90.56
395.903	91.56
396.127	89.56
396.352	94.56
396.576	85.56
396.801	100.56
397.025	97.56
397.249	97.56
397.474	107.56
397.698	102.56
397.922	93.56
398.147	92.56
398.371	97.56
398.595	90.56
398.82	102.56
399.044	96.56
399.268	97.56
399.492	102.56
399.717	96.56
399.941	97.56
400.165	98.56
400.389	82.56
400.613	91.56
400.837	105.56
401.062	100.56
401.286	98.56
401.51	104.56
401.734	92.56
401.958	90.56
402.182	97.56
402.406	101.56
402.63	108.56
402.854	91.56
403.078	97.56
403.302	86.56
403.526	100.56
403.75	90.56
403.974	91.56
404.198	95.56
404.422	103.56
404.645	91.56
404.869	101.56
405.093	104.56
405.317	93.56
405.541	106.56
405.765	103.56
405.988	98.56
406.212	100.56
406.436	109.56
406.66	100.56
406.883	102.56
407.107	108.56
407.331	91.56
407.555	107.56
407.778	92.56
408.002	99.56
408.226	100.56
408.449	93.56
408.673	93.56
408.896	104.56
409.12	105.56
409.344	108.56
409.567	113.56
409.791	120.56
410.014	109.56
410.238	94.56
410.461	102.56
410.685	86.56
410.908	99.56
411.132	107.56
411.355	85.56
411.578	109.56
411.802	97.56
412.025	100.56
412.249	106.56
412.472	99.56
412.695	95.56
412.919	108.56
413.142	109.56
413.365	110.56
413.589	92.56
413.812	95.56
414.035	117.56
414.258	92.56
414.482	114.56
414.705	104.56
414.928	96.56
415.151	86.56
415.374	82.56
415.597	94.56
415.821	104.56
416.044	104.56
416.267	95.56
416.49	97.56
416.713	109.56
416.936	91.56
417.159	105.56
417.382	112.56
417.605	116.56
417.828	112.56
418.051	107.56
418.274	119.56
418.497	114.56
418.72	109.56
418.943	100.56
419.166	113.56
419.389	112.56
419.611	94.56
419.834	108.56
420.057	122.56
420.28	90.56
420.503	106.56
420.726	92.56
420.948	107.56
421.171	105.56
421.394	116.56
421.617	114.56
421.839	104.56
422.062	123.56
422.285	108.56
422.507	116.56
422.73	113.56
422.953	99.56
423.175	112.56
423.398	92.56
423.621	103.56
423.843	117.56
424.066	95.56
424.288	120.56
424.511	100.56
424.733	124.56
424.956	124.56
425.178	118.56
425.401	98.56
425.623	94.56
425.846	101.56
426.068	106.56
426.291	120.56
426.513	97.56
426.735	120.56
426.958	110.56
427.18	105.56
427.402	88.56
427.625	99.56
427.847	110.56
428.069	96.56
428.292	94.56
428.514	122.56
428.736	110.56
428.958	103.56
429.181	103.56
429.403	97.56
429.625	109.56
429.847	109.56
430.069	114.56
430.292	100.56
430.514	105.56
430.736	104.56
430.958	105.56
431.18	97.56
431.402	104.56
431.624	100.56
431.846	80.56
432.068	82.56
432.29	102.56
432.512	93.56
432.734	91.56
432.956	116.56
433.178	116.56
433.4	125.56
433.622	106.56
433.844	101.56
434.066	115.56
434.287	102.56
434.509	84.56
434.731	91.56
434.953	93.56
435.175	96.56
435.397	93.56
435.618	96.56
435.84	76.56
436.062	94.56
436.284	88.56
436.505	110.56
436.727	112.56
436.949	108.56
437.17	117.56
437.392	94.56
437.614	95.56
437.835	100.56
438.057	91.56
438.278	92.56
438.5	102.56
438.721	112.56
438.943	103.56
439.165	110.56
439.386	100.56
439.608	91.56
439.829	112.56
440.05	119.56
440.272	110.56
440.493	126.56
440.715	113.56
440.936	113.56
441.158	115.56
441.379	117.56
441.6	122.56
441.822	114.56
442.043	106.56
442.264	118.56
442.486	105.56
442.707	94.56
442.928	115.56
443.149	100.56
443.371	117.56
443.592	113.56
443.813	119.56
444.034	101.56
444.255	114.56
444.476	123.56
444.698	108.56
444.919	120.56
445.14	236.56
445.361	178.56
445.582	116.56
445.803	112.56
446.024	128.56
446.245	125.56
446.466	108.56
446.687	114.56
446.908	110.56
447.129	117.56
447.35	130.56
447.571	111.56
447.792	126.56
448.013	108.56
448.234	130.56
448.455	123.56
448.675	113.56
448.896	105.56
449.117	114.56
449.338	118.56
449.559	121.56
449.779	118.56
450	104.56
450.221	103.56
450.442	108.56
450.662	105.56
450.883	97.56
451.104	108.56
451.324	95.56
451.545	104.56
451.766	103.56
451.986	113.56
452.207	97.56
452.428	110.56
452.648	89.56
452.869	86.56
453.089	98.56
453.31	104.56
453.53	99.56
453.751	96.56
453.971	89.56
454.192	107.56
454.412	97.56
454.633	117.56
454.853	106.56
455.073	112.56
455.294	106.56
455.514	105.56
455.734	108.56
455.955	102.56
456.175	94.56
456.395	100.56
456.616	79.56
456.836	85.56
457.056	97.56
457.276	105.56
457.497	108.56
457.717	98.56
457.937	92.56
458.157	100.56
458.377	98.56
458.598	84.56
458.818	77.56
459.038	91.56
459.258	87.56
459.478	76.56
459.698	77.56
459.918	98.56
460.138	89.56
460.358	92.56
460.578	96.56
460.798	115.56
461.018	106.56
461.238	86.56
461.458	100.56
461.678	104.56
461.898	96.56
462.118	93.56
462.338	91.56
462.558	93.56
462.777	105.56
462.997	99.56
463.217	98.56
463.437	107.56
463.657	109.56
463.876	106.56
464.096	99.56
464.316	93.56
464.536	92.56
464.755	90.56
464.975	88.56
465.195	106.56
465.414	113.56
465.634	99.56
465.854	105.56
466.073	108.56
466.293	103.56
466.512	106.56
466.732	113.56
466.951	112.56
467.171	93.56
467.391	108.56
467.61	118.56
467.829	96.56
468.049	100.56
468.268	92.56
468.488	97.56
468.707	126.56
468.927	103.56
469.146	88.56
469.365	99.56
469.585	105.56
469.804	107.56
470.023	113.56
470.243	116.56
470.462	123.56
470.681	116.56
470.901	127.56
471.12	109.56
471.339	108.56
471.558	105.56
471.777	85.56
471.997	125.56
472.216	113.56
472.435	101.56
472.654	98.56
472.873	88.56
473.092	110.56
473.311	102.56
473.53	98.56
473.749	116.56
473.968	114.56
474.187	91.56
474.406	102.56
474.625	106.56
474.844	100.56
475.063	104.56
475.282	97.56
475.501	96.56
475.72	114.56
475.939	101.56
476.158	115.56
476.377	103.56
476.596	96.56
476.814	100.56
477.033	115.56
477.252	102.56
477.471	106.56
477.69	105.56
477.908	107.56
478.127	118.56
478.346	98.56
478.564	112.56
478.783	108.56
479.002	106.56
479.22	115.56
479.439	96.56
479.658	106.56
479.876	109.56
480.095	89.56
480.313	108.56
480.532	112.56
480.751	84.56
480.969	96.56
481.188	85.56
481.406	95.56
481.624	87.56
481.843	92.56
482.061	97.56
482.28	107.56
482.498	122.56
482.717	97.56
482.935	112.56
483.153	118.56
483.372	127.56
483.59	114.56
483.808	113.56
484.027	121.56
484.245	101.56
484.463	112.56
484.681	124.56
484.9	134.56
485.118	100.56
485.336	94.56
485.554	109.56
485.772	101.56
485.99	86.56
486.209	96.56
486.427	109.56
486.645	105.56
486.863	116.56
487.081	120.56
487.299	96.56
487.517	107.56
487.735	120.56
487.953	116.56
488.171	122.56
488.389	120.56
488.607	113.56
488.825	115.56
489.043	110.56
489.261	109.56
489.479	100.56
489.696	120.56
489.914	101.56
490.132	114.56
490.35	114.56
490.568	121.56
490.786	123.56
491.003	132.56
491.221	129.56
491.439	127.56
491.657	139.56
491.874	146.56
492.092	152.56
492.31	157.56
492.527	150.56
492.745	138.56
492.963	117.56
493.18	138.56
493.398	118.56
493.615	126.56
493.833	138.56
494.05	138.56
494.268	120.56
494.485	131.56
494.703	135.56
494.92	132.56
495.138	131.56
495.355	133.56
495.573	146.56
495.79	123.56
496.008	138.56
496.225	122.56
496.442	118.56
496.66	123.56
496.877	134.56
497.094	138.56
497.312	118.56
497.529	115.56
497.746	117.56
497.963	120.56
498.181	109.56
498.398	100.56
498.615	113.56
498.832	92.56
499.049	108.56
499.267	96.56
499.484	99.56
499.701	109.56
499.918	109.56
500.135	112.56
500.352	114.56
500.569	101.56
500.786	117.56
501.003	119.56
501.22	132.56
501.437	114.56
501.654	117.56
501.871	112.56
502.088	88.56
502.305	106.56
502.522	126.56
502.739	105.56
502.956	116.56
503.172	112.56
503.389	105.56
503.606	105.56
503.823	113.56
504.04	122.56
504.256	114.56
504.473	105.56
504.69	112.56
504.907	98.56
505.123	96.56
505.34	114.56
505.557	99.56
505.773	96.56
505.99	97.56
506.207	96.56
506.423	106.56
506.64	85.56
506.856	98.56
507.073	90.56
507.289	89.56
507.506	107.56
507.722	98.56
507.939	98.56
508.155	85.56
508.372	105.56
508.588	118.56
508.805	98.56
509.021	92.56
509.238	102.56
509.454	90.56
509.67	80.56
509.887	106.56
510.103	93.56
510.319	96.56
510.536	99.56
510.752	81.56
510.968	84.56
511.184	84.56
511.401	87.56
511.617	84.56
511.833	97.56
512.049	93.56
512.265	75.56
512.481	104.56
512.698	105.56
512.914	93.56
513.13	86.56
513.346	106.56
513.562	94.56
513.778	96.56
513.994	90.56
514.21	89.56
