Data from Zn(NO3)2Standard.Agarose3%.GreenCap.LampEnergy5.5.E.O_HRD10591_15-01-05-767.txt Node
Date: Mon Jul 22 15:01:05 EDT 2019
User: cochatt
Spectrometer: HR+D1059
Trigger mode: 1
Integration Time (sec): 1.000000E-1
Scans to average: 1
Electric dark correction enabled: true
Nonlinearity correction enabled: false
Boxcar width: 0
XAxis mode: Wavelengths
Number of Pixels in Spectrum: 2048
>>>>>Begin Spectral Data<<<<<
223.165	-15.44
223.4	-15.44
223.635	-15.44
223.869	-20.44
224.104	-22.44
224.338	-11.44
224.573	-18.44
224.808	-13.44
225.042	-0.44
225.277	-1.44
225.511	-5.44
225.746	6.56
225.98	14.56
226.215	9.56
226.449	9.56
226.683	14.56
226.918	27.56
227.152	26.56
227.387	27.56
227.621	28.56
227.856	54.56
228.09	32.56
228.324	42.56
228.559	50.56
228.793	69.56
229.027	65.56
229.262	66.56
229.496	59.56
229.73	76.56
229.964	57.56
230.199	63.56
230.433	65.56
230.667	81.56
230.901	66.56
231.136	80.56
231.37	78.56
231.604	69.56
231.838	83.56
232.072	77.56
232.306	78.56
232.541	83.56
232.775	94.56
233.009	79.56
233.243	84.56
233.477	81.56
233.711	85.56
233.945	98.56
234.179	83.56
234.413	75.56
234.647	79.56
234.881	94.56
235.115	90.56
235.349	78.56
235.583	83.56
235.817	72.56
236.051	89.56
236.285	84.56
236.519	87.56
236.753	81.56
236.987	71.56
237.221	75.56
237.455	73.56
237.689	75.56
237.922	74.56
238.156	84.56
238.39	90.56
238.624	70.56
238.858	83.56
239.091	71.56
239.325	69.56
239.559	64.56
239.793	71.56
240.027	67.56
240.26	83.56
240.494	72.56
240.728	80.56
240.961	75.56
241.195	80.56
241.429	58.56
241.662	67.56
241.896	71.56
242.13	86.56
242.363	70.56
242.597	91.56
242.83	82.56
243.064	72.56
243.298	82.56
243.531	76.56
243.765	75.56
243.998	72.56
244.232	74.56
244.465	72.56
244.699	80.56
244.932	72.56
245.166	80.56
245.399	64.56
245.633	82.56
245.866	71.56
246.099	84.56
246.333	75.56
246.566	70.56
246.8	84.56
247.033	72.56
247.266	83.56
247.5	72.56
247.733	54.56
247.966	54.56
248.2	80.56
248.433	60.56
248.666	87.56
248.899	88.56
249.133	67.56
249.366	76.56
249.599	52.56
249.832	78.56
250.066	74.56
250.299	70.56
250.532	74.56
250.765	74.56
250.998	92.56
251.231	75.56
251.465	64.56
251.698	80.56
251.931	74.56
252.164	82.56
252.397	80.56
252.63	90.56
252.863	76.56
253.096	73.56
253.329	89.56
253.562	70.56
253.795	87.56
254.028	69.56
254.261	83.56
254.494	75.56
254.727	84.56
254.96	75.56
255.193	75.56
255.426	85.56
255.659	68.56
255.892	81.56
256.124	70.56
256.357	65.56
256.59	89.56
256.823	84.56
257.056	76.56
257.289	69.56
257.521	81.56
257.754	88.56
257.987	76.56
258.22	87.56
258.452	69.56
258.685	78.56
258.918	80.56
259.151	71.56
259.383	71.56
259.616	74.56
259.849	87.56
260.081	84.56
260.314	83.56
260.547	78.56
260.779	81.56
261.012	76.56
261.244	90.56
261.477	87.56
261.71	94.56
261.942	89.56
262.175	76.56
262.407	76.56
262.64	84.56
262.872	77.56
263.105	75.56
263.337	71.56
263.57	79.56
263.802	96.56
264.035	88.56
264.267	83.56
264.499	82.56
264.732	80.56
264.964	88.56
265.197	80.56
265.429	82.56
265.661	87.56
265.894	78.56
266.126	74.56
266.358	80.56
266.591	76.56
266.823	72.56
267.055	68.56
267.287	86.56
267.52	75.56
267.752	82.56
267.984	85.56
268.216	75.56
268.448	81.56
268.681	73.56
268.913	83.56
269.145	72.56
269.377	71.56
269.609	72.56
269.841	85.56
270.073	91.56
270.306	83.56
270.538	81.56
270.77	79.56
271.002	86.56
271.234	73.56
271.466	94.56
271.698	103.56
271.93	88.56
272.162	79.56
272.394	78.56
272.626	88.56
272.858	73.56
273.09	75.56
273.322	79.56
273.553	76.56
273.785	94.56
274.017	92.56
274.249	80.56
274.481	71.56
274.713	75.56
274.945	74.56
275.176	73.56
275.408	80.56
275.64	85.56
275.872	87.56
276.104	103.56
276.335	91.56
276.567	81.56
276.799	78.56
277.031	83.56
277.262	86.56
277.494	91.56
277.726	85.56
277.957	84.56
278.189	72.56
278.421	85.56
278.652	83.56
278.884	84.56
279.115	79.56
279.347	72.56
279.579	88.56
279.81	98.56
280.042	76.56
280.273	81.56
280.505	87.56
280.736	77.56
280.968	80.56
281.199	87.56
281.431	87.56
281.662	73.56
281.894	84.56
282.125	71.56
282.356	92.56
282.588	82.56
282.819	92.56
283.051	75.56
283.282	85.56
283.513	76.56
283.745	88.56
283.976	79.56
284.207	81.56
284.439	79.56
284.67	94.56
284.901	84.56
285.132	96.56
285.364	71.56
285.595	81.56
285.826	74.56
286.057	80.56
286.288	91.56
286.52	84.56
286.751	76.56
286.982	85.56
287.213	76.56
287.444	79.56
287.675	90.56
287.906	77.56
288.138	81.56
288.369	77.56
288.6	84.56
288.831	78.56
289.062	94.56
289.293	81.56
289.524	63.56
289.755	86.56
289.986	92.56
290.217	90.56
290.448	93.56
290.679	94.56
290.91	94.56
291.141	79.56
291.371	73.56
291.602	87.56
291.833	75.56
292.064	78.56
292.295	72.56
292.526	87.56
292.757	86.56
292.987	73.56
293.218	81.56
293.449	77.56
293.68	95.56
293.91	82.56
294.141	80.56
294.372	74.56
294.603	85.56
294.833	84.56
295.064	76.56
295.295	92.56
295.525	82.56
295.756	76.56
295.987	89.56
296.217	92.56
296.448	86.56
296.679	98.56
296.909	88.56
297.14	70.56
297.37	76.56
297.601	91.56
297.831	87.56
298.062	93.56
298.292	80.56
298.523	91.56
298.753	87.56
298.984	83.56
299.214	88.56
299.445	89.56
299.675	87.56
299.905	80.56
300.136	90.56
300.366	78.56
300.597	81.56
300.827	77.56
301.057	92.56
301.288	88.56
301.518	82.56
301.748	91.56
301.979	69.56
302.209	94.56
302.439	75.56
302.669	84.56
302.9	93.56
303.13	83.56
303.36	86.56
303.59	78.56
303.82	76.56
304.051	81.56
304.281	84.56
304.511	87.56
304.741	87.56
304.971	73.56
305.201	66.56
305.431	73.56
305.661	91.56
305.891	80.56
306.121	88.56
306.352	74.56
306.582	79.56
306.812	72.56
307.042	82.56
307.272	80.56
307.502	80.56
307.731	88.56
307.961	83.56
308.191	82.56
308.421	74.56
308.651	89.56
308.881	84.56
309.111	78.56
309.341	82.56
309.571	76.56
309.8	82.56
310.03	76.56
310.26	85.56
310.49	82.56
310.72	90.56
310.949	91.56
311.179	88.56
311.409	85.56
311.639	81.56
311.868	88.56
312.098	77.56
312.328	82.56
312.557	100.56
312.787	93.56
313.017	91.56
313.246	84.56
313.476	100.56
313.706	63.56
313.935	87.56
314.165	81.56
314.394	84.56
314.624	82.56
314.853	92.56
315.083	85.56
315.312	91.56
315.542	79.56
315.771	87.56
316.001	77.56
316.23	85.56
316.46	85.56
316.689	91.56
316.919	82.56
317.148	76.56
317.377	78.56
317.607	85.56
317.836	82.56
318.065	81.56
318.295	87.56
318.524	70.56
318.753	75.56
318.983	88.56
319.212	80.56
319.441	87.56
319.67	91.56
319.9	80.56
320.129	77.56
320.358	84.56
320.587	80.56
320.816	74.56
321.046	70.56
321.275	76.56
321.504	81.56
321.733	90.56
321.962	72.56
322.191	82.56
322.42	86.56
322.649	77.56
322.878	78.56
323.108	83.56
323.337	86.56
323.566	74.56
323.795	88.56
324.024	84.56
324.253	93.56
324.482	92.56
324.71	74.56
324.939	86.56
325.168	95.56
325.397	87.56
325.626	85.56
325.855	83.56
326.084	77.56
326.313	102.56
326.542	90.56
326.77	86.56
326.999	87.56
327.228	86.56
327.457	74.56
327.686	69.56
327.914	84.56
328.143	78.56
328.372	89.56
328.6	82.56
328.829	82.56
329.058	79.56
329.287	91.56
329.515	76.56
329.744	86.56
329.972	83.56
330.201	86.56
330.43	76.56
330.658	74.56
330.887	69.56
331.115	81.56
331.344	81.56
331.572	72.56
331.801	96.56
332.03	84.56
332.258	91.56
332.486	80.56
332.715	86.56
332.943	86.56
333.172	88.56
333.4	71.56
333.629	74.56
333.857	84.56
334.085	84.56
334.314	91.56
334.542	84.56
334.771	79.56
334.999	85.56
335.227	88.56
335.455	95.56
335.684	83.56
335.912	88.56
336.14	76.56
336.369	67.56
336.597	84.56
336.825	78.56
337.053	85.56
337.281	87.56
337.51	87.56
337.738	80.56
337.966	82.56
338.194	86.56
338.422	82.56
338.65	85.56
338.878	91.56
339.106	83.56
339.334	88.56
339.562	92.56
339.79	75.56
340.018	79.56
340.246	81.56
340.474	90.56
340.702	77.56
340.93	86.56
341.158	72.56
341.386	80.56
341.614	73.56
341.842	71.56
342.07	72.56
342.298	75.56
342.526	88.56
342.754	78.56
342.981	83.56
343.209	78.56
343.437	96.56
343.665	93.56
343.893	85.56
344.12	75.56
344.348	72.56
344.576	67.56
344.804	71.56
345.031	81.56
345.259	88.56
345.487	87.56
345.714	85.56
345.942	79.56
346.17	86.56
346.397	89.56
346.625	73.56
346.853	82.56
347.08	85.56
347.308	82.56
347.535	76.56
347.763	94.56
347.99	72.56
348.218	78.56
348.445	75.56
348.673	76.56
348.9	85.56
349.128	90.56
349.355	84.56
349.583	86.56
349.81	86.56
350.037	82.56
350.265	82.56
350.492	78.56
350.72	94.56
350.947	73.56
351.174	93.56
351.402	100.56
351.629	84.56
351.856	86.56
352.083	84.56
352.311	74.56
352.538	91.56
352.765	104.56
352.992	96.56
353.22	79.56
353.447	79.56
353.674	94.56
353.901	76.56
354.128	69.56
354.355	82.56
354.583	79.56
354.81	89.56
355.037	79.56
355.264	95.56
355.491	86.56
355.718	80.56
355.945	72.56
356.172	73.56
356.399	73.56
356.626	96.56
356.853	71.56
357.08	80.56
357.307	81.56
357.534	88.56
357.761	71.56
357.988	82.56
358.215	88.56
358.441	63.56
358.668	100.56
358.895	86.56
359.122	86.56
359.349	92.56
359.576	76.56
359.802	79.56
360.029	96.56
360.256	74.56
360.483	72.56
360.709	78.56
360.936	80.56
361.163	90.56
361.39	73.56
361.616	65.56
361.843	87.56
362.07	78.56
362.296	68.56
362.523	76.56
362.749	72.56
362.976	72.56
363.203	69.56
363.429	79.56
363.656	84.56
363.882	83.56
364.109	88.56
364.335	80.56
364.562	99.56
364.788	68.56
365.015	66.56
365.241	70.56
365.468	79.56
365.694	82.56
365.92	79.56
366.147	76.56
366.373	74.56
366.599	82.56
366.826	91.56
367.052	94.56
367.278	85.56
367.505	73.56
367.731	81.56
367.957	97.56
368.184	79.56
368.41	88.56
368.636	72.56
368.862	86.56
369.089	79.56
369.315	84.56
369.541	93.56
369.767	85.56
369.993	62.56
370.219	82.56
370.445	85.56
370.672	71.56
370.898	74.56
371.124	74.56
371.35	84.56
371.576	83.56
371.802	83.56
372.028	73.56
372.254	83.56
372.48	75.56
372.706	80.56
372.932	75.56
373.158	83.56
373.384	77.56
373.61	79.56
373.835	80.56
374.061	86.56
374.287	81.56
374.513	79.56
374.739	71.56
374.965	78.56
375.191	69.56
375.416	66.56
375.642	66.56
375.868	81.56
376.094	83.56
376.319	86.56
376.545	90.56
376.771	84.56
376.997	83.56
377.222	86.56
377.448	84.56
377.674	91.56
377.899	85.56
378.125	75.56
378.35	77.56
378.576	84.56
378.802	86.56
379.027	83.56
379.253	79.56
379.478	81.56
379.704	87.56
379.929	87.56
380.155	87.56
380.38	85.56
380.606	75.56
380.831	95.56
381.057	85.56
381.282	88.56
381.507	71.56
381.733	87.56
381.958	92.56
382.184	86.56
382.409	79.56
382.634	83.56
382.86	82.56
383.085	79.56
383.31	92.56
383.535	82.56
383.761	64.56
383.986	84.56
384.211	76.56
384.436	74.56
384.662	74.56
384.887	77.56
385.112	81.56
385.337	82.56
385.562	76.56
385.787	77.56
386.013	96.56
386.238	73.56
386.463	75.56
386.688	70.56
386.913	82.56
387.138	83.56
387.363	104.56
387.588	92.56
387.813	75.56
388.038	75.56
388.263	79.56
388.488	66.56
388.713	74.56
388.938	85.56
389.163	80.56
389.387	84.56
389.612	80.56
389.837	90.56
390.062	75.56
390.287	77.56
390.512	86.56
390.736	89.56
390.961	79.56
391.186	89.56
391.411	76.56
391.636	93.56
391.86	76.56
392.085	77.56
392.31	89.56
392.534	91.56
392.759	76.56
392.984	81.56
393.208	92.56
393.433	72.56
393.658	81.56
393.882	93.56
394.107	75.56
394.331	83.56
394.556	79.56
394.78	90.56
395.005	78.56
395.229	87.56
395.454	95.56
395.678	81.56
395.903	70.56
396.127	87.56
396.352	68.56
396.576	84.56
396.801	84.56
397.025	91.56
397.249	83.56
397.474	79.56
397.698	83.56
397.922	67.56
398.147	76.56
398.371	88.56
398.595	64.56
398.82	80.56
399.044	68.56
399.268	80.56
399.492	97.56
399.717	94.56
399.941	84.56
400.165	70.56
400.389	83.56
400.613	72.56
400.837	74.56
401.062	84.56
401.286	88.56
401.51	88.56
401.734	90.56
401.958	86.56
402.182	68.56
402.406	87.56
402.63	88.56
402.854	85.56
403.078	87.56
403.302	82.56
403.526	78.56
403.75	97.56
403.974	78.56
404.198	68.56
404.422	84.56
404.645	67.56
404.869	87.56
405.093	76.56
405.317	84.56
405.541	95.56
405.765	92.56
405.988	86.56
406.212	85.56
406.436	80.56
406.66	84.56
406.883	93.56
407.107	82.56
407.331	84.56
407.555	74.56
407.778	95.56
408.002	70.56
408.226	83.56
408.449	78.56
408.673	72.56
408.896	89.56
409.12	90.56
409.344	82.56
409.567	84.56
409.791	87.56
410.014	95.56
410.238	85.56
410.461	80.56
410.685	82.56
410.908	90.56
411.132	92.56
411.355	77.56
411.578	80.56
411.802	85.56
412.025	80.56
412.249	90.56
412.472	86.56
412.695	82.56
412.919	94.56
413.142	84.56
413.365	83.56
413.589	96.56
413.812	83.56
414.035	97.56
414.258	90.56
414.482	86.56
414.705	88.56
414.928	80.56
415.151	98.56
415.374	89.56
415.597	87.56
415.821	89.56
416.044	80.56
416.267	88.56
416.49	86.56
416.713	100.56
416.936	86.56
417.159	79.56
417.382	90.56
417.605	95.56
417.828	81.56
418.051	93.56
418.274	89.56
418.497	75.56
418.72	78.56
418.943	81.56
419.166	83.56
419.389	87.56
419.611	85.56
419.834	82.56
420.057	98.56
420.28	79.56
420.503	89.56
420.726	91.56
420.948	81.56
421.171	78.56
421.394	99.56
421.617	87.56
421.839	84.56
422.062	87.56
422.285	84.56
422.507	66.56
422.73	70.56
422.953	83.56
423.175	70.56
423.398	85.56
423.621	89.56
423.843	76.56
424.066	86.56
424.288	82.56
424.511	86.56
424.733	78.56
424.956	107.56
425.178	88.56
425.401	86.56
425.623	74.56
425.846	91.56
426.068	81.56
426.291	87.56
426.513	82.56
426.735	100.56
426.958	84.56
427.18	85.56
427.402	100.56
427.625	91.56
427.847	88.56
428.069	67.56
428.292	93.56
428.514	81.56
428.736	86.56
428.958	83.56
429.181	77.56
429.403	82.56
429.625	80.56
429.847	72.56
430.069	76.56
430.292	96.56
430.514	90.56
430.736	69.56
430.958	100.56
431.18	75.56
431.402	75.56
431.624	79.56
431.846	92.56
432.068	73.56
432.29	85.56
432.512	86.56
432.734	91.56
432.956	89.56
433.178	86.56
433.4	79.56
433.622	82.56
433.844	83.56
434.066	78.56
434.287	72.56
434.509	74.56
434.731	65.56
434.953	76.56
435.175	82.56
435.397	81.56
435.618	75.56
435.84	79.56
436.062	84.56
436.284	81.56
436.505	77.56
436.727	87.56
436.949	84.56
437.17	106.56
437.392	78.56
437.614	81.56
437.835	79.56
438.057	87.56
438.278	77.56
438.5	92.56
438.721	84.56
438.943	92.56
439.165	92.56
439.386	93.56
439.608	96.56
439.829	94.56
440.05	93.56
440.272	91.56
440.493	89.56
440.715	80.56
440.936	106.56
441.158	96.56
441.379	86.56
441.6	84.56
441.822	75.56
442.043	92.56
442.264	85.56
442.486	92.56
442.707	89.56
442.928	87.56
443.149	96.56
443.371	89.56
443.592	86.56
443.813	89.56
444.034	83.56
444.255	79.56
444.476	90.56
444.698	97.56
444.919	80.56
445.14	199.56
445.361	137.56
445.582	94.56
445.803	86.56
446.024	94.56
446.245	93.56
446.466	77.56
446.687	89.56
446.908	89.56
447.129	80.56
447.35	95.56
447.571	104.56
447.792	97.56
448.013	90.56
448.234	104.56
448.455	80.56
448.675	95.56
448.896	99.56
449.117	78.56
449.338	79.56
449.559	79.56
449.779	90.56
450	80.56
450.221	88.56
450.442	93.56
450.662	89.56
450.883	82.56
451.104	95.56
451.324	78.56
451.545	89.56
451.766	79.56
451.986	70.56
452.207	88.56
452.428	83.56
452.648	96.56
452.869	93.56
453.089	99.56
453.31	83.56
453.53	87.56
453.751	83.56
453.971	77.56
454.192	76.56
454.412	85.56
454.633	73.56
454.853	90.56
455.073	100.56
455.294	86.56
455.514	86.56
455.734	79.56
455.955	87.56
456.175	80.56
456.395	90.56
456.616	79.56
456.836	88.56
457.056	91.56
457.276	91.56
457.497	87.56
457.717	79.56
457.937	86.56
458.157	80.56
458.377	91.56
458.598	76.56
458.818	94.56
459.038	78.56
459.258	84.56
459.478	85.56
459.698	85.56
459.918	86.56
460.138	97.56
460.358	88.56
460.578	96.56
460.798	85.56
461.018	87.56
461.238	84.56
461.458	90.56
461.678	86.56
461.898	86.56
462.118	86.56
462.338	63.56
462.558	83.56
462.777	88.56
462.997	66.56
463.217	76.56
463.437	87.56
463.657	75.56
463.876	96.56
464.096	91.56
464.316	79.56
464.536	87.56
464.755	84.56
464.975	87.56
465.195	69.56
465.414	92.56
465.634	82.56
465.854	87.56
466.073	87.56
466.293	93.56
466.512	75.56
466.732	78.56
466.951	83.56
467.171	82.56
467.391	77.56
467.61	74.56
467.829	85.56
468.049	88.56
468.268	90.56
468.488	86.56
468.707	86.56
468.927	76.56
469.146	90.56
469.365	66.56
469.585	92.56
469.804	87.56
470.023	80.56
470.243	78.56
470.462	106.56
470.681	87.56
470.901	74.56
471.12	92.56
471.339	85.56
471.558	87.56
471.777	91.56
471.997	103.56
472.216	84.56
472.435	87.56
472.654	95.56
472.873	79.56
473.092	80.56
473.311	86.56
473.53	94.56
473.749	81.56
473.968	94.56
474.187	83.56
474.406	67.56
474.625	96.56
474.844	91.56
475.063	84.56
475.282	76.56
475.501	83.56
475.72	107.56
475.939	82.56
476.158	77.56
476.377	85.56
476.596	97.56
476.814	86.56
477.033	70.56
477.252	93.56
477.471	91.56
477.69	95.56
477.908	81.56
478.127	85.56
478.346	86.56
478.564	94.56
478.783	81.56
479.002	83.56
479.22	84.56
479.439	88.56
479.658	88.56
479.876	78.56
480.095	74.56
480.313	90.56
480.532	82.56
480.751	90.56
480.969	99.56
481.188	77.56
481.406	91.56
481.624	85.56
481.843	85.56
482.061	82.56
482.28	95.56
482.498	88.56
482.717	88.56
482.935	74.56
483.153	95.56
483.372	77.56
483.59	89.56
483.808	84.56
484.027	87.56
484.245	85.56
484.463	90.56
484.681	92.56
484.9	94.56
485.118	88.56
485.336	91.56
485.554	70.56
485.772	99.56
485.99	77.56
486.209	83.56
486.427	80.56
486.645	87.56
486.863	72.56
487.081	95.56
487.299	88.56
487.517	94.56
487.735	90.56
487.953	112.56
488.171	110.56
488.389	86.56
488.607	83.56
488.825	77.56
489.043	89.56
489.261	74.56
489.479	90.56
489.696	77.56
489.914	89.56
490.132	92.56
490.35	97.56
490.568	96.56
490.786	79.56
491.003	85.56
491.221	96.56
491.439	94.56
491.657	92.56
491.874	114.56
492.092	113.56
492.31	105.56
492.527	96.56
492.745	98.56
492.963	103.56
493.18	104.56
493.398	90.56
493.615	92.56
493.833	88.56
494.05	86.56
494.268	92.56
494.485	87.56
494.703	83.56
494.92	97.56
495.138	102.56
495.355	92.56
495.573	85.56
495.79	94.56
496.008	98.56
496.225	94.56
496.442	100.56
496.66	85.56
496.877	97.56
497.094	76.56
497.312	98.56
497.529	82.56
497.746	86.56
497.963	110.56
498.181	90.56
498.398	82.56
498.615	89.56
498.832	79.56
499.049	92.56
499.267	85.56
499.484	101.56
499.701	102.56
499.918	91.56
500.135	102.56
500.352	94.56
500.569	96.56
500.786	103.56
501.003	92.56
501.22	84.56
501.437	99.56
501.654	96.56
501.871	76.56
502.088	93.56
502.305	82.56
502.522	90.56
502.739	69.56
502.956	89.56
503.172	94.56
503.389	100.56
503.606	90.56
503.823	85.56
504.04	96.56
504.256	86.56
504.473	85.56
504.69	88.56
504.907	91.56
505.123	77.56
505.34	76.56
505.557	94.56
505.773	77.56
505.99	101.56
506.207	88.56
506.423	92.56
506.64	84.56
506.856	97.56
507.073	92.56
507.289	81.56
507.506	92.56
507.722	75.56
507.939	86.56
508.155	94.56
508.372	80.56
508.588	95.56
508.805	80.56
509.021	71.56
509.238	87.56
509.454	71.56
509.67	79.56
509.887	88.56
510.103	84.56
510.319	82.56
510.536	90.56
510.752	74.56
510.968	82.56
511.184	86.56
511.401	74.56
511.617	82.56
511.833	86.56
512.049	78.56
512.265	73.56
512.481	89.56
512.698	94.56
512.914	81.56
513.13	95.56
513.346	84.56
513.562	87.56
513.778	73.56
513.994	86.56
514.21	78.56
514.426	85.56
514.642	89.56
514.858	81.56
515.074	78.56
515.29	78.56
515.506	76.56
515.721	81.56
515.937	76.56
516.153	87.56
516.369	86.56
516.585	81.56
516.801	84.56
517.016	82.56
517.232	95.56
517.448	95.56
517.664	80.56
517.879	84.56
518.095	66.56
518.311	95.56
518.527	100.56
518.742	98.56
518.958	84.56
