Data from Zn(NO3)2Standard.Agarose3%.GreenCap.LampEnergy10E.O_HRD10591_15-07-39-945.txt Node
Date: Mon Jul 22 15:07:39 EDT 2019
User: cochatt
Spectrometer: HR+D1059
Trigger mode: 1
Integration Time (sec): 1.000000E-1
Scans to average: 1
Electric dark correction enabled: true
Nonlinearity correction enabled: false
Boxcar width: 0
XAxis mode: Wavelengths
Number of Pixels in Spectrum: 2048
>>>>>Begin Spectral Data<<<<<
223.165	-11.56
223.4	-11.56
223.635	-11.56
223.869	-19.56
224.104	-21.56
224.338	-14.56
224.573	-3.56
224.808	-8.56
225.042	0.44
225.277	-11.56
225.511	-4.56
225.746	11.44
225.98	9.44
226.215	12.44
226.449	10.44
226.683	13.44
226.918	25.44
227.152	12.44
227.387	41.44
227.621	32.44
227.856	38.44
228.09	29.44
228.324	59.44
228.559	67.44
228.793	67.44
229.027	81.44
229.262	76.44
229.496	78.44
229.73	72.44
229.964	63.44
230.199	73.44
230.433	82.44
230.667	90.44
230.901	81.44
231.136	91.44
231.37	81.44
231.604	85.44
231.838	86.44
232.072	80.44
232.306	83.44
232.541	89.44
232.775	90.44
233.009	100.44
233.243	90.44
233.477	78.44
233.711	80.44
233.945	70.44
234.179	69.44
234.413	92.44
234.647	95.44
234.881	83.44
235.115	87.44
235.349	92.44
235.583	89.44
235.817	85.44
236.051	88.44
236.285	66.44
236.519	94.44
236.753	91.44
236.987	84.44
237.221	81.44
237.455	84.44
237.689	68.44
237.922	76.44
238.156	76.44
238.39	94.44
238.624	87.44
238.858	75.44
239.091	91.44
239.325	74.44
239.559	89.44
239.793	79.44
240.027	84.44
240.26	91.44
240.494	70.44
240.728	80.44
240.961	83.44
241.195	89.44
241.429	85.44
241.662	95.44
241.896	92.44
242.13	83.44
242.363	82.44
242.597	64.44
242.83	78.44
243.064	88.44
243.298	84.44
243.531	84.44
243.765	106.44
243.998	71.44
244.232	90.44
244.465	81.44
244.699	91.44
244.932	90.44
245.166	81.44
245.399	92.44
245.633	75.44
245.866	94.44
246.099	87.44
246.333	78.44
246.566	83.44
246.8	77.44
247.033	68.44
247.266	91.44
247.5	80.44
247.733	69.44
247.966	77.44
248.2	81.44
248.433	83.44
248.666	95.44
248.899	80.44
249.133	87.44
249.366	98.44
249.599	90.44
249.832	98.44
250.066	82.44
250.299	84.44
250.532	81.44
250.765	70.44
250.998	85.44
251.231	92.44
251.465	84.44
251.698	60.44
251.931	91.44
252.164	96.44
252.397	84.44
252.63	65.44
252.863	80.44
253.096	79.44
253.329	82.44
253.562	85.44
253.795	86.44
254.028	95.44
254.261	74.44
254.494	91.44
254.727	96.44
254.96	92.44
255.193	84.44
255.426	86.44
255.659	91.44
255.892	87.44
256.124	87.44
256.357	87.44
256.59	75.44
256.823	82.44
257.056	76.44
257.289	79.44
257.521	83.44
257.754	80.44
257.987	96.44
258.22	90.44
258.452	88.44
258.685	78.44
258.918	85.44
259.151	79.44
259.383	80.44
259.616	84.44
259.849	92.44
260.081	83.44
260.314	80.44
260.547	92.44
260.779	90.44
261.012	81.44
261.244	96.44
261.477	82.44
261.71	83.44
261.942	90.44
262.175	98.44
262.407	91.44
262.64	81.44
262.872	88.44
263.105	86.44
263.337	93.44
263.57	84.44
263.802	96.44
264.035	74.44
264.267	95.44
264.499	92.44
264.732	89.44
264.964	77.44
265.197	79.44
265.429	103.44
265.661	72.44
265.894	99.44
266.126	73.44
266.358	90.44
266.591	88.44
266.823	88.44
267.055	87.44
267.287	93.44
267.52	84.44
267.752	94.44
267.984	81.44
268.216	89.44
268.448	105.44
268.681	91.44
268.913	94.44
269.145	84.44
269.377	91.44
269.609	86.44
269.841	99.44
270.073	88.44
270.306	93.44
270.538	84.44
270.77	89.44
271.002	83.44
271.234	96.44
271.466	97.44
271.698	94.44
271.93	85.44
272.162	88.44
272.394	97.44
272.626	95.44
272.858	86.44
273.09	83.44
273.322	96.44
273.553	81.44
273.785	90.44
274.017	90.44
274.249	80.44
274.481	81.44
274.713	80.44
274.945	78.44
275.176	108.44
275.408	85.44
275.64	91.44
275.872	82.44
276.104	95.44
276.335	80.44
276.567	89.44
276.799	89.44
277.031	90.44
277.262	99.44
277.494	95.44
277.726	92.44
277.957	90.44
278.189	98.44
278.421	85.44
278.652	90.44
278.884	94.44
279.115	102.44
279.347	76.44
279.579	76.44
279.81	73.44
280.042	87.44
280.273	98.44
280.505	91.44
280.736	90.44
280.968	89.44
281.199	93.44
281.431	81.44
281.662	90.44
281.894	81.44
282.125	100.44
282.356	96.44
282.588	95.44
282.819	86.44
283.051	104.44
283.282	81.44
283.513	98.44
283.745	104.44
283.976	84.44
284.207	93.44
284.439	96.44
284.67	87.44
284.901	87.44
285.132	77.44
285.364	76.44
285.595	84.44
285.826	95.44
286.057	94.44
286.288	92.44
286.52	98.44
286.751	90.44
286.982	89.44
287.213	78.44
287.444	91.44
287.675	88.44
287.906	79.44
288.138	105.44
288.369	78.44
288.6	92.44
288.831	103.44
289.062	104.44
289.293	103.44
289.524	88.44
289.755	91.44
289.986	90.44
290.217	86.44
290.448	94.44
290.679	97.44
290.91	94.44
291.141	84.44
291.371	88.44
291.602	108.44
291.833	93.44
292.064	103.44
292.295	80.44
292.526	92.44
292.757	89.44
292.987	82.44
293.218	75.44
293.449	89.44
293.68	95.44
293.91	99.44
294.141	90.44
294.372	96.44
294.603	88.44
294.833	98.44
295.064	99.44
295.295	90.44
295.525	92.44
295.756	100.44
295.987	82.44
296.217	81.44
296.448	89.44
296.679	88.44
296.909	83.44
297.14	94.44
297.37	98.44
297.601	90.44
297.831	97.44
298.062	88.44
298.292	84.44
298.523	77.44
298.753	90.44
298.984	88.44
299.214	91.44
299.445	87.44
299.675	78.44
299.905	96.44
300.136	82.44
300.366	86.44
300.597	96.44
300.827	90.44
301.057	91.44
301.288	98.44
301.518	89.44
301.748	97.44
301.979	88.44
302.209	82.44
302.439	88.44
302.669	89.44
302.9	98.44
303.13	104.44
303.36	81.44
303.59	77.44
303.82	91.44
304.051	92.44
304.281	96.44
304.511	104.44
304.741	96.44
304.971	100.44
305.201	89.44
305.431	96.44
305.661	94.44
305.891	94.44
306.121	105.44
306.352	92.44
306.582	93.44
306.812	87.44
307.042	90.44
307.272	97.44
307.502	89.44
307.731	95.44
307.961	92.44
308.191	84.44
308.421	84.44
308.651	97.44
308.881	96.44
309.111	98.44
309.341	106.44
309.571	98.44
309.8	94.44
310.03	98.44
310.26	77.44
310.49	96.44
310.72	81.44
310.949	84.44
311.179	85.44
311.409	91.44
311.639	106.44
311.868	86.44
312.098	95.44
312.328	100.44
312.557	95.44
312.787	89.44
313.017	102.44
313.246	102.44
313.476	75.44
313.706	95.44
313.935	90.44
314.165	98.44
314.394	106.44
314.624	97.44
314.853	90.44
315.083	83.44
315.312	79.44
315.542	96.44
315.771	89.44
316.001	83.44
316.23	80.44
316.46	92.44
316.689	93.44
316.919	86.44
317.148	109.44
317.377	96.44
317.607	102.44
317.836	100.44
318.065	77.44
318.295	81.44
318.524	90.44
318.753	83.44
318.983	78.44
319.212	79.44
319.441	82.44
319.67	91.44
319.9	82.44
320.129	84.44
320.358	93.44
320.587	85.44
320.816	93.44
321.046	77.44
321.275	106.44
321.504	99.44
321.733	90.44
321.962	101.44
322.191	96.44
322.42	89.44
322.649	91.44
322.878	94.44
323.108	88.44
323.337	85.44
323.566	101.44
323.795	90.44
324.024	87.44
324.253	81.44
324.482	90.44
324.71	79.44
324.939	100.44
325.168	88.44
325.397	85.44
325.626	99.44
325.855	90.44
326.084	72.44
326.313	89.44
326.542	96.44
326.77	87.44
326.999	97.44
327.228	87.44
327.457	91.44
327.686	95.44
327.914	101.44
328.143	88.44
328.372	98.44
328.6	95.44
328.829	85.44
329.058	95.44
329.287	105.44
329.515	103.44
329.744	99.44
329.972	74.44
330.201	89.44
330.43	80.44
330.658	86.44
330.887	95.44
331.115	81.44
331.344	89.44
331.572	95.44
331.801	95.44
332.03	102.44
332.258	85.44
332.486	78.44
332.715	95.44
332.943	104.44
333.172	111.44
333.4	105.44
333.629	94.44
333.857	84.44
334.085	85.44
334.314	85.44
334.542	100.44
334.771	98.44
334.999	90.44
335.227	90.44
335.455	93.44
335.684	90.44
335.912	89.44
336.14	95.44
336.369	89.44
336.597	84.44
336.825	90.44
337.053	83.44
337.281	80.44
337.51	88.44
337.738	102.44
337.966	83.44
338.194	87.44
338.422	90.44
338.65	93.44
338.878	82.44
339.106	100.44
339.334	102.44
339.562	81.44
339.79	83.44
340.018	89.44
340.246	95.44
340.474	85.44
340.702	95.44
340.93	81.44
341.158	95.44
341.386	97.44
341.614	99.44
341.842	103.44
342.07	93.44
342.298	91.44
342.526	90.44
342.754	91.44
342.981	87.44
343.209	90.44
343.437	92.44
343.665	92.44
343.893	92.44
344.12	98.44
344.348	88.44
344.576	80.44
344.804	83.44
345.031	84.44
345.259	89.44
345.487	104.44
345.714	81.44
345.942	106.44
346.17	93.44
346.397	83.44
346.625	90.44
346.853	82.44
347.08	90.44
347.308	99.44
347.535	80.44
347.763	77.44
347.99	82.44
348.218	110.44
348.445	70.44
348.673	82.44
348.9	84.44
349.128	82.44
349.355	82.44
349.583	101.44
349.81	91.44
350.037	81.44
350.265	92.44
350.492	103.44
350.72	90.44
350.947	93.44
351.174	92.44
351.402	84.44
351.629	92.44
351.856	91.44
352.083	83.44
352.311	86.44
352.538	94.44
352.765	109.44
352.992	82.44
353.22	98.44
353.447	94.44
353.674	93.44
353.901	89.44
354.128	106.44
354.355	81.44
354.583	92.44
354.81	91.44
355.037	94.44
355.264	75.44
355.491	97.44
355.718	88.44
355.945	102.44
356.172	91.44
356.399	87.44
356.626	84.44
356.853	85.44
357.08	88.44
357.307	95.44
357.534	95.44
357.761	95.44
357.988	96.44
358.215	84.44
358.441	90.44
358.668	82.44
358.895	98.44
359.122	80.44
359.349	90.44
359.576	93.44
359.802	96.44
360.029	92.44
360.256	80.44
360.483	96.44
360.709	93.44
360.936	89.44
361.163	96.44
361.39	104.44
361.616	92.44
361.843	77.44
362.07	84.44
362.296	103.44
362.523	97.44
362.749	85.44
362.976	85.44
363.203	85.44
363.429	92.44
363.656	84.44
363.882	86.44
364.109	97.44
364.335	90.44
364.562	107.44
364.788	85.44
365.015	86.44
365.241	84.44
365.468	82.44
365.694	91.44
365.92	84.44
366.147	94.44
366.373	72.44
366.599	84.44
366.826	104.44
367.052	76.44
367.278	90.44
367.505	82.44
367.731	96.44
367.957	102.44
368.184	89.44
368.41	92.44
368.636	95.44
368.862	85.44
369.089	97.44
369.315	104.44
369.541	86.44
369.767	95.44
369.993	95.44
370.219	97.44
370.445	94.44
370.672	87.44
370.898	81.44
371.124	98.44
371.35	97.44
371.576	93.44
371.802	86.44
372.028	107.44
372.254	106.44
372.48	91.44
372.706	87.44
372.932	92.44
373.158	103.44
373.384	102.44
373.61	104.44
373.835	82.44
374.061	81.44
374.287	84.44
374.513	100.44
374.739	79.44
374.965	84.44
375.191	94.44
375.416	105.44
375.642	99.44
375.868	103.44
376.094	88.44
376.319	81.44
376.545	86.44
376.771	90.44
376.997	105.44
377.222	90.44
377.448	90.44
377.674	88.44
377.899	92.44
378.125	93.44
378.35	98.44
378.576	83.44
378.802	93.44
379.027	103.44
379.253	99.44
379.478	93.44
379.704	98.44
379.929	100.44
380.155	80.44
380.38	94.44
380.606	96.44
380.831	90.44
381.057	99.44
381.282	89.44
381.507	99.44
381.733	101.44
381.958	100.44
382.184	97.44
382.409	99.44
382.634	96.44
382.86	104.44
383.085	82.44
383.31	103.44
383.535	106.44
383.761	95.44
383.986	92.44
384.211	108.44
384.436	103.44
384.662	95.44
384.887	86.44
385.112	100.44
385.337	96.44
385.562	99.44
385.787	90.44
386.013	95.44
386.238	88.44
386.463	92.44
386.688	97.44
386.913	89.44
387.138	92.44
387.363	89.44
387.588	100.44
387.813	99.44
388.038	100.44
388.263	93.44
388.488	94.44
388.713	97.44
388.938	77.44
389.163	91.44
389.387	105.44
389.612	95.44
389.837	102.44
390.062	90.44
390.287	95.44
390.512	94.44
390.736	96.44
390.961	98.44
391.186	92.44
391.411	95.44
391.636	112.44
391.86	84.44
392.085	96.44
392.31	87.44
392.534	100.44
392.759	104.44
392.984	106.44
393.208	106.44
393.433	95.44
393.658	104.44
393.882	104.44
394.107	113.44
394.331	99.44
394.556	86.44
394.78	105.44
395.005	92.44
395.229	107.44
395.454	107.44
395.678	103.44
395.903	105.44
396.127	92.44
396.352	106.44
396.576	118.44
396.801	93.44
397.025	89.44
397.249	100.44
397.474	102.44
397.698	95.44
397.922	103.44
398.147	97.44
398.371	94.44
398.595	101.44
398.82	110.44
399.044	96.44
399.268	109.44
399.492	112.44
399.717	98.44
399.941	107.44
400.165	114.44
400.389	110.44
400.613	105.44
400.837	112.44
401.062	99.44
401.286	96.44
401.51	92.44
401.734	112.44
401.958	102.44
402.182	108.44
402.406	106.44
402.63	91.44
402.854	94.44
403.078	92.44
403.302	85.44
403.526	108.44
403.75	100.44
403.974	95.44
404.198	94.44
404.422	111.44
404.645	95.44
404.869	90.44
405.093	106.44
405.317	102.44
405.541	112.44
405.765	111.44
405.988	119.44
406.212	110.44
406.436	109.44
406.66	108.44
406.883	97.44
407.107	100.44
407.331	95.44
407.555	98.44
407.778	103.44
408.002	109.44
408.226	105.44
408.449	122.44
408.673	98.44
408.896	96.44
409.12	105.44
409.344	106.44
409.567	118.44
409.791	109.44
410.014	121.44
410.238	113.44
410.461	115.44
410.685	113.44
410.908	117.44
411.132	113.44
411.355	113.44
411.578	115.44
411.802	117.44
412.025	98.44
412.249	113.44
412.472	108.44
412.695	97.44
412.919	100.44
413.142	99.44
413.365	100.44
413.589	115.44
413.812	109.44
414.035	114.44
414.258	112.44
414.482	97.44
414.705	94.44
414.928	95.44
415.151	94.44
415.374	111.44
415.597	107.44
415.821	111.44
416.044	101.44
416.267	114.44
416.49	116.44
416.713	97.44
416.936	127.44
417.159	122.44
417.382	103.44
417.605	109.44
417.828	114.44
418.051	111.44
418.274	115.44
418.497	114.44
418.72	124.44
418.943	124.44
419.166	122.44
419.389	107.44
419.611	113.44
419.834	93.44
420.057	115.44
420.28	116.44
420.503	108.44
420.726	103.44
420.948	121.44
421.171	106.44
421.394	109.44
421.617	121.44
421.839	126.44
422.062	120.44
422.285	119.44
422.507	107.44
422.73	99.44
422.953	111.44
423.175	105.44
423.398	107.44
423.621	120.44
423.843	103.44
424.066	111.44
424.288	120.44
424.511	120.44
424.733	120.44
424.956	120.44
425.178	104.44
425.401	112.44
425.623	115.44
425.846	109.44
426.068	122.44
426.291	120.44
426.513	111.44
426.735	109.44
426.958	104.44
427.18	118.44
427.402	109.44
427.625	105.44
427.847	110.44
428.069	111.44
428.292	105.44
428.514	108.44
428.736	111.44
428.958	118.44
429.181	108.44
429.403	101.44
429.625	111.44
429.847	120.44
430.069	110.44
430.292	109.44
430.514	124.44
430.736	100.44
430.958	105.44
431.18	104.44
431.402	113.44
431.624	108.44
431.846	101.44
432.068	90.44
432.29	82.44
432.512	97.44
432.734	99.44
432.956	112.44
433.178	118.44
433.4	112.44
433.622	104.44
433.844	122.44
434.066	113.44
434.287	113.44
434.509	85.44
434.731	99.44
434.953	100.44
435.175	102.44
435.397	113.44
435.618	122.44
435.84	101.44
436.062	103.44
436.284	94.44
436.505	105.44
436.727	111.44
436.949	104.44
437.17	108.44
437.392	122.44
437.614	112.44
437.835	110.44
438.057	103.44
438.278	99.44
438.5	110.44
438.721	108.44
438.943	114.44
439.165	131.44
439.386	120.44
439.608	112.44
439.829	105.44
440.05	122.44
440.272	120.44
440.493	131.44
440.715	119.44
440.936	123.44
441.158	116.44
441.379	121.44
441.6	112.44
441.822	118.44
442.043	113.44
442.264	120.44
442.486	118.44
442.707	128.44
442.928	118.44
443.149	115.44
443.371	109.44
443.592	117.44
443.813	129.44
444.034	112.44
444.255	113.44
444.476	121.44
444.698	114.44
444.919	108.44
445.14	266.44
445.361	167.44
445.582	122.44
445.803	102.44
446.024	111.44
446.245	119.44
446.466	127.44
446.687	120.44
446.908	121.44
447.129	126.44
447.35	130.44
447.571	129.44
447.792	130.44
448.013	114.44
448.234	108.44
448.455	103.44
448.675	122.44
448.896	120.44
449.117	106.44
449.338	108.44
449.559	131.44
449.779	119.44
450	102.44
450.221	110.44
450.442	106.44
450.662	114.44
450.883	109.44
451.104	119.44
451.324	126.44
451.545	94.44
451.766	114.44
451.986	115.44
452.207	98.44
452.428	92.44
452.648	95.44
452.869	116.44
453.089	105.44
453.31	99.44
453.53	112.44
453.751	90.44
453.971	108.44
454.192	93.44
454.412	89.44
454.633	109.44
454.853	90.44
455.073	109.44
455.294	126.44
455.514	112.44
455.734	109.44
455.955	91.44
456.175	116.44
456.395	115.44
456.616	108.44
456.836	85.44
457.056	106.44
457.276	103.44
457.497	103.44
457.717	98.44
457.937	96.44
458.157	92.44
458.377	101.44
458.598	92.44
458.818	103.44
459.038	94.44
459.258	88.44
459.478	97.44
459.698	99.44
459.918	100.44
460.138	96.44
460.358	112.44
460.578	93.44
460.798	102.44
461.018	95.44
461.238	95.44
461.458	90.44
461.678	106.44
461.898	99.44
462.118	104.44
462.338	100.44
462.558	95.44
462.777	97.44
462.997	104.44
463.217	111.44
463.437	106.44
463.657	98.44
463.876	100.44
464.096	97.44
464.316	100.44
464.536	87.44
464.755	100.44
464.975	105.44
465.195	79.44
465.414	104.44
465.634	95.44
465.854	84.44
466.073	101.44
466.293	106.44
466.512	111.44
466.732	113.44
466.951	120.44
467.171	107.44
467.391	102.44
467.61	112.44
467.829	115.44
468.049	98.44
468.268	117.44
468.488	111.44
468.707	103.44
468.927	104.44
469.146	122.44
469.365	121.44
469.585	117.44
469.804	114.44
470.023	108.44
470.243	108.44
470.462	101.44
470.681	111.44
470.901	103.44
471.12	115.44
471.339	118.44
471.558	130.44
471.777	126.44
471.997	122.44
472.216	104.44
472.435	113.44
472.654	89.44
472.873	77.44
473.092	108.44
473.311	113.44
473.53	89.44
473.749	103.44
473.968	108.44
474.187	97.44
474.406	91.44
474.625	111.44
474.844	103.44
475.063	111.44
475.282	99.44
475.501	103.44
475.72	96.44
475.939	103.44
476.158	108.44
476.377	120.44
476.596	112.44
476.814	100.44
477.033	105.44
477.252	99.44
477.471	112.44
477.69	112.44
477.908	123.44
478.127	116.44
478.346	127.44
478.564	102.44
478.783	120.44
479.002	121.44
479.22	117.44
479.439	136.44
479.658	120.44
479.876	103.44
480.095	102.44
480.313	96.44
480.532	101.44
480.751	99.44
480.969	94.44
481.188	87.44
481.406	85.44
481.624	93.44
481.843	87.44
482.061	98.44
482.28	103.44
482.498	114.44
482.717	114.44
482.935	99.44
483.153	105.44
483.372	128.44
483.59	129.44
483.808	123.44
484.027	117.44
484.245	119.44
484.463	114.44
484.681	138.44
484.9	106.44
485.118	120.44
485.336	96.44
485.554	103.44
485.772	98.44
485.99	96.44
486.209	91.44
486.427	118.44
486.645	124.44
486.863	111.44
487.081	110.44
487.299	108.44
487.517	129.44
487.735	118.44
487.953	138.44
488.171	142.44
488.389	130.44
488.607	134.44
488.825	118.44
489.043	112.44
489.261	122.44
489.479	112.44
489.696	114.44
489.914	106.44
490.132	127.44
490.35	120.44
490.568	136.44
490.786	135.44
491.003	129.44
491.221	137.44
491.439	140.44
491.657	135.44
491.874	146.44
492.092	139.44
492.31	162.44
492.527	164.44
492.745	146.44
492.963	148.44
493.18	135.44
493.398	147.44
493.615	138.44
493.833	140.44
494.05	144.44
494.268	130.44
494.485	136.44
494.703	125.44
494.92	138.44
495.138	140.44
495.355	138.44
495.573	139.44
495.79	144.44
496.008	127.44
496.225	129.44
496.442	133.44
496.66	155.44
496.877	138.44
497.094	132.44
497.312	129.44
497.529	122.44
497.746	130.44
497.963	127.44
498.181	116.44
498.398	103.44
498.615	118.44
498.832	106.44
499.049	125.44
499.267	107.44
499.484	110.44
499.701	115.44
499.918	104.44
500.135	127.44
500.352	117.44
500.569	122.44
500.786	125.44
501.003	129.44
501.22	127.44
501.437	128.44
501.654	107.44
501.871	109.44
502.088	105.44
502.305	101.44
502.522	119.44
502.739	102.44
502.956	109.44
503.172	104.44
503.389	103.44
503.606	116.44
503.823	106.44
504.04	114.44
504.256	115.44
504.473	112.44
504.69	105.44
504.907	105.44
505.123	103.44
505.34	117.44
505.557	111.44
505.773	94.44
505.99	103.44
506.207	106.44
506.423	90.44
506.64	108.44
506.856	106.44
507.073	115.44
507.289	100.44
507.506	107.44
507.722	101.44
507.939	108.44
508.155	96.44
508.372	94.44
508.588	95.44
508.805	123.44
509.021	118.44
509.238	98.44
509.454	104.44
509.67	90.44
509.887	96.44
510.103	111.44
510.319	90.44
510.536	82.44
510.752	108.44
510.968	93.44
511.184	104.44
511.401	98.44
511.617	96.44
511.833	85.44
512.049	98.44
