Data from Zn(NO3)2Standard.Agarose3%.GreenCap.LampEnergy10E.O_HRD10591_15-09-05-952.txt Node
Date: Mon Jul 22 15:09:05 EDT 2019
User: cochatt
Spectrometer: HR+D1059
Trigger mode: 1
Integration Time (sec): 1.000000E-1
Scans to average: 1
Electric dark correction enabled: true
Nonlinearity correction enabled: false
Boxcar width: 0
XAxis mode: Wavelengths
Number of Pixels in Spectrum: 2048
>>>>>Begin Spectral Data<<<<<
223.165	-0.5
223.4	-0.5
223.635	-0.5
223.869	-15.5
224.104	-8.5
224.338	-11.5
224.573	-21.5
224.808	-17.5
225.042	-11.5
225.277	-12.5
225.511	5.5
225.746	1.5
225.98	20.5
226.215	9.5
226.449	10.5
226.683	14.5
226.918	10.5
227.152	26.5
227.387	32.5
227.621	23.5
227.856	27.5
228.09	51.5
228.324	49.5
228.559	51.5
228.793	57.5
229.027	48.5
229.262	69.5
229.496	59.5
229.73	75.5
229.964	81.5
230.199	82.5
230.433	82.5
230.667	71.5
230.901	63.5
231.136	83.5
231.37	91.5
231.604	71.5
231.838	93.5
232.072	73.5
232.306	77.5
232.541	94.5
232.775	88.5
233.009	77.5
233.243	86.5
233.477	89.5
233.711	78.5
233.945	79.5
234.179	68.5
234.413	92.5
234.647	80.5
234.881	91.5
235.115	70.5
235.349	72.5
235.583	77.5
235.817	74.5
236.051	69.5
236.285	75.5
236.519	84.5
236.753	57.5
236.987	71.5
237.221	68.5
237.455	72.5
237.689	96.5
237.922	63.5
238.156	79.5
238.39	81.5
238.624	77.5
238.858	82.5
239.091	75.5
239.325	71.5
239.559	68.5
239.793	55.5
240.027	80.5
240.26	71.5
240.494	78.5
240.728	76.5
240.961	72.5
241.195	64.5
241.429	82.5
241.662	78.5
241.896	81.5
242.13	64.5
242.363	82.5
242.597	75.5
242.83	62.5
243.064	76.5
243.298	78.5
243.531	80.5
243.765	74.5
243.998	70.5
244.232	84.5
244.465	60.5
244.699	74.5
244.932	79.5
245.166	68.5
245.399	70.5
245.633	79.5
245.866	72.5
246.099	84.5
246.333	72.5
246.566	78.5
246.8	72.5
247.033	74.5
247.266	72.5
247.5	94.5
247.733	86.5
247.966	76.5
248.2	92.5
248.433	79.5
248.666	69.5
248.899	71.5
249.133	64.5
249.366	64.5
249.599	66.5
249.832	68.5
250.066	85.5
250.299	82.5
250.532	80.5
250.765	68.5
250.998	79.5
251.231	76.5
251.465	79.5
251.698	74.5
251.931	71.5
252.164	86.5
252.397	86.5
252.63	73.5
252.863	83.5
253.096	73.5
253.329	95.5
253.562	72.5
253.795	68.5
254.028	87.5
254.261	82.5
254.494	79.5
254.727	80.5
254.96	76.5
255.193	92.5
255.426	68.5
255.659	77.5
255.892	73.5
256.124	75.5
256.357	74.5
256.59	83.5
256.823	70.5
257.056	64.5
257.289	87.5
257.521	71.5
257.754	66.5
257.987	83.5
258.22	87.5
258.452	94.5
258.685	68.5
258.918	73.5
259.151	81.5
259.383	88.5
259.616	86.5
259.849	73.5
260.081	69.5
260.314	75.5
260.547	83.5
260.779	75.5
261.012	88.5
261.244	83.5
261.477	73.5
261.71	78.5
261.942	72.5
262.175	75.5
262.407	80.5
262.64	76.5
262.872	86.5
263.105	80.5
263.337	71.5
263.57	95.5
263.802	83.5
264.035	76.5
264.267	74.5
264.499	75.5
264.732	88.5
264.964	74.5
265.197	70.5
265.429	89.5
265.661	75.5
265.894	84.5
266.126	77.5
266.358	88.5
266.591	70.5
266.823	83.5
267.055	74.5
267.287	75.5
267.52	74.5
267.752	72.5
267.984	67.5
268.216	64.5
268.448	73.5
268.681	98.5
268.913	68.5
269.145	83.5
269.377	80.5
269.609	78.5
269.841	97.5
270.073	69.5
270.306	76.5
270.538	79.5
270.77	64.5
271.002	87.5
271.234	75.5
271.466	70.5
271.698	72.5
271.93	75.5
272.162	90.5
272.394	84.5
272.626	90.5
272.858	83.5
273.09	89.5
273.322	75.5
273.553	100.5
273.785	78.5
274.017	76.5
274.249	85.5
274.481	77.5
274.713	74.5
274.945	81.5
275.176	71.5
275.408	83.5
275.64	73.5
275.872	89.5
276.104	78.5
276.335	67.5
276.567	89.5
276.799	68.5
277.031	81.5
277.262	76.5
277.494	88.5
277.726	95.5
277.957	86.5
278.189	75.5
278.421	84.5
278.652	69.5
278.884	80.5
279.115	90.5
279.347	86.5
279.579	90.5
279.81	86.5
280.042	89.5
280.273	82.5
280.505	96.5
280.736	73.5
280.968	72.5
281.199	95.5
281.431	89.5
281.662	75.5
281.894	82.5
282.125	98.5
282.356	94.5
282.588	89.5
282.819	84.5
283.051	77.5
283.282	86.5
283.513	73.5
283.745	86.5
283.976	90.5
284.207	78.5
284.439	65.5
284.67	84.5
284.901	89.5
285.132	88.5
285.364	84.5
285.595	78.5
285.826	85.5
286.057	88.5
286.288	83.5
286.52	84.5
286.751	80.5
286.982	94.5
287.213	80.5
287.444	91.5
287.675	87.5
287.906	71.5
288.138	76.5
288.369	79.5
288.6	79.5
288.831	80.5
289.062	91.5
289.293	81.5
289.524	91.5
289.755	90.5
289.986	73.5
290.217	92.5
290.448	77.5
290.679	81.5
290.91	73.5
291.141	98.5
291.371	82.5
291.602	87.5
291.833	103.5
292.064	94.5
292.295	82.5
292.526	75.5
292.757	78.5
292.987	72.5
293.218	73.5
293.449	83.5
293.68	83.5
293.91	80.5
294.141	81.5
294.372	80.5
294.603	96.5
294.833	75.5
295.064	70.5
295.295	70.5
295.525	83.5
295.756	84.5
295.987	88.5
296.217	74.5
296.448	70.5
296.679	83.5
296.909	73.5
297.14	71.5
297.37	87.5
297.601	68.5
297.831	75.5
298.062	77.5
298.292	86.5
298.523	73.5
298.753	78.5
298.984	75.5
299.214	85.5
299.445	73.5
299.675	75.5
299.905	83.5
300.136	91.5
300.366	85.5
300.597	78.5
300.827	69.5
301.057	82.5
301.288	97.5
301.518	90.5
301.748	90.5
301.979	73.5
302.209	77.5
302.439	79.5
302.669	75.5
302.9	80.5
303.13	86.5
303.36	81.5
303.59	76.5
303.82	90.5
304.051	90.5
304.281	90.5
304.511	84.5
304.741	83.5
304.971	94.5
305.201	82.5
305.431	87.5
305.661	82.5
305.891	85.5
306.121	84.5
306.352	76.5
306.582	83.5
306.812	76.5
307.042	79.5
307.272	82.5
307.502	76.5
307.731	77.5
307.961	82.5
308.191	70.5
308.421	85.5
308.651	83.5
308.881	82.5
309.111	71.5
309.341	86.5
309.571	88.5
309.8	79.5
310.03	79.5
310.26	84.5
310.49	86.5
310.72	82.5
310.949	100.5
311.179	79.5
311.409	84.5
311.639	84.5
311.868	79.5
312.098	85.5
312.328	71.5
312.557	72.5
312.787	78.5
313.017	74.5
313.246	90.5
313.476	76.5
313.706	78.5
313.935	88.5
314.165	82.5
314.394	86.5
314.624	89.5
314.853	88.5
315.083	76.5
315.312	75.5
315.542	83.5
315.771	88.5
316.001	84.5
316.23	70.5
316.46	82.5
316.689	96.5
316.919	83.5
317.148	93.5
317.377	83.5
317.607	76.5
317.836	85.5
318.065	84.5
318.295	65.5
318.524	82.5
318.753	74.5
318.983	78.5
319.212	96.5
319.441	73.5
319.67	82.5
319.9	82.5
320.129	80.5
320.358	67.5
320.587	71.5
320.816	80.5
321.046	86.5
321.275	85.5
321.504	75.5
321.733	72.5
321.962	82.5
322.191	80.5
322.42	74.5
322.649	87.5
322.878	77.5
323.108	83.5
323.337	55.5
323.566	73.5
323.795	75.5
324.024	77.5
324.253	74.5
324.482	78.5
324.71	66.5
324.939	110.5
325.168	83.5
325.397	82.5
325.626	83.5
325.855	83.5
326.084	75.5
326.313	70.5
326.542	88.5
326.77	87.5
326.999	80.5
327.228	82.5
327.457	71.5
327.686	80.5
327.914	82.5
328.143	89.5
328.372	87.5
328.6	74.5
328.829	70.5
329.058	76.5
329.287	81.5
329.515	75.5
329.744	82.5
329.972	82.5
330.201	87.5
330.43	80.5
330.658	87.5
330.887	74.5
331.115	73.5
331.344	85.5
331.572	83.5
331.801	95.5
332.03	89.5
332.258	87.5
332.486	83.5
332.715	79.5
332.943	78.5
333.172	79.5
333.4	79.5
333.629	66.5
333.857	89.5
334.085	82.5
334.314	80.5
334.542	82.5
334.771	84.5
334.999	91.5
335.227	71.5
335.455	78.5
335.684	85.5
335.912	74.5
336.14	85.5
336.369	78.5
336.597	71.5
336.825	92.5
337.053	87.5
337.281	80.5
337.51	71.5
337.738	88.5
337.966	78.5
338.194	86.5
338.422	63.5
338.65	68.5
338.878	80.5
339.106	82.5
339.334	83.5
339.562	80.5
339.79	83.5
340.018	90.5
340.246	79.5
340.474	63.5
340.702	71.5
340.93	80.5
341.158	84.5
341.386	84.5
341.614	60.5
341.842	79.5
342.07	85.5
342.298	89.5
342.526	89.5
342.754	85.5
342.981	97.5
343.209	85.5
343.437	84.5
343.665	80.5
343.893	77.5
344.12	68.5
344.348	76.5
344.576	83.5
344.804	73.5
345.031	88.5
345.259	99.5
345.487	81.5
345.714	83.5
345.942	75.5
346.17	77.5
346.397	83.5
346.625	87.5
346.853	73.5
347.08	88.5
347.308	85.5
347.535	65.5
347.763	73.5
347.99	87.5
348.218	74.5
348.445	87.5
348.673	75.5
348.9	88.5
349.128	89.5
349.355	79.5
349.583	76.5
349.81	77.5
350.037	82.5
350.265	81.5
350.492	82.5
350.72	73.5
350.947	79.5
351.174	81.5
351.402	78.5
351.629	77.5
351.856	76.5
352.083	62.5
352.311	86.5
352.538	82.5
352.765	86.5
352.992	89.5
353.22	74.5
353.447	79.5
353.674	70.5
353.901	81.5
354.128	76.5
354.355	78.5
354.583	87.5
354.81	76.5
355.037	87.5
355.264	81.5
355.491	83.5
355.718	104.5
355.945	84.5
356.172	87.5
356.399	81.5
356.626	91.5
356.853	87.5
357.08	87.5
357.307	93.5
357.534	80.5
357.761	96.5
357.988	87.5
358.215	88.5
358.441	95.5
358.668	91.5
358.895	73.5
359.122	64.5
359.349	70.5
359.576	69.5
359.802	92.5
360.029	90.5
360.256	89.5
360.483	79.5
360.709	78.5
360.936	83.5
361.163	86.5
361.39	81.5
361.616	87.5
361.843	73.5
362.07	70.5
362.296	75.5
362.523	83.5
362.749	87.5
362.976	82.5
363.203	79.5
363.429	88.5
363.656	84.5
363.882	91.5
364.109	75.5
364.335	88.5
364.562	83.5
364.788	66.5
365.015	85.5
365.241	77.5
365.468	69.5
365.694	71.5
365.92	74.5
366.147	77.5
366.373	80.5
366.599	87.5
366.826	86.5
367.052	82.5
367.278	81.5
367.505	89.5
367.731	80.5
367.957	78.5
368.184	84.5
368.41	89.5
368.636	79.5
368.862	76.5
369.089	86.5
369.315	78.5
369.541	89.5
369.767	84.5
369.993	89.5
370.219	74.5
370.445	98.5
370.672	71.5
370.898	81.5
371.124	76.5
371.35	92.5
371.576	86.5
371.802	80.5
372.028	78.5
372.254	91.5
372.48	80.5
372.706	75.5
372.932	93.5
373.158	89.5
373.384	91.5
373.61	91.5
373.835	87.5
374.061	76.5
374.287	78.5
374.513	72.5
374.739	72.5
374.965	84.5
375.191	93.5
375.416	98.5
375.642	101.5
375.868	105.5
376.094	70.5
376.319	71.5
376.545	88.5
376.771	88.5
376.997	74.5
377.222	80.5
377.448	80.5
377.674	86.5
377.899	83.5
378.125	83.5
378.35	85.5
378.576	89.5
378.802	88.5
379.027	80.5
379.253	91.5
379.478	75.5
379.704	69.5
379.929	83.5
380.155	88.5
380.38	85.5
380.606	82.5
380.831	78.5
381.057	89.5
381.282	98.5
381.507	71.5
381.733	87.5
381.958	90.5
382.184	92.5
382.409	90.5
382.634	82.5
382.86	92.5
383.085	97.5
383.31	80.5
383.535	83.5
383.761	80.5
383.986	66.5
384.211	81.5
384.436	80.5
384.662	91.5
384.887	90.5
385.112	84.5
385.337	82.5
385.562	74.5
385.787	73.5
386.013	78.5
386.238	85.5
386.463	81.5
386.688	90.5
386.913	96.5
387.138	87.5
387.363	86.5
387.588	90.5
387.813	89.5
388.038	89.5
388.263	89.5
388.488	83.5
388.713	88.5
388.938	81.5
389.163	77.5
389.387	90.5
389.612	68.5
389.837	84.5
390.062	79.5
390.287	88.5
390.512	77.5
390.736	82.5
390.961	86.5
391.186	86.5
391.411	87.5
391.636	88.5
391.86	77.5
392.085	91.5
392.31	80.5
392.534	83.5
392.759	103.5
392.984	87.5
393.208	83.5
393.433	90.5
393.658	94.5
393.882	90.5
394.107	88.5
394.331	98.5
394.556	85.5
394.78	86.5
395.005	85.5
395.229	88.5
395.454	84.5
395.678	84.5
395.903	76.5
396.127	75.5
396.352	82.5
396.576	103.5
396.801	94.5
397.025	76.5
397.249	64.5
397.474	86.5
397.698	92.5
397.922	91.5
398.147	84.5
398.371	94.5
398.595	88.5
398.82	97.5
399.044	86.5
399.268	82.5
399.492	95.5
399.717	94.5
399.941	78.5
400.165	90.5
400.389	90.5
400.613	109.5
400.837	87.5
401.062	98.5
401.286	95.5
401.51	92.5
401.734	108.5
401.958	94.5
402.182	91.5
402.406	91.5
402.63	98.5
402.854	81.5
403.078	104.5
403.302	87.5
403.526	100.5
403.75	100.5
403.974	73.5
404.198	85.5
404.422	90.5
404.645	76.5
404.869	90.5
405.093	89.5
405.317	95.5
405.541	97.5
405.765	107.5
405.988	98.5
406.212	96.5
406.436	99.5
406.66	97.5
406.883	100.5
407.107	102.5
407.331	102.5
407.555	96.5
407.778	91.5
408.002	82.5
408.226	110.5
408.449	95.5
408.673	74.5
408.896	103.5
409.12	95.5
409.344	104.5
409.567	93.5
409.791	85.5
410.014	108.5
410.238	107.5
410.461	96.5
410.685	105.5
410.908	96.5
411.132	106.5
411.355	95.5
411.578	87.5
411.802	101.5
412.025	100.5
412.249	103.5
412.472	95.5
412.695	106.5
412.919	90.5
413.142	103.5
413.365	83.5
413.589	95.5
413.812	95.5
414.035	110.5
414.258	96.5
414.482	92.5
414.705	106.5
414.928	98.5
415.151	90.5
415.374	90.5
415.597	94.5
415.821	101.5
416.044	97.5
416.267	101.5
416.49	105.5
416.713	112.5
416.936	116.5
417.159	101.5
417.382	92.5
417.605	100.5
417.828	97.5
418.051	92.5
418.274	112.5
418.497	94.5
418.72	105.5
418.943	98.5
419.166	104.5
419.389	108.5
419.611	95.5
419.834	106.5
420.057	100.5
420.28	112.5
420.503	91.5
420.726	96.5
420.948	103.5
421.171	102.5
421.394	102.5
421.617	99.5
421.839	112.5
422.062	104.5
422.285	112.5
422.507	88.5
422.73	98.5
422.953	104.5
423.175	99.5
423.398	108.5
423.621	111.5
423.843	94.5
424.066	100.5
424.288	103.5
424.511	104.5
424.733	130.5
424.956	116.5
425.178	102.5
425.401	107.5
425.623	96.5
425.846	99.5
426.068	103.5
426.291	106.5
426.513	114.5
426.735	91.5
426.958	80.5
427.18	99.5
427.402	104.5
427.625	103.5
427.847	95.5
428.069	113.5
428.292	104.5
428.514	107.5
428.736	95.5
428.958	98.5
429.181	111.5
429.403	97.5
429.625	97.5
429.847	111.5
430.069	98.5
430.292	92.5
430.514	107.5
430.736	123.5
430.958	100.5
431.18	94.5
431.402	95.5
431.624	102.5
431.846	82.5
432.068	79.5
432.29	93.5
432.512	102.5
432.734	88.5
432.956	114.5
433.178	102.5
433.4	101.5
433.622	86.5
433.844	102.5
434.066	93.5
434.287	102.5
434.509	91.5
434.731	93.5
434.953	97.5
435.175	113.5
435.397	110.5
435.618	90.5
435.84	90.5
436.062	105.5
436.284	111.5
436.505	103.5
436.727	101.5
436.949	95.5
437.17	105.5
437.392	104.5
437.614	87.5
437.835	90.5
438.057	101.5
438.278	97.5
438.5	97.5
438.721	115.5
438.943	102.5
439.165	106.5
439.386	118.5
439.608	102.5
439.829	115.5
440.05	123.5
440.272	112.5
440.493	117.5
440.715	114.5
440.936	101.5
441.158	107.5
441.379	110.5
441.6	104.5
441.822	106.5
442.043	106.5
442.264	114.5
442.486	103.5
442.707	118.5
442.928	120.5
443.149	98.5
443.371	100.5
443.592	121.5
443.813	118.5
444.034	106.5
444.255	106.5
444.476	97.5
444.698	92.5
444.919	118.5
445.14	252.5
445.361	176.5
445.582	115.5
445.803	114.5
446.024	114.5
446.245	112.5
446.466	124.5
446.687	117.5
446.908	120.5
447.129	109.5
447.35	114.5
447.571	116.5
447.792	112.5
448.013	114.5
448.234	106.5
448.455	110.5
448.675	110.5
448.896	107.5
449.117	99.5
449.338	96.5
449.559	105.5
449.779	97.5
450	103.5
450.221	101.5
450.442	83.5
450.662	104.5
450.883	109.5
451.104	108.5
451.324	104.5
451.545	110.5
451.766	105.5
451.986	102.5
452.207	118.5
452.428	106.5
452.648	113.5
452.869	92.5
453.089	88.5
453.31	89.5
453.53	78.5
453.751	98.5
453.971	98.5
454.192	76.5
454.412	90.5
454.633	96.5
454.853	89.5
455.073	87.5
455.294	100.5
455.514	106.5
455.734	100.5
455.955	91.5
456.175	98.5
456.395	90.5
456.616	83.5
456.836	89.5
457.056	93.5
457.276	76.5
457.497	92.5
457.717	99.5
457.937	82.5
458.157	89.5
458.377	90.5
458.598	75.5
458.818	94.5
459.038	66.5
459.258	80.5
459.478	81.5
459.698	95.5
459.918	100.5
460.138	97.5
460.358	83.5
460.578	94.5
460.798	107.5
461.018	97.5
461.238	97.5
461.458	85.5
461.678	90.5
461.898	118.5
462.118	111.5
462.338	101.5
462.558	97.5
462.777	100.5
462.997	84.5
463.217	90.5
463.437	86.5
463.657	78.5
463.876	102.5
464.096	95.5
464.316	97.5
464.536	96.5
464.755	92.5
464.975	94.5
465.195	98.5
465.414	104.5
465.634	99.5
465.854	86.5
466.073	109.5
466.293	90.5
466.512	90.5
466.732	115.5
466.951	97.5
467.171	100.5
467.391	103.5
467.61	95.5
467.829	112.5
468.049	111.5
468.268	105.5
468.488	114.5
468.707	91.5
468.927	108.5
469.146	106.5
469.365	111.5
469.585	111.5
469.804	112.5
470.023	122.5
470.243	110.5
470.462	95.5
470.681	94.5
470.901	92.5
471.12	97.5
471.339	110.5
471.558	94.5
471.777	126.5
471.997	104.5
472.216	111.5
472.435	98.5
472.654	90.5
472.873	90.5
473.092	94.5
473.311	96.5
473.53	114.5
473.749	94.5
473.968	117.5
474.187	106.5
474.406	96.5
474.625	87.5
474.844	88.5
475.063	90.5
475.282	107.5
475.501	107.5
475.72	100.5
475.939	107.5
476.158	107.5
476.377	105.5
476.596	108.5
476.814	93.5
477.033	102.5
477.252	105.5
477.471	94.5
477.69	98.5
477.908	121.5
478.127	102.5
478.346	110.5
478.564	106.5
478.783	102.5
479.002	107.5
479.22	102.5
479.439	101.5
479.658	82.5
479.876	106.5
480.095	89.5
480.313	101.5
480.532	86.5
480.751	82.5
480.969	89.5
481.188	84.5
481.406	84.5
481.624	75.5
481.843	82.5
482.061	94.5
482.28	94.5
482.498	98.5
482.717	85.5
482.935	103.5
483.153	105.5
483.372	118.5
483.59	122.5
483.808	112.5
484.027	88.5
484.245	100.5
484.463	111.5
484.681	114.5
484.9	111.5
485.118	114.5
485.336	105.5
485.554	96.5
485.772	94.5
485.99	97.5
486.209	106.5
486.427	104.5
486.645	107.5
486.863	111.5
487.081	103.5
487.299	111.5
487.517	94.5
487.735	116.5
487.953	129.5
488.171	125.5
488.389	116.5
488.607	110.5
488.825	92.5
489.043	109.5
489.261	98.5
489.479	111.5
489.696	110.5
489.914	116.5
490.132	106.5
490.35	109.5
490.568	126.5
490.786	116.5
491.003	124.5
491.221	131.5
491.439	122.5
491.657	136.5
491.874	149.5
492.092	128.5
492.31	146.5
492.527	165.5
492.745	148.5
492.963	132.5
493.18	126.5
493.398	114.5
493.615	122.5
493.833	133.5
494.05	130.5
494.268	132.5
494.485	114.5
494.703	129.5
494.92	128.5
495.138	112.5
495.355	111.5
495.573	134.5
495.79	137.5
496.008	122.5
496.225	127.5
496.442	121.5
496.66	124.5
496.877	110.5
497.094	106.5
497.312	115.5
497.529	122.5
497.746	121.5
497.963	105.5
498.181	99.5
498.398	100.5
498.615	90.5
498.832	91.5
499.049	95.5
499.267	94.5
499.484	95.5
499.701	95.5
499.918	130.5
500.135	116.5
500.352	115.5
500.569	108.5
500.786	118.5
501.003	104.5
501.22	116.5
501.437	109.5
501.654	111.5
501.871	112.5
502.088	107.5
502.305	118.5
502.522	95.5
502.739	102.5
502.956	100.5
503.172	114.5
503.389	91.5
503.606	94.5
503.823	90.5
504.04	86.5
504.256	82.5
504.473	97.5
504.69	86.5
504.907	94.5
505.123	96.5
505.34	100.5
505.557	105.5
505.773	104.5
505.99	112.5
506.207	113.5
506.423	95.5
506.64	80.5
506.856	109.5
507.073	94.5
507.289	107.5
507.506	97.5
507.722	99.5
507.939	100.5
508.155	102.5
508.372	87.5
508.588	89.5
508.805	88.5
509.021	90.5
509.238	89.5
509.454	102.5
509.67	82.5
509.887	91.5
510.103	88.5
510.319	79.5
510.536	79.5
510.752	80.5
510.968	86.5
511.184	82.5
511.401	84.5
511.617	78.5
511.833	74.5
512.049	84.5
512.265	83.5
512.481	95.5
512.698	91.5
512.914	89.5
513.13	94.5
513.346	79.5
513.562	84.5
513.778	92.5
513.994	90.5
514.21	89.5
514.426	85.5
514.642	85.5
514.858	90.5
515.074	96.5
515.29	87.5
515.506	100.5
515.721	76.5
515.937	79.5
516.153	73.5
516.369	83.5
516.585	69.5
516.801	74.5
517.016	80.5
517.232	77.5
517.448	94.5
517.664	91.5
517.879	92.5
518.095	88.5
518.311	76.5
518.527	82.5
518.742	88.5
518.958	81.5
519.173	91.5
519.389	81.5
519.605	103.5
519.82	90.5
520.036	97.5
520.251	102.5
520.467	92.5
520.682	85.5
520.898	79.5
521.113	86.5
521.329	78.5
521.544	75.5
521.76	94.5
521.975	90.5
522.19	84.5
522.406	85.5
522.621	94.5
522.836	84.5
523.052	86.5
523.267	82.5
523.482	86.5
523.698	77.5
523.913	105.5
524.128	91.5
524.343	75.5
524.559	97.5
524.774	98.5
524.989	112.5
525.204	91.5
525.419	94.5
525.634	97.5
525.849	90.5
526.064	90.5
526.28	104.5
526.495	90.5
526.71	96.5
526.925	92.5
527.14	88.5
527.355	78.5
527.57	88.5
527.785	90.5
527.999	76.5
528.214	92.5
528.429	92.5
528.644	101.5
528.859	107.5
529.074	100.5
529.289	126.5
529.503	115.5
529.718	97.5
529.933	96.5
530.148	100.5
530.363	88.5
530.577	85.5
530.792	83.5
531.007	83.5
531.221	89.5
531.436	79.5
531.651	80.5
531.865	73.5
532.08	88.5
532.295	79.5
532.509	80.5
532.724	83.5
532.938	92.5
533.153	87.5
533.367	91.5
533.582	104.5
533.796	102.5
534.011	101.5
534.225	91.5
534.44	89.5
534.654	85.5
534.868	96.5
535.083	109.5
535.297	86.5
