Data from Zn(NO3)2Standard.Agarose3%.GreenCap.LampEnergy5.5.E.O_HRD10591_15-02-43-768.txt Node
Date: Mon Jul 22 15:02:43 EDT 2019
User: cochatt
Spectrometer: HR+D1059
Trigger mode: 1
Integration Time (sec): 1.000000E-1
Scans to average: 1
Electric dark correction enabled: true
Nonlinearity correction enabled: false
Boxcar width: 0
XAxis mode: Wavelengths
Number of Pixels in Spectrum: 2048
>>>>>Begin Spectral Data<<<<<
223.165	-11.94
223.4	-11.94
223.635	-11.94
223.869	-13.94
224.104	-15.94
224.338	-13.94
224.573	3.06
224.808	-0.94
225.042	-1.94
225.277	-8.94
225.511	-14.94
225.746	-0.94
225.98	13.06
226.215	7.06
226.449	4.06
226.683	9.06
226.918	17.06
227.152	30.06
227.387	33.06
227.621	36.06
227.856	46.06
228.09	51.06
228.324	49.06
228.559	53.06
228.793	65.06
229.027	65.06
229.262	51.06
229.496	65.06
229.73	70.06
229.964	75.06
230.199	71.06
230.433	69.06
230.667	73.06
230.901	87.06
231.136	85.06
231.37	84.06
231.604	73.06
231.838	75.06
232.072	83.06
232.306	84.06
232.541	73.06
232.775	92.06
233.009	89.06
233.243	77.06
233.477	90.06
233.711	77.06
233.945	86.06
234.179	78.06
234.413	93.06
234.647	75.06
234.881	82.06
235.115	76.06
235.349	82.06
235.583	92.06
235.817	80.06
236.051	85.06
236.285	88.06
236.519	63.06
236.753	70.06
236.987	76.06
237.221	79.06
237.455	67.06
237.689	84.06
237.922	79.06
238.156	69.06
238.39	81.06
238.624	85.06
238.858	73.06
239.091	82.06
239.325	86.06
239.559	59.06
239.793	68.06
240.027	83.06
240.26	82.06
240.494	69.06
240.728	67.06
240.961	75.06
241.195	80.06
241.429	86.06
241.662	72.06
241.896	76.06
242.13	74.06
242.363	80.06
242.597	66.06
242.83	82.06
243.064	71.06
243.298	76.06
243.531	71.06
243.765	80.06
243.998	89.06
244.232	83.06
244.465	86.06
244.699	71.06
244.932	68.06
245.166	73.06
245.399	78.06
245.633	80.06
245.866	67.06
246.099	63.06
246.333	90.06
246.566	84.06
246.8	86.06
247.033	71.06
247.266	75.06
247.5	82.06
247.733	88.06
247.966	78.06
248.2	79.06
248.433	74.06
248.666	73.06
248.899	85.06
249.133	88.06
249.366	85.06
249.599	86.06
249.832	82.06
250.066	89.06
250.299	81.06
250.532	84.06
250.765	87.06
250.998	62.06
251.231	66.06
251.465	79.06
251.698	73.06
251.931	75.06
252.164	79.06
252.397	81.06
252.63	86.06
252.863	77.06
253.096	71.06
253.329	93.06
253.562	78.06
253.795	84.06
254.028	83.06
254.261	76.06
254.494	78.06
254.727	80.06
254.96	92.06
255.193	89.06
255.426	84.06
255.659	88.06
255.892	90.06
256.124	76.06
256.357	83.06
256.59	88.06
256.823	67.06
257.056	77.06
257.289	77.06
257.521	74.06
257.754	78.06
257.987	69.06
258.22	74.06
258.452	85.06
258.685	85.06
258.918	79.06
259.151	68.06
259.383	87.06
259.616	76.06
259.849	80.06
260.081	83.06
260.314	79.06
260.547	72.06
260.779	85.06
261.012	81.06
261.244	63.06
261.477	79.06
261.71	86.06
261.942	85.06
262.175	85.06
262.407	84.06
262.64	77.06
262.872	87.06
263.105	76.06
263.337	88.06
263.57	87.06
263.802	82.06
264.035	79.06
264.267	85.06
264.499	77.06
264.732	79.06
264.964	78.06
265.197	80.06
265.429	83.06
265.661	83.06
265.894	81.06
266.126	86.06
266.358	68.06
266.591	87.06
266.823	92.06
267.055	80.06
267.287	81.06
267.52	64.06
267.752	81.06
267.984	92.06
268.216	87.06
268.448	75.06
268.681	88.06
268.913	78.06
269.145	90.06
269.377	71.06
269.609	89.06
269.841	89.06
270.073	90.06
270.306	74.06
270.538	79.06
270.77	93.06
271.002	70.06
271.234	75.06
271.466	85.06
271.698	78.06
271.93	92.06
272.162	86.06
272.394	74.06
272.626	89.06
272.858	89.06
273.09	92.06
273.322	87.06
273.553	76.06
273.785	94.06
274.017	78.06
274.249	86.06
274.481	80.06
274.713	86.06
274.945	87.06
275.176	69.06
275.408	95.06
275.64	94.06
275.872	89.06
276.104	82.06
276.335	90.06
276.567	81.06
276.799	72.06
277.031	77.06
277.262	79.06
277.494	86.06
277.726	69.06
277.957	86.06
278.189	73.06
278.421	68.06
278.652	75.06
278.884	73.06
279.115	80.06
279.347	74.06
279.579	82.06
279.81	77.06
280.042	80.06
280.273	84.06
280.505	90.06
280.736	80.06
280.968	75.06
281.199	80.06
281.431	102.06
281.662	76.06
281.894	93.06
282.125	78.06
282.356	80.06
282.588	93.06
282.819	82.06
283.051	86.06
283.282	98.06
283.513	87.06
283.745	83.06
283.976	81.06
284.207	86.06
284.439	83.06
284.67	79.06
284.901	80.06
285.132	78.06
285.364	77.06
285.595	88.06
285.826	76.06
286.057	82.06
286.288	83.06
286.52	77.06
286.751	89.06
286.982	73.06
287.213	75.06
287.444	86.06
287.675	91.06
287.906	83.06
288.138	84.06
288.369	87.06
288.6	94.06
288.831	86.06
289.062	90.06
289.293	86.06
289.524	87.06
289.755	90.06
289.986	94.06
290.217	94.06
290.448	79.06
290.679	83.06
290.91	83.06
291.141	93.06
291.371	94.06
291.602	83.06
291.833	87.06
292.064	76.06
292.295	82.06
292.526	87.06
292.757	88.06
292.987	77.06
293.218	80.06
293.449	95.06
293.68	78.06
293.91	92.06
294.141	93.06
294.372	76.06
294.603	90.06
294.833	93.06
295.064	85.06
295.295	80.06
295.525	89.06
295.756	81.06
295.987	79.06
296.217	88.06
296.448	78.06
296.679	79.06
296.909	85.06
297.14	83.06
297.37	83.06
297.601	88.06
297.831	72.06
298.062	86.06
298.292	93.06
298.523	88.06
298.753	104.06
298.984	101.06
299.214	74.06
299.445	85.06
299.675	85.06
299.905	84.06
300.136	91.06
300.366	85.06
300.597	87.06
300.827	93.06
301.057	87.06
301.288	87.06
301.518	99.06
301.748	79.06
301.979	66.06
302.209	95.06
302.439	81.06
302.669	87.06
302.9	77.06
303.13	78.06
303.36	72.06
303.59	77.06
303.82	85.06
304.051	105.06
304.281	85.06
304.511	92.06
304.741	92.06
304.971	75.06
305.201	81.06
305.431	79.06
305.661	82.06
305.891	77.06
306.121	84.06
306.352	79.06
306.582	81.06
306.812	97.06
307.042	78.06
307.272	88.06
307.502	82.06
307.731	82.06
307.961	91.06
308.191	82.06
308.421	84.06
308.651	79.06
308.881	79.06
309.111	93.06
309.341	98.06
309.571	83.06
309.8	85.06
310.03	88.06
310.26	79.06
310.49	73.06
310.72	85.06
310.949	82.06
311.179	90.06
311.409	87.06
311.639	80.06
311.868	79.06
312.098	87.06
312.328	80.06
312.557	86.06
312.787	81.06
313.017	84.06
313.246	84.06
313.476	86.06
313.706	84.06
313.935	71.06
314.165	78.06
314.394	58.06
314.624	91.06
314.853	83.06
315.083	95.06
315.312	79.06
315.542	87.06
315.771	77.06
316.001	79.06
316.23	83.06
316.46	74.06
316.689	79.06
316.919	97.06
317.148	105.06
317.377	74.06
317.607	98.06
317.836	91.06
318.065	92.06
318.295	99.06
318.524	89.06
318.753	83.06
318.983	81.06
319.212	78.06
319.441	87.06
319.67	87.06
319.9	88.06
320.129	89.06
320.358	86.06
320.587	73.06
320.816	95.06
321.046	93.06
321.275	91.06
321.504	76.06
321.733	87.06
321.962	89.06
322.191	92.06
322.42	89.06
322.649	92.06
322.878	93.06
323.108	79.06
323.337	97.06
323.566	83.06
323.795	95.06
324.024	89.06
324.253	82.06
324.482	91.06
324.71	83.06
324.939	88.06
325.168	90.06
325.397	99.06
325.626	94.06
325.855	89.06
326.084	82.06
326.313	89.06
326.542	84.06
326.77	85.06
326.999	85.06
327.228	84.06
327.457	84.06
327.686	78.06
327.914	83.06
328.143	94.06
328.372	73.06
328.6	88.06
328.829	81.06
329.058	85.06
329.287	91.06
329.515	71.06
329.744	79.06
329.972	84.06
330.201	102.06
330.43	87.06
330.658	71.06
330.887	89.06
331.115	82.06
331.344	71.06
331.572	87.06
331.801	90.06
332.03	90.06
332.258	75.06
332.486	77.06
332.715	86.06
332.943	88.06
333.172	86.06
333.4	77.06
333.629	89.06
333.857	91.06
334.085	90.06
334.314	93.06
334.542	93.06
334.771	89.06
334.999	85.06
335.227	87.06
335.455	91.06
335.684	79.06
335.912	86.06
336.14	78.06
336.369	76.06
336.597	86.06
336.825	83.06
337.053	85.06
337.281	84.06
337.51	78.06
337.738	85.06
337.966	87.06
338.194	94.06
338.422	87.06
338.65	76.06
338.878	69.06
339.106	95.06
339.334	87.06
339.562	84.06
339.79	91.06
340.018	72.06
340.246	88.06
340.474	84.06
340.702	79.06
340.93	93.06
341.158	83.06
341.386	86.06
341.614	84.06
341.842	88.06
342.07	79.06
342.298	77.06
342.526	93.06
342.754	80.06
342.981	101.06
343.209	75.06
343.437	87.06
343.665	72.06
343.893	89.06
344.12	94.06
344.348	85.06
344.576	76.06
344.804	96.06
345.031	73.06
345.259	86.06
345.487	75.06
345.714	84.06
345.942	78.06
346.17	77.06
346.397	79.06
346.625	82.06
346.853	78.06
347.08	76.06
347.308	92.06
347.535	78.06
347.763	85.06
347.99	80.06
348.218	92.06
348.445	84.06
348.673	81.06
348.9	94.06
349.128	95.06
349.355	83.06
349.583	86.06
349.81	81.06
350.037	86.06
350.265	80.06
350.492	72.06
350.72	98.06
350.947	80.06
351.174	79.06
351.402	85.06
351.629	86.06
351.856	84.06
352.083	83.06
352.311	81.06
352.538	84.06
352.765	95.06
352.992	85.06
353.22	79.06
353.447	85.06
353.674	87.06
353.901	79.06
354.128	81.06
354.355	79.06
354.583	79.06
354.81	87.06
355.037	70.06
355.264	82.06
355.491	92.06
355.718	84.06
355.945	89.06
356.172	85.06
356.399	79.06
356.626	78.06
356.853	96.06
357.08	74.06
357.307	89.06
357.534	87.06
357.761	94.06
357.988	70.06
358.215	90.06
358.441	102.06
358.668	90.06
358.895	86.06
359.122	73.06
359.349	85.06
359.576	75.06
359.802	73.06
360.029	70.06
360.256	92.06
360.483	90.06
360.709	89.06
360.936	77.06
361.163	81.06
361.39	97.06
361.616	80.06
361.843	90.06
362.07	93.06
362.296	82.06
362.523	76.06
362.749	76.06
362.976	85.06
363.203	92.06
363.429	77.06
363.656	82.06
363.882	73.06
364.109	88.06
364.335	84.06
364.562	88.06
364.788	82.06
365.015	83.06
365.241	100.06
365.468	89.06
365.694	71.06
365.92	86.06
366.147	92.06
366.373	75.06
366.599	92.06
366.826	76.06
367.052	82.06
367.278	90.06
367.505	86.06
367.731	90.06
367.957	87.06
368.184	74.06
368.41	89.06
368.636	88.06
368.862	78.06
369.089	77.06
369.315	79.06
369.541	98.06
369.767	87.06
369.993	87.06
370.219	92.06
370.445	98.06
370.672	90.06
370.898	81.06
371.124	73.06
371.35	86.06
371.576	82.06
371.802	81.06
372.028	103.06
372.254	76.06
372.48	85.06
372.706	91.06
372.932	94.06
373.158	77.06
373.384	87.06
373.61	86.06
373.835	85.06
374.061	79.06
374.287	86.06
374.513	71.06
374.739	95.06
374.965	82.06
375.191	81.06
375.416	76.06
375.642	97.06
375.868	89.06
376.094	70.06
376.319	78.06
376.545	82.06
376.771	84.06
376.997	91.06
377.222	85.06
377.448	85.06
377.674	89.06
377.899	100.06
378.125	81.06
378.35	73.06
378.576	89.06
378.802	102.06
379.027	76.06
379.253	88.06
379.478	86.06
379.704	86.06
379.929	95.06
380.155	75.06
380.38	78.06
380.606	77.06
380.831	94.06
381.057	91.06
381.282	75.06
381.507	82.06
381.733	85.06
381.958	72.06
382.184	85.06
382.409	79.06
382.634	84.06
382.86	89.06
383.085	78.06
383.31	87.06
383.535	88.06
383.761	81.06
383.986	91.06
384.211	80.06
384.436	84.06
384.662	79.06
384.887	75.06
385.112	80.06
385.337	81.06
385.562	82.06
385.787	83.06
386.013	86.06
386.238	88.06
386.463	82.06
386.688	88.06
386.913	92.06
387.138	76.06
387.363	84.06
387.588	83.06
387.813	87.06
388.038	86.06
388.263	78.06
388.488	92.06
388.713	85.06
388.938	83.06
389.163	84.06
389.387	71.06
389.612	88.06
389.837	68.06
390.062	75.06
390.287	83.06
390.512	83.06
390.736	85.06
390.961	80.06
391.186	74.06
391.411	80.06
391.636	83.06
391.86	88.06
392.085	102.06
392.31	89.06
392.534	90.06
392.759	76.06
392.984	72.06
393.208	69.06
393.433	83.06
393.658	86.06
393.882	88.06
394.107	73.06
394.331	82.06
394.556	79.06
394.78	93.06
395.005	83.06
395.229	99.06
395.454	78.06
395.678	71.06
395.903	95.06
396.127	74.06
396.352	79.06
396.576	90.06
396.801	72.06
397.025	81.06
397.249	85.06
397.474	89.06
397.698	81.06
397.922	94.06
398.147	83.06
398.371	90.06
398.595	89.06
398.82	81.06
399.044	82.06
399.268	86.06
399.492	89.06
399.717	81.06
399.941	79.06
400.165	81.06
400.389	79.06
400.613	89.06
400.837	73.06
401.062	93.06
401.286	86.06
401.51	81.06
401.734	84.06
401.958	90.06
402.182	86.06
402.406	86.06
402.63	89.06
402.854	85.06
403.078	81.06
403.302	76.06
403.526	89.06
403.75	83.06
403.974	86.06
404.198	92.06
404.422	84.06
404.645	79.06
404.869	80.06
405.093	87.06
405.317	87.06
405.541	84.06
405.765	83.06
405.988	96.06
406.212	89.06
406.436	86.06
406.66	78.06
406.883	72.06
407.107	74.06
407.331	86.06
407.555	89.06
407.778	77.06
408.002	85.06
408.226	86.06
408.449	80.06
408.673	88.06
408.896	87.06
409.12	95.06
409.344	81.06
409.567	78.06
409.791	79.06
410.014	86.06
410.238	84.06
410.461	89.06
410.685	82.06
410.908	79.06
411.132	97.06
411.355	90.06
411.578	92.06
411.802	86.06
412.025	82.06
412.249	84.06
412.472	71.06
412.695	76.06
412.919	92.06
413.142	83.06
413.365	85.06
413.589	91.06
413.812	89.06
414.035	102.06
414.258	98.06
414.482	80.06
414.705	91.06
414.928	90.06
415.151	92.06
415.374	84.06
415.597	82.06
415.821	82.06
416.044	75.06
416.267	74.06
416.49	89.06
416.713	90.06
416.936	80.06
417.159	93.06
417.382	86.06
417.605	83.06
417.828	91.06
418.051	90.06
418.274	91.06
418.497	82.06
418.72	91.06
418.943	68.06
419.166	91.06
419.389	91.06
419.611	104.06
419.834	82.06
420.057	95.06
420.28	84.06
420.503	95.06
420.726	80.06
420.948	98.06
421.171	82.06
421.394	95.06
421.617	71.06
421.839	98.06
422.062	101.06
422.285	93.06
422.507	93.06
422.73	92.06
422.953	71.06
423.175	79.06
423.398	78.06
423.621	85.06
423.843	82.06
424.066	83.06
424.288	85.06
424.511	86.06
424.733	96.06
424.956	89.06
425.178	86.06
425.401	82.06
425.623	91.06
425.846	101.06
426.068	83.06
426.291	88.06
426.513	79.06
426.735	85.06
426.958	77.06
427.18	102.06
427.402	81.06
427.625	64.06
427.847	81.06
428.069	75.06
428.292	85.06
428.514	83.06
428.736	92.06
428.958	93.06
429.181	77.06
429.403	86.06
429.625	95.06
429.847	81.06
430.069	91.06
430.292	83.06
430.514	78.06
430.736	98.06
430.958	73.06
431.18	89.06
431.402	91.06
431.624	85.06
431.846	90.06
432.068	82.06
432.29	78.06
432.512	85.06
432.734	88.06
432.956	86.06
433.178	88.06
433.4	105.06
433.622	89.06
433.844	98.06
434.066	95.06
434.287	71.06
434.509	75.06
434.731	92.06
434.953	84.06
435.175	92.06
435.397	91.06
435.618	77.06
435.84	95.06
436.062	73.06
436.284	71.06
436.505	69.06
436.727	92.06
436.949	78.06
437.17	95.06
437.392	78.06
437.614	98.06
437.835	87.06
438.057	85.06
438.278	82.06
438.5	88.06
438.721	84.06
438.943	88.06
439.165	80.06
439.386	89.06
439.608	105.06
439.829	100.06
440.05	89.06
440.272	82.06
440.493	87.06
440.715	94.06
440.936	104.06
441.158	86.06
441.379	99.06
441.6	99.06
441.822	84.06
442.043	81.06
442.264	97.06
442.486	98.06
442.707	90.06
442.928	93.06
443.149	94.06
443.371	94.06
443.592	77.06
443.813	79.06
444.034	81.06
444.255	91.06
444.476	82.06
444.698	87.06
444.919	93.06
445.14	237.06
445.361	158.06
445.582	110.06
445.803	80.06
446.024	94.06
446.245	87.06
446.466	78.06
446.687	91.06
446.908	81.06
447.129	84.06
447.35	89.06
447.571	94.06
447.792	85.06
448.013	81.06
448.234	94.06
448.455	89.06
448.675	83.06
448.896	89.06
449.117	86.06
449.338	94.06
449.559	82.06
449.779	80.06
450	92.06
450.221	85.06
450.442	91.06
450.662	73.06
450.883	108.06
451.104	97.06
451.324	79.06
451.545	92.06
451.766	82.06
451.986	80.06
452.207	95.06
452.428	82.06
452.648	80.06
452.869	89.06
453.089	81.06
453.31	89.06
453.53	85.06
453.751	70.06
453.971	93.06
454.192	93.06
454.412	83.06
454.633	70.06
454.853	99.06
455.073	81.06
455.294	103.06
455.514	84.06
455.734	87.06
455.955	79.06
456.175	81.06
456.395	86.06
456.616	80.06
456.836	81.06
457.056	101.06
457.276	82.06
457.497	87.06
457.717	85.06
457.937	84.06
458.157	93.06
458.377	79.06
458.598	87.06
458.818	75.06
459.038	69.06
459.258	85.06
459.478	71.06
459.698	79.06
459.918	79.06
460.138	81.06
460.358	77.06
460.578	90.06
460.798	93.06
461.018	86.06
461.238	82.06
461.458	78.06
461.678	83.06
461.898	85.06
462.118	86.06
462.338	79.06
462.558	76.06
462.777	85.06
462.997	90.06
463.217	81.06
463.437	78.06
463.657	83.06
463.876	78.06
464.096	87.06
464.316	84.06
464.536	73.06
464.755	101.06
464.975	89.06
465.195	82.06
465.414	83.06
465.634	95.06
465.854	87.06
466.073	86.06
466.293	90.06
466.512	93.06
466.732	80.06
466.951	103.06
467.171	90.06
467.391	87.06
467.61	89.06
467.829	92.06
468.049	89.06
468.268	94.06
468.488	93.06
468.707	91.06
468.927	90.06
469.146	85.06
469.365	93.06
469.585	94.06
469.804	75.06
470.023	96.06
470.243	93.06
470.462	86.06
470.681	87.06
470.901	95.06
471.12	104.06
471.339	97.06
471.558	91.06
471.777	89.06
471.997	81.06
472.216	69.06
472.435	76.06
472.654	87.06
472.873	94.06
473.092	88.06
473.311	91.06
473.53	88.06
473.749	86.06
473.968	87.06
474.187	82.06
474.406	81.06
474.625	84.06
474.844	90.06
475.063	83.06
475.282	87.06
475.501	92.06
475.72	104.06
475.939	95.06
476.158	98.06
476.377	87.06
476.596	85.06
476.814	82.06
477.033	82.06
477.252	76.06
477.471	86.06
477.69	89.06
477.908	76.06
478.127	84.06
478.346	75.06
478.564	85.06
478.783	94.06
479.002	91.06
479.22	93.06
479.439	99.06
479.658	82.06
479.876	67.06
480.095	85.06
480.313	104.06
480.532	99.06
480.751	110.06
480.969	70.06
481.188	86.06
481.406	90.06
481.624	84.06
481.843	81.06
482.061	84.06
482.28	83.06
482.498	90.06
482.717	83.06
482.935	98.06
483.153	97.06
483.372	98.06
483.59	93.06
483.808	102.06
484.027	95.06
484.245	94.06
484.463	78.06
484.681	94.06
484.9	96.06
485.118	94.06
485.336	87.06
485.554	91.06
485.772	81.06
485.99	97.06
486.209	85.06
486.427	71.06
486.645	79.06
486.863	91.06
487.081	86.06
487.299	87.06
487.517	87.06
487.735	91.06
487.953	105.06
488.171	108.06
488.389	90.06
488.607	79.06
488.825	94.06
489.043	91.06
489.261	83.06
489.479	100.06
489.696	113.06
489.914	91.06
490.132	83.06
490.35	102.06
490.568	99.06
490.786	82.06
491.003	99.06
491.221	91.06
491.439	101.06
491.657	108.06
491.874	92.06
492.092	104.06
492.31	93.06
492.527	111.06
492.745	91.06
492.963	84.06
493.18	91.06
493.398	105.06
493.615	95.06
493.833	101.06
494.05	113.06
494.268	89.06
494.485	106.06
494.703	98.06
494.92	106.06
495.138	86.06
495.355	100.06
495.573	86.06
495.79	106.06
496.008	105.06
496.225	86.06
496.442	100.06
496.66	99.06
496.877	90.06
497.094	103.06
497.312	96.06
497.529	92.06
497.746	89.06
497.963	94.06
498.181	85.06
498.398	84.06
498.615	99.06
498.832	77.06
499.049	86.06
499.267	79.06
499.484	83.06
499.701	97.06
499.918	96.06
500.135	82.06
500.352	101.06
500.569	87.06
500.786	93.06
501.003	96.06
501.22	102.06
501.437	96.06
501.654	85.06
501.871	90.06
502.088	76.06
502.305	84.06
502.522	85.06
502.739	86.06
502.956	89.06
503.172	91.06
503.389	91.06
503.606	89.06
503.823	78.06
504.04	88.06
504.256	85.06
504.473	86.06
504.69	90.06
504.907	99.06
505.123	89.06
505.34	80.06
505.557	92.06
505.773	83.06
505.99	89.06
506.207	67.06
506.423	80.06
506.64	83.06
506.856	94.06
507.073	82.06
507.289	101.06
507.506	92.06
507.722	86.06
507.939	91.06
508.155	106.06
508.372	79.06
508.588	94.06
508.805	94.06
509.021	85.06
509.238	73.06
509.454	88.06
509.67	74.06
509.887	75.06
510.103	85.06
510.319	106.06
510.536	94.06
510.752	79.06
510.968	82.06
511.184	87.06
511.401	79.06
511.617	71.06
511.833	91.06
512.049	77.06
512.265	87.06
512.481	85.06
512.698	74.06
512.914	106.06
513.13	88.06
513.346	74.06
513.562	87.06
513.778	89.06
513.994	85.06
514.21	90.06
514.426	90.06
514.642	79.06
514.858	89.06
515.074	94.06
515.29	89.06
515.506	92.06
515.721	86.06
515.937	83.06
516.153	89.06
516.369	85.06
516.585	87.06
516.801	77.06
517.016	98.06
517.232	83.06
517.448	97.06
517.664	73.06
517.879	77.06
518.095	84.06
518.311	97.06
518.527	87.06
518.742	93.06
