Data from Zn(NO3)2Standard.Agarose3%.GreenCap.LampEnergy10E.O_HRD10591_15-08-24-948.txt Node
Date: Mon Jul 22 15:08:24 EDT 2019
User: cochatt
Spectrometer: HR+D1059
Trigger mode: 1
Integration Time (sec): 1.000000E-1
Scans to average: 1
Electric dark correction enabled: true
Nonlinearity correction enabled: false
Boxcar width: 0
XAxis mode: Wavelengths
Number of Pixels in Spectrum: 2048
>>>>>Begin Spectral Data<<<<<
223.165	-18.38
223.4	-18.38
223.635	-18.38
223.869	-14.38
224.104	-17.38
224.338	-29.38
224.573	-25.38
224.808	-7.38
225.042	-6.38
225.277	-13.38
225.511	-11.38
225.746	11.62
225.98	17.62
226.215	22.62
226.449	16.62
226.683	11.62
226.918	36.62
227.152	26.62
227.387	34.62
227.621	42.62
227.856	54.62
228.09	55.62
228.324	36.62
228.559	56.62
228.793	57.62
229.027	61.62
229.262	59.62
229.496	73.62
229.73	62.62
229.964	64.62
230.199	69.62
230.433	90.62
230.667	79.62
230.901	64.62
231.136	78.62
231.37	67.62
231.604	79.62
231.838	82.62
232.072	80.62
232.306	77.62
232.541	74.62
232.775	66.62
233.009	82.62
233.243	82.62
233.477	71.62
233.711	84.62
233.945	86.62
234.179	86.62
234.413	89.62
234.647	86.62
234.881	75.62
235.115	74.62
235.349	77.62
235.583	73.62
235.817	81.62
236.051	86.62
236.285	77.62
236.519	89.62
236.753	84.62
236.987	77.62
237.221	66.62
237.455	75.62
237.689	73.62
237.922	77.62
238.156	72.62
238.39	75.62
238.624	74.62
238.858	67.62
239.091	75.62
239.325	62.62
239.559	79.62
239.793	72.62
240.027	75.62
240.26	66.62
240.494	56.62
240.728	67.62
240.961	80.62
241.195	77.62
241.429	62.62
241.662	84.62
241.896	68.62
242.13	72.62
242.363	78.62
242.597	71.62
242.83	79.62
243.064	74.62
243.298	80.62
243.531	90.62
243.765	86.62
243.998	73.62
244.232	80.62
244.465	83.62
244.699	68.62
244.932	62.62
245.166	79.62
245.399	76.62
245.633	74.62
245.866	75.62
246.099	66.62
246.333	72.62
246.566	76.62
246.8	86.62
247.033	55.62
247.266	77.62
247.5	74.62
247.733	73.62
247.966	74.62
248.2	85.62
248.433	61.62
248.666	63.62
248.899	68.62
249.133	72.62
249.366	85.62
249.599	78.62
249.832	75.62
250.066	85.62
250.299	75.62
250.532	77.62
250.765	70.62
250.998	89.62
251.231	82.62
251.465	87.62
251.698	82.62
251.931	58.62
252.164	75.62
252.397	78.62
252.63	77.62
252.863	79.62
253.096	92.62
253.329	76.62
253.562	75.62
253.795	80.62
254.028	71.62
254.261	83.62
254.494	73.62
254.727	86.62
254.96	76.62
255.193	88.62
255.426	88.62
255.659	91.62
255.892	82.62
256.124	85.62
256.357	88.62
256.59	82.62
256.823	72.62
257.056	89.62
257.289	86.62
257.521	81.62
257.754	74.62
257.987	76.62
258.22	75.62
258.452	76.62
258.685	74.62
258.918	69.62
259.151	78.62
259.383	84.62
259.616	84.62
259.849	77.62
260.081	76.62
260.314	78.62
260.547	90.62
260.779	76.62
261.012	71.62
261.244	80.62
261.477	97.62
261.71	79.62
261.942	87.62
262.175	86.62
262.407	75.62
262.64	75.62
262.872	86.62
263.105	79.62
263.337	70.62
263.57	86.62
263.802	74.62
264.035	69.62
264.267	85.62
264.499	82.62
264.732	72.62
264.964	80.62
265.197	88.62
265.429	85.62
265.661	87.62
265.894	85.62
266.126	70.62
266.358	91.62
266.591	64.62
266.823	90.62
267.055	80.62
267.287	81.62
267.52	71.62
267.752	67.62
267.984	74.62
268.216	76.62
268.448	82.62
268.681	87.62
268.913	87.62
269.145	58.62
269.377	86.62
269.609	89.62
269.841	86.62
270.073	83.62
270.306	90.62
270.538	85.62
270.77	78.62
271.002	74.62
271.234	76.62
271.466	89.62
271.698	78.62
271.93	88.62
272.162	82.62
272.394	76.62
272.626	79.62
272.858	71.62
273.09	84.62
273.322	80.62
273.553	80.62
273.785	87.62
274.017	89.62
274.249	82.62
274.481	79.62
274.713	74.62
274.945	89.62
275.176	69.62
275.408	67.62
275.64	97.62
275.872	98.62
276.104	77.62
276.335	83.62
276.567	80.62
276.799	71.62
277.031	75.62
277.262	95.62
277.494	103.62
277.726	80.62
277.957	75.62
278.189	83.62
278.421	81.62
278.652	80.62
278.884	81.62
279.115	81.62
279.347	73.62
279.579	83.62
279.81	79.62
280.042	79.62
280.273	84.62
280.505	82.62
280.736	71.62
280.968	90.62
281.199	99.62
281.431	83.62
281.662	82.62
281.894	90.62
282.125	88.62
282.356	87.62
282.588	76.62
282.819	72.62
283.051	83.62
283.282	81.62
283.513	89.62
283.745	80.62
283.976	66.62
284.207	71.62
284.439	75.62
284.67	85.62
284.901	80.62
285.132	88.62
285.364	72.62
285.595	79.62
285.826	96.62
286.057	90.62
286.288	79.62
286.52	83.62
286.751	92.62
286.982	75.62
287.213	84.62
287.444	77.62
287.675	81.62
287.906	105.62
288.138	79.62
288.369	75.62
288.6	74.62
288.831	78.62
289.062	82.62
289.293	85.62
289.524	83.62
289.755	71.62
289.986	86.62
290.217	88.62
290.448	83.62
290.679	94.62
290.91	89.62
291.141	71.62
291.371	93.62
291.602	92.62
291.833	78.62
292.064	84.62
292.295	85.62
292.526	95.62
292.757	70.62
292.987	81.62
293.218	71.62
293.449	76.62
293.68	91.62
293.91	99.62
294.141	78.62
294.372	86.62
294.603	71.62
294.833	82.62
295.064	93.62
295.295	60.62
295.525	80.62
295.756	83.62
295.987	66.62
296.217	79.62
296.448	70.62
296.679	85.62
296.909	93.62
297.14	69.62
297.37	76.62
297.601	82.62
297.831	82.62
298.062	78.62
298.292	84.62
298.523	89.62
298.753	86.62
298.984	77.62
299.214	80.62
299.445	81.62
299.675	76.62
299.905	75.62
300.136	78.62
300.366	80.62
300.597	74.62
300.827	87.62
301.057	86.62
301.288	73.62
301.518	82.62
301.748	77.62
301.979	81.62
302.209	91.62
302.439	78.62
302.669	82.62
302.9	94.62
303.13	83.62
303.36	98.62
303.59	86.62
303.82	93.62
304.051	76.62
304.281	79.62
304.511	94.62
304.741	81.62
304.971	88.62
305.201	73.62
305.431	82.62
305.661	77.62
305.891	89.62
306.121	81.62
306.352	85.62
306.582	79.62
306.812	94.62
307.042	85.62
307.272	93.62
307.502	76.62
307.731	85.62
307.961	79.62
308.191	88.62
308.421	75.62
308.651	94.62
308.881	91.62
309.111	86.62
309.341	81.62
309.571	85.62
309.8	85.62
310.03	75.62
310.26	78.62
310.49	77.62
310.72	84.62
310.949	78.62
311.179	97.62
311.409	81.62
311.639	81.62
311.868	90.62
312.098	76.62
312.328	74.62
312.557	85.62
312.787	96.62
313.017	79.62
313.246	75.62
313.476	78.62
313.706	101.62
313.935	81.62
314.165	96.62
314.394	86.62
314.624	96.62
314.853	84.62
315.083	84.62
315.312	88.62
315.542	89.62
315.771	83.62
316.001	78.62
316.23	87.62
316.46	77.62
316.689	68.62
316.919	83.62
317.148	87.62
317.377	97.62
317.607	93.62
317.836	90.62
318.065	81.62
318.295	79.62
318.524	85.62
318.753	85.62
318.983	81.62
319.212	82.62
319.441	76.62
319.67	73.62
319.9	81.62
320.129	67.62
320.358	87.62
320.587	90.62
320.816	86.62
321.046	85.62
321.275	91.62
321.504	82.62
321.733	82.62
321.962	87.62
322.191	75.62
322.42	75.62
322.649	87.62
322.878	93.62
323.108	96.62
323.337	88.62
323.566	87.62
323.795	79.62
324.024	75.62
324.253	73.62
324.482	85.62
324.71	87.62
324.939	93.62
325.168	78.62
325.397	90.62
325.626	95.62
325.855	80.62
326.084	83.62
326.313	73.62
326.542	89.62
326.77	93.62
326.999	90.62
327.228	85.62
327.457	81.62
327.686	81.62
327.914	82.62
328.143	83.62
328.372	90.62
328.6	84.62
328.829	90.62
329.058	93.62
329.287	99.62
329.515	83.62
329.744	69.62
329.972	80.62
330.201	74.62
330.43	88.62
330.658	85.62
330.887	84.62
331.115	81.62
331.344	88.62
331.572	87.62
331.801	71.62
332.03	85.62
332.258	88.62
332.486	84.62
332.715	91.62
332.943	81.62
333.172	83.62
333.4	88.62
333.629	89.62
333.857	80.62
334.085	83.62
334.314	87.62
334.542	89.62
334.771	77.62
334.999	81.62
335.227	62.62
335.455	82.62
335.684	102.62
335.912	77.62
336.14	91.62
336.369	91.62
336.597	65.62
336.825	90.62
337.053	81.62
337.281	69.62
337.51	87.62
337.738	90.62
337.966	93.62
338.194	78.62
338.422	97.62
338.65	81.62
338.878	74.62
339.106	77.62
339.334	81.62
339.562	86.62
339.79	78.62
340.018	71.62
340.246	82.62
340.474	81.62
340.702	92.62
340.93	63.62
341.158	87.62
341.386	89.62
341.614	79.62
341.842	86.62
342.07	98.62
342.298	74.62
342.526	83.62
342.754	83.62
342.981	73.62
343.209	84.62
343.437	81.62
343.665	80.62
343.893	89.62
344.12	78.62
344.348	82.62
344.576	78.62
344.804	97.62
345.031	82.62
345.259	85.62
345.487	91.62
345.714	70.62
345.942	87.62
346.17	77.62
346.397	61.62
346.625	79.62
346.853	84.62
347.08	85.62
347.308	90.62
347.535	96.62
347.763	87.62
347.99	72.62
348.218	83.62
348.445	87.62
348.673	83.62
348.9	87.62
349.128	89.62
349.355	90.62
349.583	87.62
349.81	86.62
350.037	89.62
350.265	75.62
350.492	75.62
350.72	84.62
350.947	83.62
351.174	95.62
351.402	76.62
351.629	94.62
351.856	73.62
352.083	85.62
352.311	79.62
352.538	73.62
352.765	85.62
352.992	99.62
353.22	89.62
353.447	67.62
353.674	87.62
353.901	85.62
354.128	86.62
354.355	88.62
354.583	85.62
354.81	86.62
355.037	78.62
355.264	75.62
355.491	79.62
355.718	70.62
355.945	79.62
356.172	77.62
356.399	89.62
356.626	86.62
356.853	85.62
357.08	73.62
357.307	87.62
357.534	92.62
357.761	104.62
357.988	83.62
358.215	85.62
358.441	82.62
358.668	87.62
358.895	90.62
359.122	85.62
359.349	68.62
359.576	79.62
359.802	96.62
360.029	85.62
360.256	76.62
360.483	87.62
360.709	77.62
360.936	100.62
361.163	82.62
361.39	81.62
361.616	95.62
361.843	86.62
362.07	81.62
362.296	75.62
362.523	82.62
362.749	84.62
362.976	80.62
363.203	84.62
363.429	81.62
363.656	70.62
363.882	87.62
364.109	83.62
364.335	78.62
364.562	74.62
364.788	90.62
365.015	75.62
365.241	93.62
365.468	101.62
365.694	89.62
365.92	84.62
366.147	73.62
366.373	83.62
366.599	74.62
366.826	68.62
367.052	78.62
367.278	77.62
367.505	89.62
367.731	84.62
367.957	87.62
368.184	88.62
368.41	68.62
368.636	84.62
368.862	107.62
369.089	81.62
369.315	84.62
369.541	88.62
369.767	79.62
369.993	73.62
370.219	73.62
370.445	95.62
370.672	71.62
370.898	89.62
371.124	98.62
371.35	82.62
371.576	77.62
371.802	81.62
372.028	81.62
372.254	80.62
372.48	77.62
372.706	90.62
372.932	84.62
373.158	86.62
373.384	104.62
373.61	94.62
373.835	88.62
374.061	100.62
374.287	83.62
374.513	86.62
374.739	89.62
374.965	84.62
375.191	76.62
375.416	79.62
375.642	78.62
375.868	81.62
376.094	92.62
376.319	90.62
376.545	87.62
376.771	80.62
376.997	82.62
377.222	90.62
377.448	79.62
377.674	86.62
377.899	89.62
378.125	97.62
378.35	96.62
378.576	80.62
378.802	78.62
379.027	80.62
379.253	89.62
379.478	93.62
379.704	97.62
379.929	86.62
380.155	81.62
380.38	79.62
380.606	99.62
380.831	70.62
381.057	98.62
381.282	87.62
381.507	85.62
381.733	106.62
381.958	93.62
382.184	86.62
382.409	87.62
382.634	88.62
382.86	95.62
383.085	97.62
383.31	104.62
383.535	83.62
383.761	89.62
383.986	77.62
384.211	86.62
384.436	100.62
384.662	85.62
384.887	86.62
385.112	83.62
385.337	87.62
385.562	86.62
385.787	81.62
386.013	80.62
386.238	70.62
386.463	85.62
386.688	69.62
386.913	82.62
387.138	90.62
387.363	90.62
387.588	100.62
387.813	82.62
388.038	92.62
388.263	85.62
388.488	89.62
388.713	89.62
388.938	82.62
389.163	74.62
389.387	91.62
389.612	90.62
389.837	88.62
390.062	91.62
390.287	87.62
390.512	83.62
390.736	86.62
390.961	77.62
391.186	95.62
391.411	99.62
391.636	83.62
391.86	83.62
392.085	79.62
392.31	86.62
392.534	83.62
392.759	89.62
392.984	79.62
393.208	101.62
393.433	97.62
393.658	83.62
393.882	99.62
394.107	90.62
394.331	79.62
394.556	85.62
394.78	82.62
395.005	88.62
395.229	88.62
395.454	91.62
395.678	86.62
395.903	90.62
396.127	84.62
396.352	95.62
396.576	88.62
396.801	84.62
397.025	93.62
397.249	99.62
397.474	95.62
397.698	89.62
397.922	95.62
398.147	71.62
398.371	86.62
398.595	95.62
398.82	82.62
399.044	89.62
399.268	94.62
399.492	109.62
399.717	100.62
399.941	94.62
400.165	92.62
400.389	90.62
400.613	89.62
400.837	87.62
401.062	100.62
401.286	93.62
401.51	95.62
401.734	90.62
401.958	94.62
402.182	89.62
402.406	98.62
402.63	87.62
402.854	96.62
403.078	92.62
403.302	93.62
403.526	93.62
403.75	93.62
403.974	93.62
404.198	93.62
404.422	104.62
404.645	86.62
404.869	88.62
405.093	102.62
405.317	89.62
405.541	93.62
405.765	97.62
405.988	86.62
406.212	98.62
406.436	96.62
406.66	109.62
406.883	99.62
407.107	88.62
407.331	101.62
407.555	94.62
407.778	87.62
408.002	95.62
408.226	96.62
408.449	78.62
408.673	89.62
408.896	93.62
409.12	83.62
409.344	92.62
409.567	99.62
409.791	101.62
410.014	101.62
410.238	93.62
410.461	97.62
410.685	100.62
410.908	94.62
411.132	106.62
411.355	109.62
411.578	107.62
411.802	101.62
412.025	118.62
412.249	106.62
412.472	85.62
412.695	95.62
412.919	104.62
413.142	99.62
413.365	95.62
413.589	101.62
413.812	96.62
414.035	88.62
414.258	112.62
414.482	120.62
414.705	106.62
414.928	96.62
415.151	102.62
415.374	105.62
415.597	93.62
415.821	98.62
416.044	101.62
416.267	112.62
416.49	90.62
416.713	101.62
416.936	110.62
417.159	112.62
417.382	89.62
417.605	96.62
417.828	86.62
418.051	102.62
418.274	109.62
418.497	97.62
418.72	98.62
418.943	112.62
419.166	109.62
419.389	104.62
419.611	109.62
419.834	95.62
420.057	101.62
420.28	113.62
420.503	100.62
420.726	102.62
420.948	97.62
421.171	107.62
421.394	102.62
421.617	109.62
421.839	115.62
422.062	116.62
422.285	113.62
422.507	101.62
422.73	106.62
422.953	95.62
423.175	102.62
423.398	93.62
423.621	107.62
423.843	112.62
424.066	93.62
424.288	105.62
424.511	113.62
424.733	97.62
424.956	95.62
425.178	108.62
425.401	116.62
425.623	107.62
425.846	101.62
426.068	95.62
426.291	100.62
426.513	98.62
426.735	106.62
426.958	98.62
427.18	95.62
427.402	112.62
427.625	89.62
427.847	102.62
428.069	109.62
428.292	113.62
428.514	101.62
428.736	98.62
428.958	91.62
429.181	109.62
429.403	110.62
429.625	99.62
429.847	90.62
430.069	109.62
430.292	105.62
430.514	102.62
430.736	106.62
430.958	94.62
431.18	91.62
431.402	102.62
431.624	92.62
431.846	107.62
432.068	85.62
432.29	79.62
432.512	93.62
432.734	97.62
432.956	84.62
433.178	115.62
433.4	107.62
433.622	100.62
433.844	95.62
434.066	72.62
434.287	99.62
434.509	89.62
434.731	89.62
434.953	78.62
435.175	95.62
435.397	113.62
435.618	86.62
435.84	89.62
436.062	93.62
436.284	87.62
436.505	98.62
436.727	110.62
436.949	111.62
437.17	101.62
437.392	117.62
437.614	93.62
437.835	84.62
438.057	88.62
438.278	84.62
438.5	96.62
438.721	109.62
438.943	117.62
439.165	104.62
439.386	97.62
439.608	119.62
439.829	103.62
440.05	84.62
440.272	101.62
440.493	109.62
440.715	109.62
440.936	110.62
441.158	119.62
441.379	111.62
441.6	121.62
441.822	119.62
442.043	111.62
442.264	110.62
442.486	119.62
442.707	99.62
442.928	86.62
443.149	113.62
443.371	100.62
443.592	91.62
443.813	108.62
444.034	99.62
444.255	107.62
444.476	111.62
444.698	102.62
444.919	101.62
445.14	197.62
445.361	159.62
445.582	123.62
445.803	103.62
446.024	102.62
446.245	122.62
446.466	102.62
446.687	119.62
446.908	104.62
447.129	117.62
447.35	126.62
447.571	115.62
447.792	125.62
448.013	105.62
448.234	102.62
448.455	92.62
448.675	96.62
448.896	102.62
449.117	110.62
449.338	97.62
449.559	111.62
449.779	109.62
450	87.62
450.221	112.62
450.442	105.62
450.662	98.62
450.883	108.62
451.104	99.62
451.324	113.62
451.545	100.62
451.766	100.62
451.986	105.62
452.207	88.62
452.428	98.62
452.648	103.62
452.869	105.62
453.089	96.62
453.31	86.62
453.53	90.62
453.751	85.62
453.971	93.62
454.192	101.62
454.412	86.62
454.633	100.62
454.853	113.62
455.073	99.62
455.294	99.62
455.514	104.62
455.734	91.62
455.955	89.62
456.175	96.62
456.395	84.62
456.616	97.62
456.836	81.62
457.056	90.62
457.276	80.62
457.497	84.62
457.717	91.62
457.937	97.62
458.157	83.62
458.377	94.62
458.598	84.62
458.818	72.62
459.038	74.62
459.258	90.62
459.478	76.62
459.698	81.62
459.918	95.62
460.138	89.62
460.358	93.62
460.578	89.62
460.798	85.62
461.018	86.62
461.238	101.62
461.458	105.62
461.678	100.62
461.898	86.62
462.118	99.62
462.338	92.62
462.558	86.62
462.777	93.62
462.997	83.62
463.217	89.62
463.437	94.62
463.657	97.62
463.876	101.62
464.096	87.62
464.316	97.62
464.536	99.62
464.755	89.62
464.975	93.62
465.195	105.62
465.414	85.62
465.634	85.62
465.854	98.62
466.073	89.62
466.293	98.62
466.512	105.62
466.732	90.62
466.951	106.62
467.171	98.62
467.391	98.62
467.61	111.62
467.829	106.62
468.049	107.62
468.268	99.62
468.488	113.62
468.707	106.62
468.927	117.62
469.146	121.62
469.365	106.62
469.585	100.62
469.804	122.62
470.023	92.62
470.243	106.62
470.462	98.62
470.681	125.62
470.901	111.62
471.12	123.62
471.339	110.62
471.558	108.62
471.777	111.62
471.997	104.62
472.216	103.62
472.435	103.62
472.654	98.62
472.873	96.62
473.092	105.62
473.311	102.62
473.53	98.62
473.749	96.62
473.968	107.62
474.187	103.62
474.406	97.62
474.625	114.62
474.844	107.62
475.063	112.62
475.282	98.62
475.501	111.62
475.72	112.62
475.939	91.62
476.158	104.62
476.377	106.62
476.596	97.62
476.814	93.62
477.033	97.62
477.252	87.62
477.471	94.62
477.69	109.62
477.908	113.62
478.127	117.62
478.346	116.62
478.564	93.62
478.783	104.62
479.002	106.62
479.22	113.62
479.439	93.62
479.658	101.62
479.876	99.62
480.095	98.62
480.313	81.62
480.532	102.62
480.751	95.62
480.969	86.62
481.188	88.62
481.406	82.62
481.624	102.62
481.843	72.62
482.061	92.62
482.28	110.62
482.498	89.62
482.717	90.62
482.935	103.62
483.153	117.62
483.372	122.62
483.59	119.62
483.808	106.62
484.027	117.62
484.245	103.62
484.463	114.62
484.681	115.62
484.9	107.62
485.118	114.62
485.336	117.62
485.554	98.62
485.772	96.62
485.99	87.62
486.209	97.62
486.427	97.62
486.645	75.62
486.863	99.62
487.081	112.62
487.299	97.62
487.517	102.62
487.735	117.62
487.953	128.62
488.171	126.62
488.389	127.62
488.607	116.62
488.825	117.62
489.043	121.62
489.261	106.62
489.479	109.62
489.696	111.62
489.914	126.62
490.132	114.62
490.35	123.62
490.568	123.62
490.786	124.62
491.003	119.62
491.221	128.62
491.439	127.62
491.657	129.62
491.874	143.62
492.092	147.62
492.31	161.62
492.527	158.62
492.745	133.62
492.963	145.62
493.18	128.62
493.398	137.62
493.615	132.62
493.833	112.62
494.05	124.62
494.268	123.62
494.485	121.62
494.703	131.62
494.92	137.62
495.138	121.62
495.355	124.62
495.573	131.62
495.79	117.62
496.008	127.62
496.225	118.62
496.442	103.62
496.66	134.62
496.877	127.62
497.094	132.62
497.312	125.62
497.529	107.62
497.746	123.62
497.963	114.62
498.181	109.62
498.398	90.62
498.615	104.62
498.832	102.62
499.049	109.62
499.267	101.62
499.484	96.62
499.701	90.62
499.918	98.62
500.135	100.62
500.352	123.62
500.569	120.62
500.786	112.62
501.003	113.62
501.22	110.62
501.437	95.62
501.654	113.62
501.871	97.62
502.088	107.62
502.305	102.62
502.522	106.62
502.739	101.62
502.956	97.62
503.172	105.62
503.389	106.62
503.606	94.62
503.823	89.62
504.04	98.62
504.256	94.62
504.473	100.62
504.69	102.62
504.907	97.62
505.123	96.62
505.34	94.62
505.557	99.62
505.773	95.62
505.99	98.62
506.207	88.62
506.423	103.62
506.64	90.62
506.856	90.62
507.073	100.62
507.289	115.62
507.506	95.62
507.722	97.62
507.939	98.62
508.155	92.62
508.372	98.62
508.588	113.62
508.805	85.62
509.021	94.62
509.238	99.62
509.454	90.62
509.67	82.62
509.887	91.62
510.103	90.62
510.319	87.62
510.536	84.62
510.752	86.62
510.968	91.62
511.184	75.62
511.401	73.62
511.617	85.62
511.833	89.62
512.049	91.62
512.265	106.62
512.481	89.62
512.698	79.62
512.914	88.62
513.13	98.62
513.346	86.62
513.562	81.62
513.778	103.62
513.994	93.62
514.21	86.62
514.426	80.62
514.642	83.62
514.858	78.62
515.074	95.62
515.29	98.62
