Data from Zn(NO3)2Standard.Agarose3%.GreenCap.LampEnergy5.5.E.O_HRD10591_15-03-29-768.txt Node
Date: Mon Jul 22 15:03:29 EDT 2019
User: cochatt
Spectrometer: HR+D1059
Trigger mode: 1
Integration Time (sec): 1.000000E-1
Scans to average: 1
Electric dark correction enabled: true
Nonlinearity correction enabled: false
Boxcar width: 0
XAxis mode: Wavelengths
Number of Pixels in Spectrum: 2048
>>>>>Begin Spectral Data<<<<<
223.165	-23.12
223.4	-23.12
223.635	-23.12
223.869	-19.12
224.104	-11.12
224.338	-19.12
224.573	-15.12
224.808	-11.12
225.042	5.88
225.277	3.88
225.511	-34.12
225.746	-3.12
225.98	8.88
226.215	15.88
226.449	22.88
226.683	16.88
226.918	26.88
227.152	34.88
227.387	37.88
227.621	31.88
227.856	39.88
228.09	46.88
228.324	43.88
228.559	51.88
228.793	55.88
229.027	67.88
229.262	58.88
229.496	76.88
229.73	58.88
229.964	70.88
230.199	68.88
230.433	83.88
230.667	77.88
230.901	83.88
231.136	82.88
231.37	89.88
231.604	75.88
231.838	76.88
232.072	79.88
232.306	93.88
232.541	86.88
232.775	67.88
233.009	81.88
233.243	70.88
233.477	74.88
233.711	85.88
233.945	84.88
234.179	70.88
234.413	79.88
234.647	74.88
234.881	84.88
235.115	82.88
235.349	89.88
235.583	79.88
235.817	91.88
236.051	93.88
236.285	75.88
236.519	79.88
236.753	77.88
236.987	70.88
237.221	71.88
237.455	96.88
237.689	77.88
237.922	85.88
238.156	93.88
238.39	73.88
238.624	76.88
238.858	78.88
239.091	76.88
239.325	77.88
239.559	75.88
239.793	81.88
240.027	92.88
240.26	73.88
240.494	75.88
240.728	78.88
240.961	67.88
241.195	86.88
241.429	85.88
241.662	74.88
241.896	95.88
242.13	89.88
242.363	73.88
242.597	77.88
242.83	90.88
243.064	85.88
243.298	75.88
243.531	69.88
243.765	78.88
243.998	73.88
244.232	83.88
244.465	72.88
244.699	76.88
244.932	87.88
245.166	70.88
245.399	70.88
245.633	72.88
245.866	73.88
246.099	69.88
246.333	77.88
246.566	72.88
246.8	79.88
247.033	66.88
247.266	76.88
247.5	90.88
247.733	82.88
247.966	71.88
248.2	87.88
248.433	84.88
248.666	77.88
248.899	78.88
249.133	95.88
249.366	87.88
249.599	95.88
249.832	80.88
250.066	78.88
250.299	86.88
250.532	69.88
250.765	71.88
250.998	87.88
251.231	81.88
251.465	93.88
251.698	84.88
251.931	64.88
252.164	75.88
252.397	87.88
252.63	88.88
252.863	83.88
253.096	95.88
253.329	92.88
253.562	88.88
253.795	86.88
254.028	91.88
254.261	83.88
254.494	92.88
254.727	100.88
254.96	75.88
255.193	69.88
255.426	93.88
255.659	79.88
255.892	71.88
256.124	90.88
256.357	73.88
256.59	70.88
256.823	88.88
257.056	76.88
257.289	90.88
257.521	109.88
257.754	71.88
257.987	80.88
258.22	89.88
258.452	75.88
258.685	84.88
258.918	95.88
259.151	82.88
259.383	97.88
259.616	90.88
259.849	84.88
260.081	83.88
260.314	77.88
260.547	85.88
260.779	67.88
261.012	84.88
261.244	85.88
261.477	80.88
261.71	84.88
261.942	78.88
262.175	91.88
262.407	80.88
262.64	79.88
262.872	77.88
263.105	88.88
263.337	89.88
263.57	75.88
263.802	74.88
264.035	74.88
264.267	90.88
264.499	82.88
264.732	76.88
264.964	78.88
265.197	83.88
265.429	78.88
265.661	82.88
265.894	93.88
266.126	77.88
266.358	96.88
266.591	86.88
266.823	93.88
267.055	87.88
267.287	81.88
267.52	80.88
267.752	83.88
267.984	79.88
268.216	80.88
268.448	88.88
268.681	81.88
268.913	85.88
269.145	90.88
269.377	87.88
269.609	89.88
269.841	73.88
270.073	81.88
270.306	88.88
270.538	84.88
270.77	87.88
271.002	86.88
271.234	94.88
271.466	92.88
271.698	86.88
271.93	72.88
272.162	75.88
272.394	97.88
272.626	79.88
272.858	82.88
273.09	88.88
273.322	88.88
273.553	70.88
273.785	92.88
274.017	84.88
274.249	85.88
274.481	84.88
274.713	76.88
274.945	81.88
275.176	84.88
275.408	82.88
275.64	78.88
275.872	91.88
276.104	85.88
276.335	84.88
276.567	97.88
276.799	84.88
277.031	72.88
277.262	86.88
277.494	80.88
277.726	82.88
277.957	92.88
278.189	67.88
278.421	79.88
278.652	81.88
278.884	81.88
279.115	89.88
279.347	88.88
279.579	79.88
279.81	88.88
280.042	100.88
280.273	85.88
280.505	78.88
280.736	86.88
280.968	86.88
281.199	84.88
281.431	81.88
281.662	78.88
281.894	78.88
282.125	93.88
282.356	81.88
282.588	80.88
282.819	71.88
283.051	91.88
283.282	86.88
283.513	81.88
283.745	100.88
283.976	79.88
284.207	97.88
284.439	91.88
284.67	87.88
284.901	99.88
285.132	96.88
285.364	80.88
285.595	87.88
285.826	80.88
286.057	76.88
286.288	83.88
286.52	76.88
286.751	84.88
286.982	87.88
287.213	93.88
287.444	88.88
287.675	86.88
287.906	90.88
288.138	81.88
288.369	84.88
288.6	76.88
288.831	88.88
289.062	80.88
289.293	88.88
289.524	80.88
289.755	88.88
289.986	87.88
290.217	91.88
290.448	96.88
290.679	76.88
290.91	101.88
291.141	79.88
291.371	91.88
291.602	90.88
291.833	78.88
292.064	81.88
292.295	75.88
292.526	97.88
292.757	82.88
292.987	85.88
293.218	92.88
293.449	90.88
293.68	81.88
293.91	90.88
294.141	98.88
294.372	101.88
294.603	84.88
294.833	93.88
295.064	84.88
295.295	98.88
295.525	74.88
295.756	84.88
295.987	80.88
296.217	89.88
296.448	91.88
296.679	91.88
296.909	95.88
297.14	88.88
297.37	92.88
297.601	85.88
297.831	80.88
298.062	95.88
298.292	87.88
298.523	80.88
298.753	79.88
298.984	90.88
299.214	84.88
299.445	94.88
299.675	82.88
299.905	85.88
300.136	88.88
300.366	79.88
300.597	85.88
300.827	92.88
301.057	80.88
301.288	83.88
301.518	100.88
301.748	67.88
301.979	80.88
302.209	88.88
302.439	97.88
302.669	81.88
302.9	74.88
303.13	83.88
303.36	74.88
303.59	82.88
303.82	79.88
304.051	83.88
304.281	90.88
304.511	87.88
304.741	83.88
304.971	87.88
305.201	87.88
305.431	73.88
305.661	75.88
305.891	100.88
306.121	92.88
306.352	95.88
306.582	69.88
306.812	85.88
307.042	80.88
307.272	87.88
307.502	85.88
307.731	86.88
307.961	91.88
308.191	69.88
308.421	87.88
308.651	76.88
308.881	86.88
309.111	87.88
309.341	90.88
309.571	68.88
309.8	81.88
310.03	85.88
310.26	73.88
310.49	90.88
310.72	80.88
310.949	74.88
311.179	85.88
311.409	87.88
311.639	100.88
311.868	80.88
312.098	81.88
312.328	79.88
312.557	94.88
312.787	80.88
313.017	80.88
313.246	87.88
313.476	76.88
313.706	98.88
313.935	75.88
314.165	82.88
314.394	87.88
314.624	86.88
314.853	101.88
315.083	92.88
315.312	82.88
315.542	80.88
315.771	88.88
316.001	75.88
316.23	78.88
316.46	80.88
316.689	76.88
316.919	81.88
317.148	84.88
317.377	85.88
317.607	74.88
317.836	99.88
318.065	103.88
318.295	90.88
318.524	85.88
318.753	96.88
318.983	74.88
319.212	85.88
319.441	88.88
319.67	80.88
319.9	88.88
320.129	78.88
320.358	94.88
320.587	90.88
320.816	92.88
321.046	97.88
321.275	87.88
321.504	75.88
321.733	77.88
321.962	82.88
322.191	78.88
322.42	88.88
322.649	85.88
322.878	80.88
323.108	79.88
323.337	96.88
323.566	85.88
323.795	85.88
324.024	81.88
324.253	89.88
324.482	79.88
324.71	89.88
324.939	77.88
325.168	89.88
325.397	76.88
325.626	94.88
325.855	90.88
326.084	97.88
326.313	77.88
326.542	88.88
326.77	77.88
326.999	73.88
327.228	91.88
327.457	84.88
327.686	86.88
327.914	85.88
328.143	92.88
328.372	83.88
328.6	86.88
328.829	81.88
329.058	74.88
329.287	103.88
329.515	91.88
329.744	83.88
329.972	83.88
330.201	86.88
330.43	84.88
330.658	85.88
330.887	89.88
331.115	86.88
331.344	85.88
331.572	69.88
331.801	80.88
332.03	67.88
332.258	87.88
332.486	74.88
332.715	85.88
332.943	79.88
333.172	69.88
333.4	86.88
333.629	83.88
333.857	76.88
334.085	88.88
334.314	80.88
334.542	72.88
334.771	84.88
334.999	97.88
335.227	77.88
335.455	84.88
335.684	75.88
335.912	78.88
336.14	84.88
336.369	77.88
336.597	98.88
336.825	92.88
337.053	83.88
337.281	76.88
337.51	95.88
337.738	105.88
337.966	81.88
338.194	66.88
338.422	82.88
338.65	92.88
338.878	90.88
339.106	84.88
339.334	91.88
339.562	93.88
339.79	87.88
340.018	88.88
340.246	84.88
340.474	86.88
340.702	70.88
340.93	71.88
341.158	80.88
341.386	84.88
341.614	80.88
341.842	88.88
342.07	71.88
342.298	89.88
342.526	95.88
342.754	89.88
342.981	86.88
343.209	87.88
343.437	103.88
343.665	80.88
343.893	82.88
344.12	91.88
344.348	83.88
344.576	91.88
344.804	87.88
345.031	83.88
345.259	81.88
345.487	78.88
345.714	81.88
345.942	86.88
346.17	81.88
346.397	82.88
346.625	71.88
346.853	92.88
347.08	87.88
347.308	79.88
347.535	90.88
347.763	82.88
347.99	85.88
348.218	83.88
348.445	84.88
348.673	85.88
348.9	85.88
349.128	76.88
349.355	91.88
349.583	80.88
349.81	82.88
350.037	88.88
350.265	86.88
350.492	86.88
350.72	92.88
350.947	86.88
351.174	86.88
351.402	105.88
351.629	91.88
351.856	86.88
352.083	85.88
352.311	77.88
352.538	90.88
352.765	87.88
352.992	85.88
353.22	90.88
353.447	66.88
353.674	72.88
353.901	88.88
354.128	79.88
354.355	77.88
354.583	67.88
354.81	96.88
355.037	86.88
355.264	91.88
355.491	102.88
355.718	95.88
355.945	86.88
356.172	86.88
356.399	86.88
356.626	91.88
356.853	89.88
357.08	70.88
357.307	88.88
357.534	84.88
357.761	85.88
357.988	79.88
358.215	76.88
358.441	77.88
358.668	76.88
358.895	70.88
359.122	98.88
359.349	90.88
359.576	85.88
359.802	100.88
360.029	86.88
360.256	96.88
360.483	89.88
360.709	80.88
360.936	91.88
361.163	75.88
361.39	84.88
361.616	94.88
361.843	82.88
362.07	85.88
362.296	90.88
362.523	90.88
362.749	84.88
362.976	90.88
363.203	103.88
363.429	86.88
363.656	103.88
363.882	69.88
364.109	85.88
364.335	97.88
364.562	70.88
364.788	85.88
365.015	82.88
365.241	79.88
365.468	82.88
365.694	89.88
365.92	80.88
366.147	82.88
366.373	87.88
366.599	86.88
366.826	78.88
367.052	98.88
367.278	86.88
367.505	75.88
367.731	95.88
367.957	94.88
368.184	66.88
368.41	82.88
368.636	80.88
368.862	82.88
369.089	83.88
369.315	92.88
369.541	93.88
369.767	93.88
369.993	100.88
370.219	88.88
370.445	98.88
370.672	91.88
370.898	89.88
371.124	75.88
371.35	94.88
371.576	89.88
371.802	89.88
372.028	90.88
372.254	82.88
372.48	99.88
372.706	101.88
372.932	62.88
373.158	87.88
373.384	76.88
373.61	86.88
373.835	89.88
374.061	84.88
374.287	85.88
374.513	85.88
374.739	74.88
374.965	82.88
375.191	80.88
375.416	90.88
375.642	86.88
375.868	89.88
376.094	84.88
376.319	89.88
376.545	79.88
376.771	82.88
376.997	86.88
377.222	74.88
377.448	96.88
377.674	98.88
377.899	82.88
378.125	97.88
378.35	75.88
378.576	64.88
378.802	91.88
379.027	96.88
379.253	103.88
379.478	93.88
379.704	86.88
379.929	89.88
380.155	80.88
380.38	87.88
380.606	75.88
380.831	78.88
381.057	87.88
381.282	87.88
381.507	95.88
381.733	88.88
381.958	75.88
382.184	74.88
382.409	92.88
382.634	90.88
382.86	86.88
383.085	87.88
383.31	98.88
383.535	79.88
383.761	100.88
383.986	87.88
384.211	86.88
384.436	85.88
384.662	79.88
384.887	87.88
385.112	102.88
385.337	89.88
385.562	87.88
385.787	82.88
386.013	91.88
386.238	76.88
386.463	88.88
386.688	79.88
386.913	77.88
387.138	79.88
387.363	86.88
387.588	95.88
387.813	88.88
388.038	95.88
388.263	84.88
388.488	86.88
388.713	77.88
388.938	70.88
389.163	100.88
389.387	96.88
389.612	74.88
389.837	77.88
390.062	71.88
390.287	86.88
390.512	81.88
390.736	76.88
390.961	83.88
391.186	74.88
391.411	79.88
391.636	96.88
391.86	76.88
392.085	90.88
392.31	82.88
392.534	88.88
392.759	86.88
392.984	73.88
393.208	92.88
393.433	103.88
393.658	99.88
393.882	93.88
394.107	93.88
394.331	86.88
394.556	75.88
394.78	87.88
395.005	78.88
395.229	81.88
395.454	106.88
395.678	83.88
395.903	93.88
396.127	93.88
396.352	77.88
396.576	78.88
396.801	72.88
397.025	87.88
397.249	86.88
397.474	98.88
397.698	94.88
397.922	87.88
398.147	75.88
398.371	96.88
398.595	88.88
398.82	80.88
399.044	103.88
399.268	79.88
399.492	95.88
399.717	97.88
399.941	87.88
400.165	72.88
400.389	94.88
400.613	87.88
400.837	78.88
401.062	84.88
401.286	73.88
401.51	75.88
401.734	77.88
401.958	81.88
402.182	87.88
402.406	77.88
402.63	86.88
402.854	83.88
403.078	93.88
403.302	87.88
403.526	94.88
403.75	96.88
403.974	88.88
404.198	88.88
404.422	74.88
404.645	79.88
404.869	72.88
405.093	94.88
405.317	88.88
405.541	86.88
405.765	85.88
405.988	99.88
406.212	87.88
406.436	82.88
406.66	82.88
406.883	91.88
407.107	86.88
407.331	78.88
407.555	88.88
407.778	82.88
408.002	79.88
408.226	85.88
408.449	71.88
408.673	96.88
408.896	98.88
409.12	104.88
409.344	83.88
409.567	78.88
409.791	80.88
410.014	89.88
410.238	87.88
410.461	94.88
410.685	74.88
410.908	82.88
411.132	87.88
411.355	79.88
411.578	88.88
411.802	82.88
412.025	85.88
412.249	83.88
412.472	82.88
412.695	88.88
412.919	97.88
413.142	92.88
413.365	74.88
413.589	79.88
413.812	87.88
414.035	82.88
414.258	85.88
414.482	93.88
414.705	89.88
414.928	94.88
415.151	88.88
415.374	94.88
415.597	89.88
415.821	93.88
416.044	91.88
416.267	81.88
416.49	94.88
416.713	100.88
416.936	77.88
417.159	93.88
417.382	92.88
417.605	97.88
417.828	100.88
418.051	90.88
418.274	95.88
418.497	98.88
418.72	94.88
418.943	87.88
419.166	87.88
419.389	85.88
419.611	83.88
419.834	95.88
420.057	104.88
420.28	99.88
420.503	71.88
420.726	85.88
420.948	76.88
421.171	95.88
421.394	103.88
421.617	86.88
421.839	91.88
422.062	93.88
422.285	94.88
422.507	82.88
422.73	101.88
422.953	90.88
423.175	79.88
423.398	80.88
423.621	84.88
423.843	88.88
424.066	102.88
424.288	89.88
424.511	75.88
424.733	98.88
424.956	84.88
425.178	99.88
425.401	83.88
425.623	87.88
425.846	97.88
426.068	89.88
426.291	91.88
426.513	88.88
426.735	98.88
426.958	89.88
427.18	88.88
427.402	98.88
427.625	92.88
427.847	86.88
428.069	92.88
428.292	88.88
428.514	75.88
428.736	86.88
428.958	93.88
429.181	92.88
429.403	88.88
429.625	86.88
429.847	97.88
430.069	93.88
430.292	83.88
430.514	96.88
430.736	91.88
430.958	89.88
431.18	93.88
431.402	81.88
431.624	94.88
431.846	76.88
432.068	90.88
432.29	91.88
432.512	74.88
432.734	94.88
432.956	84.88
433.178	84.88
433.4	90.88
433.622	90.88
433.844	95.88
434.066	80.88
434.287	96.88
434.509	78.88
434.731	94.88
434.953	103.88
435.175	87.88
435.397	100.88
435.618	99.88
435.84	96.88
436.062	85.88
436.284	94.88
436.505	98.88
436.727	95.88
436.949	92.88
437.17	90.88
437.392	93.88
437.614	88.88
437.835	98.88
438.057	99.88
438.278	87.88
438.5	87.88
438.721	89.88
438.943	92.88
439.165	94.88
439.386	92.88
439.608	92.88
439.829	101.88
440.05	92.88
440.272	90.88
440.493	85.88
440.715	94.88
440.936	85.88
441.158	105.88
441.379	102.88
441.6	82.88
441.822	88.88
442.043	84.88
442.264	94.88
442.486	100.88
442.707	95.88
442.928	79.88
443.149	96.88
443.371	100.88
443.592	91.88
443.813	84.88
444.034	87.88
444.255	82.88
444.476	84.88
444.698	102.88
444.919	100.88
445.14	222.88
445.361	146.88
445.582	91.88
445.803	92.88
446.024	91.88
446.245	102.88
446.466	96.88
446.687	89.88
446.908	86.88
447.129	90.88
447.35	90.88
447.571	92.88
447.792	95.88
448.013	95.88
448.234	90.88
448.455	85.88
448.675	92.88
448.896	92.88
449.117	90.88
449.338	80.88
449.559	82.88
449.779	90.88
450	99.88
450.221	108.88
450.442	97.88
450.662	87.88
450.883	82.88
451.104	83.88
451.324	86.88
451.545	92.88
451.766	84.88
451.986	100.88
452.207	84.88
452.428	83.88
452.648	87.88
452.869	79.88
453.089	92.88
453.31	94.88
453.53	90.88
453.751	84.88
453.971	87.88
454.192	97.88
454.412	79.88
454.633	104.88
454.853	77.88
455.073	88.88
455.294	76.88
455.514	108.88
455.734	90.88
455.955	90.88
456.175	88.88
456.395	92.88
456.616	71.88
456.836	75.88
457.056	85.88
457.276	80.88
457.497	92.88
457.717	88.88
457.937	82.88
458.157	73.88
458.377	67.88
458.598	93.88
458.818	94.88
459.038	87.88
459.258	86.88
459.478	93.88
459.698	87.88
459.918	95.88
460.138	78.88
460.358	86.88
460.578	93.88
460.798	86.88
461.018	89.88
461.238	91.88
461.458	78.88
461.678	89.88
461.898	89.88
462.118	91.88
462.338	95.88
462.558	99.88
462.777	82.88
462.997	84.88
463.217	88.88
463.437	98.88
463.657	81.88
463.876	87.88
464.096	91.88
464.316	79.88
464.536	91.88
464.755	81.88
464.975	101.88
465.195	82.88
465.414	86.88
465.634	84.88
465.854	79.88
466.073	75.88
466.293	85.88
466.512	99.88
466.732	104.88
466.951	95.88
467.171	85.88
467.391	86.88
467.61	106.88
467.829	106.88
468.049	86.88
468.268	93.88
468.488	100.88
468.707	88.88
468.927	88.88
469.146	110.88
469.365	93.88
469.585	83.88
469.804	92.88
470.023	96.88
470.243	95.88
470.462	71.88
470.681	83.88
470.901	82.88
471.12	88.88
471.339	91.88
471.558	102.88
471.777	94.88
471.997	104.88
472.216	87.88
472.435	90.88
472.654	88.88
472.873	94.88
473.092	92.88
473.311	94.88
473.53	93.88
473.749	118.88
473.968	89.88
474.187	84.88
474.406	82.88
474.625	100.88
474.844	92.88
475.063	100.88
475.282	98.88
475.501	88.88
475.72	94.88
475.939	83.88
476.158	88.88
476.377	80.88
476.596	84.88
476.814	102.88
477.033	88.88
477.252	82.88
477.471	91.88
477.69	98.88
477.908	104.88
478.127	92.88
478.346	67.88
478.564	88.88
478.783	95.88
479.002	90.88
479.22	86.88
479.439	90.88
479.658	71.88
479.876	87.88
480.095	94.88
480.313	86.88
480.532	86.88
480.751	100.88
480.969	84.88
481.188	83.88
481.406	85.88
481.624	82.88
481.843	81.88
482.061	79.88
482.28	80.88
482.498	82.88
482.717	80.88
482.935	83.88
483.153	92.88
483.372	103.88
483.59	84.88
483.808	100.88
484.027	87.88
484.245	78.88
484.463	83.88
484.681	93.88
484.9	89.88
485.118	88.88
485.336	97.88
485.554	77.88
485.772	84.88
485.99	82.88
486.209	90.88
486.427	80.88
486.645	85.88
486.863	87.88
487.081	98.88
487.299	93.88
487.517	94.88
487.735	93.88
487.953	98.88
488.171	96.88
488.389	97.88
488.607	103.88
488.825	93.88
489.043	99.88
489.261	92.88
489.479	87.88
489.696	95.88
489.914	83.88
490.132	102.88
490.35	104.88
490.568	96.88
490.786	99.88
491.003	99.88
491.221	94.88
491.439	103.88
491.657	102.88
491.874	109.88
492.092	101.88
492.31	101.88
492.527	91.88
492.745	107.88
492.963	101.88
493.18	109.88
493.398	85.88
493.615	96.88
493.833	98.88
494.05	102.88
494.268	93.88
494.485	105.88
494.703	99.88
494.92	84.88
495.138	108.88
495.355	106.88
495.573	119.88
495.79	105.88
496.008	94.88
496.225	94.88
496.442	109.88
496.66	102.88
496.877	99.88
497.094	92.88
497.312	101.88
497.529	88.88
497.746	78.88
497.963	102.88
498.181	96.88
498.398	95.88
498.615	102.88
498.832	99.88
499.049	93.88
499.267	88.88
499.484	93.88
499.701	112.88
499.918	95.88
500.135	78.88
500.352	94.88
500.569	96.88
500.786	94.88
501.003	95.88
501.22	98.88
501.437	103.88
501.654	99.88
501.871	103.88
502.088	91.88
502.305	107.88
502.522	86.88
502.739	99.88
502.956	94.88
503.172	107.88
503.389	82.88
503.606	71.88
503.823	86.88
504.04	86.88
504.256	93.88
504.473	85.88
504.69	90.88
504.907	79.88
505.123	90.88
505.34	71.88
505.557	87.88
505.773	88.88
505.99	85.88
506.207	99.88
506.423	94.88
506.64	80.88
506.856	78.88
507.073	77.88
507.289	86.88
507.506	97.88
507.722	113.88
507.939	99.88
508.155	86.88
508.372	89.88
508.588	99.88
508.805	94.88
509.021	95.88
509.238	89.88
509.454	83.88
509.67	93.88
509.887	92.88
510.103	82.88
510.319	89.88
510.536	74.88
510.752	72.88
510.968	94.88
511.184	85.88
511.401	79.88
511.617	88.88
511.833	85.88
512.049	88.88
512.265	67.88
512.481	92.88
512.698	98.88
512.914	80.88
513.13	71.88
513.346	87.88
513.562	92.88
513.778	91.88
513.994	71.88
514.21	76.88
514.426	74.88
514.642	99.88
514.858	86.88
515.074	80.88
515.29	90.88
515.506	87.88
515.721	90.88
515.937	81.88
516.153	80.88
516.369	84.88
516.585	86.88
516.801	86.88
517.016	78.88
517.232	88.88
517.448	84.88
517.664	70.88
517.879	89.88
518.095	82.88
