Data from Zn(NO3)2Standard.Agarose3%.GreenCap.LampEnergy10E.O_HRD10591_15-08-04-947.txt Node
Date: Mon Jul 22 15:08:04 EDT 2019
User: cochatt
Spectrometer: HR+D1059
Trigger mode: 1
Integration Time (sec): 1.000000E-1
Scans to average: 1
Electric dark correction enabled: true
Nonlinearity correction enabled: false
Boxcar width: 0
XAxis mode: Wavelengths
Number of Pixels in Spectrum: 2048
>>>>>Begin Spectral Data<<<<<
223.165	-20.25
223.4	-20.25
223.635	-20.25
223.869	-28.25
224.104	-16.25
224.338	-18.25
224.573	-0.25
224.808	-14.25
225.042	-6.25
225.277	-5.25
225.511	-2.25
225.746	-4.25
225.98	13.75
226.215	13.75
226.449	29.75
226.683	11.75
226.918	25.75
227.152	20.75
227.387	31.75
227.621	34.75
227.856	48.75
228.09	35.75
228.324	49.75
228.559	59.75
228.793	51.75
229.027	56.75
229.262	58.75
229.496	61.75
229.73	68.75
229.964	69.75
230.199	57.75
230.433	63.75
230.667	65.75
230.901	66.75
231.136	81.75
231.37	77.75
231.604	76.75
231.838	54.75
232.072	74.75
232.306	68.75
232.541	83.75
232.775	71.75
233.009	77.75
233.243	76.75
233.477	73.75
233.711	85.75
233.945	73.75
234.179	66.75
234.413	75.75
234.647	79.75
234.881	75.75
235.115	64.75
235.349	73.75
235.583	76.75
235.817	77.75
236.051	81.75
236.285	80.75
236.519	74.75
236.753	69.75
236.987	62.75
237.221	68.75
237.455	71.75
237.689	77.75
237.922	69.75
238.156	78.75
238.39	71.75
238.624	67.75
238.858	66.75
239.091	74.75
239.325	74.75
239.559	74.75
239.793	84.75
240.027	77.75
240.26	82.75
240.494	71.75
240.728	74.75
240.961	79.75
241.195	55.75
241.429	69.75
241.662	72.75
241.896	63.75
242.13	82.75
242.363	67.75
242.597	70.75
242.83	73.75
243.064	69.75
243.298	68.75
243.531	68.75
243.765	66.75
243.998	63.75
244.232	61.75
244.465	71.75
244.699	85.75
244.932	65.75
245.166	70.75
245.399	82.75
245.633	63.75
245.866	69.75
246.099	70.75
246.333	71.75
246.566	73.75
246.8	72.75
247.033	65.75
247.266	76.75
247.5	82.75
247.733	81.75
247.966	68.75
248.2	79.75
248.433	68.75
248.666	77.75
248.899	78.75
249.133	68.75
249.366	90.75
249.599	73.75
249.832	80.75
250.066	81.75
250.299	83.75
250.532	68.75
250.765	52.75
250.998	70.75
251.231	71.75
251.465	79.75
251.698	79.75
251.931	79.75
252.164	72.75
252.397	69.75
252.63	68.75
252.863	88.75
253.096	67.75
253.329	76.75
253.562	72.75
253.795	85.75
254.028	68.75
254.261	85.75
254.494	66.75
254.727	74.75
254.96	77.75
255.193	74.75
255.426	66.75
255.659	70.75
255.892	79.75
256.124	74.75
256.357	70.75
256.59	87.75
256.823	71.75
257.056	79.75
257.289	87.75
257.521	83.75
257.754	77.75
257.987	74.75
258.22	87.75
258.452	90.75
258.685	83.75
258.918	79.75
259.151	83.75
259.383	69.75
259.616	81.75
259.849	68.75
260.081	75.75
260.314	76.75
260.547	73.75
260.779	91.75
261.012	68.75
261.244	77.75
261.477	84.75
261.71	73.75
261.942	77.75
262.175	63.75
262.407	68.75
262.64	67.75
262.872	74.75
263.105	77.75
263.337	84.75
263.57	66.75
263.802	72.75
264.035	79.75
264.267	72.75
264.499	73.75
264.732	77.75
264.964	87.75
265.197	81.75
265.429	66.75
265.661	69.75
265.894	87.75
266.126	83.75
266.358	86.75
266.591	79.75
266.823	75.75
267.055	80.75
267.287	81.75
267.52	83.75
267.752	80.75
267.984	70.75
268.216	81.75
268.448	83.75
268.681	73.75
268.913	87.75
269.145	68.75
269.377	80.75
269.609	87.75
269.841	59.75
270.073	88.75
270.306	81.75
270.538	92.75
270.77	79.75
271.002	91.75
271.234	83.75
271.466	81.75
271.698	89.75
271.93	77.75
272.162	80.75
272.394	72.75
272.626	90.75
272.858	77.75
273.09	77.75
273.322	86.75
273.553	67.75
273.785	83.75
274.017	78.75
274.249	85.75
274.481	86.75
274.713	87.75
274.945	80.75
275.176	88.75
275.408	76.75
275.64	72.75
275.872	86.75
276.104	81.75
276.335	79.75
276.567	80.75
276.799	77.75
277.031	77.75
277.262	69.75
277.494	71.75
277.726	83.75
277.957	86.75
278.189	73.75
278.421	87.75
278.652	68.75
278.884	79.75
279.115	86.75
279.347	78.75
279.579	79.75
279.81	80.75
280.042	77.75
280.273	92.75
280.505	68.75
280.736	81.75
280.968	77.75
281.199	95.75
281.431	85.75
281.662	71.75
281.894	62.75
282.125	79.75
282.356	78.75
282.588	93.75
282.819	71.75
283.051	72.75
283.282	73.75
283.513	78.75
283.745	82.75
283.976	75.75
284.207	89.75
284.439	83.75
284.67	93.75
284.901	82.75
285.132	66.75
285.364	76.75
285.595	71.75
285.826	80.75
286.057	83.75
286.288	77.75
286.52	88.75
286.751	90.75
286.982	72.75
287.213	82.75
287.444	74.75
287.675	65.75
287.906	81.75
288.138	74.75
288.369	90.75
288.6	78.75
288.831	60.75
289.062	83.75
289.293	73.75
289.524	81.75
289.755	81.75
289.986	87.75
290.217	70.75
290.448	84.75
290.679	87.75
290.91	85.75
291.141	69.75
291.371	81.75
291.602	73.75
291.833	97.75
292.064	91.75
292.295	90.75
292.526	79.75
292.757	80.75
292.987	79.75
293.218	77.75
293.449	76.75
293.68	79.75
293.91	78.75
294.141	72.75
294.372	72.75
294.603	85.75
294.833	82.75
295.064	89.75
295.295	73.75
295.525	89.75
295.756	72.75
295.987	73.75
296.217	84.75
296.448	90.75
296.679	94.75
296.909	84.75
297.14	80.75
297.37	90.75
297.601	87.75
297.831	83.75
298.062	90.75
298.292	74.75
298.523	80.75
298.753	80.75
298.984	74.75
299.214	92.75
299.445	85.75
299.675	77.75
299.905	75.75
300.136	61.75
300.366	96.75
300.597	91.75
300.827	81.75
301.057	78.75
301.288	87.75
301.518	86.75
301.748	79.75
301.979	75.75
302.209	67.75
302.439	69.75
302.669	80.75
302.9	81.75
303.13	72.75
303.36	67.75
303.59	71.75
303.82	81.75
304.051	69.75
304.281	73.75
304.511	72.75
304.741	77.75
304.971	78.75
305.201	88.75
305.431	82.75
305.661	83.75
305.891	82.75
306.121	81.75
306.352	79.75
306.582	78.75
306.812	79.75
307.042	70.75
307.272	71.75
307.502	91.75
307.731	82.75
307.961	94.75
308.191	80.75
308.421	67.75
308.651	88.75
308.881	72.75
309.111	83.75
309.341	75.75
309.571	77.75
309.8	81.75
310.03	77.75
310.26	84.75
310.49	78.75
310.72	82.75
310.949	81.75
311.179	79.75
311.409	74.75
311.639	67.75
311.868	84.75
312.098	88.75
312.328	87.75
312.557	77.75
312.787	99.75
313.017	69.75
313.246	85.75
313.476	85.75
313.706	84.75
313.935	87.75
314.165	87.75
314.394	73.75
314.624	78.75
314.853	76.75
315.083	82.75
315.312	71.75
315.542	84.75
315.771	91.75
316.001	78.75
316.23	80.75
316.46	85.75
316.689	74.75
316.919	79.75
317.148	78.75
317.377	79.75
317.607	62.75
317.836	93.75
318.065	74.75
318.295	76.75
318.524	88.75
318.753	88.75
318.983	71.75
319.212	62.75
319.441	76.75
319.67	75.75
319.9	68.75
320.129	81.75
320.358	91.75
320.587	83.75
320.816	72.75
321.046	97.75
321.275	88.75
321.504	76.75
321.733	70.75
321.962	85.75
322.191	85.75
322.42	72.75
322.649	80.75
322.878	86.75
323.108	91.75
323.337	89.75
323.566	72.75
323.795	73.75
324.024	82.75
324.253	75.75
324.482	83.75
324.71	80.75
324.939	74.75
325.168	83.75
325.397	86.75
325.626	78.75
325.855	88.75
326.084	71.75
326.313	63.75
326.542	69.75
326.77	80.75
326.999	67.75
327.228	72.75
327.457	80.75
327.686	80.75
327.914	74.75
328.143	76.75
328.372	83.75
328.6	85.75
328.829	93.75
329.058	72.75
329.287	72.75
329.515	74.75
329.744	72.75
329.972	79.75
330.201	85.75
330.43	69.75
330.658	84.75
330.887	73.75
331.115	78.75
331.344	82.75
331.572	85.75
331.801	78.75
332.03	99.75
332.258	82.75
332.486	84.75
332.715	79.75
332.943	88.75
333.172	82.75
333.4	73.75
333.629	69.75
333.857	70.75
334.085	75.75
334.314	77.75
334.542	71.75
334.771	75.75
334.999	79.75
335.227	78.75
335.455	78.75
335.684	78.75
335.912	80.75
336.14	77.75
336.369	70.75
336.597	92.75
336.825	89.75
337.053	79.75
337.281	81.75
337.51	86.75
337.738	93.75
337.966	66.75
338.194	91.75
338.422	88.75
338.65	85.75
338.878	66.75
339.106	72.75
339.334	74.75
339.562	83.75
339.79	85.75
340.018	76.75
340.246	92.75
340.474	92.75
340.702	88.75
340.93	73.75
341.158	83.75
341.386	93.75
341.614	72.75
341.842	81.75
342.07	88.75
342.298	68.75
342.526	67.75
342.754	82.75
342.981	84.75
343.209	85.75
343.437	79.75
343.665	81.75
343.893	88.75
344.12	71.75
344.348	83.75
344.576	75.75
344.804	79.75
345.031	84.75
345.259	75.75
345.487	80.75
345.714	72.75
345.942	62.75
346.17	93.75
346.397	81.75
346.625	66.75
346.853	75.75
347.08	73.75
347.308	94.75
347.535	71.75
347.763	74.75
347.99	66.75
348.218	89.75
348.445	75.75
348.673	80.75
348.9	84.75
349.128	81.75
349.355	91.75
349.583	87.75
349.81	81.75
350.037	73.75
350.265	78.75
350.492	76.75
350.72	83.75
350.947	79.75
351.174	93.75
351.402	85.75
351.629	75.75
351.856	82.75
352.083	86.75
352.311	83.75
352.538	73.75
352.765	86.75
352.992	85.75
353.22	79.75
353.447	91.75
353.674	93.75
353.901	83.75
354.128	85.75
354.355	74.75
354.583	78.75
354.81	83.75
355.037	79.75
355.264	79.75
355.491	80.75
355.718	85.75
355.945	67.75
356.172	80.75
356.399	69.75
356.626	89.75
356.853	76.75
357.08	79.75
357.307	68.75
357.534	67.75
357.761	81.75
357.988	79.75
358.215	87.75
358.441	79.75
358.668	77.75
358.895	86.75
359.122	81.75
359.349	72.75
359.576	81.75
359.802	74.75
360.029	76.75
360.256	78.75
360.483	70.75
360.709	78.75
360.936	97.75
361.163	93.75
361.39	78.75
361.616	71.75
361.843	83.75
362.07	76.75
362.296	69.75
362.523	72.75
362.749	84.75
362.976	78.75
363.203	79.75
363.429	98.75
363.656	83.75
363.882	96.75
364.109	83.75
364.335	68.75
364.562	90.75
364.788	80.75
365.015	92.75
365.241	84.75
365.468	73.75
365.694	85.75
365.92	66.75
366.147	65.75
366.373	94.75
366.599	81.75
366.826	72.75
367.052	89.75
367.278	85.75
367.505	77.75
367.731	78.75
367.957	75.75
368.184	86.75
368.41	80.75
368.636	89.75
368.862	88.75
369.089	81.75
369.315	84.75
369.541	84.75
369.767	78.75
369.993	76.75
370.219	77.75
370.445	79.75
370.672	90.75
370.898	82.75
371.124	86.75
371.35	78.75
371.576	84.75
371.802	77.75
372.028	90.75
372.254	87.75
372.48	83.75
372.706	76.75
372.932	79.75
373.158	77.75
373.384	82.75
373.61	76.75
373.835	71.75
374.061	70.75
374.287	84.75
374.513	82.75
374.739	99.75
374.965	75.75
375.191	86.75
375.416	96.75
375.642	88.75
375.868	72.75
376.094	86.75
376.319	87.75
376.545	85.75
376.771	91.75
376.997	81.75
377.222	71.75
377.448	68.75
377.674	86.75
377.899	86.75
378.125	89.75
378.35	89.75
378.576	84.75
378.802	79.75
379.027	76.75
379.253	89.75
379.478	95.75
379.704	78.75
379.929	70.75
380.155	82.75
380.38	75.75
380.606	93.75
380.831	100.75
381.057	87.75
381.282	76.75
381.507	78.75
381.733	78.75
381.958	85.75
382.184	78.75
382.409	78.75
382.634	84.75
382.86	91.75
383.085	91.75
383.31	84.75
383.535	92.75
383.761	69.75
383.986	85.75
384.211	72.75
384.436	74.75
384.662	93.75
384.887	88.75
385.112	92.75
385.337	97.75
385.562	72.75
385.787	84.75
386.013	91.75
386.238	80.75
386.463	81.75
386.688	81.75
386.913	71.75
387.138	88.75
387.363	100.75
387.588	77.75
387.813	86.75
388.038	75.75
388.263	84.75
388.488	96.75
388.713	94.75
388.938	92.75
389.163	77.75
389.387	89.75
389.612	94.75
389.837	89.75
390.062	95.75
390.287	77.75
390.512	82.75
390.736	89.75
390.961	73.75
391.186	78.75
391.411	91.75
391.636	84.75
391.86	83.75
392.085	87.75
392.31	95.75
392.534	95.75
392.759	101.75
392.984	97.75
393.208	95.75
393.433	82.75
393.658	83.75
393.882	80.75
394.107	73.75
394.331	95.75
394.556	88.75
394.78	85.75
395.005	82.75
395.229	100.75
395.454	82.75
395.678	97.75
395.903	92.75
396.127	95.75
396.352	88.75
396.576	83.75
396.801	94.75
397.025	92.75
397.249	87.75
397.474	80.75
397.698	76.75
397.922	101.75
398.147	105.75
398.371	87.75
398.595	98.75
398.82	82.75
399.044	90.75
399.268	89.75
399.492	89.75
399.717	84.75
399.941	69.75
400.165	92.75
400.389	83.75
400.613	88.75
400.837	104.75
401.062	86.75
401.286	96.75
401.51	81.75
401.734	90.75
401.958	89.75
402.182	80.75
402.406	97.75
402.63	87.75
402.854	99.75
403.078	81.75
403.302	93.75
403.526	102.75
403.75	96.75
403.974	88.75
404.198	84.75
404.422	83.75
404.645	90.75
404.869	86.75
405.093	94.75
405.317	85.75
405.541	99.75
405.765	88.75
405.988	97.75
406.212	82.75
406.436	96.75
406.66	88.75
406.883	93.75
407.107	94.75
407.331	93.75
407.555	93.75
407.778	100.75
408.002	94.75
408.226	99.75
408.449	98.75
408.673	91.75
408.896	95.75
409.12	91.75
409.344	96.75
409.567	87.75
409.791	80.75
410.014	94.75
410.238	100.75
410.461	87.75
410.685	98.75
410.908	91.75
411.132	93.75
411.355	91.75
411.578	105.75
411.802	100.75
412.025	87.75
412.249	82.75
412.472	93.75
412.695	109.75
412.919	96.75
413.142	92.75
413.365	95.75
413.589	95.75
413.812	80.75
414.035	95.75
414.258	83.75
414.482	100.75
414.705	92.75
414.928	92.75
415.151	81.75
415.374	100.75
415.597	104.75
415.821	96.75
416.044	93.75
416.267	100.75
416.49	108.75
416.713	100.75
416.936	103.75
417.159	101.75
417.382	91.75
417.605	100.75
417.828	103.75
418.051	103.75
418.274	95.75
418.497	114.75
418.72	97.75
418.943	119.75
419.166	96.75
419.389	94.75
419.611	85.75
419.834	89.75
420.057	106.75
420.28	99.75
420.503	99.75
420.726	100.75
420.948	108.75
421.171	109.75
421.394	82.75
421.617	107.75
421.839	95.75
422.062	101.75
422.285	112.75
422.507	103.75
422.73	91.75
422.953	120.75
423.175	101.75
423.398	102.75
423.621	98.75
423.843	107.75
424.066	113.75
424.288	96.75
424.511	117.75
424.733	99.75
424.956	103.75
425.178	108.75
425.401	96.75
425.623	109.75
425.846	96.75
426.068	107.75
426.291	103.75
426.513	120.75
426.735	120.75
426.958	85.75
427.18	96.75
427.402	97.75
427.625	102.75
427.847	102.75
428.069	97.75
428.292	99.75
428.514	96.75
428.736	91.75
428.958	100.75
429.181	88.75
429.403	84.75
429.625	92.75
429.847	95.75
430.069	94.75
430.292	112.75
430.514	116.75
430.736	96.75
430.958	110.75
431.18	93.75
431.402	94.75
431.624	101.75
431.846	84.75
432.068	69.75
432.29	88.75
432.512	86.75
432.734	97.75
432.956	96.75
433.178	94.75
433.4	109.75
433.622	113.75
433.844	92.75
434.066	106.75
434.287	93.75
434.509	82.75
434.731	79.75
434.953	92.75
435.175	96.75
435.397	96.75
435.618	99.75
435.84	73.75
436.062	95.75
436.284	99.75
436.505	107.75
436.727	98.75
436.949	120.75
437.17	89.75
437.392	97.75
437.614	98.75
437.835	93.75
438.057	79.75
438.278	80.75
438.5	97.75
438.721	102.75
438.943	97.75
439.165	121.75
439.386	100.75
439.608	117.75
439.829	95.75
440.05	123.75
440.272	115.75
440.493	115.75
440.715	105.75
440.936	102.75
441.158	120.75
441.379	102.75
441.6	113.75
441.822	110.75
442.043	114.75
442.264	107.75
442.486	107.75
442.707	104.75
442.928	97.75
443.149	104.75
443.371	120.75
443.592	96.75
443.813	111.75
444.034	99.75
444.255	115.75
444.476	103.75
444.698	112.75
444.919	118.75
445.14	196.75
445.361	172.75
445.582	115.75
445.803	105.75
446.024	112.75
446.245	117.75
446.466	126.75
446.687	116.75
446.908	113.75
447.129	122.75
447.35	118.75
447.571	114.75
447.792	110.75
448.013	100.75
448.234	99.75
448.455	111.75
448.675	100.75
448.896	120.75
449.117	99.75
449.338	89.75
449.559	104.75
449.779	99.75
450	113.75
450.221	107.75
450.442	118.75
450.662	106.75
450.883	102.75
451.104	103.75
451.324	100.75
451.545	112.75
451.766	104.75
451.986	105.75
452.207	96.75
452.428	86.75
452.648	110.75
452.869	107.75
453.089	106.75
453.31	99.75
453.53	95.75
453.751	85.75
453.971	96.75
454.192	79.75
454.412	100.75
454.633	74.75
454.853	92.75
455.073	86.75
455.294	93.75
455.514	108.75
455.734	105.75
455.955	97.75
456.175	97.75
456.395	91.75
456.616	100.75
456.836	95.75
457.056	88.75
457.276	88.75
457.497	95.75
457.717	90.75
457.937	80.75
458.157	95.75
458.377	90.75
458.598	95.75
458.818	75.75
459.038	83.75
459.258	75.75
459.478	76.75
459.698	83.75
459.918	92.75
460.138	95.75
460.358	99.75
460.578	88.75
460.798	107.75
461.018	91.75
461.238	94.75
461.458	83.75
461.678	101.75
461.898	108.75
462.118	97.75
462.338	110.75
462.558	87.75
462.777	92.75
462.997	79.75
463.217	80.75
463.437	81.75
463.657	92.75
463.876	94.75
464.096	88.75
464.316	97.75
464.536	92.75
464.755	99.75
464.975	108.75
465.195	89.75
465.414	105.75
465.634	117.75
465.854	95.75
466.073	97.75
466.293	91.75
466.512	107.75
466.732	112.75
466.951	106.75
467.171	109.75
467.391	98.75
467.61	100.75
467.829	88.75
468.049	113.75
468.268	109.75
468.488	114.75
468.707	94.75
468.927	91.75
469.146	110.75
469.365	113.75
469.585	97.75
469.804	117.75
470.023	97.75
470.243	99.75
470.462	113.75
470.681	99.75
470.901	100.75
471.12	95.75
471.339	108.75
471.558	121.75
471.777	113.75
471.997	84.75
472.216	96.75
472.435	101.75
472.654	82.75
472.873	82.75
473.092	89.75
473.311	100.75
473.53	96.75
473.749	93.75
473.968	94.75
474.187	99.75
474.406	95.75
474.625	96.75
474.844	102.75
475.063	89.75
475.282	110.75
475.501	93.75
475.72	91.75
475.939	103.75
476.158	98.75
476.377	99.75
476.596	105.75
476.814	98.75
477.033	99.75
477.252	93.75
477.471	108.75
477.69	94.75
477.908	91.75
478.127	118.75
478.346	101.75
478.564	109.75
478.783	103.75
479.002	101.75
479.22	105.75
479.439	116.75
479.658	100.75
479.876	107.75
480.095	84.75
480.313	103.75
480.532	83.75
480.751	82.75
480.969	79.75
481.188	81.75
481.406	78.75
481.624	84.75
481.843	74.75
482.061	83.75
482.28	92.75
482.498	88.75
482.717	94.75
482.935	100.75
483.153	103.75
483.372	114.75
483.59	125.75
483.808	109.75
484.027	108.75
484.245	111.75
484.463	112.75
484.681	111.75
484.9	107.75
485.118	110.75
485.336	115.75
485.554	109.75
485.772	88.75
485.99	91.75
486.209	86.75
486.427	92.75
486.645	97.75
486.863	119.75
487.081	100.75
487.299	89.75
487.517	101.75
487.735	103.75
487.953	127.75
488.171	121.75
488.389	119.75
488.607	109.75
488.825	117.75
489.043	89.75
489.261	117.75
489.479	110.75
489.696	105.75
489.914	114.75
490.132	114.75
490.35	118.75
490.568	114.75
490.786	126.75
491.003	127.75
491.221	132.75
491.439	127.75
491.657	136.75
491.874	123.75
492.092	139.75
492.31	144.75
492.527	142.75
492.745	126.75
492.963	123.75
493.18	145.75
493.398	118.75
493.615	125.75
493.833	129.75
494.05	142.75
494.268	120.75
494.485	121.75
494.703	120.75
494.92	120.75
495.138	117.75
495.355	124.75
495.573	105.75
495.79	135.75
496.008	122.75
496.225	115.75
496.442	111.75
496.66	124.75
496.877	123.75
497.094	113.75
497.312	126.75
497.529	108.75
497.746	117.75
497.963	107.75
498.181	111.75
498.398	93.75
498.615	86.75
498.832	108.75
499.049	104.75
499.267	118.75
499.484	94.75
499.701	103.75
499.918	97.75
500.135	107.75
500.352	109.75
500.569	123.75
500.786	114.75
501.003	107.75
501.22	108.75
501.437	110.75
501.654	100.75
501.871	105.75
502.088	112.75
502.305	112.75
502.522	117.75
502.739	109.75
502.956	97.75
503.172	109.75
503.389	117.75
503.606	98.75
503.823	101.75
504.04	90.75
504.256	86.75
504.473	95.75
504.69	104.75
504.907	115.75
505.123	97.75
505.34	102.75
505.557	101.75
505.773	93.75
505.99	86.75
506.207	84.75
506.423	98.75
506.64	91.75
506.856	94.75
507.073	95.75
507.289	103.75
507.506	99.75
507.722	96.75
507.939	85.75
508.155	79.75
508.372	98.75
508.588	103.75
508.805	91.75
509.021	100.75
509.238	84.75
509.454	90.75
509.67	81.75
509.887	89.75
510.103	86.75
510.319	82.75
510.536	89.75
510.752	77.75
510.968	95.75
511.184	81.75
511.401	80.75
511.617	81.75
511.833	74.75
512.049	85.75
512.265	85.75
512.481	85.75
512.698	85.75
512.914	89.75
513.13	90.75
513.346	78.75
513.562	73.75
513.778	65.75
513.994	84.75
514.21	76.75
514.426	94.75
514.642	79.75
514.858	76.75
515.074	83.75
515.29	86.75
515.506	66.75
515.721	98.75
515.937	89.75
