Data from Zn(NO3)2Standard.Agarose3%.GreenCap.LampEnergy5.5.E.O_HRD10591_15-03-33-768.txt Node
Date: Mon Jul 22 15:03:33 EDT 2019
User: cochatt
Spectrometer: HR+D1059
Trigger mode: 1
Integration Time (sec): 1.000000E-1
Scans to average: 1
Electric dark correction enabled: true
Nonlinearity correction enabled: false
Boxcar width: 0
XAxis mode: Wavelengths
Number of Pixels in Spectrum: 2048
>>>>>Begin Spectral Data<<<<<
223.165	-7.25
223.4	-7.25
223.635	-7.25
223.869	-18.25
224.104	-23.25
224.338	-15.25
224.573	-18.25
224.808	-9.25
225.042	-0.25
225.277	5.75
225.511	-7.25
225.746	-7.25
225.98	5.75
226.215	4.75
226.449	16.75
226.683	19.75
226.918	15.75
227.152	37.75
227.387	51.75
227.621	43.75
227.856	48.75
228.09	49.75
228.324	44.75
228.559	53.75
228.793	72.75
229.027	68.75
229.262	56.75
229.496	58.75
229.73	72.75
229.964	78.75
230.199	73.75
230.433	70.75
230.667	83.75
230.901	72.75
231.136	70.75
231.37	72.75
231.604	80.75
231.838	80.75
232.072	84.75
232.306	78.75
232.541	73.75
232.775	88.75
233.009	75.75
233.243	86.75
233.477	87.75
233.711	75.75
233.945	89.75
234.179	90.75
234.413	81.75
234.647	73.75
234.881	85.75
235.115	81.75
235.349	75.75
235.583	78.75
235.817	86.75
236.051	87.75
236.285	66.75
236.519	82.75
236.753	89.75
236.987	82.75
237.221	85.75
237.455	85.75
237.689	78.75
237.922	76.75
238.156	83.75
238.39	69.75
238.624	73.75
238.858	78.75
239.091	74.75
239.325	71.75
239.559	76.75
239.793	86.75
240.027	72.75
240.26	79.75
240.494	84.75
240.728	89.75
240.961	64.75
241.195	77.75
241.429	99.75
241.662	70.75
241.896	80.75
242.13	94.75
242.363	85.75
242.597	86.75
242.83	93.75
243.064	77.75
243.298	75.75
243.531	75.75
243.765	80.75
243.998	82.75
244.232	87.75
244.465	75.75
244.699	68.75
244.932	81.75
245.166	81.75
245.399	87.75
245.633	84.75
245.866	73.75
246.099	81.75
246.333	88.75
246.566	80.75
246.8	85.75
247.033	92.75
247.266	85.75
247.5	84.75
247.733	83.75
247.966	81.75
248.2	78.75
248.433	95.75
248.666	90.75
248.899	78.75
249.133	94.75
249.366	91.75
249.599	76.75
249.832	70.75
250.066	86.75
250.299	81.75
250.532	76.75
250.765	70.75
250.998	93.75
251.231	96.75
251.465	89.75
251.698	84.75
251.931	92.75
252.164	84.75
252.397	75.75
252.63	72.75
252.863	73.75
253.096	88.75
253.329	94.75
253.562	72.75
253.795	78.75
254.028	80.75
254.261	77.75
254.494	63.75
254.727	94.75
254.96	86.75
255.193	68.75
255.426	91.75
255.659	77.75
255.892	96.75
256.124	81.75
256.357	78.75
256.59	86.75
256.823	92.75
257.056	89.75
257.289	83.75
257.521	81.75
257.754	79.75
257.987	84.75
258.22	87.75
258.452	86.75
258.685	87.75
258.918	80.75
259.151	85.75
259.383	75.75
259.616	92.75
259.849	94.75
260.081	71.75
260.314	79.75
260.547	93.75
260.779	77.75
261.012	87.75
261.244	94.75
261.477	89.75
261.71	84.75
261.942	87.75
262.175	79.75
262.407	89.75
262.64	85.75
262.872	80.75
263.105	78.75
263.337	94.75
263.57	82.75
263.802	91.75
264.035	84.75
264.267	63.75
264.499	77.75
264.732	77.75
264.964	85.75
265.197	75.75
265.429	80.75
265.661	89.75
265.894	77.75
266.126	80.75
266.358	85.75
266.591	83.75
266.823	82.75
267.055	89.75
267.287	85.75
267.52	88.75
267.752	79.75
267.984	69.75
268.216	87.75
268.448	79.75
268.681	85.75
268.913	87.75
269.145	75.75
269.377	84.75
269.609	74.75
269.841	80.75
270.073	80.75
270.306	71.75
270.538	72.75
270.77	78.75
271.002	81.75
271.234	91.75
271.466	95.75
271.698	84.75
271.93	77.75
272.162	77.75
272.394	79.75
272.626	63.75
272.858	87.75
273.09	91.75
273.322	88.75
273.553	78.75
273.785	70.75
274.017	86.75
274.249	93.75
274.481	96.75
274.713	81.75
274.945	77.75
275.176	85.75
275.408	80.75
275.64	86.75
275.872	78.75
276.104	80.75
276.335	83.75
276.567	105.75
276.799	71.75
277.031	85.75
277.262	80.75
277.494	88.75
277.726	79.75
277.957	93.75
278.189	81.75
278.421	94.75
278.652	85.75
278.884	89.75
279.115	81.75
279.347	86.75
279.579	75.75
279.81	87.75
280.042	94.75
280.273	84.75
280.505	75.75
280.736	77.75
280.968	76.75
281.199	90.75
281.431	91.75
281.662	76.75
281.894	96.75
282.125	81.75
282.356	77.75
282.588	87.75
282.819	81.75
283.051	85.75
283.282	94.75
283.513	87.75
283.745	91.75
283.976	84.75
284.207	85.75
284.439	84.75
284.67	107.75
284.901	93.75
285.132	86.75
285.364	85.75
285.595	88.75
285.826	84.75
286.057	88.75
286.288	89.75
286.52	88.75
286.751	85.75
286.982	92.75
287.213	75.75
287.444	91.75
287.675	82.75
287.906	97.75
288.138	87.75
288.369	99.75
288.6	85.75
288.831	87.75
289.062	84.75
289.293	87.75
289.524	80.75
289.755	100.75
289.986	96.75
290.217	92.75
290.448	92.75
290.679	103.75
290.91	93.75
291.141	81.75
291.371	89.75
291.602	68.75
291.833	83.75
292.064	97.75
292.295	89.75
292.526	92.75
292.757	91.75
292.987	79.75
293.218	93.75
293.449	93.75
293.68	101.75
293.91	81.75
294.141	94.75
294.372	84.75
294.603	84.75
294.833	85.75
295.064	94.75
295.295	81.75
295.525	90.75
295.756	85.75
295.987	103.75
296.217	91.75
296.448	74.75
296.679	94.75
296.909	79.75
297.14	71.75
297.37	88.75
297.601	89.75
297.831	76.75
298.062	104.75
298.292	69.75
298.523	80.75
298.753	91.75
298.984	89.75
299.214	87.75
299.445	91.75
299.675	92.75
299.905	77.75
300.136	80.75
300.366	83.75
300.597	88.75
300.827	70.75
301.057	91.75
301.288	79.75
301.518	75.75
301.748	85.75
301.979	93.75
302.209	74.75
302.439	86.75
302.669	83.75
302.9	88.75
303.13	79.75
303.36	82.75
303.59	92.75
303.82	88.75
304.051	89.75
304.281	86.75
304.511	91.75
304.741	92.75
304.971	80.75
305.201	92.75
305.431	83.75
305.661	100.75
305.891	83.75
306.121	95.75
306.352	91.75
306.582	85.75
306.812	78.75
307.042	88.75
307.272	97.75
307.502	74.75
307.731	91.75
307.961	91.75
308.191	88.75
308.421	82.75
308.651	98.75
308.881	109.75
309.111	91.75
309.341	90.75
309.571	85.75
309.8	84.75
310.03	80.75
310.26	89.75
310.49	88.75
310.72	83.75
310.949	92.75
311.179	106.75
311.409	86.75
311.639	89.75
311.868	109.75
312.098	85.75
312.328	89.75
312.557	91.75
312.787	82.75
313.017	95.75
313.246	95.75
313.476	88.75
313.706	91.75
313.935	79.75
314.165	67.75
314.394	79.75
314.624	89.75
314.853	90.75
315.083	78.75
315.312	80.75
315.542	99.75
315.771	67.75
316.001	79.75
316.23	89.75
316.46	95.75
316.689	89.75
316.919	83.75
317.148	91.75
317.377	87.75
317.607	91.75
317.836	79.75
318.065	87.75
318.295	83.75
318.524	92.75
318.753	87.75
318.983	82.75
319.212	75.75
319.441	72.75
319.67	84.75
319.9	86.75
320.129	92.75
320.358	83.75
320.587	115.75
320.816	93.75
321.046	94.75
321.275	88.75
321.504	88.75
321.733	88.75
321.962	82.75
322.191	89.75
322.42	92.75
322.649	90.75
322.878	79.75
323.108	91.75
323.337	78.75
323.566	80.75
323.795	83.75
324.024	83.75
324.253	77.75
324.482	88.75
324.71	94.75
324.939	76.75
325.168	77.75
325.397	85.75
325.626	88.75
325.855	85.75
326.084	89.75
326.313	86.75
326.542	89.75
326.77	96.75
326.999	86.75
327.228	90.75
327.457	79.75
327.686	84.75
327.914	89.75
328.143	89.75
328.372	91.75
328.6	88.75
328.829	83.75
329.058	83.75
329.287	87.75
329.515	100.75
329.744	93.75
329.972	74.75
330.201	99.75
330.43	92.75
330.658	84.75
330.887	91.75
331.115	84.75
331.344	80.75
331.572	96.75
331.801	83.75
332.03	87.75
332.258	85.75
332.486	93.75
332.715	89.75
332.943	93.75
333.172	73.75
333.4	92.75
333.629	88.75
333.857	99.75
334.085	88.75
334.314	72.75
334.542	94.75
334.771	78.75
334.999	94.75
335.227	73.75
335.455	89.75
335.684	84.75
335.912	90.75
336.14	72.75
336.369	85.75
336.597	91.75
336.825	103.75
337.053	86.75
337.281	80.75
337.51	78.75
337.738	89.75
337.966	93.75
338.194	88.75
338.422	78.75
338.65	86.75
338.878	96.75
339.106	77.75
339.334	88.75
339.562	97.75
339.79	90.75
340.018	93.75
340.246	85.75
340.474	92.75
340.702	87.75
340.93	82.75
341.158	87.75
341.386	87.75
341.614	73.75
341.842	95.75
342.07	76.75
342.298	71.75
342.526	87.75
342.754	80.75
342.981	81.75
343.209	87.75
343.437	81.75
343.665	87.75
343.893	91.75
344.12	94.75
344.348	72.75
344.576	81.75
344.804	80.75
345.031	91.75
345.259	81.75
345.487	87.75
345.714	83.75
345.942	82.75
346.17	84.75
346.397	91.75
346.625	93.75
346.853	83.75
347.08	73.75
347.308	84.75
347.535	86.75
347.763	88.75
347.99	86.75
348.218	88.75
348.445	89.75
348.673	89.75
348.9	100.75
349.128	97.75
349.355	94.75
349.583	103.75
349.81	106.75
350.037	83.75
350.265	92.75
350.492	97.75
350.72	92.75
350.947	87.75
351.174	88.75
351.402	82.75
351.629	90.75
351.856	84.75
352.083	92.75
352.311	80.75
352.538	71.75
352.765	89.75
352.992	90.75
353.22	87.75
353.447	82.75
353.674	78.75
353.901	85.75
354.128	78.75
354.355	84.75
354.583	103.75
354.81	78.75
355.037	81.75
355.264	72.75
355.491	84.75
355.718	87.75
355.945	92.75
356.172	103.75
356.399	88.75
356.626	85.75
356.853	69.75
357.08	99.75
357.307	90.75
357.534	89.75
357.761	83.75
357.988	79.75
358.215	94.75
358.441	72.75
358.668	77.75
358.895	101.75
359.122	84.75
359.349	81.75
359.576	85.75
359.802	79.75
360.029	88.75
360.256	80.75
360.483	86.75
360.709	88.75
360.936	84.75
361.163	95.75
361.39	88.75
361.616	83.75
361.843	92.75
362.07	84.75
362.296	95.75
362.523	74.75
362.749	89.75
362.976	84.75
363.203	84.75
363.429	87.75
363.656	103.75
363.882	83.75
364.109	87.75
364.335	89.75
364.562	83.75
364.788	93.75
365.015	71.75
365.241	108.75
365.468	92.75
365.694	88.75
365.92	89.75
366.147	84.75
366.373	87.75
366.599	97.75
366.826	80.75
367.052	85.75
367.278	97.75
367.505	82.75
367.731	84.75
367.957	82.75
368.184	81.75
368.41	91.75
368.636	78.75
368.862	91.75
369.089	73.75
369.315	72.75
369.541	77.75
369.767	84.75
369.993	84.75
370.219	84.75
370.445	76.75
370.672	109.75
370.898	83.75
371.124	85.75
371.35	98.75
371.576	72.75
371.802	86.75
372.028	89.75
372.254	86.75
372.48	87.75
372.706	80.75
372.932	83.75
373.158	81.75
373.384	100.75
373.61	95.75
373.835	83.75
374.061	70.75
374.287	91.75
374.513	94.75
374.739	83.75
374.965	84.75
375.191	71.75
375.416	97.75
375.642	80.75
375.868	99.75
376.094	81.75
376.319	87.75
376.545	84.75
376.771	80.75
376.997	89.75
377.222	91.75
377.448	96.75
377.674	97.75
377.899	90.75
378.125	102.75
378.35	96.75
378.576	82.75
378.802	96.75
379.027	91.75
379.253	103.75
379.478	84.75
379.704	92.75
379.929	72.75
380.155	84.75
380.38	84.75
380.606	68.75
380.831	92.75
381.057	97.75
381.282	82.75
381.507	82.75
381.733	90.75
381.958	90.75
382.184	95.75
382.409	81.75
382.634	81.75
382.86	88.75
383.085	100.75
383.31	72.75
383.535	91.75
383.761	82.75
383.986	80.75
384.211	76.75
384.436	81.75
384.662	78.75
384.887	93.75
385.112	87.75
385.337	76.75
385.562	77.75
385.787	85.75
386.013	88.75
386.238	92.75
386.463	81.75
386.688	81.75
386.913	73.75
387.138	88.75
387.363	77.75
387.588	88.75
387.813	80.75
388.038	89.75
388.263	93.75
388.488	79.75
388.713	81.75
388.938	81.75
389.163	91.75
389.387	77.75
389.612	90.75
389.837	93.75
390.062	92.75
390.287	94.75
390.512	82.75
390.736	90.75
390.961	86.75
391.186	68.75
391.411	94.75
391.636	85.75
391.86	94.75
392.085	81.75
392.31	89.75
392.534	88.75
392.759	79.75
392.984	80.75
393.208	86.75
393.433	77.75
393.658	86.75
393.882	95.75
394.107	88.75
394.331	91.75
394.556	77.75
394.78	78.75
395.005	95.75
395.229	91.75
395.454	71.75
395.678	87.75
395.903	93.75
396.127	82.75
396.352	65.75
396.576	95.75
396.801	80.75
397.025	74.75
397.249	90.75
397.474	72.75
397.698	95.75
397.922	88.75
398.147	93.75
398.371	78.75
398.595	95.75
398.82	74.75
399.044	85.75
399.268	92.75
399.492	73.75
399.717	95.75
399.941	78.75
400.165	71.75
400.389	79.75
400.613	92.75
400.837	89.75
401.062	99.75
401.286	77.75
401.51	85.75
401.734	88.75
401.958	96.75
402.182	80.75
402.406	90.75
402.63	88.75
402.854	99.75
403.078	85.75
403.302	99.75
403.526	90.75
403.75	84.75
403.974	87.75
404.198	76.75
404.422	83.75
404.645	84.75
404.869	84.75
405.093	87.75
405.317	87.75
405.541	83.75
405.765	90.75
405.988	87.75
406.212	92.75
406.436	75.75
406.66	87.75
406.883	80.75
407.107	92.75
407.331	72.75
407.555	79.75
407.778	82.75
408.002	72.75
408.226	89.75
408.449	74.75
408.673	83.75
408.896	90.75
409.12	93.75
409.344	78.75
409.567	84.75
409.791	77.75
410.014	86.75
410.238	87.75
410.461	87.75
410.685	80.75
410.908	83.75
411.132	84.75
411.355	89.75
411.578	88.75
411.802	95.75
412.025	90.75
412.249	77.75
412.472	87.75
412.695	64.75
412.919	91.75
413.142	88.75
413.365	97.75
413.589	94.75
413.812	86.75
414.035	79.75
414.258	91.75
414.482	95.75
414.705	91.75
414.928	98.75
415.151	93.75
415.374	81.75
415.597	87.75
415.821	84.75
416.044	94.75
416.267	101.75
416.49	90.75
416.713	81.75
416.936	85.75
417.159	91.75
417.382	94.75
417.605	93.75
417.828	84.75
418.051	92.75
418.274	93.75
418.497	81.75
418.72	111.75
418.943	88.75
419.166	96.75
419.389	91.75
419.611	85.75
419.834	91.75
420.057	94.75
420.28	94.75
420.503	95.75
420.726	86.75
420.948	89.75
421.171	97.75
421.394	96.75
421.617	92.75
421.839	91.75
422.062	94.75
422.285	103.75
422.507	92.75
422.73	95.75
422.953	89.75
423.175	85.75
423.398	91.75
423.621	75.75
423.843	80.75
424.066	87.75
424.288	89.75
424.511	93.75
424.733	94.75
424.956	89.75
425.178	90.75
425.401	96.75
425.623	99.75
425.846	89.75
426.068	81.75
426.291	99.75
426.513	75.75
426.735	74.75
426.958	88.75
427.18	83.75
427.402	93.75
427.625	86.75
427.847	93.75
428.069	78.75
428.292	98.75
428.514	88.75
428.736	106.75
428.958	95.75
429.181	89.75
429.403	83.75
429.625	77.75
429.847	87.75
430.069	92.75
430.292	87.75
430.514	84.75
430.736	73.75
430.958	79.75
431.18	89.75
431.402	85.75
431.624	85.75
431.846	94.75
432.068	84.75
432.29	86.75
432.512	88.75
432.734	88.75
432.956	98.75
433.178	97.75
433.4	75.75
433.622	92.75
433.844	76.75
434.066	103.75
434.287	92.75
434.509	77.75
434.731	79.75
434.953	87.75
435.175	91.75
435.397	91.75
435.618	94.75
435.84	93.75
436.062	72.75
436.284	77.75
436.505	83.75
436.727	85.75
436.949	84.75
437.17	81.75
437.392	96.75
437.614	83.75
437.835	88.75
438.057	92.75
438.278	94.75
438.5	90.75
438.721	102.75
438.943	94.75
439.165	92.75
439.386	78.75
439.608	100.75
439.829	89.75
440.05	100.75
440.272	105.75
440.493	97.75
440.715	101.75
440.936	94.75
441.158	91.75
441.379	85.75
441.6	107.75
441.822	80.75
442.043	69.75
442.264	93.75
442.486	97.75
442.707	102.75
442.928	82.75
443.149	94.75
443.371	88.75
443.592	103.75
443.813	86.75
444.034	97.75
444.255	93.75
444.476	94.75
444.698	77.75
444.919	99.75
445.14	224.75
445.361	160.75
445.582	100.75
445.803	95.75
446.024	80.75
446.245	90.75
446.466	78.75
446.687	94.75
446.908	105.75
447.129	88.75
447.35	92.75
447.571	84.75
447.792	96.75
448.013	93.75
448.234	78.75
448.455	89.75
448.675	81.75
448.896	90.75
449.117	93.75
449.338	84.75
449.559	94.75
449.779	85.75
450	90.75
450.221	88.75
450.442	104.75
450.662	87.75
450.883	90.75
451.104	89.75
451.324	84.75
451.545	95.75
451.766	85.75
451.986	79.75
452.207	91.75
452.428	89.75
452.648	86.75
452.869	84.75
453.089	88.75
453.31	86.75
453.53	75.75
453.751	91.75
453.971	97.75
454.192	89.75
454.412	87.75
454.633	104.75
454.853	93.75
455.073	103.75
455.294	80.75
455.514	83.75
455.734	106.75
455.955	92.75
456.175	84.75
456.395	90.75
456.616	78.75
456.836	86.75
457.056	93.75
457.276	77.75
457.497	86.75
457.717	84.75
457.937	82.75
458.157	101.75
458.377	96.75
458.598	84.75
458.818	79.75
459.038	93.75
459.258	81.75
459.478	78.75
459.698	92.75
459.918	91.75
460.138	92.75
460.358	88.75
460.578	87.75
460.798	83.75
461.018	103.75
461.238	93.75
461.458	89.75
461.678	86.75
461.898	91.75
462.118	101.75
462.338	79.75
462.558	88.75
462.777	82.75
462.997	86.75
463.217	77.75
463.437	68.75
463.657	91.75
463.876	87.75
464.096	95.75
464.316	89.75
464.536	88.75
464.755	96.75
464.975	81.75
465.195	90.75
465.414	80.75
465.634	95.75
465.854	99.75
466.073	85.75
466.293	91.75
466.512	98.75
466.732	89.75
466.951	94.75
467.171	79.75
467.391	77.75
467.61	80.75
467.829	87.75
468.049	77.75
468.268	95.75
468.488	90.75
468.707	96.75
468.927	109.75
469.146	107.75
469.365	108.75
469.585	100.75
469.804	96.75
470.023	90.75
470.243	88.75
470.462	93.75
470.681	98.75
470.901	97.75
471.12	83.75
471.339	87.75
471.558	99.75
471.777	92.75
471.997	94.75
472.216	90.75
472.435	93.75
472.654	70.75
472.873	74.75
473.092	94.75
473.311	89.75
473.53	87.75
473.749	86.75
473.968	91.75
474.187	80.75
474.406	87.75
474.625	104.75
474.844	104.75
475.063	88.75
475.282	91.75
475.501	91.75
475.72	78.75
475.939	90.75
476.158	93.75
476.377	95.75
476.596	94.75
476.814	86.75
477.033	84.75
477.252	72.75
477.471	82.75
477.69	89.75
477.908	90.75
478.127	87.75
478.346	99.75
478.564	78.75
478.783	81.75
479.002	90.75
479.22	89.75
479.439	92.75
479.658	86.75
479.876	83.75
480.095	92.75
480.313	89.75
480.532	100.75
480.751	85.75
480.969	84.75
481.188	99.75
481.406	95.75
481.624	81.75
481.843	87.75
482.061	91.75
482.28	80.75
482.498	88.75
482.717	89.75
482.935	81.75
483.153	91.75
483.372	79.75
483.59	97.75
483.808	86.75
484.027	93.75
484.245	82.75
484.463	90.75
484.681	93.75
484.9	87.75
485.118	115.75
485.336	94.75
485.554	113.75
485.772	85.75
485.99	74.75
486.209	95.75
486.427	97.75
486.645	81.75
486.863	89.75
487.081	83.75
487.299	107.75
487.517	96.75
487.735	94.75
487.953	105.75
488.171	108.75
488.389	104.75
488.607	101.75
488.825	76.75
489.043	87.75
489.261	99.75
489.479	88.75
489.696	94.75
489.914	96.75
490.132	92.75
490.35	91.75
490.568	93.75
490.786	91.75
491.003	84.75
491.221	98.75
491.439	94.75
491.657	110.75
491.874	97.75
492.092	93.75
492.31	116.75
492.527	110.75
492.745	91.75
492.963	100.75
493.18	95.75
493.398	97.75
493.615	97.75
493.833	99.75
494.05	88.75
494.268	96.75
494.485	110.75
494.703	104.75
494.92	106.75
495.138	100.75
495.355	103.75
495.573	105.75
495.79	106.75
496.008	108.75
496.225	99.75
496.442	91.75
496.66	94.75
496.877	108.75
497.094	117.75
497.312	102.75
497.529	109.75
497.746	102.75
497.963	107.75
498.181	97.75
498.398	84.75
498.615	92.75
498.832	81.75
499.049	95.75
499.267	87.75
499.484	94.75
499.701	96.75
499.918	95.75
500.135	89.75
500.352	90.75
500.569	94.75
500.786	103.75
501.003	90.75
501.22	105.75
501.437	92.75
501.654	89.75
501.871	108.75
502.088	87.75
502.305	93.75
502.522	103.75
502.739	97.75
502.956	94.75
503.172	87.75
503.389	85.75
503.606	84.75
503.823	86.75
504.04	95.75
504.256	108.75
504.473	80.75
504.69	92.75
504.907	96.75
505.123	95.75
505.34	87.75
505.557	88.75
505.773	91.75
505.99	87.75
506.207	100.75
506.423	93.75
506.64	99.75
506.856	83.75
507.073	93.75
507.289	77.75
507.506	92.75
507.722	93.75
507.939	93.75
508.155	104.75
508.372	95.75
508.588	99.75
508.805	92.75
509.021	95.75
509.238	79.75
509.454	107.75
509.67	92.75
509.887	83.75
510.103	75.75
510.319	96.75
510.536	80.75
510.752	79.75
510.968	91.75
511.184	89.75
511.401	86.75
511.617	103.75
511.833	94.75
512.049	88.75
512.265	96.75
512.481	85.75
512.698	76.75
512.914	89.75
513.13	85.75
513.346	80.75
513.562	89.75
513.778	85.75
513.994	89.75
514.21	82.75
514.426	101.75
514.642	82.75
514.858	86.75
515.074	79.75
515.29	81.75
515.506	82.75
515.721	79.75
515.937	100.75
516.153	98.75
516.369	87.75
516.585	101.75
516.801	100.75
517.016	108.75
517.232	79.75
517.448	91.75
517.664	84.75
517.879	87.75
518.095	87.75
