Data from Zn(NO3)2Standard.Agarose3%.GreenCap.LampEnergy10E.O_HRD10591_15-08-07-948.txt Node
Date: Mon Jul 22 15:08:07 EDT 2019
User: cochatt
Spectrometer: HR+D1059
Trigger mode: 1
Integration Time (sec): 1.000000E-1
Scans to average: 1
Electric dark correction enabled: true
Nonlinearity correction enabled: false
Boxcar width: 0
XAxis mode: Wavelengths
Number of Pixels in Spectrum: 2048
>>>>>Begin Spectral Data<<<<<
223.165	-21.38
223.4	-21.38
223.635	-21.38
223.869	-19.38
224.104	-6.38
224.338	-18.38
224.573	-8.38
224.808	-4.38
225.042	-10.38
225.277	-4.38
225.511	-6.38
225.746	9.62
225.98	12.62
226.215	8.62
226.449	7.62
226.683	17.62
226.918	9.62
227.152	33.62
227.387	23.62
227.621	45.62
227.856	47.62
228.09	56.62
228.324	54.62
228.559	53.62
228.793	56.62
229.027	65.62
229.262	57.62
229.496	64.62
229.73	72.62
229.964	84.62
230.199	62.62
230.433	88.62
230.667	65.62
230.901	82.62
231.136	64.62
231.37	87.62
231.604	81.62
231.838	80.62
232.072	90.62
232.306	86.62
232.541	86.62
232.775	75.62
233.009	74.62
233.243	72.62
233.477	61.62
233.711	83.62
233.945	83.62
234.179	73.62
234.413	79.62
234.647	76.62
234.881	72.62
235.115	75.62
235.349	70.62
235.583	80.62
235.817	82.62
236.051	81.62
236.285	69.62
236.519	70.62
236.753	73.62
236.987	63.62
237.221	65.62
237.455	82.62
237.689	77.62
237.922	70.62
238.156	87.62
238.39	81.62
238.624	72.62
238.858	71.62
239.091	76.62
239.325	69.62
239.559	71.62
239.793	76.62
240.027	88.62
240.26	74.62
240.494	71.62
240.728	83.62
240.961	70.62
241.195	77.62
241.429	77.62
241.662	65.62
241.896	58.62
242.13	82.62
242.363	75.62
242.597	69.62
242.83	80.62
243.064	71.62
243.298	82.62
243.531	82.62
243.765	81.62
243.998	73.62
244.232	70.62
244.465	75.62
244.699	69.62
244.932	80.62
245.166	72.62
245.399	71.62
245.633	77.62
245.866	69.62
246.099	64.62
246.333	82.62
246.566	85.62
246.8	73.62
247.033	78.62
247.266	83.62
247.5	68.62
247.733	85.62
247.966	79.62
248.2	79.62
248.433	72.62
248.666	76.62
248.899	77.62
249.133	89.62
249.366	79.62
249.599	88.62
249.832	88.62
250.066	85.62
250.299	77.62
250.532	77.62
250.765	62.62
250.998	80.62
251.231	74.62
251.465	72.62
251.698	73.62
251.931	76.62
252.164	81.62
252.397	79.62
252.63	90.62
252.863	72.62
253.096	83.62
253.329	70.62
253.562	83.62
253.795	67.62
254.028	74.62
254.261	74.62
254.494	72.62
254.727	82.62
254.96	82.62
255.193	84.62
255.426	77.62
255.659	58.62
255.892	83.62
256.124	77.62
256.357	75.62
256.59	91.62
256.823	68.62
257.056	79.62
257.289	91.62
257.521	91.62
257.754	89.62
257.987	82.62
258.22	72.62
258.452	69.62
258.685	88.62
258.918	72.62
259.151	91.62
259.383	84.62
259.616	84.62
259.849	72.62
260.081	82.62
260.314	83.62
260.547	77.62
260.779	76.62
261.012	81.62
261.244	83.62
261.477	72.62
261.71	72.62
261.942	84.62
262.175	96.62
262.407	74.62
262.64	83.62
262.872	78.62
263.105	82.62
263.337	88.62
263.57	66.62
263.802	72.62
264.035	76.62
264.267	60.62
264.499	77.62
264.732	87.62
264.964	87.62
265.197	80.62
265.429	69.62
265.661	72.62
265.894	83.62
266.126	83.62
266.358	85.62
266.591	101.62
266.823	83.62
267.055	90.62
267.287	77.62
267.52	58.62
267.752	61.62
267.984	74.62
268.216	89.62
268.448	70.62
268.681	82.62
268.913	93.62
269.145	93.62
269.377	86.62
269.609	88.62
269.841	90.62
270.073	75.62
270.306	90.62
270.538	83.62
270.77	81.62
271.002	89.62
271.234	82.62
271.466	76.62
271.698	85.62
271.93	69.62
272.162	81.62
272.394	90.62
272.626	93.62
272.858	91.62
273.09	87.62
273.322	88.62
273.553	74.62
273.785	84.62
274.017	90.62
274.249	87.62
274.481	91.62
274.713	77.62
274.945	77.62
275.176	83.62
275.408	86.62
275.64	80.62
275.872	83.62
276.104	82.62
276.335	82.62
276.567	69.62
276.799	76.62
277.031	82.62
277.262	81.62
277.494	95.62
277.726	85.62
277.957	82.62
278.189	73.62
278.421	84.62
278.652	73.62
278.884	76.62
279.115	87.62
279.347	81.62
279.579	64.62
279.81	79.62
280.042	77.62
280.273	83.62
280.505	78.62
280.736	83.62
280.968	85.62
281.199	85.62
281.431	80.62
281.662	91.62
281.894	81.62
282.125	84.62
282.356	87.62
282.588	81.62
282.819	84.62
283.051	76.62
283.282	84.62
283.513	79.62
283.745	78.62
283.976	82.62
284.207	85.62
284.439	83.62
284.67	93.62
284.901	87.62
285.132	88.62
285.364	79.62
285.595	87.62
285.826	78.62
286.057	73.62
286.288	85.62
286.52	101.62
286.751	72.62
286.982	78.62
287.213	88.62
287.444	87.62
287.675	88.62
287.906	91.62
288.138	89.62
288.369	91.62
288.6	84.62
288.831	94.62
289.062	87.62
289.293	83.62
289.524	95.62
289.755	86.62
289.986	92.62
290.217	64.62
290.448	92.62
290.679	92.62
290.91	64.62
291.141	77.62
291.371	76.62
291.602	85.62
291.833	81.62
292.064	84.62
292.295	80.62
292.526	75.62
292.757	68.62
292.987	74.62
293.218	92.62
293.449	91.62
293.68	92.62
293.91	84.62
294.141	73.62
294.372	80.62
294.603	89.62
294.833	80.62
295.064	82.62
295.295	88.62
295.525	89.62
295.756	75.62
295.987	87.62
296.217	87.62
296.448	80.62
296.679	93.62
296.909	84.62
297.14	84.62
297.37	78.62
297.601	89.62
297.831	91.62
298.062	96.62
298.292	76.62
298.523	95.62
298.753	86.62
298.984	82.62
299.214	74.62
299.445	89.62
299.675	93.62
299.905	93.62
300.136	84.62
300.366	86.62
300.597	91.62
300.827	70.62
301.057	77.62
301.288	81.62
301.518	81.62
301.748	84.62
301.979	93.62
302.209	80.62
302.439	68.62
302.669	87.62
302.9	82.62
303.13	79.62
303.36	84.62
303.59	99.62
303.82	92.62
304.051	89.62
304.281	87.62
304.511	87.62
304.741	76.62
304.971	85.62
305.201	91.62
305.431	81.62
305.661	85.62
305.891	86.62
306.121	81.62
306.352	89.62
306.582	72.62
306.812	78.62
307.042	81.62
307.272	80.62
307.502	84.62
307.731	77.62
307.961	86.62
308.191	84.62
308.421	89.62
308.651	76.62
308.881	90.62
309.111	82.62
309.341	71.62
309.571	88.62
309.8	86.62
310.03	83.62
310.26	96.62
310.49	76.62
310.72	87.62
310.949	93.62
311.179	94.62
311.409	89.62
311.639	77.62
311.868	72.62
312.098	85.62
312.328	95.62
312.557	78.62
312.787	89.62
313.017	77.62
313.246	96.62
313.476	76.62
313.706	74.62
313.935	88.62
314.165	83.62
314.394	87.62
314.624	88.62
314.853	72.62
315.083	81.62
315.312	82.62
315.542	83.62
315.771	73.62
316.001	84.62
316.23	74.62
316.46	68.62
316.689	84.62
316.919	91.62
317.148	83.62
317.377	85.62
317.607	84.62
317.836	104.62
318.065	77.62
318.295	66.62
318.524	83.62
318.753	84.62
318.983	84.62
319.212	93.62
319.441	71.62
319.67	90.62
319.9	83.62
320.129	76.62
320.358	83.62
320.587	81.62
320.816	83.62
321.046	85.62
321.275	85.62
321.504	73.62
321.733	82.62
321.962	87.62
322.191	88.62
322.42	93.62
322.649	90.62
322.878	87.62
323.108	86.62
323.337	91.62
323.566	96.62
323.795	73.62
324.024	85.62
324.253	73.62
324.482	83.62
324.71	89.62
324.939	83.62
325.168	74.62
325.397	78.62
325.626	69.62
325.855	82.62
326.084	83.62
326.313	84.62
326.542	93.62
326.77	81.62
326.999	111.62
327.228	89.62
327.457	85.62
327.686	99.62
327.914	89.62
328.143	84.62
328.372	80.62
328.6	74.62
328.829	76.62
329.058	88.62
329.287	86.62
329.515	69.62
329.744	65.62
329.972	72.62
330.201	83.62
330.43	72.62
330.658	73.62
330.887	84.62
331.115	85.62
331.344	71.62
331.572	94.62
331.801	82.62
332.03	80.62
332.258	88.62
332.486	75.62
332.715	86.62
332.943	85.62
333.172	79.62
333.4	97.62
333.629	81.62
333.857	73.62
334.085	85.62
334.314	87.62
334.542	81.62
334.771	95.62
334.999	81.62
335.227	84.62
335.455	81.62
335.684	78.62
335.912	86.62
336.14	78.62
336.369	72.62
336.597	74.62
336.825	77.62
337.053	89.62
337.281	87.62
337.51	87.62
337.738	93.62
337.966	86.62
338.194	93.62
338.422	77.62
338.65	75.62
338.878	75.62
339.106	91.62
339.334	86.62
339.562	68.62
339.79	90.62
340.018	87.62
340.246	93.62
340.474	82.62
340.702	73.62
340.93	86.62
341.158	73.62
341.386	83.62
341.614	82.62
341.842	85.62
342.07	79.62
342.298	76.62
342.526	94.62
342.754	81.62
342.981	86.62
343.209	78.62
343.437	80.62
343.665	90.62
343.893	86.62
344.12	81.62
344.348	76.62
344.576	72.62
344.804	87.62
345.031	88.62
345.259	84.62
345.487	91.62
345.714	86.62
345.942	84.62
346.17	75.62
346.397	86.62
346.625	82.62
346.853	89.62
347.08	80.62
347.308	89.62
347.535	96.62
347.763	99.62
347.99	81.62
348.218	91.62
348.445	85.62
348.673	84.62
348.9	91.62
349.128	72.62
349.355	85.62
349.583	77.62
349.81	81.62
350.037	76.62
350.265	92.62
350.492	74.62
350.72	85.62
350.947	81.62
351.174	72.62
351.402	77.62
351.629	92.62
351.856	80.62
352.083	77.62
352.311	81.62
352.538	74.62
352.765	79.62
352.992	76.62
353.22	73.62
353.447	85.62
353.674	87.62
353.901	72.62
354.128	80.62
354.355	85.62
354.583	71.62
354.81	79.62
355.037	87.62
355.264	85.62
355.491	81.62
355.718	102.62
355.945	88.62
356.172	76.62
356.399	76.62
356.626	73.62
356.853	95.62
357.08	82.62
357.307	76.62
357.534	87.62
357.761	77.62
357.988	89.62
358.215	83.62
358.441	85.62
358.668	75.62
358.895	89.62
359.122	82.62
359.349	88.62
359.576	70.62
359.802	83.62
360.029	71.62
360.256	87.62
360.483	77.62
360.709	89.62
360.936	91.62
361.163	92.62
361.39	82.62
361.616	94.62
361.843	80.62
362.07	86.62
362.296	82.62
362.523	74.62
362.749	67.62
362.976	90.62
363.203	94.62
363.429	81.62
363.656	72.62
363.882	66.62
364.109	73.62
364.335	98.62
364.562	83.62
364.788	78.62
365.015	84.62
365.241	94.62
365.468	91.62
365.694	72.62
365.92	83.62
366.147	93.62
366.373	92.62
366.599	83.62
366.826	73.62
367.052	87.62
367.278	76.62
367.505	75.62
367.731	96.62
367.957	87.62
368.184	80.62
368.41	83.62
368.636	87.62
368.862	81.62
369.089	75.62
369.315	93.62
369.541	76.62
369.767	82.62
369.993	87.62
370.219	81.62
370.445	73.62
370.672	82.62
370.898	88.62
371.124	82.62
371.35	76.62
371.576	88.62
371.802	78.62
372.028	79.62
372.254	75.62
372.48	93.62
372.706	100.62
372.932	84.62
373.158	78.62
373.384	75.62
373.61	86.62
373.835	76.62
374.061	80.62
374.287	87.62
374.513	84.62
374.739	75.62
374.965	87.62
375.191	92.62
375.416	84.62
375.642	79.62
375.868	84.62
376.094	95.62
376.319	96.62
376.545	98.62
376.771	93.62
376.997	80.62
377.222	81.62
377.448	83.62
377.674	90.62
377.899	81.62
378.125	100.62
378.35	80.62
378.576	92.62
378.802	82.62
379.027	85.62
379.253	89.62
379.478	83.62
379.704	84.62
379.929	83.62
380.155	80.62
380.38	77.62
380.606	92.62
380.831	91.62
381.057	84.62
381.282	79.62
381.507	103.62
381.733	104.62
381.958	73.62
382.184	78.62
382.409	74.62
382.634	90.62
382.86	77.62
383.085	92.62
383.31	84.62
383.535	99.62
383.761	88.62
383.986	106.62
384.211	79.62
384.436	86.62
384.662	85.62
384.887	90.62
385.112	96.62
385.337	81.62
385.562	85.62
385.787	85.62
386.013	92.62
386.238	79.62
386.463	81.62
386.688	85.62
386.913	90.62
387.138	86.62
387.363	82.62
387.588	91.62
387.813	98.62
388.038	88.62
388.263	89.62
388.488	82.62
388.713	89.62
388.938	98.62
389.163	94.62
389.387	84.62
389.612	95.62
389.837	88.62
390.062	88.62
390.287	84.62
390.512	80.62
390.736	102.62
390.961	78.62
391.186	84.62
391.411	87.62
391.636	88.62
391.86	92.62
392.085	92.62
392.31	90.62
392.534	90.62
392.759	91.62
392.984	85.62
393.208	104.62
393.433	83.62
393.658	98.62
393.882	88.62
394.107	92.62
394.331	99.62
394.556	100.62
394.78	77.62
395.005	87.62
395.229	106.62
395.454	89.62
395.678	99.62
395.903	93.62
396.127	96.62
396.352	95.62
396.576	85.62
396.801	93.62
397.025	88.62
397.249	95.62
397.474	102.62
397.698	115.62
397.922	102.62
398.147	83.62
398.371	82.62
398.595	99.62
398.82	98.62
399.044	92.62
399.268	96.62
399.492	119.62
399.717	103.62
399.941	98.62
400.165	101.62
400.389	93.62
400.613	97.62
400.837	100.62
401.062	92.62
401.286	107.62
401.51	92.62
401.734	91.62
401.958	80.62
402.182	96.62
402.406	93.62
402.63	98.62
402.854	100.62
403.078	87.62
403.302	93.62
403.526	85.62
403.75	107.62
403.974	93.62
404.198	88.62
404.422	83.62
404.645	85.62
404.869	89.62
405.093	91.62
405.317	91.62
405.541	99.62
405.765	97.62
405.988	98.62
406.212	92.62
406.436	91.62
406.66	101.62
406.883	96.62
407.107	88.62
407.331	111.62
407.555	95.62
407.778	86.62
408.002	94.62
408.226	73.62
408.449	108.62
408.673	96.62
408.896	95.62
409.12	99.62
409.344	99.62
409.567	107.62
409.791	81.62
410.014	88.62
410.238	99.62
410.461	106.62
410.685	97.62
410.908	89.62
411.132	101.62
411.355	109.62
411.578	109.62
411.802	108.62
412.025	111.62
412.249	82.62
412.472	104.62
412.695	83.62
412.919	99.62
413.142	90.62
413.365	95.62
413.589	100.62
413.812	107.62
414.035	114.62
414.258	104.62
414.482	97.62
414.705	111.62
414.928	104.62
415.151	93.62
415.374	114.62
415.597	115.62
415.821	85.62
416.044	111.62
416.267	113.62
416.49	115.62
416.713	94.62
416.936	100.62
417.159	97.62
417.382	116.62
417.605	119.62
417.828	95.62
418.051	97.62
418.274	106.62
418.497	105.62
418.72	109.62
418.943	114.62
419.166	108.62
419.389	112.62
419.611	96.62
419.834	101.62
420.057	99.62
420.28	104.62
420.503	113.62
420.726	102.62
420.948	90.62
421.171	102.62
421.394	98.62
421.617	88.62
421.839	117.62
422.062	113.62
422.285	106.62
422.507	92.62
422.73	96.62
422.953	109.62
423.175	126.62
423.398	113.62
423.621	100.62
423.843	111.62
424.066	94.62
424.288	89.62
424.511	102.62
424.733	101.62
424.956	115.62
425.178	103.62
425.401	106.62
425.623	104.62
425.846	111.62
426.068	102.62
426.291	100.62
426.513	107.62
426.735	92.62
426.958	121.62
427.18	96.62
427.402	97.62
427.625	97.62
427.847	98.62
428.069	107.62
428.292	81.62
428.514	102.62
428.736	101.62
428.958	96.62
429.181	98.62
429.403	115.62
429.625	111.62
429.847	98.62
430.069	101.62
430.292	106.62
430.514	102.62
430.736	114.62
430.958	121.62
431.18	105.62
431.402	109.62
431.624	115.62
431.846	96.62
432.068	91.62
432.29	81.62
432.512	101.62
432.734	108.62
432.956	92.62
433.178	92.62
433.4	103.62
433.622	115.62
433.844	97.62
434.066	97.62
434.287	88.62
434.509	88.62
434.731	93.62
434.953	103.62
435.175	103.62
435.397	105.62
435.618	100.62
435.84	91.62
436.062	89.62
436.284	92.62
436.505	93.62
436.727	102.62
436.949	106.62
437.17	107.62
437.392	121.62
437.614	97.62
437.835	91.62
438.057	95.62
438.278	101.62
438.5	106.62
438.721	111.62
438.943	106.62
439.165	108.62
439.386	98.62
439.608	114.62
439.829	96.62
440.05	117.62
440.272	104.62
440.493	120.62
440.715	114.62
440.936	130.62
441.158	108.62
441.379	113.62
441.6	127.62
441.822	107.62
442.043	100.62
442.264	107.62
442.486	105.62
442.707	102.62
442.928	104.62
443.149	96.62
443.371	101.62
443.592	111.62
443.813	103.62
444.034	108.62
444.255	119.62
444.476	99.62
444.698	100.62
444.919	107.62
445.14	177.62
445.361	143.62
445.582	117.62
445.803	109.62
446.024	109.62
446.245	124.62
446.466	107.62
446.687	118.62
446.908	125.62
447.129	112.62
447.35	131.62
447.571	121.62
447.792	114.62
448.013	119.62
448.234	109.62
448.455	108.62
448.675	118.62
448.896	106.62
449.117	100.62
449.338	107.62
449.559	105.62
449.779	97.62
450	109.62
450.221	99.62
450.442	115.62
450.662	106.62
450.883	117.62
451.104	105.62
451.324	124.62
451.545	102.62
451.766	96.62
451.986	104.62
452.207	110.62
452.428	116.62
452.648	107.62
452.869	113.62
453.089	98.62
453.31	113.62
453.53	99.62
453.751	105.62
453.971	93.62
454.192	105.62
454.412	98.62
454.633	98.62
454.853	102.62
455.073	99.62
455.294	88.62
455.514	107.62
455.734	105.62
455.955	91.62
456.175	103.62
456.395	95.62
456.616	100.62
456.836	90.62
457.056	103.62
457.276	99.62
457.497	87.62
457.717	85.62
457.937	76.62
458.157	91.62
458.377	99.62
458.598	88.62
458.818	91.62
459.038	78.62
459.258	76.62
459.478	77.62
459.698	79.62
459.918	85.62
460.138	96.62
460.358	104.62
460.578	109.62
460.798	112.62
461.018	104.62
461.238	98.62
461.458	103.62
461.678	84.62
461.898	85.62
462.118	95.62
462.338	96.62
462.558	103.62
462.777	95.62
462.997	102.62
463.217	97.62
463.437	105.62
463.657	94.62
463.876	97.62
464.096	105.62
464.316	107.62
464.536	102.62
464.755	98.62
464.975	81.62
465.195	87.62
465.414	106.62
465.634	78.62
465.854	100.62
466.073	98.62
466.293	81.62
466.512	83.62
466.732	104.62
466.951	102.62
467.171	105.62
467.391	101.62
467.61	98.62
467.829	105.62
468.049	105.62
468.268	107.62
468.488	101.62
468.707	112.62
468.927	112.62
469.146	111.62
469.365	100.62
469.585	104.62
469.804	102.62
470.023	125.62
470.243	108.62
470.462	113.62
470.681	115.62
470.901	95.62
471.12	111.62
471.339	113.62
471.558	103.62
471.777	114.62
471.997	113.62
472.216	107.62
472.435	95.62
472.654	102.62
472.873	95.62
473.092	111.62
473.311	98.62
473.53	90.62
473.749	107.62
473.968	114.62
474.187	93.62
474.406	98.62
474.625	101.62
474.844	89.62
475.063	96.62
475.282	122.62
475.501	99.62
475.72	106.62
475.939	94.62
476.158	103.62
476.377	96.62
476.596	114.62
476.814	93.62
477.033	92.62
477.252	102.62
477.471	87.62
477.69	98.62
477.908	115.62
478.127	123.62
478.346	108.62
478.564	95.62
478.783	100.62
479.002	114.62
479.22	104.62
479.439	118.62
479.658	106.62
479.876	97.62
480.095	102.62
480.313	90.62
480.532	92.62
480.751	100.62
480.969	73.62
481.188	89.62
481.406	74.62
481.624	84.62
481.843	90.62
482.061	95.62
482.28	107.62
482.498	105.62
482.717	103.62
482.935	112.62
483.153	116.62
483.372	104.62
483.59	120.62
483.808	114.62
484.027	106.62
484.245	110.62
484.463	110.62
484.681	119.62
484.9	98.62
485.118	107.62
485.336	96.62
485.554	104.62
485.772	108.62
485.99	102.62
486.209	91.62
486.427	104.62
486.645	96.62
486.863	110.62
487.081	119.62
487.299	116.62
487.517	113.62
487.735	113.62
487.953	148.62
488.171	139.62
488.389	126.62
488.607	129.62
488.825	94.62
489.043	100.62
489.261	115.62
489.479	111.62
489.696	114.62
489.914	101.62
490.132	105.62
490.35	124.62
490.568	109.62
490.786	125.62
491.003	131.62
491.221	136.62
491.439	133.62
491.657	132.62
491.874	148.62
492.092	159.62
492.31	161.62
492.527	154.62
492.745	154.62
492.963	132.62
493.18	142.62
493.398	128.62
493.615	140.62
493.833	139.62
494.05	121.62
494.268	123.62
494.485	130.62
494.703	120.62
494.92	123.62
495.138	126.62
495.355	122.62
495.573	131.62
495.79	119.62
496.008	125.62
496.225	132.62
496.442	115.62
496.66	124.62
496.877	120.62
497.094	120.62
497.312	109.62
497.529	114.62
497.746	123.62
497.963	112.62
498.181	100.62
498.398	105.62
498.615	96.62
498.832	88.62
499.049	91.62
499.267	93.62
499.484	103.62
499.701	106.62
499.918	101.62
500.135	97.62
500.352	108.62
500.569	107.62
500.786	130.62
501.003	114.62
501.22	105.62
501.437	103.62
501.654	112.62
501.871	117.62
502.088	102.62
502.305	110.62
502.522	104.62
502.739	99.62
502.956	105.62
503.172	103.62
503.389	95.62
503.606	104.62
503.823	105.62
504.04	106.62
504.256	124.62
504.473	123.62
504.69	101.62
504.907	119.62
505.123	91.62
505.34	111.62
505.557	106.62
505.773	99.62
505.99	100.62
506.207	104.62
506.423	105.62
506.64	114.62
506.856	88.62
507.073	91.62
507.289	97.62
507.506	93.62
507.722	101.62
507.939	93.62
508.155	92.62
508.372	96.62
508.588	95.62
508.805	105.62
509.021	104.62
509.238	82.62
509.454	98.62
509.67	90.62
509.887	74.62
510.103	87.62
510.319	79.62
510.536	88.62
510.752	79.62
510.968	89.62
511.184	82.62
511.401	86.62
511.617	91.62
511.833	95.62
512.049	99.62
512.265	87.62
512.481	93.62
512.698	97.62
512.914	89.62
513.13	84.62
513.346	91.62
513.562	80.62
513.778	78.62
513.994	88.62
514.21	87.62
514.426	83.62
514.642	96.62
514.858	97.62
