Data from Zn(NO3)2Standard.Agarose3%.GreenCap.LampEnergy5.5.E.O_HRD10591_15-03-27-768.txt Node
Date: Mon Jul 22 15:03:27 EDT 2019
User: cochatt
Spectrometer: HR+D1059
Trigger mode: 1
Integration Time (sec): 1.000000E-1
Scans to average: 1
Electric dark correction enabled: true
Nonlinearity correction enabled: false
Boxcar width: 0
XAxis mode: Wavelengths
Number of Pixels in Spectrum: 2048
>>>>>Begin Spectral Data<<<<<
223.165	-9.88
223.4	-9.88
223.635	-9.88
223.869	-14.88
224.104	1.12
224.338	-19.88
224.573	-15.88
224.808	-11.88
225.042	-0.88
225.277	-6.88
225.511	-5.88
225.746	-3.88
225.98	21.12
226.215	8.12
226.449	-2.88
226.683	31.12
226.918	10.12
227.152	21.12
227.387	34.12
227.621	28.12
227.856	39.12
228.09	46.12
228.324	45.12
228.559	43.12
228.793	66.12
229.027	55.12
229.262	77.12
229.496	49.12
229.73	78.12
229.964	82.12
230.199	77.12
230.433	82.12
230.667	59.12
230.901	86.12
231.136	80.12
231.37	84.12
231.604	80.12
231.838	83.12
232.072	85.12
232.306	84.12
232.541	75.12
232.775	90.12
233.009	81.12
233.243	78.12
233.477	77.12
233.711	82.12
233.945	85.12
234.179	89.12
234.413	89.12
234.647	88.12
234.881	70.12
235.115	89.12
235.349	72.12
235.583	73.12
235.817	73.12
236.051	95.12
236.285	80.12
236.519	73.12
236.753	75.12
236.987	71.12
237.221	78.12
237.455	83.12
237.689	73.12
237.922	81.12
238.156	82.12
238.39	78.12
238.624	79.12
238.858	88.12
239.091	61.12
239.325	81.12
239.559	76.12
239.793	81.12
240.027	82.12
240.26	65.12
240.494	84.12
240.728	72.12
240.961	79.12
241.195	67.12
241.429	78.12
241.662	65.12
241.896	84.12
242.13	78.12
242.363	79.12
242.597	81.12
242.83	75.12
243.064	68.12
243.298	70.12
243.531	89.12
243.765	62.12
243.998	82.12
244.232	81.12
244.465	74.12
244.699	77.12
244.932	82.12
245.166	77.12
245.399	78.12
245.633	77.12
245.866	91.12
246.099	81.12
246.333	82.12
246.566	70.12
246.8	78.12
247.033	67.12
247.266	76.12
247.5	68.12
247.733	67.12
247.966	72.12
248.2	72.12
248.433	78.12
248.666	71.12
248.899	65.12
249.133	69.12
249.366	83.12
249.599	84.12
249.832	79.12
250.066	86.12
250.299	79.12
250.532	80.12
250.765	85.12
250.998	87.12
251.231	61.12
251.465	80.12
251.698	74.12
251.931	84.12
252.164	72.12
252.397	71.12
252.63	86.12
252.863	78.12
253.096	80.12
253.329	66.12
253.562	87.12
253.795	83.12
254.028	82.12
254.261	89.12
254.494	83.12
254.727	94.12
254.96	77.12
255.193	64.12
255.426	66.12
255.659	79.12
255.892	85.12
256.124	70.12
256.357	77.12
256.59	86.12
256.823	84.12
257.056	83.12
257.289	85.12
257.521	77.12
257.754	68.12
257.987	83.12
258.22	92.12
258.452	87.12
258.685	88.12
258.918	70.12
259.151	83.12
259.383	76.12
259.616	72.12
259.849	64.12
260.081	90.12
260.314	78.12
260.547	102.12
260.779	82.12
261.012	89.12
261.244	90.12
261.477	76.12
261.71	77.12
261.942	66.12
262.175	75.12
262.407	75.12
262.64	72.12
262.872	81.12
263.105	83.12
263.337	79.12
263.57	77.12
263.802	96.12
264.035	74.12
264.267	82.12
264.499	75.12
264.732	94.12
264.964	78.12
265.197	85.12
265.429	67.12
265.661	86.12
265.894	70.12
266.126	83.12
266.358	94.12
266.591	88.12
266.823	83.12
267.055	72.12
267.287	82.12
267.52	78.12
267.752	71.12
267.984	81.12
268.216	80.12
268.448	83.12
268.681	83.12
268.913	74.12
269.145	83.12
269.377	90.12
269.609	89.12
269.841	84.12
270.073	68.12
270.306	68.12
270.538	90.12
270.77	84.12
271.002	90.12
271.234	90.12
271.466	96.12
271.698	99.12
271.93	96.12
272.162	78.12
272.394	74.12
272.626	83.12
272.858	71.12
273.09	82.12
273.322	89.12
273.553	99.12
273.785	77.12
274.017	72.12
274.249	78.12
274.481	79.12
274.713	76.12
274.945	75.12
275.176	88.12
275.408	103.12
275.64	77.12
275.872	92.12
276.104	71.12
276.335	76.12
276.567	74.12
276.799	80.12
277.031	99.12
277.262	77.12
277.494	78.12
277.726	97.12
277.957	86.12
278.189	64.12
278.421	82.12
278.652	66.12
278.884	86.12
279.115	92.12
279.347	73.12
279.579	93.12
279.81	80.12
280.042	82.12
280.273	74.12
280.505	80.12
280.736	84.12
280.968	85.12
281.199	78.12
281.431	91.12
281.662	100.12
281.894	86.12
282.125	98.12
282.356	84.12
282.588	79.12
282.819	88.12
283.051	84.12
283.282	100.12
283.513	93.12
283.745	71.12
283.976	73.12
284.207	91.12
284.439	88.12
284.67	86.12
284.901	100.12
285.132	98.12
285.364	78.12
285.595	84.12
285.826	93.12
286.057	86.12
286.288	84.12
286.52	80.12
286.751	82.12
286.982	83.12
287.213	78.12
287.444	87.12
287.675	76.12
287.906	90.12
288.138	68.12
288.369	78.12
288.6	87.12
288.831	82.12
289.062	101.12
289.293	86.12
289.524	87.12
289.755	75.12
289.986	79.12
290.217	91.12
290.448	78.12
290.679	82.12
290.91	87.12
291.141	82.12
291.371	77.12
291.602	99.12
291.833	90.12
292.064	78.12
292.295	93.12
292.526	91.12
292.757	83.12
292.987	92.12
293.218	68.12
293.449	85.12
293.68	77.12
293.91	80.12
294.141	97.12
294.372	89.12
294.603	78.12
294.833	95.12
295.064	70.12
295.295	82.12
295.525	90.12
295.756	85.12
295.987	89.12
296.217	83.12
296.448	85.12
296.679	83.12
296.909	77.12
297.14	82.12
297.37	85.12
297.601	72.12
297.831	64.12
298.062	92.12
298.292	86.12
298.523	94.12
298.753	84.12
298.984	77.12
299.214	74.12
299.445	82.12
299.675	84.12
299.905	81.12
300.136	86.12
300.366	91.12
300.597	96.12
300.827	78.12
301.057	79.12
301.288	81.12
301.518	81.12
301.748	84.12
301.979	85.12
302.209	82.12
302.439	85.12
302.669	86.12
302.9	84.12
303.13	73.12
303.36	97.12
303.59	85.12
303.82	85.12
304.051	78.12
304.281	83.12
304.511	90.12
304.741	94.12
304.971	84.12
305.201	82.12
305.431	84.12
305.661	83.12
305.891	79.12
306.121	89.12
306.352	76.12
306.582	99.12
306.812	80.12
307.042	89.12
307.272	78.12
307.502	83.12
307.731	88.12
307.961	85.12
308.191	76.12
308.421	92.12
308.651	82.12
308.881	93.12
309.111	79.12
309.341	87.12
309.571	91.12
309.8	84.12
310.03	96.12
310.26	96.12
310.49	90.12
310.72	81.12
310.949	77.12
311.179	77.12
311.409	75.12
311.639	82.12
311.868	90.12
312.098	88.12
312.328	81.12
312.557	83.12
312.787	88.12
313.017	87.12
313.246	91.12
313.476	91.12
313.706	74.12
313.935	84.12
314.165	72.12
314.394	81.12
314.624	82.12
314.853	95.12
315.083	86.12
315.312	90.12
315.542	91.12
315.771	73.12
316.001	71.12
316.23	70.12
316.46	93.12
316.689	74.12
316.919	77.12
317.148	83.12
317.377	86.12
317.607	78.12
317.836	91.12
318.065	77.12
318.295	85.12
318.524	85.12
318.753	72.12
318.983	73.12
319.212	88.12
319.441	89.12
319.67	79.12
319.9	97.12
320.129	82.12
320.358	77.12
320.587	88.12
320.816	99.12
321.046	83.12
321.275	84.12
321.504	80.12
321.733	78.12
321.962	82.12
322.191	91.12
322.42	78.12
322.649	94.12
322.878	88.12
323.108	87.12
323.337	77.12
323.566	85.12
323.795	78.12
324.024	94.12
324.253	90.12
324.482	76.12
324.71	87.12
324.939	98.12
325.168	83.12
325.397	78.12
325.626	97.12
325.855	82.12
326.084	91.12
326.313	97.12
326.542	81.12
326.77	99.12
326.999	84.12
327.228	71.12
327.457	86.12
327.686	81.12
327.914	76.12
328.143	83.12
328.372	86.12
328.6	87.12
328.829	80.12
329.058	72.12
329.287	87.12
329.515	78.12
329.744	86.12
329.972	70.12
330.201	76.12
330.43	91.12
330.658	76.12
330.887	89.12
331.115	87.12
331.344	73.12
331.572	87.12
331.801	78.12
332.03	93.12
332.258	88.12
332.486	84.12
332.715	85.12
332.943	87.12
333.172	84.12
333.4	82.12
333.629	71.12
333.857	99.12
334.085	78.12
334.314	100.12
334.542	97.12
334.771	84.12
334.999	84.12
335.227	85.12
335.455	66.12
335.684	85.12
335.912	84.12
336.14	99.12
336.369	94.12
336.597	78.12
336.825	83.12
337.053	80.12
337.281	71.12
337.51	86.12
337.738	86.12
337.966	87.12
338.194	75.12
338.422	83.12
338.65	81.12
338.878	101.12
339.106	91.12
339.334	75.12
339.562	58.12
339.79	85.12
340.018	86.12
340.246	87.12
340.474	81.12
340.702	83.12
340.93	79.12
341.158	80.12
341.386	81.12
341.614	75.12
341.842	88.12
342.07	96.12
342.298	88.12
342.526	72.12
342.754	96.12
342.981	88.12
343.209	87.12
343.437	92.12
343.665	88.12
343.893	78.12
344.12	81.12
344.348	90.12
344.576	81.12
344.804	89.12
345.031	91.12
345.259	78.12
345.487	80.12
345.714	77.12
345.942	80.12
346.17	89.12
346.397	86.12
346.625	82.12
346.853	84.12
347.08	78.12
347.308	84.12
347.535	75.12
347.763	73.12
347.99	94.12
348.218	79.12
348.445	82.12
348.673	89.12
348.9	90.12
349.128	85.12
349.355	77.12
349.583	85.12
349.81	74.12
350.037	84.12
350.265	85.12
350.492	85.12
350.72	84.12
350.947	92.12
351.174	90.12
351.402	85.12
351.629	67.12
351.856	89.12
352.083	74.12
352.311	85.12
352.538	85.12
352.765	88.12
352.992	80.12
353.22	84.12
353.447	85.12
353.674	94.12
353.901	85.12
354.128	81.12
354.355	65.12
354.583	81.12
354.81	89.12
355.037	92.12
355.264	73.12
355.491	79.12
355.718	82.12
355.945	74.12
356.172	82.12
356.399	83.12
356.626	80.12
356.853	86.12
357.08	97.12
357.307	91.12
357.534	76.12
357.761	85.12
357.988	92.12
358.215	75.12
358.441	84.12
358.668	64.12
358.895	89.12
359.122	88.12
359.349	86.12
359.576	88.12
359.802	84.12
360.029	83.12
360.256	97.12
360.483	92.12
360.709	83.12
360.936	88.12
361.163	85.12
361.39	80.12
361.616	92.12
361.843	70.12
362.07	73.12
362.296	82.12
362.523	86.12
362.749	91.12
362.976	88.12
363.203	93.12
363.429	87.12
363.656	72.12
363.882	81.12
364.109	79.12
364.335	85.12
364.562	87.12
364.788	86.12
365.015	81.12
365.241	86.12
365.468	83.12
365.694	77.12
365.92	72.12
366.147	83.12
366.373	87.12
366.599	88.12
366.826	87.12
367.052	89.12
367.278	75.12
367.505	87.12
367.731	84.12
367.957	84.12
368.184	98.12
368.41	94.12
368.636	89.12
368.862	85.12
369.089	86.12
369.315	83.12
369.541	91.12
369.767	71.12
369.993	82.12
370.219	90.12
370.445	74.12
370.672	80.12
370.898	96.12
371.124	99.12
371.35	84.12
371.576	100.12
371.802	86.12
372.028	78.12
372.254	78.12
372.48	92.12
372.706	83.12
372.932	76.12
373.158	82.12
373.384	88.12
373.61	82.12
373.835	72.12
374.061	80.12
374.287	84.12
374.513	89.12
374.739	83.12
374.965	76.12
375.191	80.12
375.416	88.12
375.642	90.12
375.868	78.12
376.094	88.12
376.319	78.12
376.545	82.12
376.771	83.12
376.997	78.12
377.222	92.12
377.448	69.12
377.674	72.12
377.899	81.12
378.125	64.12
378.35	61.12
378.576	76.12
378.802	72.12
379.027	82.12
379.253	82.12
379.478	88.12
379.704	86.12
379.929	86.12
380.155	81.12
380.38	85.12
380.606	77.12
380.831	72.12
381.057	86.12
381.282	82.12
381.507	81.12
381.733	89.12
381.958	80.12
382.184	70.12
382.409	76.12
382.634	71.12
382.86	79.12
383.085	81.12
383.31	87.12
383.535	78.12
383.761	81.12
383.986	79.12
384.211	79.12
384.436	81.12
384.662	77.12
384.887	83.12
385.112	82.12
385.337	81.12
385.562	88.12
385.787	79.12
386.013	82.12
386.238	86.12
386.463	75.12
386.688	83.12
386.913	76.12
387.138	75.12
387.363	88.12
387.588	86.12
387.813	88.12
388.038	76.12
388.263	70.12
388.488	83.12
388.713	85.12
388.938	77.12
389.163	81.12
389.387	77.12
389.612	71.12
389.837	72.12
390.062	86.12
390.287	74.12
390.512	81.12
390.736	68.12
390.961	67.12
391.186	84.12
391.411	94.12
391.636	83.12
391.86	82.12
392.085	82.12
392.31	89.12
392.534	84.12
392.759	86.12
392.984	96.12
393.208	86.12
393.433	89.12
393.658	83.12
393.882	87.12
394.107	80.12
394.331	77.12
394.556	74.12
394.78	87.12
395.005	77.12
395.229	81.12
395.454	84.12
395.678	83.12
395.903	77.12
396.127	93.12
396.352	76.12
396.576	93.12
396.801	76.12
397.025	89.12
397.249	84.12
397.474	84.12
397.698	82.12
397.922	77.12
398.147	75.12
398.371	74.12
398.595	87.12
398.82	89.12
399.044	89.12
399.268	68.12
399.492	83.12
399.717	71.12
399.941	96.12
400.165	83.12
400.389	84.12
400.613	86.12
400.837	79.12
401.062	82.12
401.286	83.12
401.51	90.12
401.734	74.12
401.958	75.12
402.182	81.12
402.406	82.12
402.63	84.12
402.854	90.12
403.078	89.12
403.302	94.12
403.526	90.12
403.75	83.12
403.974	83.12
404.198	85.12
404.422	104.12
404.645	76.12
404.869	90.12
405.093	81.12
405.317	77.12
405.541	81.12
405.765	77.12
405.988	82.12
406.212	91.12
406.436	83.12
406.66	78.12
406.883	85.12
407.107	82.12
407.331	77.12
407.555	85.12
407.778	82.12
408.002	91.12
408.226	74.12
408.449	84.12
408.673	100.12
408.896	74.12
409.12	92.12
409.344	91.12
409.567	80.12
409.791	87.12
410.014	93.12
410.238	81.12
410.461	82.12
410.685	68.12
410.908	81.12
411.132	92.12
411.355	95.12
411.578	80.12
411.802	82.12
412.025	80.12
412.249	75.12
412.472	74.12
412.695	84.12
412.919	74.12
413.142	104.12
413.365	94.12
413.589	92.12
413.812	101.12
414.035	85.12
414.258	84.12
414.482	89.12
414.705	86.12
414.928	97.12
415.151	82.12
415.374	72.12
415.597	80.12
415.821	74.12
416.044	84.12
416.267	92.12
416.49	98.12
416.713	77.12
416.936	92.12
417.159	88.12
417.382	87.12
417.605	87.12
417.828	77.12
418.051	84.12
418.274	97.12
418.497	93.12
418.72	93.12
418.943	84.12
419.166	93.12
419.389	72.12
419.611	85.12
419.834	88.12
420.057	86.12
420.28	94.12
420.503	97.12
420.726	80.12
420.948	90.12
421.171	69.12
421.394	95.12
421.617	76.12
421.839	80.12
422.062	91.12
422.285	80.12
422.507	85.12
422.73	82.12
422.953	79.12
423.175	94.12
423.398	86.12
423.621	104.12
423.843	80.12
424.066	88.12
424.288	76.12
424.511	94.12
424.733	80.12
424.956	87.12
425.178	84.12
425.401	78.12
425.623	89.12
425.846	87.12
426.068	90.12
426.291	89.12
426.513	86.12
426.735	83.12
426.958	89.12
427.18	83.12
427.402	85.12
427.625	82.12
427.847	84.12
428.069	105.12
428.292	94.12
428.514	78.12
428.736	91.12
428.958	93.12
429.181	101.12
429.403	91.12
429.625	82.12
429.847	84.12
430.069	94.12
430.292	89.12
430.514	93.12
430.736	68.12
430.958	78.12
431.18	94.12
431.402	88.12
431.624	80.12
431.846	71.12
432.068	81.12
432.29	74.12
432.512	90.12
432.734	82.12
432.956	104.12
433.178	88.12
433.4	83.12
433.622	88.12
433.844	90.12
434.066	97.12
434.287	85.12
434.509	88.12
434.731	75.12
434.953	81.12
435.175	68.12
435.397	84.12
435.618	102.12
435.84	96.12
436.062	81.12
436.284	98.12
436.505	93.12
436.727	97.12
436.949	93.12
437.17	88.12
437.392	75.12
437.614	95.12
437.835	89.12
438.057	88.12
438.278	77.12
438.5	78.12
438.721	87.12
438.943	74.12
439.165	93.12
439.386	93.12
439.608	94.12
439.829	85.12
440.05	93.12
440.272	94.12
440.493	100.12
440.715	90.12
440.936	86.12
441.158	82.12
441.379	91.12
441.6	88.12
441.822	88.12
442.043	97.12
442.264	96.12
442.486	77.12
442.707	98.12
442.928	88.12
443.149	84.12
443.371	70.12
443.592	92.12
443.813	93.12
444.034	109.12
444.255	103.12
444.476	93.12
444.698	100.12
444.919	95.12
445.14	219.12
445.361	160.12
445.582	88.12
445.803	91.12
446.024	100.12
446.245	86.12
446.466	90.12
446.687	79.12
446.908	83.12
447.129	99.12
447.35	89.12
447.571	79.12
447.792	83.12
448.013	85.12
448.234	79.12
448.455	94.12
448.675	104.12
448.896	89.12
449.117	105.12
449.338	85.12
449.559	89.12
449.779	98.12
450	92.12
450.221	82.12
450.442	81.12
450.662	77.12
450.883	94.12
451.104	85.12
451.324	83.12
451.545	90.12
451.766	90.12
451.986	101.12
452.207	89.12
452.428	93.12
452.648	83.12
452.869	72.12
453.089	91.12
453.31	80.12
453.53	78.12
453.751	97.12
453.971	93.12
454.192	99.12
454.412	79.12
454.633	75.12
454.853	75.12
455.073	90.12
455.294	94.12
455.514	92.12
455.734	91.12
455.955	86.12
456.175	86.12
456.395	87.12
456.616	93.12
456.836	99.12
457.056	86.12
457.276	83.12
457.497	87.12
457.717	88.12
457.937	83.12
458.157	73.12
458.377	90.12
458.598	75.12
458.818	73.12
459.038	74.12
459.258	83.12
459.478	90.12
459.698	83.12
459.918	84.12
460.138	91.12
460.358	83.12
460.578	81.12
460.798	97.12
461.018	83.12
461.238	98.12
461.458	84.12
461.678	92.12
461.898	72.12
462.118	82.12
462.338	99.12
462.558	89.12
462.777	79.12
462.997	86.12
463.217	83.12
463.437	77.12
463.657	85.12
463.876	88.12
464.096	88.12
464.316	88.12
464.536	84.12
464.755	81.12
464.975	97.12
465.195	97.12
465.414	81.12
465.634	99.12
465.854	87.12
466.073	91.12
466.293	85.12
466.512	90.12
466.732	84.12
466.951	83.12
467.171	106.12
467.391	92.12
467.61	96.12
467.829	91.12
468.049	95.12
468.268	87.12
468.488	68.12
468.707	87.12
468.927	90.12
469.146	90.12
469.365	88.12
469.585	99.12
469.804	98.12
470.023	104.12
470.243	92.12
470.462	88.12
470.681	93.12
470.901	76.12
471.12	98.12
471.339	78.12
471.558	89.12
471.777	88.12
471.997	86.12
472.216	85.12
472.435	78.12
472.654	77.12
472.873	84.12
473.092	96.12
473.311	74.12
473.53	91.12
473.749	108.12
473.968	101.12
474.187	88.12
474.406	94.12
474.625	104.12
474.844	81.12
475.063	93.12
475.282	85.12
475.501	82.12
475.72	92.12
475.939	84.12
476.158	93.12
476.377	102.12
476.596	82.12
476.814	81.12
477.033	101.12
477.252	91.12
477.471	108.12
477.69	97.12
477.908	87.12
478.127	109.12
478.346	104.12
478.564	77.12
478.783	87.12
479.002	97.12
479.22	88.12
479.439	97.12
479.658	83.12
479.876	89.12
480.095	93.12
480.313	100.12
480.532	73.12
480.751	85.12
480.969	91.12
481.188	82.12
481.406	84.12
481.624	87.12
481.843	83.12
482.061	89.12
482.28	105.12
482.498	89.12
482.717	92.12
482.935	88.12
483.153	98.12
483.372	94.12
483.59	88.12
483.808	85.12
484.027	88.12
484.245	84.12
484.463	86.12
484.681	98.12
484.9	93.12
485.118	90.12
485.336	86.12
485.554	95.12
485.772	87.12
485.99	88.12
486.209	93.12
486.427	93.12
486.645	83.12
486.863	90.12
487.081	103.12
487.299	86.12
487.517	96.12
487.735	78.12
487.953	98.12
488.171	93.12
488.389	100.12
488.607	103.12
488.825	93.12
489.043	92.12
489.261	102.12
489.479	92.12
489.696	85.12
489.914	83.12
490.132	83.12
490.35	96.12
490.568	102.12
490.786	107.12
491.003	99.12
491.221	98.12
491.439	112.12
491.657	112.12
491.874	109.12
492.092	123.12
492.31	117.12
492.527	101.12
492.745	108.12
492.963	114.12
493.18	113.12
493.398	110.12
493.615	94.12
493.833	87.12
494.05	117.12
494.268	106.12
494.485	103.12
494.703	107.12
494.92	109.12
495.138	105.12
495.355	79.12
495.573	103.12
495.79	80.12
496.008	95.12
496.225	102.12
496.442	89.12
496.66	106.12
496.877	101.12
497.094	107.12
497.312	88.12
497.529	87.12
497.746	99.12
497.963	93.12
498.181	85.12
498.398	82.12
498.615	94.12
498.832	89.12
499.049	89.12
499.267	99.12
499.484	72.12
499.701	94.12
499.918	89.12
500.135	92.12
500.352	100.12
500.569	104.12
500.786	90.12
501.003	71.12
501.22	96.12
501.437	98.12
501.654	96.12
501.871	105.12
502.088	97.12
502.305	84.12
502.522	104.12
502.739	104.12
502.956	84.12
503.172	92.12
503.389	85.12
503.606	91.12
503.823	96.12
504.04	81.12
504.256	93.12
504.473	94.12
504.69	99.12
504.907	96.12
505.123	87.12
505.34	82.12
505.557	84.12
505.773	95.12
505.99	98.12
506.207	88.12
506.423	82.12
506.64	91.12
506.856	82.12
507.073	100.12
507.289	103.12
507.506	85.12
507.722	78.12
507.939	80.12
508.155	101.12
508.372	92.12
508.588	92.12
508.805	90.12
509.021	89.12
509.238	85.12
509.454	80.12
509.67	85.12
509.887	81.12
510.103	93.12
510.319	82.12
510.536	84.12
510.752	83.12
510.968	77.12
511.184	101.12
511.401	75.12
511.617	80.12
511.833	81.12
512.049	88.12
512.265	75.12
512.481	81.12
512.698	74.12
512.914	91.12
513.13	93.12
513.346	87.12
513.562	90.12
513.778	105.12
513.994	88.12
514.21	100.12
514.426	98.12
514.642	94.12
514.858	77.12
515.074	83.12
515.29	79.12
515.506	84.12
515.721	73.12
515.937	90.12
516.153	86.12
516.369	74.12
516.585	68.12
516.801	84.12
517.016	83.12
517.232	74.12
517.448	84.12
517.664	79.12
517.879	85.12
518.095	87.12
518.311	83.12
518.527	91.12
