Data from Zn(NO3)2Standard.Agarose3%.GreenCap.LampEnergy10E.O_HRD10591_15-06-30-942.txt Node
Date: Mon Jul 22 15:06:30 EDT 2019
User: cochatt
Spectrometer: HR+D1059
Trigger mode: 1
Integration Time (sec): 1.000000E-1
Scans to average: 1
Electric dark correction enabled: true
Nonlinearity correction enabled: false
Boxcar width: 0
XAxis mode: Wavelengths
Number of Pixels in Spectrum: 2048
>>>>>Begin Spectral Data<<<<<
223.165	-15.44
223.4	-15.44
223.635	-15.44
223.869	-19.44
224.104	-26.44
224.338	-9.44
224.573	-16.44
224.808	-1.44
225.042	-2.44
225.277	-2.44
225.511	-10.44
225.746	3.56
225.98	17.56
226.215	11.56
226.449	9.56
226.683	6.56
226.918	29.56
227.152	25.56
227.387	52.56
227.621	36.56
227.856	57.56
228.09	48.56
228.324	50.56
228.559	61.56
228.793	68.56
229.027	68.56
229.262	75.56
229.496	86.56
229.73	64.56
229.964	50.56
230.199	72.56
230.433	83.56
230.667	70.56
230.901	72.56
231.136	85.56
231.37	78.56
231.604	75.56
231.838	82.56
232.072	87.56
232.306	89.56
232.541	78.56
232.775	84.56
233.009	84.56
233.243	70.56
233.477	91.56
233.711	84.56
233.945	85.56
234.179	63.56
234.413	89.56
234.647	87.56
234.881	87.56
235.115	76.56
235.349	95.56
235.583	72.56
235.817	85.56
236.051	80.56
236.285	88.56
236.519	91.56
236.753	86.56
236.987	78.56
237.221	90.56
237.455	77.56
237.689	85.56
237.922	90.56
238.156	79.56
238.39	87.56
238.624	75.56
238.858	90.56
239.091	76.56
239.325	62.56
239.559	80.56
239.793	81.56
240.027	75.56
240.26	77.56
240.494	86.56
240.728	69.56
240.961	85.56
241.195	79.56
241.429	76.56
241.662	80.56
241.896	90.56
242.13	73.56
242.363	76.56
242.597	68.56
242.83	77.56
243.064	78.56
243.298	69.56
243.531	88.56
243.765	70.56
243.998	80.56
244.232	80.56
244.465	78.56
244.699	78.56
244.932	63.56
245.166	71.56
245.399	76.56
245.633	86.56
245.866	76.56
246.099	70.56
246.333	82.56
246.566	81.56
246.8	83.56
247.033	69.56
247.266	92.56
247.5	80.56
247.733	74.56
247.966	88.56
248.2	89.56
248.433	70.56
248.666	77.56
248.899	66.56
249.133	76.56
249.366	83.56
249.599	70.56
249.832	72.56
250.066	90.56
250.299	87.56
250.532	83.56
250.765	83.56
250.998	69.56
251.231	91.56
251.465	82.56
251.698	94.56
251.931	66.56
252.164	88.56
252.397	86.56
252.63	83.56
252.863	83.56
253.096	86.56
253.329	76.56
253.562	91.56
253.795	81.56
254.028	80.56
254.261	80.56
254.494	82.56
254.727	79.56
254.96	89.56
255.193	88.56
255.426	57.56
255.659	86.56
255.892	71.56
256.124	87.56
256.357	94.56
256.59	90.56
256.823	61.56
257.056	75.56
257.289	69.56
257.521	78.56
257.754	77.56
257.987	65.56
258.22	79.56
258.452	84.56
258.685	84.56
258.918	84.56
259.151	88.56
259.383	87.56
259.616	75.56
259.849	85.56
260.081	71.56
260.314	77.56
260.547	82.56
260.779	86.56
261.012	65.56
261.244	79.56
261.477	98.56
261.71	76.56
261.942	97.56
262.175	87.56
262.407	84.56
262.64	89.56
262.872	92.56
263.105	80.56
263.337	98.56
263.57	87.56
263.802	92.56
264.035	94.56
264.267	79.56
264.499	79.56
264.732	83.56
264.964	85.56
265.197	81.56
265.429	70.56
265.661	74.56
265.894	77.56
266.126	85.56
266.358	85.56
266.591	80.56
266.823	88.56
267.055	98.56
267.287	79.56
267.52	76.56
267.752	89.56
267.984	79.56
268.216	77.56
268.448	91.56
268.681	92.56
268.913	78.56
269.145	93.56
269.377	78.56
269.609	73.56
269.841	87.56
270.073	80.56
270.306	87.56
270.538	87.56
270.77	85.56
271.002	76.56
271.234	87.56
271.466	79.56
271.698	88.56
271.93	87.56
272.162	91.56
272.394	88.56
272.626	87.56
272.858	95.56
273.09	89.56
273.322	82.56
273.553	79.56
273.785	80.56
274.017	80.56
274.249	92.56
274.481	75.56
274.713	80.56
274.945	67.56
275.176	70.56
275.408	84.56
275.64	82.56
275.872	96.56
276.104	78.56
276.335	95.56
276.567	90.56
276.799	87.56
277.031	79.56
277.262	89.56
277.494	88.56
277.726	87.56
277.957	85.56
278.189	82.56
278.421	89.56
278.652	72.56
278.884	72.56
279.115	82.56
279.347	84.56
279.579	72.56
279.81	87.56
280.042	78.56
280.273	76.56
280.505	78.56
280.736	75.56
280.968	83.56
281.199	80.56
281.431	86.56
281.662	86.56
281.894	71.56
282.125	81.56
282.356	86.56
282.588	94.56
282.819	82.56
283.051	98.56
283.282	88.56
283.513	86.56
283.745	88.56
283.976	84.56
284.207	87.56
284.439	83.56
284.67	88.56
284.901	84.56
285.132	83.56
285.364	87.56
285.595	81.56
285.826	84.56
286.057	91.56
286.288	73.56
286.52	92.56
286.751	79.56
286.982	86.56
287.213	90.56
287.444	88.56
287.675	76.56
287.906	83.56
288.138	58.56
288.369	93.56
288.6	87.56
288.831	84.56
289.062	77.56
289.293	85.56
289.524	84.56
289.755	81.56
289.986	88.56
290.217	82.56
290.448	90.56
290.679	81.56
290.91	78.56
291.141	67.56
291.371	91.56
291.602	76.56
291.833	70.56
292.064	82.56
292.295	81.56
292.526	85.56
292.757	92.56
292.987	97.56
293.218	84.56
293.449	72.56
293.68	77.56
293.91	80.56
294.141	95.56
294.372	83.56
294.603	88.56
294.833	97.56
295.064	85.56
295.295	96.56
295.525	83.56
295.756	88.56
295.987	84.56
296.217	86.56
296.448	84.56
296.679	80.56
296.909	83.56
297.14	87.56
297.37	82.56
297.601	94.56
297.831	76.56
298.062	79.56
298.292	83.56
298.523	88.56
298.753	82.56
298.984	86.56
299.214	86.56
299.445	87.56
299.675	87.56
299.905	92.56
300.136	89.56
300.366	91.56
300.597	86.56
300.827	108.56
301.057	103.56
301.288	96.56
301.518	89.56
301.748	84.56
301.979	80.56
302.209	76.56
302.439	83.56
302.669	82.56
302.9	76.56
303.13	87.56
303.36	87.56
303.59	88.56
303.82	95.56
304.051	92.56
304.281	79.56
304.511	86.56
304.741	82.56
304.971	88.56
305.201	80.56
305.431	80.56
305.661	80.56
305.891	82.56
306.121	87.56
306.352	82.56
306.582	83.56
306.812	78.56
307.042	85.56
307.272	87.56
307.502	89.56
307.731	90.56
307.961	80.56
308.191	80.56
308.421	78.56
308.651	92.56
308.881	99.56
309.111	86.56
309.341	93.56
309.571	90.56
309.8	89.56
310.03	89.56
310.26	77.56
310.49	66.56
310.72	93.56
310.949	81.56
311.179	87.56
311.409	79.56
311.639	83.56
311.868	83.56
312.098	83.56
312.328	90.56
312.557	95.56
312.787	86.56
313.017	87.56
313.246	93.56
313.476	87.56
313.706	80.56
313.935	84.56
314.165	86.56
314.394	72.56
314.624	90.56
314.853	80.56
315.083	78.56
315.312	95.56
315.542	86.56
315.771	87.56
316.001	89.56
316.23	90.56
316.46	87.56
316.689	95.56
316.919	93.56
317.148	82.56
317.377	90.56
317.607	88.56
317.836	92.56
318.065	86.56
318.295	88.56
318.524	90.56
318.753	69.56
318.983	96.56
319.212	86.56
319.441	95.56
319.67	98.56
319.9	88.56
320.129	93.56
320.358	91.56
320.587	92.56
320.816	78.56
321.046	84.56
321.275	82.56
321.504	87.56
321.733	79.56
321.962	99.56
322.191	86.56
322.42	89.56
322.649	74.56
322.878	96.56
323.108	85.56
323.337	93.56
323.566	92.56
323.795	91.56
324.024	84.56
324.253	81.56
324.482	80.56
324.71	83.56
324.939	98.56
325.168	86.56
325.397	70.56
325.626	86.56
325.855	75.56
326.084	97.56
326.313	77.56
326.542	74.56
326.77	83.56
326.999	66.56
327.228	80.56
327.457	80.56
327.686	76.56
327.914	87.56
328.143	88.56
328.372	94.56
328.6	83.56
328.829	86.56
329.058	84.56
329.287	80.56
329.515	83.56
329.744	91.56
329.972	94.56
330.201	91.56
330.43	92.56
330.658	78.56
330.887	91.56
331.115	89.56
331.344	89.56
331.572	94.56
331.801	91.56
332.03	84.56
332.258	86.56
332.486	79.56
332.715	88.56
332.943	85.56
333.172	83.56
333.4	81.56
333.629	95.56
333.857	95.56
334.085	79.56
334.314	87.56
334.542	89.56
334.771	78.56
334.999	85.56
335.227	85.56
335.455	71.56
335.684	89.56
335.912	81.56
336.14	76.56
336.369	86.56
336.597	83.56
336.825	77.56
337.053	82.56
337.281	89.56
337.51	77.56
337.738	82.56
337.966	69.56
338.194	76.56
338.422	91.56
338.65	91.56
338.878	91.56
339.106	80.56
339.334	91.56
339.562	94.56
339.79	87.56
340.018	100.56
340.246	88.56
340.474	92.56
340.702	83.56
340.93	97.56
341.158	79.56
341.386	84.56
341.614	79.56
341.842	100.56
342.07	88.56
342.298	87.56
342.526	67.56
342.754	80.56
342.981	60.56
343.209	82.56
343.437	80.56
343.665	99.56
343.893	86.56
344.12	96.56
344.348	88.56
344.576	86.56
344.804	85.56
345.031	89.56
345.259	85.56
345.487	82.56
345.714	87.56
345.942	92.56
346.17	83.56
346.397	77.56
346.625	90.56
346.853	92.56
347.08	76.56
347.308	84.56
347.535	80.56
347.763	89.56
347.99	82.56
348.218	102.56
348.445	84.56
348.673	84.56
348.9	87.56
349.128	97.56
349.355	77.56
349.583	89.56
349.81	82.56
350.037	85.56
350.265	72.56
350.492	91.56
350.72	79.56
350.947	67.56
351.174	88.56
351.402	76.56
351.629	81.56
351.856	86.56
352.083	77.56
352.311	82.56
352.538	91.56
352.765	76.56
352.992	87.56
353.22	76.56
353.447	88.56
353.674	89.56
353.901	84.56
354.128	90.56
354.355	86.56
354.583	78.56
354.81	71.56
355.037	97.56
355.264	82.56
355.491	82.56
355.718	101.56
355.945	79.56
356.172	87.56
356.399	78.56
356.626	86.56
356.853	84.56
357.08	88.56
357.307	85.56
357.534	93.56
357.761	81.56
357.988	95.56
358.215	74.56
358.441	95.56
358.668	79.56
358.895	80.56
359.122	76.56
359.349	74.56
359.576	83.56
359.802	84.56
360.029	87.56
360.256	88.56
360.483	88.56
360.709	87.56
360.936	94.56
361.163	80.56
361.39	86.56
361.616	85.56
361.843	91.56
362.07	78.56
362.296	78.56
362.523	80.56
362.749	79.56
362.976	76.56
363.203	80.56
363.429	74.56
363.656	82.56
363.882	86.56
364.109	96.56
364.335	93.56
364.562	91.56
364.788	78.56
365.015	80.56
365.241	79.56
365.468	81.56
365.694	85.56
365.92	109.56
366.147	85.56
366.373	89.56
366.599	86.56
366.826	78.56
367.052	80.56
367.278	92.56
367.505	79.56
367.731	82.56
367.957	93.56
368.184	81.56
368.41	97.56
368.636	86.56
368.862	88.56
369.089	77.56
369.315	66.56
369.541	82.56
369.767	88.56
369.993	88.56
370.219	89.56
370.445	82.56
370.672	75.56
370.898	74.56
371.124	92.56
371.35	87.56
371.576	71.56
371.802	85.56
372.028	87.56
372.254	76.56
372.48	92.56
372.706	86.56
372.932	83.56
373.158	82.56
373.384	81.56
373.61	94.56
373.835	85.56
374.061	78.56
374.287	90.56
374.513	81.56
374.739	92.56
374.965	96.56
375.191	85.56
375.416	95.56
375.642	90.56
375.868	86.56
376.094	100.56
376.319	80.56
376.545	83.56
376.771	97.56
376.997	79.56
377.222	80.56
377.448	87.56
377.674	98.56
377.899	104.56
378.125	78.56
378.35	89.56
378.576	94.56
378.802	95.56
379.027	93.56
379.253	90.56
379.478	92.56
379.704	84.56
379.929	91.56
380.155	89.56
380.38	73.56
380.606	84.56
380.831	94.56
381.057	94.56
381.282	80.56
381.507	92.56
381.733	101.56
381.958	80.56
382.184	81.56
382.409	91.56
382.634	91.56
382.86	90.56
383.085	90.56
383.31	90.56
383.535	97.56
383.761	89.56
383.986	94.56
384.211	95.56
384.436	91.56
384.662	86.56
384.887	85.56
385.112	85.56
385.337	88.56
385.562	93.56
385.787	86.56
386.013	109.56
386.238	85.56
386.463	86.56
386.688	95.56
386.913	101.56
387.138	101.56
387.363	89.56
387.588	90.56
387.813	85.56
388.038	95.56
388.263	94.56
388.488	87.56
388.713	89.56
388.938	79.56
389.163	101.56
389.387	79.56
389.612	87.56
389.837	88.56
390.062	89.56
390.287	98.56
390.512	89.56
390.736	86.56
390.961	91.56
391.186	81.56
391.411	86.56
391.636	92.56
391.86	102.56
392.085	99.56
392.31	80.56
392.534	111.56
392.759	97.56
392.984	84.56
393.208	95.56
393.433	90.56
393.658	89.56
393.882	91.56
394.107	94.56
394.331	97.56
394.556	91.56
394.78	81.56
395.005	75.56
395.229	72.56
395.454	88.56
395.678	96.56
395.903	98.56
396.127	103.56
396.352	88.56
396.576	95.56
396.801	103.56
397.025	69.56
397.249	99.56
397.474	102.56
397.698	91.56
397.922	89.56
398.147	92.56
398.371	85.56
398.595	102.56
398.82	92.56
399.044	90.56
399.268	90.56
399.492	91.56
399.717	98.56
399.941	87.56
400.165	99.56
400.389	100.56
400.613	101.56
400.837	99.56
401.062	94.56
401.286	78.56
401.51	99.56
401.734	91.56
401.958	93.56
402.182	101.56
402.406	89.56
402.63	95.56
402.854	103.56
403.078	79.56
403.302	98.56
403.526	95.56
403.75	94.56
403.974	98.56
404.198	86.56
404.422	86.56
404.645	101.56
404.869	90.56
405.093	101.56
405.317	97.56
405.541	96.56
405.765	90.56
405.988	93.56
406.212	104.56
406.436	111.56
406.66	100.56
406.883	92.56
407.107	94.56
407.331	91.56
407.555	100.56
407.778	96.56
408.002	107.56
408.226	90.56
408.449	92.56
408.673	99.56
408.896	92.56
409.12	108.56
409.344	93.56
409.567	116.56
409.791	94.56
410.014	114.56
410.238	111.56
410.461	97.56
410.685	102.56
410.908	107.56
411.132	103.56
411.355	106.56
411.578	80.56
411.802	95.56
412.025	108.56
412.249	106.56
412.472	111.56
412.695	102.56
412.919	95.56
413.142	103.56
413.365	94.56
413.589	87.56
413.812	93.56
414.035	99.56
414.258	113.56
414.482	114.56
414.705	114.56
414.928	80.56
415.151	107.56
415.374	100.56
415.597	103.56
415.821	109.56
416.044	95.56
416.267	108.56
416.49	100.56
416.713	96.56
416.936	94.56
417.159	95.56
417.382	109.56
417.605	107.56
417.828	105.56
418.051	116.56
418.274	120.56
418.497	106.56
418.72	109.56
418.943	103.56
419.166	92.56
419.389	104.56
419.611	105.56
419.834	95.56
420.057	111.56
420.28	108.56
420.503	124.56
420.726	113.56
420.948	116.56
421.171	105.56
421.394	102.56
421.617	92.56
421.839	103.56
422.062	109.56
422.285	101.56
422.507	97.56
422.73	106.56
422.953	111.56
423.175	120.56
423.398	109.56
423.621	110.56
423.843	93.56
424.066	104.56
424.288	115.56
424.511	95.56
424.733	115.56
424.956	106.56
425.178	100.56
425.401	105.56
425.623	102.56
425.846	95.56
426.068	108.56
426.291	107.56
426.513	106.56
426.735	103.56
426.958	102.56
427.18	97.56
427.402	93.56
427.625	104.56
427.847	121.56
428.069	104.56
428.292	110.56
428.514	88.56
428.736	101.56
428.958	105.56
429.181	98.56
429.403	129.56
429.625	110.56
429.847	104.56
430.069	97.56
430.292	108.56
430.514	112.56
430.736	90.56
430.958	103.56
431.18	104.56
431.402	102.56
431.624	107.56
431.846	92.56
432.068	98.56
432.29	93.56
432.512	100.56
432.734	85.56
432.956	106.56
433.178	103.56
433.4	120.56
433.622	119.56
433.844	104.56
434.066	107.56
434.287	99.56
434.509	94.56
434.731	95.56
434.953	110.56
435.175	93.56
435.397	101.56
435.618	91.56
435.84	101.56
436.062	84.56
436.284	95.56
436.505	111.56
436.727	94.56
436.949	99.56
437.17	109.56
437.392	106.56
437.614	102.56
437.835	99.56
438.057	114.56
438.278	100.56
438.5	105.56
438.721	118.56
438.943	109.56
439.165	111.56
439.386	118.56
439.608	120.56
439.829	98.56
440.05	110.56
440.272	115.56
440.493	123.56
440.715	120.56
440.936	120.56
441.158	99.56
441.379	106.56
441.6	104.56
441.822	113.56
442.043	116.56
442.264	114.56
442.486	114.56
442.707	104.56
442.928	120.56
443.149	105.56
443.371	110.56
443.592	126.56
443.813	107.56
444.034	98.56
444.255	106.56
444.476	120.56
444.698	114.56
444.919	110.56
445.14	242.56
445.361	179.56
445.582	122.56
445.803	106.56
446.024	102.56
446.245	124.56
446.466	115.56
446.687	102.56
446.908	122.56
447.129	109.56
447.35	110.56
447.571	120.56
447.792	108.56
448.013	113.56
448.234	123.56
448.455	87.56
448.675	102.56
448.896	125.56
449.117	114.56
449.338	95.56
449.559	109.56
449.779	114.56
450	103.56
450.221	120.56
450.442	99.56
450.662	102.56
450.883	98.56
451.104	115.56
451.324	94.56
451.545	99.56
451.766	107.56
451.986	99.56
452.207	104.56
452.428	104.56
452.648	92.56
452.869	104.56
453.089	89.56
453.31	93.56
453.53	99.56
453.751	101.56
453.971	92.56
454.192	88.56
454.412	83.56
454.633	103.56
454.853	92.56
455.073	91.56
455.294	99.56
455.514	91.56
455.734	122.56
455.955	109.56
456.175	92.56
456.395	101.56
456.616	99.56
456.836	108.56
457.056	98.56
457.276	80.56
457.497	96.56
457.717	92.56
457.937	91.56
458.157	106.56
458.377	94.56
458.598	97.56
458.818	95.56
459.038	85.56
459.258	90.56
459.478	92.56
459.698	90.56
459.918	98.56
460.138	90.56
460.358	92.56
460.578	101.56
460.798	89.56
461.018	92.56
461.238	105.56
461.458	109.56
461.678	93.56
461.898	96.56
462.118	92.56
462.338	98.56
462.558	87.56
462.777	107.56
462.997	107.56
463.217	122.56
463.437	93.56
463.657	97.56
463.876	107.56
464.096	97.56
464.316	100.56
464.536	99.56
464.755	101.56
464.975	101.56
465.195	87.56
465.414	90.56
465.634	90.56
465.854	103.56
466.073	107.56
466.293	106.56
466.512	103.56
466.732	106.56
466.951	106.56
467.171	121.56
467.391	99.56
467.61	102.56
467.829	99.56
468.049	97.56
468.268	114.56
468.488	108.56
468.707	118.56
468.927	98.56
469.146	99.56
469.365	107.56
469.585	122.56
469.804	93.56
470.023	122.56
470.243	111.56
470.462	114.56
470.681	119.56
470.901	111.56
471.12	91.56
471.339	107.56
471.558	124.56
471.777	103.56
471.997	114.56
472.216	106.56
472.435	104.56
472.654	101.56
472.873	106.56
473.092	106.56
473.311	109.56
473.53	128.56
473.749	108.56
473.968	97.56
474.187	98.56
474.406	86.56
474.625	110.56
474.844	95.56
475.063	114.56
475.282	103.56
475.501	108.56
475.72	102.56
475.939	96.56
476.158	117.56
476.377	104.56
476.596	102.56
476.814	104.56
477.033	105.56
477.252	104.56
477.471	98.56
477.69	118.56
477.908	109.56
478.127	122.56
478.346	121.56
478.564	116.56
478.783	111.56
479.002	117.56
479.22	107.56
479.439	118.56
479.658	116.56
479.876	99.56
480.095	100.56
480.313	115.56
480.532	96.56
480.751	99.56
480.969	88.56
481.188	91.56
481.406	87.56
481.624	91.56
481.843	75.56
482.061	90.56
482.28	104.56
482.498	101.56
482.717	102.56
482.935	105.56
483.153	114.56
483.372	124.56
483.59	119.56
483.808	109.56
484.027	119.56
484.245	112.56
484.463	114.56
484.681	116.56
484.9	119.56
485.118	105.56
485.336	103.56
485.554	103.56
485.772	77.56
485.99	98.56
486.209	109.56
486.427	99.56
486.645	99.56
486.863	97.56
487.081	115.56
487.299	103.56
487.517	124.56
487.735	109.56
487.953	134.56
488.171	133.56
488.389	123.56
488.607	121.56
488.825	122.56
489.043	114.56
489.261	116.56
489.479	127.56
489.696	124.56
489.914	105.56
490.132	110.56
490.35	127.56
490.568	123.56
490.786	112.56
491.003	126.56
491.221	122.56
491.439	120.56
491.657	121.56
491.874	126.56
492.092	149.56
492.31	159.56
492.527	154.56
492.745	135.56
492.963	127.56
493.18	136.56
493.398	140.56
493.615	127.56
493.833	126.56
494.05	125.56
494.268	131.56
494.485	131.56
494.703	122.56
494.92	137.56
495.138	129.56
495.355	124.56
495.573	120.56
495.79	133.56
496.008	137.56
496.225	122.56
496.442	119.56
496.66	134.56
496.877	119.56
497.094	115.56
497.312	128.56
497.529	123.56
497.746	119.56
497.963	123.56
498.181	92.56
498.398	116.56
498.615	104.56
498.832	95.56
499.049	104.56
499.267	94.56
499.484	114.56
499.701	109.56
499.918	115.56
500.135	116.56
500.352	110.56
500.569	107.56
500.786	117.56
501.003	106.56
501.22	109.56
501.437	102.56
501.654	118.56
501.871	104.56
502.088	111.56
502.305	122.56
502.522	120.56
502.739	110.56
502.956	114.56
503.172	104.56
503.389	116.56
503.606	105.56
503.823	88.56
504.04	102.56
504.256	105.56
504.473	107.56
504.69	109.56
504.907	103.56
505.123	97.56
505.34	106.56
505.557	108.56
505.773	106.56
505.99	104.56
506.207	85.56
506.423	117.56
506.64	98.56
506.856	115.56
507.073	103.56
507.289	102.56
507.506	115.56
507.722	103.56
507.939	98.56
508.155	92.56
508.372	105.56
508.588	109.56
508.805	83.56
509.021	108.56
509.238	103.56
509.454	95.56
509.67	101.56
509.887	103.56
510.103	93.56
510.319	89.56
510.536	93.56
510.752	88.56
510.968	79.56
511.184	91.56
511.401	99.56
511.617	94.56
511.833	88.56
512.049	90.56
512.265	115.56
512.481	98.56
512.698	104.56
512.914	85.56
513.13	87.56
513.346	103.56
513.562	90.56
513.778	80.56
513.994	99.56
514.21	86.56
514.426	106.56
