Data from Zn(NO3)2Standard.Agarose3%.GreenCap.LampEnergy10E.O_HRD10591_15-09-02-951.txt Node
Date: Mon Jul 22 15:09:02 EDT 2019
User: cochatt
Spectrometer: HR+D1059
Trigger mode: 1
Integration Time (sec): 1.000000E-1
Scans to average: 1
Electric dark correction enabled: true
Nonlinearity correction enabled: false
Boxcar width: 0
XAxis mode: Wavelengths
Number of Pixels in Spectrum: 2048
>>>>>Begin Spectral Data<<<<<
223.165	-30.56
223.4	-30.56
223.635	-30.56
223.869	-20.56
224.104	-5.56
224.338	-18.56
224.573	-7.56
224.808	-14.56
225.042	-8.56
225.277	-3.56
225.511	-2.56
225.746	2.44
225.98	9.44
226.215	18.44
226.449	19.44
226.683	9.44
226.918	25.44
227.152	27.44
227.387	18.44
227.621	29.44
227.856	41.44
228.09	47.44
228.324	51.44
228.559	62.44
228.793	67.44
229.027	63.44
229.262	55.44
229.496	61.44
229.73	70.44
229.964	76.44
230.199	66.44
230.433	69.44
230.667	75.44
230.901	74.44
231.136	68.44
231.37	75.44
231.604	85.44
231.838	81.44
232.072	74.44
232.306	79.44
232.541	73.44
232.775	79.44
233.009	80.44
233.243	77.44
233.477	89.44
233.711	78.44
233.945	75.44
234.179	74.44
234.413	86.44
234.647	90.44
234.881	78.44
235.115	81.44
235.349	76.44
235.583	88.44
235.817	88.44
236.051	76.44
236.285	86.44
236.519	91.44
236.753	82.44
236.987	70.44
237.221	78.44
237.455	73.44
237.689	62.44
237.922	74.44
238.156	70.44
238.39	74.44
238.624	88.44
238.858	57.44
239.091	85.44
239.325	66.44
239.559	77.44
239.793	85.44
240.027	81.44
240.26	82.44
240.494	83.44
240.728	75.44
240.961	68.44
241.195	67.44
241.429	77.44
241.662	63.44
241.896	59.44
242.13	77.44
242.363	77.44
242.597	81.44
242.83	72.44
243.064	77.44
243.298	76.44
243.531	77.44
243.765	77.44
243.998	72.44
244.232	81.44
244.465	73.44
244.699	70.44
244.932	92.44
245.166	75.44
245.399	65.44
245.633	74.44
245.866	81.44
246.099	75.44
246.333	72.44
246.566	78.44
246.8	59.44
247.033	78.44
247.266	79.44
247.5	79.44
247.733	80.44
247.966	74.44
248.2	74.44
248.433	77.44
248.666	80.44
248.899	80.44
249.133	88.44
249.366	65.44
249.599	94.44
249.832	78.44
250.066	86.44
250.299	75.44
250.532	84.44
250.765	65.44
250.998	60.44
251.231	70.44
251.465	73.44
251.698	80.44
251.931	83.44
252.164	75.44
252.397	84.44
252.63	86.44
252.863	70.44
253.096	63.44
253.329	75.44
253.562	73.44
253.795	93.44
254.028	73.44
254.261	81.44
254.494	82.44
254.727	83.44
254.96	51.44
255.193	99.44
255.426	74.44
255.659	74.44
255.892	73.44
256.124	74.44
256.357	67.44
256.59	88.44
256.823	70.44
257.056	83.44
257.289	75.44
257.521	83.44
257.754	72.44
257.987	74.44
258.22	88.44
258.452	74.44
258.685	80.44
258.918	84.44
259.151	68.44
259.383	83.44
259.616	64.44
259.849	71.44
260.081	82.44
260.314	90.44
260.547	94.44
260.779	86.44
261.012	84.44
261.244	75.44
261.477	79.44
261.71	89.44
261.942	77.44
262.175	79.44
262.407	82.44
262.64	82.44
262.872	69.44
263.105	87.44
263.337	93.44
263.57	69.44
263.802	93.44
264.035	65.44
264.267	82.44
264.499	89.44
264.732	71.44
264.964	86.44
265.197	79.44
265.429	84.44
265.661	73.44
265.894	76.44
266.126	76.44
266.358	76.44
266.591	75.44
266.823	89.44
267.055	73.44
267.287	64.44
267.52	68.44
267.752	77.44
267.984	95.44
268.216	83.44
268.448	85.44
268.681	89.44
268.913	87.44
269.145	79.44
269.377	78.44
269.609	69.44
269.841	78.44
270.073	71.44
270.306	77.44
270.538	79.44
270.77	73.44
271.002	74.44
271.234	78.44
271.466	81.44
271.698	85.44
271.93	79.44
272.162	84.44
272.394	80.44
272.626	77.44
272.858	83.44
273.09	75.44
273.322	81.44
273.553	90.44
273.785	76.44
274.017	92.44
274.249	100.44
274.481	88.44
274.713	81.44
274.945	92.44
275.176	90.44
275.408	79.44
275.64	74.44
275.872	75.44
276.104	86.44
276.335	90.44
276.567	96.44
276.799	83.44
277.031	82.44
277.262	88.44
277.494	70.44
277.726	83.44
277.957	63.44
278.189	77.44
278.421	86.44
278.652	76.44
278.884	75.44
279.115	77.44
279.347	89.44
279.579	73.44
279.81	103.44
280.042	92.44
280.273	84.44
280.505	71.44
280.736	92.44
280.968	84.44
281.199	101.44
281.431	88.44
281.662	71.44
281.894	82.44
282.125	85.44
282.356	86.44
282.588	77.44
282.819	87.44
283.051	84.44
283.282	73.44
283.513	90.44
283.745	82.44
283.976	79.44
284.207	68.44
284.439	91.44
284.67	82.44
284.901	87.44
285.132	76.44
285.364	81.44
285.595	87.44
285.826	84.44
286.057	84.44
286.288	83.44
286.52	81.44
286.751	90.44
286.982	83.44
287.213	83.44
287.444	80.44
287.675	79.44
287.906	76.44
288.138	90.44
288.369	83.44
288.6	77.44
288.831	79.44
289.062	76.44
289.293	81.44
289.524	78.44
289.755	76.44
289.986	84.44
290.217	92.44
290.448	73.44
290.679	87.44
290.91	97.44
291.141	74.44
291.371	89.44
291.602	90.44
291.833	76.44
292.064	75.44
292.295	75.44
292.526	91.44
292.757	90.44
292.987	101.44
293.218	73.44
293.449	79.44
293.68	80.44
293.91	91.44
294.141	76.44
294.372	84.44
294.603	77.44
294.833	76.44
295.064	84.44
295.295	76.44
295.525	73.44
295.756	85.44
295.987	88.44
296.217	83.44
296.448	88.44
296.679	73.44
296.909	87.44
297.14	78.44
297.37	85.44
297.601	74.44
297.831	96.44
298.062	95.44
298.292	91.44
298.523	93.44
298.753	83.44
298.984	82.44
299.214	92.44
299.445	91.44
299.675	86.44
299.905	87.44
300.136	84.44
300.366	76.44
300.597	72.44
300.827	81.44
301.057	96.44
301.288	87.44
301.518	90.44
301.748	84.44
301.979	87.44
302.209	85.44
302.439	67.44
302.669	89.44
302.9	76.44
303.13	88.44
303.36	83.44
303.59	96.44
303.82	77.44
304.051	88.44
304.281	85.44
304.511	82.44
304.741	73.44
304.971	93.44
305.201	80.44
305.431	84.44
305.661	84.44
305.891	80.44
306.121	81.44
306.352	83.44
306.582	87.44
306.812	88.44
307.042	88.44
307.272	72.44
307.502	76.44
307.731	86.44
307.961	90.44
308.191	75.44
308.421	87.44
308.651	81.44
308.881	84.44
309.111	76.44
309.341	94.44
309.571	72.44
309.8	81.44
310.03	87.44
310.26	71.44
310.49	83.44
310.72	83.44
310.949	97.44
311.179	99.44
311.409	76.44
311.639	83.44
311.868	91.44
312.098	82.44
312.328	78.44
312.557	76.44
312.787	84.44
313.017	76.44
313.246	85.44
313.476	89.44
313.706	75.44
313.935	81.44
314.165	87.44
314.394	77.44
314.624	80.44
314.853	67.44
315.083	73.44
315.312	90.44
315.542	89.44
315.771	71.44
316.001	82.44
316.23	79.44
316.46	77.44
316.689	81.44
316.919	77.44
317.148	96.44
317.377	90.44
317.607	81.44
317.836	86.44
318.065	76.44
318.295	85.44
318.524	89.44
318.753	82.44
318.983	71.44
319.212	72.44
319.441	92.44
319.67	91.44
319.9	81.44
320.129	77.44
320.358	81.44
320.587	80.44
320.816	82.44
321.046	77.44
321.275	86.44
321.504	93.44
321.733	77.44
321.962	90.44
322.191	70.44
322.42	97.44
322.649	78.44
322.878	82.44
323.108	79.44
323.337	91.44
323.566	87.44
323.795	92.44
324.024	77.44
324.253	87.44
324.482	75.44
324.71	68.44
324.939	89.44
325.168	82.44
325.397	72.44
325.626	88.44
325.855	74.44
326.084	82.44
326.313	72.44
326.542	79.44
326.77	93.44
326.999	83.44
327.228	85.44
327.457	77.44
327.686	86.44
327.914	82.44
328.143	93.44
328.372	105.44
328.6	74.44
328.829	99.44
329.058	78.44
329.287	79.44
329.515	75.44
329.744	67.44
329.972	91.44
330.201	77.44
330.43	84.44
330.658	90.44
330.887	91.44
331.115	92.44
331.344	87.44
331.572	101.44
331.801	70.44
332.03	84.44
332.258	79.44
332.486	83.44
332.715	72.44
332.943	83.44
333.172	90.44
333.4	97.44
333.629	77.44
333.857	72.44
334.085	85.44
334.314	93.44
334.542	75.44
334.771	74.44
334.999	93.44
335.227	83.44
335.455	82.44
335.684	71.44
335.912	70.44
336.14	79.44
336.369	79.44
336.597	82.44
336.825	77.44
337.053	84.44
337.281	70.44
337.51	69.44
337.738	92.44
337.966	73.44
338.194	73.44
338.422	82.44
338.65	81.44
338.878	80.44
339.106	84.44
339.334	81.44
339.562	99.44
339.79	73.44
340.018	68.44
340.246	75.44
340.474	93.44
340.702	75.44
340.93	71.44
341.158	93.44
341.386	88.44
341.614	75.44
341.842	94.44
342.07	75.44
342.298	75.44
342.526	92.44
342.754	73.44
342.981	85.44
343.209	100.44
343.437	89.44
343.665	70.44
343.893	86.44
344.12	80.44
344.348	82.44
344.576	77.44
344.804	69.44
345.031	86.44
345.259	82.44
345.487	80.44
345.714	87.44
345.942	91.44
346.17	87.44
346.397	76.44
346.625	79.44
346.853	95.44
347.08	74.44
347.308	75.44
347.535	89.44
347.763	87.44
347.99	92.44
348.218	77.44
348.445	81.44
348.673	68.44
348.9	91.44
349.128	95.44
349.355	84.44
349.583	88.44
349.81	85.44
350.037	87.44
350.265	74.44
350.492	100.44
350.72	71.44
350.947	83.44
351.174	81.44
351.402	81.44
351.629	71.44
351.856	89.44
352.083	72.44
352.311	83.44
352.538	75.44
352.765	90.44
352.992	95.44
353.22	70.44
353.447	77.44
353.674	85.44
353.901	91.44
354.128	89.44
354.355	72.44
354.583	75.44
354.81	79.44
355.037	67.44
355.264	79.44
355.491	87.44
355.718	83.44
355.945	96.44
356.172	95.44
356.399	80.44
356.626	89.44
356.853	88.44
357.08	83.44
357.307	91.44
357.534	79.44
357.761	86.44
357.988	103.44
358.215	82.44
358.441	72.44
358.668	93.44
358.895	85.44
359.122	83.44
359.349	75.44
359.576	81.44
359.802	92.44
360.029	89.44
360.256	81.44
360.483	84.44
360.709	81.44
360.936	93.44
361.163	84.44
361.39	83.44
361.616	80.44
361.843	86.44
362.07	99.44
362.296	77.44
362.523	80.44
362.749	83.44
362.976	80.44
363.203	88.44
363.429	86.44
363.656	77.44
363.882	86.44
364.109	72.44
364.335	85.44
364.562	87.44
364.788	86.44
365.015	88.44
365.241	83.44
365.468	79.44
365.694	73.44
365.92	85.44
366.147	87.44
366.373	94.44
366.599	85.44
366.826	91.44
367.052	88.44
367.278	92.44
367.505	78.44
367.731	75.44
367.957	90.44
368.184	91.44
368.41	90.44
368.636	85.44
368.862	97.44
369.089	85.44
369.315	80.44
369.541	103.44
369.767	87.44
369.993	95.44
370.219	100.44
370.445	84.44
370.672	84.44
370.898	83.44
371.124	83.44
371.35	69.44
371.576	83.44
371.802	75.44
372.028	89.44
372.254	92.44
372.48	72.44
372.706	95.44
372.932	94.44
373.158	80.44
373.384	85.44
373.61	95.44
373.835	77.44
374.061	91.44
374.287	84.44
374.513	78.44
374.739	79.44
374.965	73.44
375.191	93.44
375.416	85.44
375.642	84.44
375.868	64.44
376.094	81.44
376.319	100.44
376.545	89.44
376.771	83.44
376.997	90.44
377.222	84.44
377.448	82.44
377.674	91.44
377.899	79.44
378.125	95.44
378.35	86.44
378.576	84.44
378.802	95.44
379.027	79.44
379.253	72.44
379.478	81.44
379.704	86.44
379.929	76.44
380.155	77.44
380.38	92.44
380.606	102.44
380.831	81.44
381.057	75.44
381.282	95.44
381.507	84.44
381.733	89.44
381.958	84.44
382.184	104.44
382.409	90.44
382.634	88.44
382.86	77.44
383.085	87.44
383.31	99.44
383.535	77.44
383.761	86.44
383.986	91.44
384.211	93.44
384.436	86.44
384.662	88.44
384.887	81.44
385.112	76.44
385.337	92.44
385.562	87.44
385.787	92.44
386.013	101.44
386.238	90.44
386.463	94.44
386.688	101.44
386.913	90.44
387.138	77.44
387.363	89.44
387.588	100.44
387.813	98.44
388.038	87.44
388.263	79.44
388.488	86.44
388.713	82.44
388.938	89.44
389.163	92.44
389.387	85.44
389.612	94.44
389.837	86.44
390.062	88.44
390.287	79.44
390.512	85.44
390.736	88.44
390.961	74.44
391.186	89.44
391.411	78.44
391.636	83.44
391.86	90.44
392.085	97.44
392.31	96.44
392.534	95.44
392.759	93.44
392.984	92.44
393.208	90.44
393.433	94.44
393.658	82.44
393.882	98.44
394.107	92.44
394.331	93.44
394.556	99.44
394.78	89.44
395.005	87.44
395.229	101.44
395.454	84.44
395.678	76.44
395.903	94.44
396.127	97.44
396.352	93.44
396.576	77.44
396.801	84.44
397.025	87.44
397.249	83.44
397.474	100.44
397.698	109.44
397.922	99.44
398.147	95.44
398.371	83.44
398.595	96.44
398.82	107.44
399.044	77.44
399.268	91.44
399.492	95.44
399.717	77.44
399.941	90.44
400.165	89.44
400.389	85.44
400.613	103.44
400.837	87.44
401.062	86.44
401.286	86.44
401.51	96.44
401.734	92.44
401.958	90.44
402.182	94.44
402.406	95.44
402.63	92.44
402.854	92.44
403.078	94.44
403.302	86.44
403.526	95.44
403.75	100.44
403.974	91.44
404.198	91.44
404.422	84.44
404.645	99.44
404.869	103.44
405.093	104.44
405.317	89.44
405.541	99.44
405.765	90.44
405.988	77.44
406.212	106.44
406.436	102.44
406.66	96.44
406.883	98.44
407.107	97.44
407.331	110.44
407.555	87.44
407.778	88.44
408.002	103.44
408.226	87.44
408.449	100.44
408.673	96.44
408.896	91.44
409.12	98.44
409.344	89.44
409.567	100.44
409.791	95.44
410.014	92.44
410.238	108.44
410.461	106.44
410.685	95.44
410.908	85.44
411.132	106.44
411.355	107.44
411.578	99.44
411.802	107.44
412.025	96.44
412.249	99.44
412.472	87.44
412.695	84.44
412.919	104.44
413.142	107.44
413.365	93.44
413.589	96.44
413.812	105.44
414.035	98.44
414.258	112.44
414.482	117.44
414.705	104.44
414.928	99.44
415.151	109.44
415.374	111.44
415.597	88.44
415.821	93.44
416.044	100.44
416.267	112.44
416.49	110.44
416.713	106.44
416.936	93.44
417.159	107.44
417.382	104.44
417.605	115.44
417.828	104.44
418.051	116.44
418.274	99.44
418.497	102.44
418.72	98.44
418.943	102.44
419.166	107.44
419.389	102.44
419.611	107.44
419.834	100.44
420.057	111.44
420.28	100.44
420.503	88.44
420.726	88.44
420.948	99.44
421.171	108.44
421.394	132.44
421.617	111.44
421.839	104.44
422.062	113.44
422.285	106.44
422.507	98.44
422.73	105.44
422.953	97.44
423.175	107.44
423.398	98.44
423.621	105.44
423.843	105.44
424.066	101.44
424.288	105.44
424.511	104.44
424.733	100.44
424.956	106.44
425.178	113.44
425.401	102.44
425.623	115.44
425.846	111.44
426.068	102.44
426.291	118.44
426.513	96.44
426.735	105.44
426.958	99.44
427.18	104.44
427.402	96.44
427.625	111.44
427.847	100.44
428.069	96.44
428.292	96.44
428.514	121.44
428.736	110.44
428.958	103.44
429.181	100.44
429.403	102.44
429.625	101.44
429.847	103.44
430.069	98.44
430.292	109.44
430.514	105.44
430.736	98.44
430.958	88.44
431.18	107.44
431.402	98.44
431.624	95.44
431.846	81.44
432.068	99.44
432.29	76.44
432.512	100.44
432.734	98.44
432.956	97.44
433.178	99.44
433.4	109.44
433.622	102.44
433.844	106.44
434.066	106.44
434.287	104.44
434.509	83.44
434.731	86.44
434.953	77.44
435.175	107.44
435.397	113.44
435.618	104.44
435.84	100.44
436.062	95.44
436.284	100.44
436.505	84.44
436.727	90.44
436.949	98.44
437.17	101.44
437.392	105.44
437.614	100.44
437.835	98.44
438.057	89.44
438.278	89.44
438.5	97.44
438.721	95.44
438.943	102.44
439.165	109.44
439.386	107.44
439.608	99.44
439.829	101.44
440.05	104.44
440.272	109.44
440.493	116.44
440.715	121.44
440.936	104.44
441.158	111.44
441.379	96.44
441.6	100.44
441.822	109.44
442.043	109.44
442.264	104.44
442.486	107.44
442.707	114.44
442.928	120.44
443.149	102.44
443.371	98.44
443.592	114.44
443.813	105.44
444.034	101.44
444.255	111.44
444.476	114.44
444.698	117.44
444.919	102.44
445.14	247.44
445.361	168.44
445.582	119.44
445.803	100.44
446.024	113.44
446.245	123.44
446.466	129.44
446.687	115.44
446.908	106.44
447.129	104.44
447.35	126.44
447.571	107.44
447.792	103.44
448.013	106.44
448.234	109.44
448.455	106.44
448.675	103.44
448.896	104.44
449.117	117.44
449.338	107.44
449.559	91.44
449.779	107.44
450	115.44
450.221	109.44
450.442	103.44
450.662	103.44
450.883	121.44
451.104	115.44
451.324	98.44
451.545	119.44
451.766	108.44
451.986	105.44
452.207	109.44
452.428	99.44
452.648	97.44
452.869	115.44
453.089	120.44
453.31	117.44
453.53	99.44
453.751	93.44
453.971	94.44
454.192	97.44
454.412	101.44
454.633	93.44
454.853	102.44
455.073	118.44
455.294	106.44
455.514	102.44
455.734	97.44
455.955	102.44
456.175	101.44
456.395	108.44
456.616	112.44
456.836	99.44
457.056	100.44
457.276	83.44
457.497	81.44
457.717	97.44
457.937	89.44
458.157	82.44
458.377	90.44
458.598	101.44
458.818	85.44
459.038	84.44
459.258	77.44
459.478	93.44
459.698	92.44
459.918	87.44
460.138	87.44
460.358	100.44
460.578	100.44
460.798	101.44
461.018	93.44
461.238	95.44
461.458	89.44
461.678	97.44
461.898	97.44
462.118	103.44
462.338	117.44
462.558	97.44
462.777	81.44
462.997	99.44
463.217	98.44
463.437	96.44
463.657	94.44
463.876	83.44
464.096	103.44
464.316	92.44
464.536	102.44
464.755	97.44
464.975	103.44
465.195	103.44
465.414	103.44
465.634	80.44
465.854	97.44
466.073	100.44
466.293	100.44
466.512	101.44
466.732	102.44
466.951	107.44
467.171	121.44
467.391	114.44
467.61	108.44
467.829	102.44
468.049	113.44
468.268	107.44
468.488	107.44
468.707	114.44
468.927	106.44
469.146	113.44
469.365	123.44
469.585	113.44
469.804	103.44
470.023	125.44
470.243	105.44
470.462	113.44
470.681	119.44
470.901	121.44
471.12	103.44
471.339	111.44
471.558	99.44
471.777	115.44
471.997	106.44
472.216	99.44
472.435	105.44
472.654	102.44
472.873	100.44
473.092	94.44
473.311	98.44
473.53	105.44
473.749	103.44
473.968	104.44
474.187	110.44
474.406	109.44
474.625	106.44
474.844	105.44
475.063	103.44
475.282	117.44
475.501	101.44
475.72	106.44
475.939	97.44
476.158	83.44
476.377	84.44
476.596	106.44
476.814	97.44
477.033	96.44
477.252	102.44
477.471	93.44
477.69	102.44
477.908	105.44
478.127	102.44
478.346	104.44
478.564	121.44
478.783	96.44
479.002	118.44
479.22	119.44
479.439	88.44
479.658	96.44
479.876	101.44
480.095	106.44
480.313	105.44
480.532	109.44
480.751	97.44
480.969	99.44
481.188	87.44
481.406	81.44
481.624	71.44
481.843	91.44
482.061	79.44
482.28	98.44
482.498	112.44
482.717	93.44
482.935	99.44
483.153	121.44
483.372	119.44
483.59	114.44
483.808	106.44
484.027	105.44
484.245	113.44
484.463	118.44
484.681	124.44
484.9	103.44
485.118	111.44
485.336	92.44
485.554	98.44
485.772	93.44
485.99	80.44
486.209	84.44
486.427	100.44
486.645	108.44
486.863	100.44
487.081	115.44
487.299	115.44
487.517	120.44
487.735	126.44
487.953	114.44
488.171	125.44
488.389	120.44
488.607	112.44
488.825	108.44
489.043	123.44
489.261	111.44
489.479	106.44
489.696	104.44
489.914	106.44
490.132	101.44
490.35	117.44
490.568	115.44
490.786	119.44
491.003	126.44
491.221	117.44
491.439	141.44
491.657	157.44
491.874	154.44
492.092	155.44
492.31	155.44
492.527	154.44
492.745	147.44
492.963	143.44
493.18	134.44
493.398	119.44
493.615	137.44
493.833	126.44
494.05	137.44
494.268	139.44
494.485	119.44
494.703	129.44
494.92	124.44
495.138	135.44
495.355	141.44
495.573	126.44
495.79	120.44
496.008	133.44
496.225	120.44
496.442	122.44
496.66	117.44
496.877	114.44
497.094	125.44
497.312	100.44
497.529	118.44
497.746	105.44
497.963	126.44
498.181	115.44
498.398	96.44
498.615	100.44
498.832	84.44
499.049	87.44
499.267	87.44
499.484	110.44
499.701	115.44
499.918	106.44
500.135	111.44
500.352	119.44
500.569	125.44
500.786	106.44
501.003	108.44
501.22	97.44
501.437	109.44
501.654	107.44
501.871	104.44
502.088	99.44
502.305	96.44
502.522	109.44
502.739	105.44
502.956	101.44
503.172	107.44
503.389	104.44
503.606	104.44
503.823	94.44
504.04	108.44
504.256	102.44
504.473	94.44
504.69	105.44
504.907	100.44
505.123	84.44
505.34	111.44
505.557	93.44
505.773	96.44
505.99	102.44
506.207	113.44
506.423	110.44
506.64	103.44
506.856	92.44
507.073	100.44
507.289	104.44
507.506	111.44
507.722	87.44
507.939	78.44
508.155	103.44
508.372	105.44
508.588	99.44
508.805	95.44
509.021	98.44
509.238	103.44
509.454	96.44
509.67	93.44
509.887	87.44
510.103	96.44
510.319	77.44
510.536	92.44
510.752	87.44
510.968	81.44
511.184	85.44
511.401	77.44
511.617	90.44
511.833	82.44
512.049	87.44
512.265	79.44
512.481	80.44
512.698	87.44
512.914	91.44
513.13	91.44
513.346	88.44
513.562	92.44
513.778	91.44
513.994	88.44
514.21	94.44
514.426	76.44
514.642	96.44
