Data from Zn(NO3)2Standard.Agarose3%.GreenCap.LampEnergy10E.O_HRD10591_15-06-02-942.txt Node
Date: Mon Jul 22 15:06:02 EDT 2019
User: cochatt
Spectrometer: HR+D1059
Trigger mode: 1
Integration Time (sec): 1.000000E-1
Scans to average: 1
Electric dark correction enabled: true
Nonlinearity correction enabled: false
Boxcar width: 0
XAxis mode: Wavelengths
Number of Pixels in Spectrum: 2048
>>>>>Begin Spectral Data<<<<<
223.165	-10.12
223.4	-10.12
223.635	-10.12
223.869	-21.12
224.104	-35.12
224.338	4.88
224.573	-25.12
224.808	-17.12
225.042	-1.12
225.277	-7.12
225.511	-2.12
225.746	11.88
225.98	8.88
226.215	12.88
226.449	5.88
226.683	18.88
226.918	28.88
227.152	26.88
227.387	42.88
227.621	48.88
227.856	45.88
228.09	28.88
228.324	29.88
228.559	56.88
228.793	63.88
229.027	60.88
229.262	85.88
229.496	65.88
229.73	70.88
229.964	66.88
230.199	78.88
230.433	86.88
230.667	78.88
230.901	61.88
231.136	76.88
231.37	68.88
231.604	84.88
231.838	83.88
232.072	69.88
232.306	80.88
232.541	82.88
232.775	76.88
233.009	70.88
233.243	94.88
233.477	77.88
233.711	89.88
233.945	75.88
234.179	84.88
234.413	73.88
234.647	87.88
234.881	72.88
235.115	74.88
235.349	70.88
235.583	79.88
235.817	84.88
236.051	79.88
236.285	66.88
236.519	70.88
236.753	76.88
236.987	81.88
237.221	83.88
237.455	86.88
237.689	76.88
237.922	70.88
238.156	82.88
238.39	75.88
238.624	79.88
238.858	79.88
239.091	65.88
239.325	82.88
239.559	73.88
239.793	65.88
240.027	70.88
240.26	77.88
240.494	80.88
240.728	71.88
240.961	84.88
241.195	87.88
241.429	78.88
241.662	73.88
241.896	75.88
242.13	70.88
242.363	82.88
242.597	72.88
242.83	74.88
243.064	79.88
243.298	81.88
243.531	60.88
243.765	80.88
243.998	71.88
244.232	74.88
244.465	73.88
244.699	64.88
244.932	62.88
245.166	68.88
245.399	84.88
245.633	73.88
245.866	69.88
246.099	75.88
246.333	70.88
246.566	74.88
246.8	74.88
247.033	76.88
247.266	80.88
247.5	78.88
247.733	56.88
247.966	84.88
248.2	72.88
248.433	92.88
248.666	79.88
248.899	69.88
249.133	55.88
249.366	84.88
249.599	80.88
249.832	75.88
250.066	81.88
250.299	72.88
250.532	66.88
250.765	83.88
250.998	97.88
251.231	75.88
251.465	81.88
251.698	92.88
251.931	69.88
252.164	77.88
252.397	81.88
252.63	82.88
252.863	77.88
253.096	84.88
253.329	79.88
253.562	70.88
253.795	76.88
254.028	76.88
254.261	81.88
254.494	80.88
254.727	85.88
254.96	73.88
255.193	83.88
255.426	86.88
255.659	74.88
255.892	78.88
256.124	77.88
256.357	88.88
256.59	75.88
256.823	80.88
257.056	69.88
257.289	73.88
257.521	86.88
257.754	84.88
257.987	79.88
258.22	83.88
258.452	83.88
258.685	69.88
258.918	78.88
259.151	82.88
259.383	92.88
259.616	85.88
259.849	83.88
260.081	78.88
260.314	91.88
260.547	80.88
260.779	85.88
261.012	76.88
261.244	78.88
261.477	87.88
261.71	82.88
261.942	91.88
262.175	85.88
262.407	86.88
262.64	76.88
262.872	77.88
263.105	83.88
263.337	85.88
263.57	77.88
263.802	83.88
264.035	82.88
264.267	82.88
264.499	66.88
264.732	90.88
264.964	90.88
265.197	79.88
265.429	78.88
265.661	78.88
265.894	71.88
266.126	74.88
266.358	91.88
266.591	66.88
266.823	69.88
267.055	79.88
267.287	84.88
267.52	71.88
267.752	78.88
267.984	83.88
268.216	89.88
268.448	70.88
268.681	76.88
268.913	80.88
269.145	78.88
269.377	86.88
269.609	77.88
269.841	85.88
270.073	85.88
270.306	83.88
270.538	84.88
270.77	72.88
271.002	84.88
271.234	78.88
271.466	101.88
271.698	84.88
271.93	83.88
272.162	85.88
272.394	79.88
272.626	92.88
272.858	90.88
273.09	67.88
273.322	82.88
273.553	83.88
273.785	73.88
274.017	98.88
274.249	90.88
274.481	77.88
274.713	80.88
274.945	86.88
275.176	102.88
275.408	85.88
275.64	83.88
275.872	85.88
276.104	80.88
276.335	83.88
276.567	84.88
276.799	86.88
277.031	68.88
277.262	78.88
277.494	89.88
277.726	86.88
277.957	77.88
278.189	83.88
278.421	90.88
278.652	80.88
278.884	74.88
279.115	77.88
279.347	78.88
279.579	86.88
279.81	77.88
280.042	86.88
280.273	83.88
280.505	68.88
280.736	79.88
280.968	90.88
281.199	91.88
281.431	91.88
281.662	92.88
281.894	83.88
282.125	71.88
282.356	85.88
282.588	96.88
282.819	76.88
283.051	87.88
283.282	85.88
283.513	84.88
283.745	81.88
283.976	92.88
284.207	80.88
284.439	90.88
284.67	88.88
284.901	82.88
285.132	87.88
285.364	75.88
285.595	96.88
285.826	78.88
286.057	97.88
286.288	70.88
286.52	75.88
286.751	91.88
286.982	79.88
287.213	84.88
287.444	89.88
287.675	93.88
287.906	85.88
288.138	89.88
288.369	88.88
288.6	88.88
288.831	86.88
289.062	84.88
289.293	76.88
289.524	86.88
289.755	91.88
289.986	83.88
290.217	92.88
290.448	86.88
290.679	92.88
290.91	75.88
291.141	76.88
291.371	81.88
291.602	76.88
291.833	82.88
292.064	88.88
292.295	93.88
292.526	89.88
292.757	102.88
292.987	98.88
293.218	76.88
293.449	86.88
293.68	100.88
293.91	85.88
294.141	85.88
294.372	84.88
294.603	87.88
294.833	86.88
295.064	96.88
295.295	78.88
295.525	80.88
295.756	83.88
295.987	93.88
296.217	95.88
296.448	88.88
296.679	90.88
296.909	86.88
297.14	85.88
297.37	78.88
297.601	79.88
297.831	96.88
298.062	85.88
298.292	90.88
298.523	88.88
298.753	84.88
298.984	73.88
299.214	86.88
299.445	96.88
299.675	83.88
299.905	79.88
300.136	76.88
300.366	97.88
300.597	93.88
300.827	73.88
301.057	90.88
301.288	90.88
301.518	78.88
301.748	78.88
301.979	70.88
302.209	79.88
302.439	76.88
302.669	77.88
302.9	84.88
303.13	83.88
303.36	85.88
303.59	79.88
303.82	68.88
304.051	77.88
304.281	76.88
304.511	92.88
304.741	84.88
304.971	81.88
305.201	86.88
305.431	93.88
305.661	89.88
305.891	70.88
306.121	86.88
306.352	89.88
306.582	81.88
306.812	87.88
307.042	94.88
307.272	81.88
307.502	91.88
307.731	91.88
307.961	94.88
308.191	91.88
308.421	74.88
308.651	83.88
308.881	79.88
309.111	90.88
309.341	82.88
309.571	81.88
309.8	87.88
310.03	82.88
310.26	74.88
310.49	78.88
310.72	83.88
310.949	97.88
311.179	73.88
311.409	78.88
311.639	93.88
311.868	96.88
312.098	82.88
312.328	90.88
312.557	92.88
312.787	65.88
313.017	92.88
313.246	77.88
313.476	62.88
313.706	89.88
313.935	73.88
314.165	82.88
314.394	98.88
314.624	75.88
314.853	93.88
315.083	81.88
315.312	81.88
315.542	84.88
315.771	92.88
316.001	89.88
316.23	81.88
316.46	82.88
316.689	92.88
316.919	81.88
317.148	94.88
317.377	77.88
317.607	63.88
317.836	82.88
318.065	70.88
318.295	77.88
318.524	92.88
318.753	81.88
318.983	78.88
319.212	92.88
319.441	80.88
319.67	102.88
319.9	85.88
320.129	78.88
320.358	77.88
320.587	96.88
320.816	82.88
321.046	84.88
321.275	89.88
321.504	85.88
321.733	69.88
321.962	76.88
322.191	78.88
322.42	76.88
322.649	88.88
322.878	93.88
323.108	81.88
323.337	79.88
323.566	77.88
323.795	73.88
324.024	85.88
324.253	70.88
324.482	82.88
324.71	91.88
324.939	94.88
325.168	86.88
325.397	78.88
325.626	77.88
325.855	85.88
326.084	91.88
326.313	92.88
326.542	83.88
326.77	89.88
326.999	87.88
327.228	79.88
327.457	89.88
327.686	85.88
327.914	86.88
328.143	86.88
328.372	77.88
328.6	86.88
328.829	80.88
329.058	77.88
329.287	90.88
329.515	79.88
329.744	88.88
329.972	89.88
330.201	79.88
330.43	93.88
330.658	81.88
330.887	77.88
331.115	86.88
331.344	80.88
331.572	92.88
331.801	73.88
332.03	84.88
332.258	80.88
332.486	93.88
332.715	86.88
332.943	75.88
333.172	76.88
333.4	82.88
333.629	93.88
333.857	102.88
334.085	91.88
334.314	89.88
334.542	84.88
334.771	89.88
334.999	89.88
335.227	84.88
335.455	89.88
335.684	84.88
335.912	85.88
336.14	78.88
336.369	90.88
336.597	87.88
336.825	90.88
337.053	96.88
337.281	88.88
337.51	93.88
337.738	90.88
337.966	100.88
338.194	74.88
338.422	88.88
338.65	67.88
338.878	85.88
339.106	77.88
339.334	88.88
339.562	96.88
339.79	79.88
340.018	91.88
340.246	106.88
340.474	88.88
340.702	88.88
340.93	93.88
341.158	74.88
341.386	98.88
341.614	90.88
341.842	69.88
342.07	78.88
342.298	83.88
342.526	88.88
342.754	71.88
342.981	90.88
343.209	82.88
343.437	93.88
343.665	77.88
343.893	89.88
344.12	87.88
344.348	84.88
344.576	92.88
344.804	81.88
345.031	81.88
345.259	84.88
345.487	79.88
345.714	69.88
345.942	82.88
346.17	99.88
346.397	73.88
346.625	78.88
346.853	82.88
347.08	82.88
347.308	75.88
347.535	90.88
347.763	76.88
347.99	89.88
348.218	88.88
348.445	98.88
348.673	75.88
348.9	82.88
349.128	75.88
349.355	81.88
349.583	96.88
349.81	85.88
350.037	83.88
350.265	92.88
350.492	91.88
350.72	88.88
350.947	83.88
351.174	84.88
351.402	100.88
351.629	79.88
351.856	82.88
352.083	92.88
352.311	84.88
352.538	74.88
352.765	76.88
352.992	87.88
353.22	82.88
353.447	83.88
353.674	81.88
353.901	77.88
354.128	75.88
354.355	76.88
354.583	92.88
354.81	69.88
355.037	90.88
355.264	94.88
355.491	89.88
355.718	93.88
355.945	90.88
356.172	84.88
356.399	88.88
356.626	77.88
356.853	78.88
357.08	99.88
357.307	96.88
357.534	88.88
357.761	84.88
357.988	89.88
358.215	96.88
358.441	88.88
358.668	87.88
358.895	86.88
359.122	74.88
359.349	90.88
359.576	73.88
359.802	77.88
360.029	84.88
360.256	61.88
360.483	80.88
360.709	87.88
360.936	77.88
361.163	81.88
361.39	102.88
361.616	72.88
361.843	75.88
362.07	74.88
362.296	91.88
362.523	80.88
362.749	81.88
362.976	83.88
363.203	87.88
363.429	90.88
363.656	74.88
363.882	75.88
364.109	98.88
364.335	91.88
364.562	76.88
364.788	73.88
365.015	95.88
365.241	94.88
365.468	87.88
365.694	80.88
365.92	89.88
366.147	86.88
366.373	85.88
366.599	66.88
366.826	70.88
367.052	79.88
367.278	80.88
367.505	71.88
367.731	86.88
367.957	78.88
368.184	102.88
368.41	81.88
368.636	102.88
368.862	86.88
369.089	79.88
369.315	92.88
369.541	82.88
369.767	85.88
369.993	86.88
370.219	76.88
370.445	73.88
370.672	75.88
370.898	85.88
371.124	72.88
371.35	85.88
371.576	82.88
371.802	76.88
372.028	82.88
372.254	82.88
372.48	84.88
372.706	95.88
372.932	86.88
373.158	73.88
373.384	84.88
373.61	81.88
373.835	72.88
374.061	81.88
374.287	78.88
374.513	77.88
374.739	85.88
374.965	80.88
375.191	81.88
375.416	74.88
375.642	92.88
375.868	72.88
376.094	82.88
376.319	88.88
376.545	84.88
376.771	84.88
376.997	87.88
377.222	88.88
377.448	84.88
377.674	88.88
377.899	98.88
378.125	82.88
378.35	88.88
378.576	85.88
378.802	86.88
379.027	83.88
379.253	80.88
379.478	76.88
379.704	79.88
379.929	80.88
380.155	82.88
380.38	85.88
380.606	83.88
380.831	88.88
381.057	90.88
381.282	83.88
381.507	83.88
381.733	77.88
381.958	84.88
382.184	78.88
382.409	83.88
382.634	85.88
382.86	83.88
383.085	81.88
383.31	85.88
383.535	88.88
383.761	88.88
383.986	81.88
384.211	88.88
384.436	92.88
384.662	73.88
384.887	85.88
385.112	93.88
385.337	87.88
385.562	91.88
385.787	76.88
386.013	94.88
386.238	100.88
386.463	82.88
386.688	70.88
386.913	103.88
387.138	83.88
387.363	80.88
387.588	90.88
387.813	87.88
388.038	97.88
388.263	85.88
388.488	85.88
388.713	93.88
388.938	92.88
389.163	93.88
389.387	87.88
389.612	85.88
389.837	101.88
390.062	82.88
390.287	69.88
390.512	90.88
390.736	90.88
390.961	84.88
391.186	91.88
391.411	93.88
391.636	89.88
391.86	79.88
392.085	93.88
392.31	109.88
392.534	90.88
392.759	92.88
392.984	97.88
393.208	86.88
393.433	105.88
393.658	83.88
393.882	96.88
394.107	91.88
394.331	89.88
394.556	96.88
394.78	87.88
395.005	85.88
395.229	77.88
395.454	91.88
395.678	82.88
395.903	88.88
396.127	108.88
396.352	94.88
396.576	101.88
396.801	97.88
397.025	85.88
397.249	85.88
397.474	98.88
397.698	99.88
397.922	94.88
398.147	88.88
398.371	78.88
398.595	84.88
398.82	92.88
399.044	90.88
399.268	93.88
399.492	112.88
399.717	95.88
399.941	88.88
400.165	99.88
400.389	87.88
400.613	102.88
400.837	100.88
401.062	88.88
401.286	86.88
401.51	89.88
401.734	92.88
401.958	100.88
402.182	96.88
402.406	82.88
402.63	89.88
402.854	107.88
403.078	91.88
403.302	90.88
403.526	89.88
403.75	97.88
403.974	86.88
404.198	107.88
404.422	93.88
404.645	85.88
404.869	97.88
405.093	88.88
405.317	94.88
405.541	85.88
405.765	97.88
405.988	99.88
406.212	86.88
406.436	90.88
406.66	102.88
406.883	103.88
407.107	91.88
407.331	90.88
407.555	81.88
407.778	94.88
408.002	101.88
408.226	91.88
408.449	86.88
408.673	102.88
408.896	107.88
409.12	95.88
409.344	88.88
409.567	92.88
409.791	106.88
410.014	90.88
410.238	92.88
410.461	95.88
410.685	87.88
410.908	94.88
411.132	102.88
411.355	99.88
411.578	106.88
411.802	112.88
412.025	100.88
412.249	107.88
412.472	84.88
412.695	99.88
412.919	88.88
413.142	100.88
413.365	92.88
413.589	104.88
413.812	99.88
414.035	107.88
414.258	102.88
414.482	88.88
414.705	97.88
414.928	93.88
415.151	106.88
415.374	94.88
415.597	92.88
415.821	95.88
416.044	113.88
416.267	112.88
416.49	94.88
416.713	105.88
416.936	108.88
417.159	107.88
417.382	102.88
417.605	105.88
417.828	94.88
418.051	105.88
418.274	107.88
418.497	103.88
418.72	92.88
418.943	118.88
419.166	116.88
419.389	114.88
419.611	98.88
419.834	103.88
420.057	90.88
420.28	112.88
420.503	105.88
420.726	101.88
420.948	105.88
421.171	112.88
421.394	96.88
421.617	107.88
421.839	106.88
422.062	107.88
422.285	95.88
422.507	97.88
422.73	97.88
422.953	97.88
423.175	94.88
423.398	101.88
423.621	96.88
423.843	101.88
424.066	109.88
424.288	112.88
424.511	101.88
424.733	101.88
424.956	121.88
425.178	108.88
425.401	109.88
425.623	119.88
425.846	123.88
426.068	106.88
426.291	103.88
426.513	76.88
426.735	112.88
426.958	102.88
427.18	96.88
427.402	94.88
427.625	106.88
427.847	102.88
428.069	80.88
428.292	113.88
428.514	102.88
428.736	96.88
428.958	119.88
429.181	100.88
429.403	113.88
429.625	102.88
429.847	103.88
430.069	99.88
430.292	103.88
430.514	108.88
430.736	101.88
430.958	101.88
431.18	91.88
431.402	108.88
431.624	96.88
431.846	96.88
432.068	67.88
432.29	89.88
432.512	106.88
432.734	85.88
432.956	100.88
433.178	109.88
433.4	109.88
433.622	116.88
433.844	111.88
434.066	108.88
434.287	95.88
434.509	77.88
434.731	79.88
434.953	77.88
435.175	98.88
435.397	110.88
435.618	104.88
435.84	88.88
436.062	90.88
436.284	100.88
436.505	96.88
436.727	106.88
436.949	94.88
437.17	111.88
437.392	96.88
437.614	105.88
437.835	81.88
438.057	89.88
438.278	82.88
438.5	108.88
438.721	102.88
438.943	115.88
439.165	113.88
439.386	109.88
439.608	125.88
439.829	124.88
440.05	105.88
440.272	100.88
440.493	97.88
440.715	119.88
440.936	115.88
441.158	95.88
441.379	114.88
441.6	112.88
441.822	114.88
442.043	108.88
442.264	107.88
442.486	105.88
442.707	116.88
442.928	110.88
443.149	98.88
443.371	108.88
443.592	108.88
443.813	108.88
444.034	98.88
444.255	120.88
444.476	102.88
444.698	114.88
444.919	124.88
445.14	237.88
445.361	169.88
445.582	101.88
445.803	93.88
446.024	110.88
446.245	123.88
446.466	119.88
446.687	102.88
446.908	104.88
447.129	114.88
447.35	124.88
447.571	122.88
447.792	118.88
448.013	113.88
448.234	97.88
448.455	100.88
448.675	102.88
448.896	95.88
449.117	103.88
449.338	101.88
449.559	106.88
449.779	109.88
450	105.88
450.221	114.88
450.442	116.88
450.662	109.88
450.883	100.88
451.104	114.88
451.324	112.88
451.545	91.88
451.766	112.88
451.986	87.88
452.207	100.88
452.428	92.88
452.648	99.88
452.869	110.88
453.089	109.88
453.31	98.88
453.53	100.88
453.751	85.88
453.971	96.88
454.192	79.88
454.412	106.88
454.633	89.88
454.853	96.88
455.073	94.88
455.294	97.88
455.514	95.88
455.734	91.88
455.955	90.88
456.175	78.88
456.395	97.88
456.616	90.88
456.836	98.88
457.056	99.88
457.276	94.88
457.497	88.88
457.717	88.88
457.937	105.88
458.157	97.88
458.377	95.88
458.598	85.88
458.818	75.88
459.038	85.88
459.258	85.88
459.478	97.88
459.698	74.88
459.918	91.88
460.138	96.88
460.358	89.88
460.578	81.88
460.798	90.88
461.018	91.88
461.238	89.88
461.458	76.88
461.678	85.88
461.898	93.88
462.118	97.88
462.338	96.88
462.558	93.88
462.777	90.88
462.997	109.88
463.217	91.88
463.437	90.88
463.657	97.88
463.876	92.88
464.096	81.88
464.316	98.88
464.536	91.88
464.755	115.88
464.975	109.88
465.195	89.88
465.414	96.88
465.634	93.88
465.854	113.88
466.073	110.88
466.293	108.88
466.512	102.88
466.732	98.88
466.951	88.88
467.171	105.88
467.391	99.88
467.61	113.88
467.829	112.88
468.049	122.88
468.268	113.88
468.488	96.88
468.707	108.88
468.927	106.88
469.146	100.88
469.365	96.88
469.585	129.88
469.804	114.88
470.023	128.88
470.243	114.88
470.462	110.88
470.681	106.88
470.901	123.88
471.12	116.88
471.339	120.88
471.558	110.88
471.777	106.88
471.997	109.88
472.216	110.88
472.435	114.88
472.654	98.88
472.873	89.88
473.092	89.88
473.311	90.88
473.53	81.88
473.749	115.88
473.968	118.88
474.187	105.88
474.406	102.88
474.625	112.88
474.844	106.88
475.063	100.88
475.282	102.88
475.501	107.88
475.72	92.88
475.939	93.88
476.158	106.88
476.377	98.88
476.596	98.88
476.814	105.88
477.033	98.88
477.252	96.88
477.471	127.88
477.69	99.88
477.908	104.88
478.127	112.88
478.346	120.88
478.564	112.88
478.783	109.88
479.002	123.88
479.22	118.88
479.439	102.88
479.658	109.88
479.876	84.88
480.095	99.88
480.313	97.88
480.532	99.88
480.751	107.88
480.969	90.88
481.188	82.88
481.406	83.88
481.624	75.88
481.843	82.88
482.061	88.88
482.28	91.88
482.498	112.88
482.717	88.88
482.935	98.88
483.153	109.88
483.372	114.88
483.59	116.88
483.808	100.88
484.027	98.88
484.245	101.88
484.463	124.88
484.681	124.88
484.9	112.88
485.118	115.88
485.336	104.88
485.554	93.88
485.772	92.88
485.99	92.88
486.209	100.88
486.427	96.88
486.645	107.88
486.863	91.88
487.081	113.88
487.299	112.88
487.517	120.88
487.735	139.88
487.953	116.88
488.171	126.88
488.389	122.88
488.607	132.88
488.825	115.88
489.043	93.88
489.261	98.88
489.479	105.88
489.696	119.88
489.914	112.88
490.132	114.88
490.35	113.88
490.568	115.88
490.786	120.88
491.003	122.88
491.221	134.88
491.439	122.88
491.657	138.88
491.874	143.88
492.092	142.88
492.31	162.88
492.527	143.88
492.745	151.88
492.963	126.88
493.18	148.88
493.398	141.88
493.615	128.88
493.833	118.88
494.05	126.88
494.268	116.88
494.485	124.88
494.703	134.88
494.92	126.88
495.138	126.88
495.355	129.88
495.573	123.88
495.79	126.88
496.008	133.88
496.225	114.88
496.442	122.88
496.66	124.88
496.877	120.88
497.094	128.88
497.312	122.88
497.529	109.88
497.746	130.88
497.963	117.88
498.181	116.88
498.398	93.88
498.615	100.88
498.832	96.88
499.049	89.88
499.267	99.88
499.484	113.88
499.701	104.88
499.918	122.88
500.135	110.88
500.352	108.88
500.569	112.88
500.786	123.88
501.003	97.88
501.22	123.88
501.437	119.88
501.654	113.88
501.871	100.88
502.088	97.88
502.305	107.88
502.522	99.88
502.739	76.88
502.956	112.88
503.172	110.88
503.389	93.88
503.606	86.88
503.823	104.88
504.04	102.88
504.256	82.88
504.473	99.88
504.69	96.88
504.907	109.88
505.123	101.88
505.34	98.88
505.557	105.88
505.773	97.88
505.99	97.88
506.207	97.88
506.423	99.88
506.64	96.88
506.856	89.88
507.073	101.88
507.289	107.88
507.506	99.88
507.722	105.88
507.939	97.88
508.155	98.88
508.372	99.88
508.588	94.88
508.805	87.88
509.021	103.88
509.238	99.88
509.454	101.88
509.67	89.88
509.887	93.88
510.103	86.88
510.319	95.88
510.536	92.88
510.752	89.88
510.968	86.88
511.184	77.88
511.401	89.88
511.617	79.88
511.833	78.88
512.049	78.88
512.265	93.88
512.481	89.88
512.698	85.88
512.914	84.88
513.13	107.88
513.346	88.88
513.562	89.88
513.778	85.88
513.994	83.88
514.21	99.88
514.426	86.88
514.642	96.88
514.858	89.88
515.074	83.88
