Data from Zn(NO3)2Standard.Agarose3%.GreenCap.LampEnergy5.5.E.O_HRD10591_15-04-02-768.txt Node
Date: Mon Jul 22 15:04:02 EDT 2019
User: cochatt
Spectrometer: HR+D1059
Trigger mode: 1
Integration Time (sec): 1.000000E-1
Scans to average: 1
Electric dark correction enabled: true
Nonlinearity correction enabled: false
Boxcar width: 0
XAxis mode: Wavelengths
Number of Pixels in Spectrum: 2048
>>>>>Begin Spectral Data<<<<<
223.165	-9.12
223.4	-9.12
223.635	-9.12
223.869	-18.12
224.104	-29.12
224.338	-10.12
224.573	-3.12
224.808	-16.12
225.042	-5.12
225.277	-5.12
225.511	-1.12
225.746	-4.12
225.98	4.88
226.215	6.88
226.449	26.88
226.683	21.88
226.918	13.88
227.152	26.88
227.387	42.88
227.621	36.88
227.856	43.88
228.09	51.88
228.324	53.88
228.559	56.88
228.793	62.88
229.027	59.88
229.262	60.88
229.496	50.88
229.73	77.88
229.964	72.88
230.199	86.88
230.433	71.88
230.667	72.88
230.901	75.88
231.136	65.88
231.37	76.88
231.604	73.88
231.838	82.88
232.072	94.88
232.306	80.88
232.541	86.88
232.775	77.88
233.009	65.88
233.243	75.88
233.477	86.88
233.711	85.88
233.945	82.88
234.179	79.88
234.413	68.88
234.647	85.88
234.881	83.88
235.115	71.88
235.349	71.88
235.583	70.88
235.817	85.88
236.051	75.88
236.285	87.88
236.519	83.88
236.753	77.88
236.987	89.88
237.221	65.88
237.455	79.88
237.689	66.88
237.922	77.88
238.156	75.88
238.39	71.88
238.624	84.88
238.858	81.88
239.091	82.88
239.325	95.88
239.559	70.88
239.793	87.88
240.027	82.88
240.26	71.88
240.494	82.88
240.728	70.88
240.961	73.88
241.195	79.88
241.429	72.88
241.662	62.88
241.896	73.88
242.13	88.88
242.363	72.88
242.597	70.88
242.83	81.88
243.064	77.88
243.298	66.88
243.531	82.88
243.765	83.88
243.998	87.88
244.232	81.88
244.465	83.88
244.699	86.88
244.932	74.88
245.166	83.88
245.399	77.88
245.633	73.88
245.866	87.88
246.099	86.88
246.333	66.88
246.566	74.88
246.8	92.88
247.033	71.88
247.266	71.88
247.5	66.88
247.733	76.88
247.966	71.88
248.2	84.88
248.433	72.88
248.666	68.88
248.899	74.88
249.133	79.88
249.366	78.88
249.599	70.88
249.832	73.88
250.066	69.88
250.299	85.88
250.532	80.88
250.765	82.88
250.998	73.88
251.231	73.88
251.465	71.88
251.698	78.88
251.931	85.88
252.164	90.88
252.397	86.88
252.63	82.88
252.863	90.88
253.096	79.88
253.329	69.88
253.562	72.88
253.795	81.88
254.028	82.88
254.261	68.88
254.494	88.88
254.727	75.88
254.96	85.88
255.193	77.88
255.426	84.88
255.659	73.88
255.892	83.88
256.124	89.88
256.357	78.88
256.59	78.88
256.823	67.88
257.056	86.88
257.289	69.88
257.521	85.88
257.754	86.88
257.987	75.88
258.22	83.88
258.452	75.88
258.685	79.88
258.918	81.88
259.151	82.88
259.383	83.88
259.616	92.88
259.849	73.88
260.081	83.88
260.314	88.88
260.547	80.88
260.779	80.88
261.012	71.88
261.244	92.88
261.477	71.88
261.71	93.88
261.942	94.88
262.175	85.88
262.407	85.88
262.64	65.88
262.872	78.88
263.105	83.88
263.337	89.88
263.57	71.88
263.802	87.88
264.035	71.88
264.267	89.88
264.499	80.88
264.732	80.88
264.964	75.88
265.197	78.88
265.429	85.88
265.661	84.88
265.894	67.88
266.126	80.88
266.358	71.88
266.591	97.88
266.823	66.88
267.055	75.88
267.287	81.88
267.52	77.88
267.752	87.88
267.984	83.88
268.216	89.88
268.448	88.88
268.681	83.88
268.913	85.88
269.145	92.88
269.377	81.88
269.609	108.88
269.841	90.88
270.073	88.88
270.306	77.88
270.538	77.88
270.77	85.88
271.002	89.88
271.234	88.88
271.466	79.88
271.698	85.88
271.93	68.88
272.162	79.88
272.394	85.88
272.626	77.88
272.858	82.88
273.09	85.88
273.322	83.88
273.553	78.88
273.785	78.88
274.017	82.88
274.249	85.88
274.481	79.88
274.713	84.88
274.945	79.88
275.176	77.88
275.408	85.88
275.64	78.88
275.872	83.88
276.104	89.88
276.335	83.88
276.567	92.88
276.799	85.88
277.031	80.88
277.262	95.88
277.494	92.88
277.726	74.88
277.957	85.88
278.189	85.88
278.421	82.88
278.652	83.88
278.884	82.88
279.115	68.88
279.347	88.88
279.579	83.88
279.81	88.88
280.042	75.88
280.273	66.88
280.505	79.88
280.736	84.88
280.968	86.88
281.199	75.88
281.431	75.88
281.662	97.88
281.894	88.88
282.125	76.88
282.356	70.88
282.588	76.88
282.819	80.88
283.051	81.88
283.282	84.88
283.513	82.88
283.745	86.88
283.976	94.88
284.207	90.88
284.439	95.88
284.67	85.88
284.901	83.88
285.132	82.88
285.364	79.88
285.595	84.88
285.826	85.88
286.057	87.88
286.288	83.88
286.52	81.88
286.751	73.88
286.982	78.88
287.213	82.88
287.444	83.88
287.675	83.88
287.906	79.88
288.138	102.88
288.369	86.88
288.6	78.88
288.831	80.88
289.062	88.88
289.293	93.88
289.524	79.88
289.755	79.88
289.986	97.88
290.217	71.88
290.448	84.88
290.679	83.88
290.91	81.88
291.141	80.88
291.371	98.88
291.602	76.88
291.833	70.88
292.064	86.88
292.295	69.88
292.526	87.88
292.757	92.88
292.987	89.88
293.218	97.88
293.449	100.88
293.68	104.88
293.91	83.88
294.141	83.88
294.372	70.88
294.603	86.88
294.833	78.88
295.064	81.88
295.295	77.88
295.525	83.88
295.756	70.88
295.987	86.88
296.217	92.88
296.448	79.88
296.679	88.88
296.909	89.88
297.14	83.88
297.37	78.88
297.601	83.88
297.831	90.88
298.062	85.88
298.292	97.88
298.523	95.88
298.753	88.88
298.984	98.88
299.214	92.88
299.445	85.88
299.675	89.88
299.905	89.88
300.136	86.88
300.366	83.88
300.597	99.88
300.827	84.88
301.057	77.88
301.288	77.88
301.518	81.88
301.748	82.88
301.979	72.88
302.209	78.88
302.439	83.88
302.669	80.88
302.9	78.88
303.13	88.88
303.36	82.88
303.59	81.88
303.82	74.88
304.051	102.88
304.281	84.88
304.511	88.88
304.741	78.88
304.971	77.88
305.201	87.88
305.431	72.88
305.661	89.88
305.891	86.88
306.121	99.88
306.352	79.88
306.582	90.88
306.812	92.88
307.042	78.88
307.272	73.88
307.502	81.88
307.731	89.88
307.961	98.88
308.191	90.88
308.421	86.88
308.651	89.88
308.881	98.88
309.111	79.88
309.341	88.88
309.571	73.88
309.8	83.88
310.03	95.88
310.26	88.88
310.49	82.88
310.72	68.88
310.949	79.88
311.179	73.88
311.409	77.88
311.639	77.88
311.868	80.88
312.098	102.88
312.328	85.88
312.557	88.88
312.787	97.88
313.017	74.88
313.246	71.88
313.476	88.88
313.706	85.88
313.935	89.88
314.165	88.88
314.394	83.88
314.624	94.88
314.853	76.88
315.083	84.88
315.312	76.88
315.542	70.88
315.771	83.88
316.001	79.88
316.23	82.88
316.46	85.88
316.689	79.88
316.919	88.88
317.148	83.88
317.377	77.88
317.607	70.88
317.836	82.88
318.065	85.88
318.295	76.88
318.524	72.88
318.753	77.88
318.983	90.88
319.212	80.88
319.441	96.88
319.67	88.88
319.9	77.88
320.129	86.88
320.358	69.88
320.587	83.88
320.816	98.88
321.046	87.88
321.275	106.88
321.504	86.88
321.733	84.88
321.962	83.88
322.191	90.88
322.42	81.88
322.649	93.88
322.878	92.88
323.108	78.88
323.337	92.88
323.566	69.88
323.795	75.88
324.024	76.88
324.253	90.88
324.482	83.88
324.71	92.88
324.939	97.88
325.168	83.88
325.397	76.88
325.626	83.88
325.855	75.88
326.084	74.88
326.313	81.88
326.542	80.88
326.77	96.88
326.999	77.88
327.228	79.88
327.457	99.88
327.686	80.88
327.914	93.88
328.143	87.88
328.372	81.88
328.6	87.88
328.829	78.88
329.058	77.88
329.287	100.88
329.515	79.88
329.744	89.88
329.972	99.88
330.201	80.88
330.43	76.88
330.658	74.88
330.887	75.88
331.115	86.88
331.344	98.88
331.572	94.88
331.801	87.88
332.03	85.88
332.258	90.88
332.486	82.88
332.715	75.88
332.943	74.88
333.172	90.88
333.4	80.88
333.629	87.88
333.857	83.88
334.085	84.88
334.314	97.88
334.542	78.88
334.771	83.88
334.999	83.88
335.227	77.88
335.455	81.88
335.684	76.88
335.912	81.88
336.14	97.88
336.369	90.88
336.597	80.88
336.825	90.88
337.053	79.88
337.281	72.88
337.51	82.88
337.738	87.88
337.966	74.88
338.194	76.88
338.422	85.88
338.65	91.88
338.878	98.88
339.106	78.88
339.334	66.88
339.562	85.88
339.79	77.88
340.018	64.88
340.246	72.88
340.474	77.88
340.702	83.88
340.93	79.88
341.158	95.88
341.386	83.88
341.614	92.88
341.842	83.88
342.07	85.88
342.298	92.88
342.526	90.88
342.754	95.88
342.981	90.88
343.209	83.88
343.437	75.88
343.665	77.88
343.893	85.88
344.12	79.88
344.348	83.88
344.576	92.88
344.804	76.88
345.031	78.88
345.259	90.88
345.487	79.88
345.714	89.88
345.942	96.88
346.17	82.88
346.397	85.88
346.625	79.88
346.853	81.88
347.08	97.88
347.308	90.88
347.535	98.88
347.763	88.88
347.99	83.88
348.218	68.88
348.445	69.88
348.673	87.88
348.9	76.88
349.128	84.88
349.355	90.88
349.583	88.88
349.81	73.88
350.037	74.88
350.265	91.88
350.492	88.88
350.72	94.88
350.947	79.88
351.174	82.88
351.402	91.88
351.629	80.88
351.856	83.88
352.083	89.88
352.311	77.88
352.538	66.88
352.765	85.88
352.992	73.88
353.22	92.88
353.447	100.88
353.674	86.88
353.901	94.88
354.128	80.88
354.355	75.88
354.583	90.88
354.81	90.88
355.037	79.88
355.264	81.88
355.491	85.88
355.718	96.88
355.945	74.88
356.172	68.88
356.399	91.88
356.626	85.88
356.853	90.88
357.08	84.88
357.307	84.88
357.534	94.88
357.761	92.88
357.988	73.88
358.215	85.88
358.441	86.88
358.668	83.88
358.895	95.88
359.122	81.88
359.349	80.88
359.576	86.88
359.802	82.88
360.029	89.88
360.256	80.88
360.483	81.88
360.709	77.88
360.936	82.88
361.163	86.88
361.39	85.88
361.616	82.88
361.843	79.88
362.07	95.88
362.296	86.88
362.523	81.88
362.749	72.88
362.976	85.88
363.203	90.88
363.429	82.88
363.656	85.88
363.882	83.88
364.109	86.88
364.335	86.88
364.562	87.88
364.788	94.88
365.015	92.88
365.241	82.88
365.468	90.88
365.694	82.88
365.92	86.88
366.147	80.88
366.373	75.88
366.599	84.88
366.826	80.88
367.052	86.88
367.278	93.88
367.505	85.88
367.731	85.88
367.957	76.88
368.184	98.88
368.41	68.88
368.636	82.88
368.862	83.88
369.089	76.88
369.315	84.88
369.541	85.88
369.767	76.88
369.993	75.88
370.219	76.88
370.445	79.88
370.672	82.88
370.898	76.88
371.124	89.88
371.35	90.88
371.576	82.88
371.802	101.88
372.028	75.88
372.254	87.88
372.48	84.88
372.706	94.88
372.932	78.88
373.158	95.88
373.384	82.88
373.61	88.88
373.835	85.88
374.061	98.88
374.287	77.88
374.513	76.88
374.739	83.88
374.965	75.88
375.191	86.88
375.416	91.88
375.642	79.88
375.868	84.88
376.094	83.88
376.319	78.88
376.545	89.88
376.771	90.88
376.997	84.88
377.222	90.88
377.448	80.88
377.674	79.88
377.899	79.88
378.125	101.88
378.35	62.88
378.576	79.88
378.802	95.88
379.027	87.88
379.253	101.88
379.478	79.88
379.704	79.88
379.929	82.88
380.155	76.88
380.38	77.88
380.606	89.88
380.831	85.88
381.057	96.88
381.282	77.88
381.507	90.88
381.733	78.88
381.958	82.88
382.184	76.88
382.409	67.88
382.634	96.88
382.86	86.88
383.085	93.88
383.31	81.88
383.535	92.88
383.761	88.88
383.986	92.88
384.211	73.88
384.436	94.88
384.662	98.88
384.887	73.88
385.112	81.88
385.337	77.88
385.562	68.88
385.787	90.88
386.013	83.88
386.238	75.88
386.463	85.88
386.688	74.88
386.913	71.88
387.138	87.88
387.363	87.88
387.588	77.88
387.813	87.88
388.038	94.88
388.263	74.88
388.488	84.88
388.713	87.88
388.938	91.88
389.163	78.88
389.387	88.88
389.612	74.88
389.837	93.88
390.062	80.88
390.287	79.88
390.512	84.88
390.736	81.88
390.961	83.88
391.186	80.88
391.411	100.88
391.636	82.88
391.86	71.88
392.085	89.88
392.31	94.88
392.534	93.88
392.759	80.88
392.984	88.88
393.208	93.88
393.433	86.88
393.658	89.88
393.882	87.88
394.107	87.88
394.331	99.88
394.556	98.88
394.78	90.88
395.005	74.88
395.229	75.88
395.454	78.88
395.678	76.88
395.903	82.88
396.127	90.88
396.352	86.88
396.576	85.88
396.801	93.88
397.025	82.88
397.249	91.88
397.474	85.88
397.698	99.88
397.922	93.88
398.147	102.88
398.371	92.88
398.595	83.88
398.82	78.88
399.044	86.88
399.268	90.88
399.492	98.88
399.717	96.88
399.941	69.88
400.165	77.88
400.389	88.88
400.613	91.88
400.837	76.88
401.062	82.88
401.286	80.88
401.51	94.88
401.734	83.88
401.958	90.88
402.182	89.88
402.406	98.88
402.63	77.88
402.854	72.88
403.078	74.88
403.302	91.88
403.526	78.88
403.75	93.88
403.974	94.88
404.198	76.88
404.422	86.88
404.645	94.88
404.869	77.88
405.093	74.88
405.317	98.88
405.541	82.88
405.765	97.88
405.988	86.88
406.212	97.88
406.436	88.88
406.66	89.88
406.883	76.88
407.107	74.88
407.331	84.88
407.555	90.88
407.778	84.88
408.002	87.88
408.226	81.88
408.449	85.88
408.673	79.88
408.896	82.88
409.12	74.88
409.344	97.88
409.567	79.88
409.791	92.88
410.014	91.88
410.238	81.88
410.461	73.88
410.685	92.88
410.908	99.88
411.132	95.88
411.355	90.88
411.578	76.88
411.802	93.88
412.025	83.88
412.249	67.88
412.472	85.88
412.695	84.88
412.919	96.88
413.142	89.88
413.365	75.88
413.589	80.88
413.812	79.88
414.035	77.88
414.258	85.88
414.482	86.88
414.705	76.88
414.928	85.88
415.151	94.88
415.374	92.88
415.597	84.88
415.821	90.88
416.044	97.88
416.267	75.88
416.49	91.88
416.713	100.88
416.936	86.88
417.159	96.88
417.382	101.88
417.605	83.88
417.828	89.88
418.051	90.88
418.274	86.88
418.497	91.88
418.72	81.88
418.943	90.88
419.166	89.88
419.389	92.88
419.611	82.88
419.834	84.88
420.057	81.88
420.28	76.88
420.503	88.88
420.726	93.88
420.948	94.88
421.171	103.88
421.394	94.88
421.617	78.88
421.839	81.88
422.062	84.88
422.285	94.88
422.507	85.88
422.73	90.88
422.953	106.88
423.175	87.88
423.398	89.88
423.621	97.88
423.843	83.88
424.066	88.88
424.288	92.88
424.511	88.88
424.733	99.88
424.956	104.88
425.178	115.88
425.401	95.88
425.623	75.88
425.846	87.88
426.068	80.88
426.291	94.88
426.513	86.88
426.735	87.88
426.958	93.88
427.18	75.88
427.402	96.88
427.625	79.88
427.847	90.88
428.069	87.88
428.292	80.88
428.514	86.88
428.736	99.88
428.958	92.88
429.181	76.88
429.403	95.88
429.625	91.88
429.847	76.88
430.069	99.88
430.292	96.88
430.514	85.88
430.736	89.88
430.958	98.88
431.18	91.88
431.402	88.88
431.624	84.88
431.846	86.88
432.068	92.88
432.29	85.88
432.512	85.88
432.734	87.88
432.956	95.88
433.178	90.88
433.4	82.88
433.622	90.88
433.844	97.88
434.066	83.88
434.287	81.88
434.509	79.88
434.731	79.88
434.953	94.88
435.175	96.88
435.397	90.88
435.618	85.88
435.84	81.88
436.062	85.88
436.284	89.88
436.505	102.88
436.727	98.88
436.949	86.88
437.17	90.88
437.392	80.88
437.614	78.88
437.835	85.88
438.057	86.88
438.278	94.88
438.5	86.88
438.721	77.88
438.943	87.88
439.165	77.88
439.386	88.88
439.608	93.88
439.829	86.88
440.05	92.88
440.272	84.88
440.493	89.88
440.715	82.88
440.936	89.88
441.158	104.88
441.379	80.88
441.6	91.88
441.822	102.88
442.043	95.88
442.264	94.88
442.486	90.88
442.707	77.88
442.928	97.88
443.149	101.88
443.371	93.88
443.592	85.88
443.813	103.88
444.034	83.88
444.255	81.88
444.476	92.88
444.698	82.88
444.919	89.88
445.14	203.88
445.361	138.88
445.582	92.88
445.803	79.88
446.024	99.88
446.245	100.88
446.466	77.88
446.687	93.88
446.908	83.88
447.129	90.88
447.35	91.88
447.571	97.88
447.792	85.88
448.013	104.88
448.234	79.88
448.455	94.88
448.675	107.88
448.896	90.88
449.117	94.88
449.338	85.88
449.559	91.88
449.779	98.88
450	94.88
450.221	92.88
450.442	73.88
450.662	81.88
450.883	98.88
451.104	103.88
451.324	85.88
451.545	97.88
451.766	93.88
451.986	87.88
452.207	88.88
452.428	79.88
452.648	61.88
452.869	110.88
453.089	90.88
453.31	93.88
453.53	95.88
453.751	80.88
453.971	87.88
454.192	90.88
454.412	91.88
454.633	85.88
454.853	100.88
455.073	90.88
455.294	93.88
455.514	92.88
455.734	90.88
455.955	86.88
456.175	87.88
456.395	95.88
456.616	80.88
456.836	82.88
457.056	89.88
457.276	80.88
457.497	85.88
457.717	88.88
457.937	94.88
458.157	86.88
458.377	83.88
458.598	77.88
458.818	81.88
459.038	79.88
459.258	87.88
459.478	75.88
459.698	76.88
459.918	86.88
460.138	69.88
460.358	89.88
460.578	78.88
460.798	89.88
461.018	76.88
461.238	95.88
461.458	103.88
461.678	79.88
461.898	82.88
462.118	90.88
462.338	95.88
462.558	78.88
462.777	97.88
462.997	91.88
463.217	85.88
463.437	75.88
463.657	88.88
463.876	80.88
464.096	76.88
464.316	91.88
464.536	88.88
464.755	95.88
464.975	97.88
465.195	94.88
465.414	95.88
465.634	82.88
465.854	86.88
466.073	97.88
466.293	91.88
466.512	81.88
466.732	89.88
466.951	96.88
467.171	80.88
467.391	88.88
467.61	91.88
467.829	88.88
468.049	104.88
468.268	81.88
468.488	103.88
468.707	86.88
468.927	88.88
469.146	76.88
469.365	88.88
469.585	82.88
469.804	85.88
470.023	78.88
470.243	87.88
470.462	99.88
470.681	105.88
470.901	100.88
471.12	96.88
471.339	82.88
471.558	91.88
471.777	98.88
471.997	89.88
472.216	80.88
472.435	97.88
472.654	93.88
472.873	104.88
473.092	81.88
473.311	93.88
473.53	105.88
473.749	81.88
473.968	96.88
474.187	92.88
474.406	82.88
474.625	93.88
474.844	96.88
475.063	83.88
475.282	85.88
475.501	94.88
475.72	88.88
475.939	102.88
476.158	87.88
476.377	90.88
476.596	86.88
476.814	83.88
477.033	81.88
477.252	100.88
477.471	95.88
477.69	91.88
477.908	90.88
478.127	87.88
478.346	82.88
478.564	102.88
478.783	91.88
479.002	93.88
479.22	86.88
479.439	75.88
479.658	87.88
479.876	82.88
480.095	98.88
480.313	89.88
480.532	86.88
480.751	86.88
480.969	70.88
481.188	84.88
481.406	85.88
481.624	75.88
481.843	90.88
482.061	85.88
482.28	84.88
482.498	82.88
482.717	80.88
482.935	89.88
483.153	84.88
483.372	93.88
483.59	98.88
483.808	83.88
484.027	90.88
484.245	101.88
484.463	84.88
484.681	91.88
484.9	79.88
485.118	94.88
485.336	90.88
485.554	84.88
485.772	74.88
485.99	93.88
486.209	89.88
486.427	89.88
486.645	85.88
486.863	77.88
487.081	110.88
487.299	88.88
487.517	79.88
487.735	93.88
487.953	101.88
488.171	91.88
488.389	85.88
488.607	99.88
488.825	91.88
489.043	85.88
489.261	85.88
489.479	77.88
489.696	88.88
489.914	97.88
490.132	89.88
490.35	85.88
490.568	102.88
490.786	94.88
491.003	99.88
491.221	102.88
491.439	100.88
491.657	105.88
491.874	100.88
492.092	85.88
492.31	114.88
492.527	115.88
492.745	108.88
492.963	104.88
493.18	105.88
493.398	99.88
493.615	93.88
493.833	105.88
494.05	101.88
494.268	89.88
494.485	101.88
494.703	80.88
494.92	101.88
495.138	104.88
495.355	99.88
495.573	98.88
495.79	91.88
496.008	110.88
496.225	99.88
496.442	99.88
496.66	98.88
496.877	94.88
497.094	102.88
497.312	78.88
497.529	90.88
497.746	83.88
497.963	83.88
498.181	94.88
498.398	97.88
498.615	80.88
498.832	98.88
499.049	101.88
499.267	83.88
499.484	88.88
499.701	99.88
499.918	91.88
500.135	93.88
500.352	95.88
500.569	91.88
500.786	99.88
501.003	95.88
501.22	87.88
501.437	94.88
501.654	112.88
501.871	106.88
502.088	100.88
502.305	88.88
502.522	95.88
502.739	102.88
502.956	85.88
503.172	85.88
503.389	78.88
503.606	91.88
503.823	83.88
504.04	85.88
504.256	85.88
504.473	98.88
504.69	94.88
504.907	101.88
505.123	88.88
505.34	90.88
505.557	91.88
505.773	93.88
505.99	93.88
506.207	81.88
506.423	96.88
506.64	93.88
506.856	83.88
507.073	83.88
507.289	106.88
507.506	91.88
507.722	91.88
507.939	87.88
508.155	87.88
508.372	88.88
508.588	86.88
508.805	88.88
509.021	99.88
509.238	87.88
509.454	92.88
509.67	98.88
509.887	83.88
510.103	83.88
510.319	99.88
510.536	85.88
510.752	76.88
510.968	82.88
511.184	82.88
511.401	81.88
511.617	85.88
511.833	73.88
512.049	90.88
512.265	79.88
512.481	99.88
512.698	85.88
512.914	81.88
513.13	74.88
513.346	79.88
513.562	73.88
513.778	85.88
513.994	75.88
514.21	94.88
514.426	89.88
514.642	90.88
514.858	80.88
515.074	96.88
515.29	99.88
515.506	75.88
515.721	69.88
515.937	88.88
516.153	76.88
516.369	95.88
516.585	87.88
516.801	98.88
517.016	78.88
517.232	78.88
517.448	82.88
517.664	79.88
517.879	95.88
518.095	85.88
518.311	66.88
518.527	83.88
