Data from Zn(NO3)2Standard.Agarose3%.GreenCap.LampEnergy10E.O_HRD10591_15-08-32-949.txt Node
Date: Mon Jul 22 15:08:32 EDT 2019
User: cochatt
Spectrometer: HR+D1059
Trigger mode: 1
Integration Time (sec): 1.000000E-1
Scans to average: 1
Electric dark correction enabled: true
Nonlinearity correction enabled: false
Boxcar width: 0
XAxis mode: Wavelengths
Number of Pixels in Spectrum: 2048
>>>>>Begin Spectral Data<<<<<
223.165	-13.81
223.4	-13.81
223.635	-13.81
223.869	-6.81
224.104	-20.81
224.338	-19.81
224.573	-9.81
224.808	-14.81
225.042	-7.81
225.277	-14.81
225.511	1.19
225.746	-3.81
225.98	6.19
226.215	5.19
226.449	25.19
226.683	20.19
226.918	22.19
227.152	32.19
227.387	37.19
227.621	45.19
227.856	41.19
228.09	38.19
228.324	49.19
228.559	63.19
228.793	59.19
229.027	76.19
229.262	71.19
229.496	78.19
229.73	76.19
229.964	66.19
230.199	69.19
230.433	71.19
230.667	85.19
230.901	71.19
231.136	72.19
231.37	83.19
231.604	95.19
231.838	76.19
232.072	75.19
232.306	88.19
232.541	83.19
232.775	83.19
233.009	82.19
233.243	88.19
233.477	75.19
233.711	88.19
233.945	69.19
234.179	77.19
234.413	86.19
234.647	84.19
234.881	75.19
235.115	77.19
235.349	86.19
235.583	81.19
235.817	88.19
236.051	80.19
236.285	79.19
236.519	89.19
236.753	75.19
236.987	71.19
237.221	65.19
237.455	63.19
237.689	80.19
237.922	71.19
238.156	77.19
238.39	72.19
238.624	73.19
238.858	67.19
239.091	85.19
239.325	78.19
239.559	90.19
239.793	79.19
240.027	80.19
240.26	65.19
240.494	66.19
240.728	68.19
240.961	69.19
241.195	61.19
241.429	80.19
241.662	74.19
241.896	78.19
242.13	72.19
242.363	86.19
242.597	79.19
242.83	93.19
243.064	63.19
243.298	74.19
243.531	80.19
243.765	72.19
243.998	73.19
244.232	82.19
244.465	72.19
244.699	77.19
244.932	77.19
245.166	90.19
245.399	84.19
245.633	76.19
245.866	80.19
246.099	95.19
246.333	65.19
246.566	89.19
246.8	73.19
247.033	89.19
247.266	84.19
247.5	86.19
247.733	73.19
247.966	84.19
248.2	73.19
248.433	76.19
248.666	72.19
248.899	78.19
249.133	84.19
249.366	77.19
249.599	85.19
249.832	81.19
250.066	79.19
250.299	86.19
250.532	85.19
250.765	82.19
250.998	82.19
251.231	85.19
251.465	85.19
251.698	79.19
251.931	70.19
252.164	85.19
252.397	79.19
252.63	92.19
252.863	86.19
253.096	59.19
253.329	70.19
253.562	75.19
253.795	79.19
254.028	81.19
254.261	83.19
254.494	77.19
254.727	97.19
254.96	89.19
255.193	75.19
255.426	75.19
255.659	88.19
255.892	81.19
256.124	82.19
256.357	77.19
256.59	82.19
256.823	80.19
257.056	99.19
257.289	89.19
257.521	78.19
257.754	88.19
257.987	59.19
258.22	81.19
258.452	84.19
258.685	85.19
258.918	85.19
259.151	77.19
259.383	70.19
259.616	73.19
259.849	78.19
260.081	69.19
260.314	78.19
260.547	83.19
260.779	74.19
261.012	88.19
261.244	91.19
261.477	88.19
261.71	83.19
261.942	82.19
262.175	78.19
262.407	77.19
262.64	88.19
262.872	70.19
263.105	77.19
263.337	69.19
263.57	82.19
263.802	85.19
264.035	75.19
264.267	60.19
264.499	84.19
264.732	79.19
264.964	90.19
265.197	83.19
265.429	96.19
265.661	91.19
265.894	87.19
266.126	89.19
266.358	89.19
266.591	94.19
266.823	68.19
267.055	80.19
267.287	76.19
267.52	84.19
267.752	78.19
267.984	87.19
268.216	75.19
268.448	83.19
268.681	65.19
268.913	91.19
269.145	86.19
269.377	85.19
269.609	91.19
269.841	84.19
270.073	85.19
270.306	90.19
270.538	84.19
270.77	80.19
271.002	78.19
271.234	85.19
271.466	79.19
271.698	72.19
271.93	84.19
272.162	82.19
272.394	92.19
272.626	76.19
272.858	81.19
273.09	96.19
273.322	85.19
273.553	101.19
273.785	79.19
274.017	77.19
274.249	99.19
274.481	92.19
274.713	81.19
274.945	72.19
275.176	79.19
275.408	86.19
275.64	83.19
275.872	83.19
276.104	80.19
276.335	75.19
276.567	84.19
276.799	75.19
277.031	77.19
277.262	82.19
277.494	88.19
277.726	80.19
277.957	100.19
278.189	86.19
278.421	79.19
278.652	88.19
278.884	90.19
279.115	90.19
279.347	77.19
279.579	80.19
279.81	82.19
280.042	82.19
280.273	90.19
280.505	85.19
280.736	82.19
280.968	82.19
281.199	82.19
281.431	77.19
281.662	71.19
281.894	78.19
282.125	98.19
282.356	107.19
282.588	90.19
282.819	88.19
283.051	91.19
283.282	91.19
283.513	87.19
283.745	90.19
283.976	84.19
284.207	77.19
284.439	82.19
284.67	75.19
284.901	82.19
285.132	91.19
285.364	88.19
285.595	87.19
285.826	62.19
286.057	84.19
286.288	87.19
286.52	81.19
286.751	82.19
286.982	77.19
287.213	74.19
287.444	88.19
287.675	82.19
287.906	89.19
288.138	90.19
288.369	83.19
288.6	87.19
288.831	80.19
289.062	90.19
289.293	78.19
289.524	86.19
289.755	87.19
289.986	89.19
290.217	89.19
290.448	78.19
290.679	77.19
290.91	78.19
291.141	76.19
291.371	86.19
291.602	80.19
291.833	105.19
292.064	88.19
292.295	74.19
292.526	82.19
292.757	81.19
292.987	88.19
293.218	82.19
293.449	97.19
293.68	95.19
293.91	93.19
294.141	90.19
294.372	63.19
294.603	92.19
294.833	87.19
295.064	80.19
295.295	85.19
295.525	84.19
295.756	93.19
295.987	82.19
296.217	87.19
296.448	77.19
296.679	82.19
296.909	79.19
297.14	98.19
297.37	78.19
297.601	88.19
297.831	71.19
298.062	93.19
298.292	83.19
298.523	80.19
298.753	84.19
298.984	87.19
299.214	88.19
299.445	89.19
299.675	77.19
299.905	94.19
300.136	89.19
300.366	82.19
300.597	74.19
300.827	82.19
301.057	89.19
301.288	92.19
301.518	76.19
301.748	90.19
301.979	78.19
302.209	87.19
302.439	88.19
302.669	85.19
302.9	91.19
303.13	84.19
303.36	74.19
303.59	102.19
303.82	82.19
304.051	84.19
304.281	83.19
304.511	90.19
304.741	90.19
304.971	84.19
305.201	81.19
305.431	84.19
305.661	93.19
305.891	87.19
306.121	85.19
306.352	76.19
306.582	80.19
306.812	96.19
307.042	84.19
307.272	77.19
307.502	81.19
307.731	82.19
307.961	89.19
308.191	90.19
308.421	79.19
308.651	65.19
308.881	88.19
309.111	86.19
309.341	106.19
309.571	82.19
309.8	72.19
310.03	81.19
310.26	78.19
310.49	77.19
310.72	70.19
310.949	79.19
311.179	80.19
311.409	79.19
311.639	81.19
311.868	81.19
312.098	91.19
312.328	86.19
312.557	86.19
312.787	75.19
313.017	90.19
313.246	90.19
313.476	87.19
313.706	75.19
313.935	72.19
314.165	80.19
314.394	78.19
314.624	87.19
314.853	96.19
315.083	72.19
315.312	76.19
315.542	88.19
315.771	89.19
316.001	79.19
316.23	81.19
316.46	76.19
316.689	83.19
316.919	83.19
317.148	89.19
317.377	89.19
317.607	93.19
317.836	84.19
318.065	89.19
318.295	74.19
318.524	75.19
318.753	79.19
318.983	87.19
319.212	89.19
319.441	83.19
319.67	93.19
319.9	76.19
320.129	78.19
320.358	85.19
320.587	89.19
320.816	81.19
321.046	94.19
321.275	93.19
321.504	92.19
321.733	69.19
321.962	88.19
322.191	83.19
322.42	86.19
322.649	95.19
322.878	84.19
323.108	93.19
323.337	69.19
323.566	82.19
323.795	90.19
324.024	98.19
324.253	81.19
324.482	88.19
324.71	90.19
324.939	82.19
325.168	91.19
325.397	69.19
325.626	97.19
325.855	91.19
326.084	77.19
326.313	85.19
326.542	79.19
326.77	76.19
326.999	84.19
327.228	89.19
327.457	84.19
327.686	93.19
327.914	98.19
328.143	90.19
328.372	78.19
328.6	94.19
328.829	78.19
329.058	99.19
329.287	79.19
329.515	83.19
329.744	86.19
329.972	96.19
330.201	93.19
330.43	83.19
330.658	97.19
330.887	92.19
331.115	82.19
331.344	92.19
331.572	74.19
331.801	82.19
332.03	95.19
332.258	80.19
332.486	78.19
332.715	89.19
332.943	77.19
333.172	92.19
333.4	71.19
333.629	60.19
333.857	84.19
334.085	85.19
334.314	85.19
334.542	68.19
334.771	77.19
334.999	82.19
335.227	80.19
335.455	78.19
335.684	82.19
335.912	82.19
336.14	78.19
336.369	70.19
336.597	90.19
336.825	82.19
337.053	89.19
337.281	82.19
337.51	97.19
337.738	96.19
337.966	62.19
338.194	84.19
338.422	68.19
338.65	81.19
338.878	85.19
339.106	94.19
339.334	76.19
339.562	78.19
339.79	84.19
340.018	79.19
340.246	75.19
340.474	91.19
340.702	83.19
340.93	74.19
341.158	80.19
341.386	88.19
341.614	74.19
341.842	97.19
342.07	96.19
342.298	94.19
342.526	89.19
342.754	86.19
342.981	83.19
343.209	91.19
343.437	88.19
343.665	96.19
343.893	70.19
344.12	82.19
344.348	72.19
344.576	75.19
344.804	80.19
345.031	78.19
345.259	93.19
345.487	76.19
345.714	75.19
345.942	86.19
346.17	91.19
346.397	80.19
346.625	87.19
346.853	82.19
347.08	92.19
347.308	77.19
347.535	73.19
347.763	85.19
347.99	71.19
348.218	87.19
348.445	88.19
348.673	80.19
348.9	83.19
349.128	80.19
349.355	93.19
349.583	75.19
349.81	70.19
350.037	76.19
350.265	87.19
350.492	80.19
350.72	88.19
350.947	88.19
351.174	83.19
351.402	88.19
351.629	94.19
351.856	84.19
352.083	99.19
352.311	86.19
352.538	93.19
352.765	91.19
352.992	89.19
353.22	93.19
353.447	86.19
353.674	87.19
353.901	87.19
354.128	81.19
354.355	74.19
354.583	76.19
354.81	74.19
355.037	93.19
355.264	88.19
355.491	77.19
355.718	81.19
355.945	76.19
356.172	89.19
356.399	77.19
356.626	79.19
356.853	76.19
357.08	94.19
357.307	83.19
357.534	91.19
357.761	82.19
357.988	76.19
358.215	77.19
358.441	81.19
358.668	89.19
358.895	84.19
359.122	91.19
359.349	82.19
359.576	78.19
359.802	76.19
360.029	85.19
360.256	84.19
360.483	94.19
360.709	81.19
360.936	88.19
361.163	98.19
361.39	79.19
361.616	82.19
361.843	93.19
362.07	71.19
362.296	73.19
362.523	66.19
362.749	75.19
362.976	80.19
363.203	96.19
363.429	86.19
363.656	106.19
363.882	86.19
364.109	73.19
364.335	81.19
364.562	72.19
364.788	91.19
365.015	87.19
365.241	70.19
365.468	92.19
365.694	84.19
365.92	78.19
366.147	86.19
366.373	92.19
366.599	92.19
366.826	90.19
367.052	81.19
367.278	82.19
367.505	89.19
367.731	75.19
367.957	92.19
368.184	82.19
368.41	88.19
368.636	93.19
368.862	94.19
369.089	101.19
369.315	89.19
369.541	84.19
369.767	80.19
369.993	89.19
370.219	74.19
370.445	84.19
370.672	91.19
370.898	85.19
371.124	85.19
371.35	93.19
371.576	98.19
371.802	99.19
372.028	82.19
372.254	72.19
372.48	86.19
372.706	96.19
372.932	104.19
373.158	83.19
373.384	99.19
373.61	84.19
373.835	91.19
374.061	87.19
374.287	82.19
374.513	91.19
374.739	88.19
374.965	82.19
375.191	77.19
375.416	88.19
375.642	85.19
375.868	88.19
376.094	84.19
376.319	69.19
376.545	81.19
376.771	87.19
376.997	96.19
377.222	90.19
377.448	71.19
377.674	76.19
377.899	90.19
378.125	100.19
378.35	94.19
378.576	97.19
378.802	86.19
379.027	105.19
379.253	84.19
379.478	90.19
379.704	87.19
379.929	84.19
380.155	86.19
380.38	92.19
380.606	96.19
380.831	82.19
381.057	92.19
381.282	87.19
381.507	99.19
381.733	81.19
381.958	77.19
382.184	90.19
382.409	79.19
382.634	98.19
382.86	85.19
383.085	100.19
383.31	82.19
383.535	83.19
383.761	96.19
383.986	84.19
384.211	90.19
384.436	77.19
384.662	82.19
384.887	95.19
385.112	84.19
385.337	78.19
385.562	99.19
385.787	85.19
386.013	93.19
386.238	81.19
386.463	85.19
386.688	93.19
386.913	81.19
387.138	106.19
387.363	92.19
387.588	88.19
387.813	78.19
388.038	93.19
388.263	88.19
388.488	84.19
388.713	86.19
388.938	105.19
389.163	70.19
389.387	86.19
389.612	87.19
389.837	81.19
390.062	97.19
390.287	80.19
390.512	93.19
390.736	76.19
390.961	86.19
391.186	98.19
391.411	89.19
391.636	86.19
391.86	81.19
392.085	102.19
392.31	85.19
392.534	99.19
392.759	83.19
392.984	97.19
393.208	94.19
393.433	92.19
393.658	93.19
393.882	104.19
394.107	108.19
394.331	101.19
394.556	104.19
394.78	95.19
395.005	98.19
395.229	85.19
395.454	85.19
395.678	97.19
395.903	110.19
396.127	104.19
396.352	91.19
396.576	96.19
396.801	87.19
397.025	94.19
397.249	96.19
397.474	93.19
397.698	87.19
397.922	104.19
398.147	104.19
398.371	88.19
398.595	85.19
398.82	93.19
399.044	89.19
399.268	90.19
399.492	97.19
399.717	96.19
399.941	99.19
400.165	92.19
400.389	85.19
400.613	89.19
400.837	93.19
401.062	94.19
401.286	106.19
401.51	106.19
401.734	97.19
401.958	83.19
402.182	84.19
402.406	89.19
402.63	93.19
402.854	106.19
403.078	103.19
403.302	85.19
403.526	85.19
403.75	91.19
403.974	97.19
404.198	98.19
404.422	95.19
404.645	96.19
404.869	89.19
405.093	114.19
405.317	93.19
405.541	108.19
405.765	104.19
405.988	88.19
406.212	91.19
406.436	89.19
406.66	88.19
406.883	81.19
407.107	93.19
407.331	91.19
407.555	98.19
407.778	105.19
408.002	107.19
408.226	84.19
408.449	104.19
408.673	86.19
408.896	97.19
409.12	98.19
409.344	107.19
409.567	95.19
409.791	91.19
410.014	93.19
410.238	93.19
410.461	104.19
410.685	96.19
410.908	85.19
411.132	91.19
411.355	82.19
411.578	97.19
411.802	89.19
412.025	108.19
412.249	94.19
412.472	105.19
412.695	102.19
412.919	96.19
413.142	112.19
413.365	113.19
413.589	102.19
413.812	102.19
414.035	94.19
414.258	103.19
414.482	98.19
414.705	93.19
414.928	94.19
415.151	92.19
415.374	91.19
415.597	100.19
415.821	104.19
416.044	92.19
416.267	98.19
416.49	98.19
416.713	107.19
416.936	92.19
417.159	108.19
417.382	98.19
417.605	97.19
417.828	101.19
418.051	109.19
418.274	97.19
418.497	103.19
418.72	90.19
418.943	93.19
419.166	99.19
419.389	107.19
419.611	106.19
419.834	107.19
420.057	116.19
420.28	109.19
420.503	98.19
420.726	90.19
420.948	84.19
421.171	88.19
421.394	108.19
421.617	117.19
421.839	102.19
422.062	120.19
422.285	106.19
422.507	104.19
422.73	108.19
422.953	97.19
423.175	104.19
423.398	115.19
423.621	102.19
423.843	98.19
424.066	107.19
424.288	116.19
424.511	116.19
424.733	105.19
424.956	106.19
425.178	102.19
425.401	104.19
425.623	110.19
425.846	101.19
426.068	109.19
426.291	97.19
426.513	101.19
426.735	108.19
426.958	98.19
427.18	117.19
427.402	101.19
427.625	109.19
427.847	101.19
428.069	107.19
428.292	112.19
428.514	104.19
428.736	96.19
428.958	99.19
429.181	106.19
429.403	104.19
429.625	88.19
429.847	116.19
430.069	105.19
430.292	93.19
430.514	97.19
430.736	105.19
430.958	97.19
431.18	113.19
431.402	106.19
431.624	97.19
431.846	93.19
432.068	81.19
432.29	85.19
432.512	94.19
432.734	94.19
432.956	114.19
433.178	96.19
433.4	102.19
433.622	129.19
433.844	99.19
434.066	101.19
434.287	73.19
434.509	80.19
434.731	86.19
434.953	101.19
435.175	111.19
435.397	98.19
435.618	105.19
435.84	101.19
436.062	107.19
436.284	100.19
436.505	90.19
436.727	105.19
436.949	105.19
437.17	105.19
437.392	105.19
437.614	97.19
437.835	91.19
438.057	109.19
438.278	84.19
438.5	99.19
438.721	108.19
438.943	116.19
439.165	116.19
439.386	110.19
439.608	119.19
439.829	110.19
440.05	110.19
440.272	105.19
440.493	92.19
440.715	104.19
440.936	119.19
441.158	107.19
441.379	105.19
441.6	117.19
441.822	114.19
442.043	106.19
442.264	110.19
442.486	103.19
442.707	112.19
442.928	118.19
443.149	115.19
443.371	113.19
443.592	114.19
443.813	107.19
444.034	100.19
444.255	100.19
444.476	109.19
444.698	111.19
444.919	92.19
445.14	235.19
445.361	174.19
445.582	126.19
445.803	99.19
446.024	112.19
446.245	120.19
446.466	108.19
446.687	122.19
446.908	113.19
447.129	116.19
447.35	119.19
447.571	114.19
447.792	107.19
448.013	117.19
448.234	116.19
448.455	116.19
448.675	103.19
448.896	106.19
449.117	95.19
449.338	87.19
449.559	105.19
449.779	100.19
450	106.19
450.221	95.19
450.442	103.19
450.662	107.19
450.883	107.19
451.104	103.19
451.324	103.19
451.545	107.19
451.766	81.19
451.986	114.19
452.207	103.19
452.428	116.19
452.648	104.19
452.869	105.19
453.089	95.19
453.31	99.19
453.53	101.19
453.751	101.19
453.971	98.19
454.192	90.19
454.412	93.19
454.633	94.19
454.853	97.19
455.073	95.19
455.294	99.19
455.514	89.19
455.734	102.19
455.955	89.19
456.175	92.19
456.395	97.19
456.616	105.19
456.836	85.19
457.056	91.19
457.276	87.19
457.497	101.19
457.717	92.19
457.937	91.19
458.157	98.19
458.377	99.19
458.598	99.19
458.818	97.19
459.038	89.19
459.258	88.19
459.478	85.19
459.698	79.19
459.918	83.19
460.138	91.19
460.358	111.19
460.578	97.19
460.798	91.19
461.018	97.19
461.238	90.19
461.458	88.19
461.678	73.19
461.898	102.19
462.118	108.19
462.338	97.19
462.558	96.19
462.777	96.19
462.997	102.19
463.217	96.19
463.437	114.19
463.657	102.19
463.876	101.19
464.096	86.19
464.316	94.19
464.536	98.19
464.755	88.19
464.975	94.19
465.195	105.19
465.414	109.19
465.634	82.19
465.854	95.19
466.073	103.19
466.293	105.19
466.512	91.19
466.732	106.19
466.951	116.19
467.171	96.19
467.391	97.19
467.61	90.19
467.829	105.19
468.049	102.19
468.268	96.19
468.488	87.19
468.707	104.19
468.927	101.19
469.146	115.19
469.365	115.19
469.585	115.19
469.804	108.19
470.023	107.19
470.243	108.19
470.462	100.19
470.681	99.19
470.901	119.19
471.12	102.19
471.339	102.19
471.558	104.19
471.777	123.19
471.997	106.19
472.216	98.19
472.435	97.19
472.654	116.19
472.873	113.19
473.092	104.19
473.311	107.19
473.53	114.19
473.749	104.19
473.968	112.19
474.187	117.19
474.406	96.19
474.625	109.19
474.844	112.19
475.063	108.19
475.282	95.19
475.501	82.19
475.72	100.19
475.939	92.19
476.158	110.19
476.377	97.19
476.596	99.19
476.814	97.19
477.033	94.19
477.252	84.19
477.471	98.19
477.69	108.19
477.908	95.19
478.127	101.19
478.346	93.19
478.564	113.19
478.783	101.19
479.002	108.19
479.22	113.19
479.439	114.19
479.658	100.19
479.876	102.19
480.095	82.19
480.313	89.19
480.532	112.19
480.751	98.19
480.969	76.19
481.188	93.19
481.406	86.19
481.624	106.19
481.843	73.19
482.061	93.19
482.28	99.19
482.498	99.19
482.717	99.19
482.935	90.19
483.153	114.19
483.372	112.19
483.59	109.19
483.808	122.19
484.027	99.19
484.245	109.19
484.463	115.19
484.681	122.19
484.9	114.19
485.118	124.19
485.336	94.19
485.554	87.19
485.772	100.19
485.99	106.19
486.209	96.19
486.427	84.19
486.645	93.19
486.863	100.19
487.081	115.19
487.299	103.19
487.517	112.19
487.735	122.19
487.953	114.19
488.171	132.19
488.389	117.19
488.607	125.19
488.825	94.19
489.043	102.19
489.261	102.19
489.479	107.19
489.696	109.19
489.914	114.19
490.132	112.19
490.35	114.19
490.568	133.19
490.786	121.19
491.003	140.19
491.221	120.19
491.439	140.19
491.657	125.19
491.874	134.19
492.092	146.19
492.31	157.19
492.527	160.19
492.745	152.19
492.963	131.19
493.18	125.19
493.398	126.19
493.615	121.19
493.833	135.19
494.05	138.19
494.268	128.19
494.485	130.19
494.703	137.19
494.92	119.19
495.138	118.19
495.355	119.19
495.573	122.19
495.79	125.19
496.008	115.19
496.225	124.19
496.442	126.19
496.66	122.19
496.877	123.19
497.094	124.19
497.312	123.19
497.529	109.19
497.746	123.19
497.963	106.19
498.181	107.19
498.398	115.19
498.615	106.19
498.832	114.19
499.049	100.19
499.267	103.19
499.484	106.19
499.701	109.19
499.918	113.19
500.135	107.19
500.352	124.19
500.569	114.19
500.786	116.19
501.003	104.19
501.22	122.19
501.437	106.19
501.654	118.19
501.871	88.19
502.088	124.19
502.305	108.19
502.522	124.19
502.739	105.19
502.956	122.19
503.172	92.19
503.389	104.19
503.606	104.19
503.823	115.19
504.04	113.19
504.256	102.19
504.473	99.19
504.69	95.19
504.907	105.19
505.123	106.19
505.34	106.19
505.557	94.19
505.773	100.19
505.99	110.19
506.207	98.19
506.423	104.19
506.64	99.19
506.856	100.19
507.073	92.19
507.289	113.19
507.506	105.19
507.722	93.19
507.939	103.19
508.155	99.19
508.372	100.19
508.588	100.19
508.805	112.19
509.021	99.19
509.238	90.19
509.454	101.19
509.67	95.19
509.887	85.19
510.103	92.19
510.319	89.19
510.536	90.19
510.752	95.19
510.968	100.19
511.184	77.19
511.401	82.19
511.617	84.19
511.833	82.19
512.049	87.19
512.265	82.19
512.481	98.19
512.698	93.19
512.914	92.19
513.13	97.19
513.346	94.19
513.562	89.19
513.778	92.19
513.994	90.19
514.21	83.19
514.426	79.19
514.642	82.19
514.858	84.19
