Data from Zn(NO3)2Standard.Agarose3%.GreenCap.LampEnergy10E.O_HRD10591_15-08-21-948.txt Node
Date: Mon Jul 22 15:08:21 EDT 2019
User: cochatt
Spectrometer: HR+D1059
Trigger mode: 1
Integration Time (sec): 1.000000E-1
Scans to average: 1
Electric dark correction enabled: true
Nonlinearity correction enabled: false
Boxcar width: 0
XAxis mode: Wavelengths
Number of Pixels in Spectrum: 2048
>>>>>Begin Spectral Data<<<<<
223.165	-7.5
223.4	-7.5
223.635	-7.5
223.869	-24.5
224.104	-10.5
224.338	-15.5
224.573	-9.5
224.808	-16.5
225.042	-10.5
225.277	-9.5
225.511	-0.5
225.746	-7.5
225.98	9.5
226.215	12.5
226.449	9.5
226.683	20.5
226.918	20.5
227.152	39.5
227.387	22.5
227.621	35.5
227.856	34.5
228.09	34.5
228.324	43.5
228.559	51.5
228.793	60.5
229.027	75.5
229.262	71.5
229.496	55.5
229.73	66.5
229.964	75.5
230.199	64.5
230.433	82.5
230.667	74.5
230.901	62.5
231.136	75.5
231.37	69.5
231.604	76.5
231.838	69.5
232.072	82.5
232.306	80.5
232.541	69.5
232.775	80.5
233.009	83.5
233.243	68.5
233.477	82.5
233.711	70.5
233.945	78.5
234.179	75.5
234.413	74.5
234.647	81.5
234.881	83.5
235.115	60.5
235.349	61.5
235.583	91.5
235.817	88.5
236.051	74.5
236.285	64.5
236.519	76.5
236.753	75.5
236.987	75.5
237.221	89.5
237.455	65.5
237.689	73.5
237.922	66.5
238.156	65.5
238.39	71.5
238.624	87.5
238.858	68.5
239.091	81.5
239.325	63.5
239.559	75.5
239.793	57.5
240.027	68.5
240.26	71.5
240.494	71.5
240.728	88.5
240.961	79.5
241.195	77.5
241.429	71.5
241.662	76.5
241.896	62.5
242.13	86.5
242.363	73.5
242.597	77.5
242.83	73.5
243.064	69.5
243.298	78.5
243.531	82.5
243.765	72.5
243.998	72.5
244.232	81.5
244.465	87.5
244.699	72.5
244.932	81.5
245.166	92.5
245.399	77.5
245.633	91.5
245.866	75.5
246.099	72.5
246.333	64.5
246.566	68.5
246.8	69.5
247.033	65.5
247.266	77.5
247.5	73.5
247.733	74.5
247.966	81.5
248.2	73.5
248.433	70.5
248.666	78.5
248.899	87.5
249.133	82.5
249.366	74.5
249.599	76.5
249.832	80.5
250.066	83.5
250.299	62.5
250.532	82.5
250.765	65.5
250.998	87.5
251.231	84.5
251.465	91.5
251.698	76.5
251.931	83.5
252.164	86.5
252.397	73.5
252.63	78.5
252.863	72.5
253.096	75.5
253.329	74.5
253.562	86.5
253.795	78.5
254.028	74.5
254.261	79.5
254.494	62.5
254.727	77.5
254.96	81.5
255.193	85.5
255.426	87.5
255.659	89.5
255.892	79.5
256.124	83.5
256.357	72.5
256.59	75.5
256.823	84.5
257.056	80.5
257.289	73.5
257.521	85.5
257.754	80.5
257.987	73.5
258.22	64.5
258.452	76.5
258.685	73.5
258.918	82.5
259.151	69.5
259.383	65.5
259.616	81.5
259.849	84.5
260.081	82.5
260.314	75.5
260.547	78.5
260.779	77.5
261.012	87.5
261.244	79.5
261.477	74.5
261.71	92.5
261.942	89.5
262.175	86.5
262.407	66.5
262.64	77.5
262.872	78.5
263.105	93.5
263.337	80.5
263.57	86.5
263.802	78.5
264.035	94.5
264.267	99.5
264.499	82.5
264.732	79.5
264.964	71.5
265.197	85.5
265.429	81.5
265.661	75.5
265.894	75.5
266.126	82.5
266.358	92.5
266.591	87.5
266.823	94.5
267.055	73.5
267.287	71.5
267.52	86.5
267.752	84.5
267.984	90.5
268.216	79.5
268.448	85.5
268.681	80.5
268.913	92.5
269.145	83.5
269.377	89.5
269.609	74.5
269.841	92.5
270.073	65.5
270.306	80.5
270.538	67.5
270.77	66.5
271.002	80.5
271.234	86.5
271.466	71.5
271.698	67.5
271.93	74.5
272.162	86.5
272.394	72.5
272.626	81.5
272.858	77.5
273.09	78.5
273.322	74.5
273.553	91.5
273.785	91.5
274.017	87.5
274.249	86.5
274.481	89.5
274.713	83.5
274.945	75.5
275.176	76.5
275.408	80.5
275.64	83.5
275.872	90.5
276.104	96.5
276.335	82.5
276.567	81.5
276.799	96.5
277.031	92.5
277.262	89.5
277.494	92.5
277.726	83.5
277.957	75.5
278.189	80.5
278.421	77.5
278.652	96.5
278.884	88.5
279.115	70.5
279.347	70.5
279.579	79.5
279.81	81.5
280.042	92.5
280.273	83.5
280.505	85.5
280.736	92.5
280.968	79.5
281.199	80.5
281.431	80.5
281.662	78.5
281.894	86.5
282.125	87.5
282.356	81.5
282.588	76.5
282.819	72.5
283.051	89.5
283.282	77.5
283.513	84.5
283.745	80.5
283.976	76.5
284.207	87.5
284.439	88.5
284.67	87.5
284.901	87.5
285.132	89.5
285.364	80.5
285.595	81.5
285.826	80.5
286.057	82.5
286.288	87.5
286.52	85.5
286.751	79.5
286.982	83.5
287.213	87.5
287.444	88.5
287.675	89.5
287.906	72.5
288.138	80.5
288.369	87.5
288.6	72.5
288.831	78.5
289.062	89.5
289.293	83.5
289.524	67.5
289.755	96.5
289.986	89.5
290.217	73.5
290.448	74.5
290.679	83.5
290.91	88.5
291.141	76.5
291.371	82.5
291.602	76.5
291.833	89.5
292.064	82.5
292.295	83.5
292.526	66.5
292.757	82.5
292.987	89.5
293.218	80.5
293.449	87.5
293.68	86.5
293.91	67.5
294.141	85.5
294.372	92.5
294.603	86.5
294.833	87.5
295.064	85.5
295.295	84.5
295.525	76.5
295.756	85.5
295.987	79.5
296.217	79.5
296.448	81.5
296.679	75.5
296.909	84.5
297.14	82.5
297.37	88.5
297.601	94.5
297.831	80.5
298.062	90.5
298.292	98.5
298.523	94.5
298.753	93.5
298.984	83.5
299.214	88.5
299.445	78.5
299.675	85.5
299.905	96.5
300.136	90.5
300.366	85.5
300.597	76.5
300.827	82.5
301.057	68.5
301.288	81.5
301.518	87.5
301.748	74.5
301.979	80.5
302.209	80.5
302.439	73.5
302.669	85.5
302.9	94.5
303.13	86.5
303.36	80.5
303.59	76.5
303.82	73.5
304.051	86.5
304.281	82.5
304.511	87.5
304.741	78.5
304.971	77.5
305.201	98.5
305.431	91.5
305.661	88.5
305.891	73.5
306.121	82.5
306.352	93.5
306.582	76.5
306.812	89.5
307.042	101.5
307.272	80.5
307.502	96.5
307.731	89.5
307.961	74.5
308.191	88.5
308.421	80.5
308.651	90.5
308.881	98.5
309.111	82.5
309.341	80.5
309.571	73.5
309.8	76.5
310.03	90.5
310.26	88.5
310.49	87.5
310.72	79.5
310.949	81.5
311.179	88.5
311.409	78.5
311.639	82.5
311.868	89.5
312.098	85.5
312.328	71.5
312.557	85.5
312.787	75.5
313.017	81.5
313.246	89.5
313.476	89.5
313.706	84.5
313.935	84.5
314.165	77.5
314.394	90.5
314.624	80.5
314.853	78.5
315.083	82.5
315.312	82.5
315.542	93.5
315.771	76.5
316.001	79.5
316.23	87.5
316.46	90.5
316.689	94.5
316.919	85.5
317.148	90.5
317.377	88.5
317.607	76.5
317.836	73.5
318.065	81.5
318.295	92.5
318.524	89.5
318.753	88.5
318.983	89.5
319.212	87.5
319.441	90.5
319.67	77.5
319.9	87.5
320.129	72.5
320.358	98.5
320.587	83.5
320.816	79.5
321.046	78.5
321.275	99.5
321.504	88.5
321.733	88.5
321.962	89.5
322.191	84.5
322.42	92.5
322.649	92.5
322.878	84.5
323.108	77.5
323.337	75.5
323.566	93.5
323.795	78.5
324.024	83.5
324.253	73.5
324.482	89.5
324.71	91.5
324.939	94.5
325.168	85.5
325.397	86.5
325.626	81.5
325.855	81.5
326.084	66.5
326.313	90.5
326.542	83.5
326.77	96.5
326.999	90.5
327.228	81.5
327.457	87.5
327.686	74.5
327.914	88.5
328.143	80.5
328.372	81.5
328.6	75.5
328.829	66.5
329.058	91.5
329.287	76.5
329.515	78.5
329.744	99.5
329.972	85.5
330.201	78.5
330.43	83.5
330.658	86.5
330.887	84.5
331.115	78.5
331.344	86.5
331.572	85.5
331.801	95.5
332.03	89.5
332.258	83.5
332.486	86.5
332.715	83.5
332.943	80.5
333.172	74.5
333.4	98.5
333.629	96.5
333.857	82.5
334.085	80.5
334.314	88.5
334.542	82.5
334.771	89.5
334.999	87.5
335.227	96.5
335.455	83.5
335.684	90.5
335.912	89.5
336.14	86.5
336.369	80.5
336.597	82.5
336.825	78.5
337.053	83.5
337.281	90.5
337.51	81.5
337.738	86.5
337.966	84.5
338.194	71.5
338.422	75.5
338.65	86.5
338.878	79.5
339.106	88.5
339.334	95.5
339.562	79.5
339.79	75.5
340.018	96.5
340.246	82.5
340.474	76.5
340.702	87.5
340.93	64.5
341.158	86.5
341.386	66.5
341.614	84.5
341.842	102.5
342.07	99.5
342.298	87.5
342.526	79.5
342.754	90.5
342.981	85.5
343.209	67.5
343.437	86.5
343.665	80.5
343.893	87.5
344.12	78.5
344.348	82.5
344.576	88.5
344.804	83.5
345.031	78.5
345.259	88.5
345.487	83.5
345.714	82.5
345.942	82.5
346.17	88.5
346.397	70.5
346.625	75.5
346.853	79.5
347.08	85.5
347.308	80.5
347.535	88.5
347.763	69.5
347.99	91.5
348.218	77.5
348.445	84.5
348.673	82.5
348.9	68.5
349.128	81.5
349.355	82.5
349.583	82.5
349.81	85.5
350.037	82.5
350.265	86.5
350.492	71.5
350.72	81.5
350.947	79.5
351.174	74.5
351.402	85.5
351.629	85.5
351.856	75.5
352.083	71.5
352.311	84.5
352.538	84.5
352.765	88.5
352.992	80.5
353.22	87.5
353.447	90.5
353.674	77.5
353.901	87.5
354.128	79.5
354.355	80.5
354.583	79.5
354.81	75.5
355.037	79.5
355.264	82.5
355.491	90.5
355.718	88.5
355.945	83.5
356.172	76.5
356.399	83.5
356.626	93.5
356.853	94.5
357.08	90.5
357.307	77.5
357.534	96.5
357.761	92.5
357.988	85.5
358.215	99.5
358.441	77.5
358.668	76.5
358.895	87.5
359.122	90.5
359.349	75.5
359.576	83.5
359.802	87.5
360.029	78.5
360.256	71.5
360.483	85.5
360.709	80.5
360.936	84.5
361.163	74.5
361.39	77.5
361.616	82.5
361.843	81.5
362.07	74.5
362.296	80.5
362.523	80.5
362.749	88.5
362.976	80.5
363.203	84.5
363.429	75.5
363.656	78.5
363.882	80.5
364.109	71.5
364.335	87.5
364.562	87.5
364.788	84.5
365.015	79.5
365.241	86.5
365.468	83.5
365.694	82.5
365.92	92.5
366.147	94.5
366.373	86.5
366.599	90.5
366.826	83.5
367.052	75.5
367.278	81.5
367.505	88.5
367.731	82.5
367.957	76.5
368.184	81.5
368.41	80.5
368.636	83.5
368.862	91.5
369.089	96.5
369.315	92.5
369.541	89.5
369.767	89.5
369.993	96.5
370.219	72.5
370.445	80.5
370.672	84.5
370.898	86.5
371.124	83.5
371.35	78.5
371.576	98.5
371.802	76.5
372.028	90.5
372.254	72.5
372.48	90.5
372.706	84.5
372.932	90.5
373.158	83.5
373.384	87.5
373.61	80.5
373.835	91.5
374.061	74.5
374.287	85.5
374.513	83.5
374.739	89.5
374.965	81.5
375.191	82.5
375.416	87.5
375.642	92.5
375.868	110.5
376.094	95.5
376.319	69.5
376.545	82.5
376.771	74.5
376.997	86.5
377.222	92.5
377.448	84.5
377.674	74.5
377.899	84.5
378.125	90.5
378.35	81.5
378.576	91.5
378.802	91.5
379.027	91.5
379.253	91.5
379.478	94.5
379.704	90.5
379.929	88.5
380.155	90.5
380.38	74.5
380.606	74.5
380.831	79.5
381.057	80.5
381.282	84.5
381.507	74.5
381.733	90.5
381.958	85.5
382.184	90.5
382.409	85.5
382.634	81.5
382.86	73.5
383.085	99.5
383.31	94.5
383.535	79.5
383.761	89.5
383.986	97.5
384.211	85.5
384.436	66.5
384.662	81.5
384.887	87.5
385.112	94.5
385.337	88.5
385.562	83.5
385.787	75.5
386.013	96.5
386.238	90.5
386.463	88.5
386.688	99.5
386.913	94.5
387.138	94.5
387.363	74.5
387.588	99.5
387.813	97.5
388.038	105.5
388.263	98.5
388.488	69.5
388.713	71.5
388.938	87.5
389.163	97.5
389.387	89.5
389.612	101.5
389.837	86.5
390.062	87.5
390.287	90.5
390.512	99.5
390.736	85.5
390.961	93.5
391.186	84.5
391.411	96.5
391.636	90.5
391.86	103.5
392.085	103.5
392.31	88.5
392.534	104.5
392.759	98.5
392.984	102.5
393.208	82.5
393.433	101.5
393.658	83.5
393.882	98.5
394.107	88.5
394.331	89.5
394.556	96.5
394.78	93.5
395.005	90.5
395.229	95.5
395.454	96.5
395.678	86.5
395.903	83.5
396.127	107.5
396.352	118.5
396.576	96.5
396.801	94.5
397.025	103.5
397.249	86.5
397.474	88.5
397.698	89.5
397.922	94.5
398.147	96.5
398.371	88.5
398.595	91.5
398.82	90.5
399.044	100.5
399.268	91.5
399.492	90.5
399.717	104.5
399.941	103.5
400.165	88.5
400.389	94.5
400.613	101.5
400.837	98.5
401.062	88.5
401.286	95.5
401.51	96.5
401.734	91.5
401.958	108.5
402.182	98.5
402.406	115.5
402.63	92.5
402.854	91.5
403.078	99.5
403.302	97.5
403.526	86.5
403.75	91.5
403.974	102.5
404.198	95.5
404.422	89.5
404.645	89.5
404.869	76.5
405.093	96.5
405.317	93.5
405.541	99.5
405.765	84.5
405.988	99.5
406.212	93.5
406.436	103.5
406.66	101.5
406.883	107.5
407.107	98.5
407.331	92.5
407.555	96.5
407.778	106.5
408.002	103.5
408.226	118.5
408.449	98.5
408.673	106.5
408.896	94.5
409.12	114.5
409.344	98.5
409.567	105.5
409.791	100.5
410.014	102.5
410.238	99.5
410.461	94.5
410.685	94.5
410.908	92.5
411.132	114.5
411.355	107.5
411.578	111.5
411.802	98.5
412.025	112.5
412.249	99.5
412.472	97.5
412.695	102.5
412.919	101.5
413.142	98.5
413.365	95.5
413.589	94.5
413.812	104.5
414.035	95.5
414.258	100.5
414.482	117.5
414.705	96.5
414.928	98.5
415.151	93.5
415.374	107.5
415.597	106.5
415.821	102.5
416.044	92.5
416.267	99.5
416.49	103.5
416.713	92.5
416.936	103.5
417.159	91.5
417.382	90.5
417.605	92.5
417.828	85.5
418.051	111.5
418.274	108.5
418.497	95.5
418.72	101.5
418.943	95.5
419.166	106.5
419.389	102.5
419.611	83.5
419.834	107.5
420.057	100.5
420.28	103.5
420.503	99.5
420.726	119.5
420.948	104.5
421.171	122.5
421.394	112.5
421.617	93.5
421.839	95.5
422.062	117.5
422.285	115.5
422.507	98.5
422.73	104.5
422.953	84.5
423.175	97.5
423.398	99.5
423.621	104.5
423.843	103.5
424.066	91.5
424.288	100.5
424.511	100.5
424.733	117.5
424.956	97.5
425.178	112.5
425.401	96.5
425.623	122.5
425.846	106.5
426.068	122.5
426.291	121.5
426.513	118.5
426.735	96.5
426.958	103.5
427.18	104.5
427.402	107.5
427.625	114.5
427.847	96.5
428.069	104.5
428.292	100.5
428.514	96.5
428.736	103.5
428.958	83.5
429.181	92.5
429.403	105.5
429.625	101.5
429.847	111.5
430.069	105.5
430.292	104.5
430.514	107.5
430.736	110.5
430.958	90.5
431.18	96.5
431.402	113.5
431.624	107.5
431.846	92.5
432.068	100.5
432.29	79.5
432.512	87.5
432.734	103.5
432.956	110.5
433.178	101.5
433.4	122.5
433.622	111.5
433.844	110.5
434.066	111.5
434.287	88.5
434.509	76.5
434.731	90.5
434.953	90.5
435.175	93.5
435.397	101.5
435.618	97.5
435.84	99.5
436.062	99.5
436.284	106.5
436.505	100.5
436.727	114.5
436.949	100.5
437.17	102.5
437.392	113.5
437.614	110.5
437.835	97.5
438.057	82.5
438.278	94.5
438.5	102.5
438.721	94.5
438.943	117.5
439.165	107.5
439.386	114.5
439.608	95.5
439.829	105.5
440.05	108.5
440.272	103.5
440.493	110.5
440.715	106.5
440.936	106.5
441.158	116.5
441.379	124.5
441.6	116.5
441.822	102.5
442.043	99.5
442.264	107.5
442.486	99.5
442.707	100.5
442.928	111.5
443.149	99.5
443.371	108.5
443.592	97.5
443.813	111.5
444.034	101.5
444.255	116.5
444.476	110.5
444.698	107.5
444.919	104.5
445.14	185.5
445.361	159.5
445.582	122.5
445.803	104.5
446.024	122.5
446.245	114.5
446.466	107.5
446.687	109.5
446.908	122.5
447.129	105.5
447.35	116.5
447.571	113.5
447.792	119.5
448.013	104.5
448.234	98.5
448.455	109.5
448.675	110.5
448.896	98.5
449.117	99.5
449.338	115.5
449.559	106.5
449.779	109.5
450	100.5
450.221	103.5
450.442	102.5
450.662	103.5
450.883	102.5
451.104	105.5
451.324	104.5
451.545	116.5
451.766	102.5
451.986	103.5
452.207	96.5
452.428	122.5
452.648	94.5
452.869	99.5
453.089	90.5
453.31	88.5
453.53	97.5
453.751	89.5
453.971	88.5
454.192	97.5
454.412	86.5
454.633	75.5
454.853	89.5
455.073	105.5
455.294	102.5
455.514	105.5
455.734	88.5
455.955	99.5
456.175	104.5
456.395	100.5
456.616	90.5
456.836	92.5
457.056	100.5
457.276	91.5
457.497	87.5
457.717	92.5
457.937	97.5
458.157	87.5
458.377	87.5
458.598	88.5
458.818	84.5
459.038	81.5
459.258	80.5
459.478	92.5
459.698	97.5
459.918	82.5
460.138	90.5
460.358	97.5
460.578	96.5
460.798	105.5
461.018	102.5
461.238	82.5
461.458	103.5
461.678	92.5
461.898	96.5
462.118	95.5
462.338	95.5
462.558	111.5
462.777	90.5
462.997	102.5
463.217	84.5
463.437	83.5
463.657	91.5
463.876	89.5
464.096	83.5
464.316	90.5
464.536	91.5
464.755	94.5
464.975	101.5
465.195	80.5
465.414	102.5
465.634	111.5
465.854	96.5
466.073	88.5
466.293	96.5
466.512	87.5
466.732	104.5
466.951	105.5
467.171	109.5
467.391	99.5
467.61	112.5
467.829	98.5
468.049	113.5
468.268	102.5
468.488	110.5
468.707	127.5
468.927	101.5
469.146	92.5
469.365	106.5
469.585	104.5
469.804	110.5
470.023	116.5
470.243	100.5
470.462	116.5
470.681	108.5
470.901	104.5
471.12	103.5
471.339	95.5
471.558	114.5
471.777	98.5
471.997	116.5
472.216	91.5
472.435	104.5
472.654	94.5
472.873	96.5
473.092	96.5
473.311	98.5
473.53	105.5
473.749	100.5
473.968	103.5
474.187	107.5
474.406	93.5
474.625	102.5
474.844	118.5
475.063	100.5
475.282	84.5
475.501	86.5
475.72	90.5
475.939	87.5
476.158	102.5
476.377	103.5
476.596	92.5
476.814	124.5
477.033	93.5
477.252	102.5
477.471	92.5
477.69	98.5
477.908	114.5
478.127	101.5
478.346	99.5
478.564	110.5
478.783	120.5
479.002	101.5
479.22	104.5
479.439	114.5
479.658	80.5
479.876	84.5
480.095	102.5
480.313	93.5
480.532	103.5
480.751	83.5
480.969	73.5
481.188	109.5
481.406	88.5
481.624	81.5
481.843	88.5
482.061	88.5
482.28	71.5
482.498	91.5
482.717	103.5
482.935	96.5
483.153	102.5
483.372	109.5
483.59	103.5
483.808	99.5
484.027	97.5
484.245	112.5
484.463	111.5
484.681	117.5
484.9	111.5
485.118	125.5
485.336	90.5
485.554	112.5
485.772	99.5
485.99	83.5
486.209	83.5
486.427	108.5
486.645	88.5
486.863	105.5
487.081	90.5
487.299	95.5
487.517	105.5
487.735	118.5
487.953	122.5
488.171	139.5
488.389	123.5
488.607	121.5
488.825	119.5
489.043	99.5
489.261	97.5
489.479	103.5
489.696	119.5
489.914	105.5
490.132	106.5
490.35	103.5
490.568	112.5
490.786	124.5
491.003	133.5
491.221	130.5
491.439	131.5
491.657	149.5
491.874	146.5
492.092	143.5
492.31	152.5
492.527	147.5
492.745	134.5
492.963	123.5
493.18	128.5
493.398	130.5
493.615	120.5
493.833	130.5
494.05	129.5
494.268	130.5
494.485	128.5
494.703	118.5
494.92	116.5
495.138	122.5
495.355	119.5
495.573	130.5
495.79	126.5
496.008	121.5
496.225	129.5
496.442	126.5
496.66	126.5
496.877	121.5
497.094	137.5
497.312	113.5
497.529	117.5
497.746	122.5
497.963	104.5
498.181	103.5
498.398	97.5
498.615	94.5
498.832	95.5
499.049	104.5
499.267	112.5
499.484	103.5
499.701	112.5
499.918	113.5
500.135	101.5
500.352	121.5
500.569	115.5
500.786	105.5
501.003	114.5
501.22	102.5
501.437	121.5
501.654	108.5
501.871	105.5
502.088	109.5
502.305	116.5
502.522	111.5
502.739	107.5
502.956	104.5
503.172	94.5
503.389	113.5
503.606	88.5
503.823	99.5
504.04	98.5
504.256	102.5
504.473	103.5
504.69	99.5
504.907	104.5
505.123	99.5
505.34	98.5
505.557	104.5
505.773	103.5
505.99	90.5
506.207	95.5
506.423	98.5
506.64	88.5
506.856	111.5
507.073	94.5
507.289	94.5
507.506	102.5
507.722	92.5
507.939	90.5
508.155	108.5
508.372	100.5
508.588	102.5
508.805	95.5
509.021	96.5
509.238	91.5
509.454	95.5
509.67	78.5
509.887	89.5
510.103	80.5
510.319	98.5
510.536	88.5
510.752	98.5
510.968	89.5
511.184	85.5
511.401	81.5
511.617	83.5
511.833	93.5
512.049	89.5
512.265	85.5
512.481	75.5
512.698	94.5
512.914	71.5
513.13	87.5
513.346	82.5
513.562	88.5
513.778	80.5
513.994	91.5
514.21	89.5
514.426	99.5
514.642	79.5
514.858	99.5
515.074	100.5
515.29	99.5
515.506	97.5
515.721	84.5
515.937	100.5
516.153	88.5
516.369	65.5
516.585	79.5
516.801	89.5
517.016	82.5
517.232	80.5
517.448	77.5
517.664	97.5
517.879	79.5
518.095	88.5
518.311	87.5
518.527	75.5
518.742	89.5
518.958	82.5
519.173	99.5
519.389	86.5
519.605	96.5
519.82	83.5
520.036	93.5
520.251	78.5
520.467	78.5
520.682	82.5
520.898	77.5
521.113	73.5
521.329	85.5
521.544	86.5
521.76	72.5
521.975	85.5
522.19	85.5
522.406	82.5
522.621	87.5
522.836	82.5
523.052	90.5
523.267	93.5
523.482	95.5
523.698	92.5
523.913	98.5
524.128	99.5
524.343	90.5
524.559	96.5
524.774	101.5
524.989	94.5
525.204	110.5
525.419	99.5
525.634	97.5
525.849	90.5
526.064	91.5
526.28	89.5
526.495	82.5
526.71	84.5
526.925	68.5
527.14	91.5
527.355	83.5
527.57	91.5
527.785	84.5
527.999	94.5
528.214	97.5
528.429	95.5
528.644	107.5
528.859	110.5
529.074	110.5
529.289	113.5
529.503	108.5
529.718	114.5
529.933	104.5
530.148	94.5
530.363	97.5
530.577	91.5
530.792	69.5
531.007	76.5
531.221	76.5
531.436	91.5
531.651	87.5
531.865	93.5
532.08	90.5
532.295	69.5
532.509	75.5
532.724	84.5
532.938	76.5
533.153	96.5
533.367	99.5
533.582	107.5
533.796	108.5
534.011	93.5
534.225	82.5
534.44	87.5
534.654	97.5
534.868	98.5
535.083	101.5
