Data from Zn(NO3)2Standard.Agarose3%.GreenCap.LampEnergy5.5.E.O_HRD10591_15-01-21-768.txt Node
Date: Mon Jul 22 15:01:21 EDT 2019
User: cochatt
Spectrometer: HR+D1059
Trigger mode: 1
Integration Time (sec): 1.000000E-1
Scans to average: 1
Electric dark correction enabled: true
Nonlinearity correction enabled: false
Boxcar width: 0
XAxis mode: Wavelengths
Number of Pixels in Spectrum: 2048
>>>>>Begin Spectral Data<<<<<
223.165	-9.44
223.4	-9.44
223.635	-9.44
223.869	-13.44
224.104	-13.44
224.338	-17.44
224.573	-21.44
224.808	-13.44
225.042	-11.44
225.277	-9.44
225.511	-5.44
225.746	2.56
225.98	2.56
226.215	6.56
226.449	18.56
226.683	24.56
226.918	25.56
227.152	34.56
227.387	51.56
227.621	29.56
227.856	54.56
228.09	40.56
228.324	48.56
228.559	56.56
228.793	64.56
229.027	63.56
229.262	49.56
229.496	50.56
229.73	68.56
229.964	66.56
230.199	74.56
230.433	73.56
230.667	91.56
230.901	74.56
231.136	78.56
231.37	89.56
231.604	81.56
231.838	69.56
232.072	76.56
232.306	80.56
232.541	82.56
232.775	84.56
233.009	75.56
233.243	75.56
233.477	73.56
233.711	80.56
233.945	80.56
234.179	82.56
234.413	78.56
234.647	88.56
234.881	79.56
235.115	80.56
235.349	83.56
235.583	85.56
235.817	82.56
236.051	84.56
236.285	73.56
236.519	86.56
236.753	79.56
236.987	82.56
237.221	84.56
237.455	78.56
237.689	80.56
237.922	92.56
238.156	84.56
238.39	79.56
238.624	66.56
238.858	61.56
239.091	80.56
239.325	72.56
239.559	70.56
239.793	72.56
240.027	91.56
240.26	63.56
240.494	73.56
240.728	76.56
240.961	86.56
241.195	87.56
241.429	74.56
241.662	71.56
241.896	74.56
242.13	72.56
242.363	75.56
242.597	84.56
242.83	68.56
243.064	84.56
243.298	69.56
243.531	82.56
243.765	76.56
243.998	76.56
244.232	79.56
244.465	77.56
244.699	75.56
244.932	79.56
245.166	82.56
245.399	75.56
245.633	75.56
245.866	81.56
246.099	75.56
246.333	78.56
246.566	85.56
246.8	83.56
247.033	85.56
247.266	73.56
247.5	74.56
247.733	74.56
247.966	84.56
248.2	76.56
248.433	77.56
248.666	84.56
248.899	68.56
249.133	76.56
249.366	100.56
249.599	84.56
249.832	85.56
250.066	86.56
250.299	77.56
250.532	72.56
250.765	80.56
250.998	80.56
251.231	86.56
251.465	96.56
251.698	77.56
251.931	73.56
252.164	91.56
252.397	88.56
252.63	83.56
252.863	79.56
253.096	81.56
253.329	67.56
253.562	71.56
253.795	81.56
254.028	78.56
254.261	77.56
254.494	83.56
254.727	77.56
254.96	81.56
255.193	81.56
255.426	86.56
255.659	84.56
255.892	90.56
256.124	72.56
256.357	75.56
256.59	85.56
256.823	78.56
257.056	85.56
257.289	82.56
257.521	76.56
257.754	94.56
257.987	72.56
258.22	91.56
258.452	91.56
258.685	84.56
258.918	70.56
259.151	75.56
259.383	82.56
259.616	90.56
259.849	100.56
260.081	80.56
260.314	85.56
260.547	91.56
260.779	80.56
261.012	65.56
261.244	83.56
261.477	79.56
261.71	85.56
261.942	80.56
262.175	83.56
262.407	81.56
262.64	83.56
262.872	80.56
263.105	77.56
263.337	72.56
263.57	82.56
263.802	74.56
264.035	79.56
264.267	83.56
264.499	70.56
264.732	78.56
264.964	80.56
265.197	76.56
265.429	76.56
265.661	68.56
265.894	87.56
266.126	83.56
266.358	84.56
266.591	77.56
266.823	79.56
267.055	86.56
267.287	78.56
267.52	94.56
267.752	83.56
267.984	92.56
268.216	92.56
268.448	88.56
268.681	77.56
268.913	83.56
269.145	89.56
269.377	85.56
269.609	81.56
269.841	86.56
270.073	89.56
270.306	83.56
270.538	70.56
270.77	83.56
271.002	88.56
271.234	83.56
271.466	89.56
271.698	92.56
271.93	85.56
272.162	76.56
272.394	94.56
272.626	84.56
272.858	89.56
273.09	76.56
273.322	88.56
273.553	86.56
273.785	84.56
274.017	82.56
274.249	87.56
274.481	101.56
274.713	94.56
274.945	71.56
275.176	76.56
275.408	85.56
275.64	67.56
275.872	81.56
276.104	87.56
276.335	107.56
276.567	82.56
276.799	93.56
277.031	81.56
277.262	86.56
277.494	89.56
277.726	70.56
277.957	89.56
278.189	90.56
278.421	83.56
278.652	77.56
278.884	79.56
279.115	90.56
279.347	96.56
279.579	96.56
279.81	77.56
280.042	76.56
280.273	73.56
280.505	86.56
280.736	96.56
280.968	75.56
281.199	85.56
281.431	92.56
281.662	80.56
281.894	74.56
282.125	91.56
282.356	85.56
282.588	73.56
282.819	93.56
283.051	89.56
283.282	91.56
283.513	86.56
283.745	98.56
283.976	97.56
284.207	79.56
284.439	95.56
284.67	76.56
284.901	79.56
285.132	80.56
285.364	81.56
285.595	84.56
285.826	82.56
286.057	77.56
286.288	84.56
286.52	73.56
286.751	79.56
286.982	89.56
287.213	93.56
287.444	92.56
287.675	95.56
287.906	82.56
288.138	86.56
288.369	71.56
288.6	91.56
288.831	82.56
289.062	84.56
289.293	81.56
289.524	84.56
289.755	85.56
289.986	78.56
290.217	100.56
290.448	78.56
290.679	85.56
290.91	83.56
291.141	93.56
291.371	92.56
291.602	97.56
291.833	85.56
292.064	92.56
292.295	78.56
292.526	72.56
292.757	77.56
292.987	92.56
293.218	72.56
293.449	85.56
293.68	77.56
293.91	84.56
294.141	84.56
294.372	88.56
294.603	80.56
294.833	82.56
295.064	76.56
295.295	73.56
295.525	68.56
295.756	80.56
295.987	79.56
296.217	95.56
296.448	88.56
296.679	83.56
296.909	85.56
297.14	78.56
297.37	77.56
297.601	81.56
297.831	89.56
298.062	75.56
298.292	82.56
298.523	77.56
298.753	100.56
298.984	84.56
299.214	90.56
299.445	84.56
299.675	101.56
299.905	63.56
300.136	98.56
300.366	93.56
300.597	90.56
300.827	83.56
301.057	88.56
301.288	73.56
301.518	99.56
301.748	76.56
301.979	74.56
302.209	81.56
302.439	94.56
302.669	92.56
302.9	89.56
303.13	89.56
303.36	81.56
303.59	70.56
303.82	85.56
304.051	81.56
304.281	76.56
304.511	91.56
304.741	84.56
304.971	86.56
305.201	72.56
305.431	82.56
305.661	94.56
305.891	82.56
306.121	83.56
306.352	83.56
306.582	80.56
306.812	87.56
307.042	83.56
307.272	86.56
307.502	88.56
307.731	60.56
307.961	90.56
308.191	96.56
308.421	72.56
308.651	80.56
308.881	72.56
309.111	86.56
309.341	73.56
309.571	85.56
309.8	82.56
310.03	96.56
310.26	96.56
310.49	78.56
310.72	82.56
310.949	80.56
311.179	79.56
311.409	84.56
311.639	82.56
311.868	76.56
312.098	85.56
312.328	74.56
312.557	91.56
312.787	82.56
313.017	82.56
313.246	88.56
313.476	74.56
313.706	79.56
313.935	88.56
314.165	88.56
314.394	88.56
314.624	86.56
314.853	73.56
315.083	88.56
315.312	84.56
315.542	78.56
315.771	83.56
316.001	85.56
316.23	89.56
316.46	86.56
316.689	83.56
316.919	93.56
317.148	88.56
317.377	75.56
317.607	72.56
317.836	80.56
318.065	94.56
318.295	99.56
318.524	72.56
318.753	84.56
318.983	60.56
319.212	91.56
319.441	89.56
319.67	84.56
319.9	90.56
320.129	87.56
320.358	82.56
320.587	95.56
320.816	73.56
321.046	68.56
321.275	91.56
321.504	78.56
321.733	82.56
321.962	96.56
322.191	89.56
322.42	80.56
322.649	84.56
322.878	82.56
323.108	77.56
323.337	89.56
323.566	90.56
323.795	92.56
324.024	81.56
324.253	82.56
324.482	86.56
324.71	74.56
324.939	88.56
325.168	80.56
325.397	86.56
325.626	88.56
325.855	70.56
326.084	84.56
326.313	73.56
326.542	83.56
326.77	74.56
326.999	84.56
327.228	80.56
327.457	86.56
327.686	81.56
327.914	82.56
328.143	81.56
328.372	73.56
328.6	86.56
328.829	76.56
329.058	89.56
329.287	82.56
329.515	82.56
329.744	81.56
329.972	86.56
330.201	84.56
330.43	93.56
330.658	85.56
330.887	78.56
331.115	83.56
331.344	76.56
331.572	82.56
331.801	75.56
332.03	80.56
332.258	93.56
332.486	77.56
332.715	76.56
332.943	88.56
333.172	100.56
333.4	90.56
333.629	97.56
333.857	77.56
334.085	83.56
334.314	80.56
334.542	73.56
334.771	73.56
334.999	86.56
335.227	69.56
335.455	88.56
335.684	96.56
335.912	92.56
336.14	81.56
336.369	84.56
336.597	85.56
336.825	93.56
337.053	99.56
337.281	78.56
337.51	91.56
337.738	89.56
337.966	96.56
338.194	74.56
338.422	89.56
338.65	81.56
338.878	88.56
339.106	85.56
339.334	90.56
339.562	97.56
339.79	90.56
340.018	86.56
340.246	83.56
340.474	75.56
340.702	89.56
340.93	78.56
341.158	73.56
341.386	83.56
341.614	84.56
341.842	82.56
342.07	90.56
342.298	59.56
342.526	70.56
342.754	85.56
342.981	70.56
343.209	98.56
343.437	91.56
343.665	89.56
343.893	74.56
344.12	96.56
344.348	95.56
344.576	82.56
344.804	85.56
345.031	93.56
345.259	88.56
345.487	91.56
345.714	81.56
345.942	67.56
346.17	87.56
346.397	82.56
346.625	81.56
346.853	76.56
347.08	77.56
347.308	96.56
347.535	80.56
347.763	73.56
347.99	72.56
348.218	88.56
348.445	75.56
348.673	75.56
348.9	65.56
349.128	69.56
349.355	81.56
349.583	90.56
349.81	79.56
350.037	91.56
350.265	85.56
350.492	72.56
350.72	65.56
350.947	76.56
351.174	84.56
351.402	86.56
351.629	85.56
351.856	66.56
352.083	88.56
352.311	88.56
352.538	71.56
352.765	92.56
352.992	82.56
353.22	81.56
353.447	83.56
353.674	92.56
353.901	92.56
354.128	84.56
354.355	84.56
354.583	81.56
354.81	73.56
355.037	72.56
355.264	90.56
355.491	85.56
355.718	83.56
355.945	89.56
356.172	71.56
356.399	88.56
356.626	82.56
356.853	84.56
357.08	86.56
357.307	89.56
357.534	90.56
357.761	81.56
357.988	84.56
358.215	82.56
358.441	84.56
358.668	73.56
358.895	71.56
359.122	82.56
359.349	85.56
359.576	84.56
359.802	86.56
360.029	80.56
360.256	87.56
360.483	76.56
360.709	74.56
360.936	77.56
361.163	77.56
361.39	77.56
361.616	86.56
361.843	83.56
362.07	97.56
362.296	74.56
362.523	91.56
362.749	102.56
362.976	78.56
363.203	89.56
363.429	93.56
363.656	88.56
363.882	82.56
364.109	82.56
364.335	84.56
364.562	75.56
364.788	74.56
365.015	78.56
365.241	85.56
365.468	84.56
365.694	71.56
365.92	87.56
366.147	81.56
366.373	74.56
366.599	86.56
366.826	83.56
367.052	81.56
367.278	71.56
367.505	83.56
367.731	93.56
367.957	61.56
368.184	79.56
368.41	82.56
368.636	83.56
368.862	87.56
369.089	74.56
369.315	83.56
369.541	88.56
369.767	93.56
369.993	85.56
370.219	77.56
370.445	81.56
370.672	90.56
370.898	70.56
371.124	83.56
371.35	80.56
371.576	77.56
371.802	77.56
372.028	78.56
372.254	77.56
372.48	68.56
372.706	86.56
372.932	75.56
373.158	65.56
373.384	95.56
373.61	89.56
373.835	89.56
374.061	86.56
374.287	88.56
374.513	72.56
374.739	80.56
374.965	89.56
375.191	89.56
375.416	83.56
375.642	82.56
375.868	84.56
376.094	85.56
376.319	82.56
376.545	78.56
376.771	84.56
376.997	81.56
377.222	79.56
377.448	82.56
377.674	85.56
377.899	78.56
378.125	78.56
378.35	85.56
378.576	81.56
378.802	87.56
379.027	86.56
379.253	72.56
379.478	73.56
379.704	76.56
379.929	82.56
380.155	80.56
380.38	75.56
380.606	80.56
380.831	84.56
381.057	81.56
381.282	89.56
381.507	85.56
381.733	77.56
381.958	80.56
382.184	77.56
382.409	73.56
382.634	92.56
382.86	84.56
383.085	77.56
383.31	79.56
383.535	77.56
383.761	77.56
383.986	80.56
384.211	82.56
384.436	86.56
384.662	74.56
384.887	80.56
385.112	66.56
385.337	83.56
385.562	77.56
385.787	68.56
386.013	80.56
386.238	73.56
386.463	77.56
386.688	88.56
386.913	85.56
387.138	87.56
387.363	72.56
387.588	73.56
387.813	89.56
388.038	84.56
388.263	86.56
388.488	76.56
388.713	85.56
388.938	73.56
389.163	89.56
389.387	81.56
389.612	81.56
389.837	84.56
390.062	92.56
390.287	84.56
390.512	84.56
390.736	80.56
390.961	73.56
391.186	71.56
391.411	86.56
391.636	83.56
391.86	87.56
392.085	85.56
392.31	82.56
392.534	93.56
392.759	77.56
392.984	86.56
393.208	70.56
393.433	94.56
393.658	84.56
393.882	83.56
394.107	86.56
394.331	84.56
394.556	82.56
394.78	92.56
395.005	90.56
395.229	86.56
395.454	92.56
395.678	75.56
395.903	61.56
396.127	94.56
396.352	73.56
396.576	86.56
396.801	87.56
397.025	79.56
397.249	75.56
397.474	83.56
397.698	77.56
397.922	81.56
398.147	86.56
398.371	73.56
398.595	84.56
398.82	83.56
399.044	71.56
399.268	88.56
399.492	65.56
399.717	85.56
399.941	103.56
400.165	80.56
400.389	82.56
400.613	88.56
400.837	94.56
401.062	91.56
401.286	91.56
401.51	84.56
401.734	72.56
401.958	81.56
402.182	84.56
402.406	78.56
402.63	84.56
402.854	89.56
403.078	78.56
403.302	84.56
403.526	77.56
403.75	86.56
403.974	84.56
404.198	84.56
404.422	72.56
404.645	77.56
404.869	89.56
405.093	80.56
405.317	81.56
405.541	87.56
405.765	76.56
405.988	81.56
406.212	91.56
406.436	70.56
406.66	84.56
406.883	84.56
407.107	83.56
407.331	93.56
407.555	88.56
407.778	81.56
408.002	67.56
408.226	80.56
408.449	77.56
408.673	84.56
408.896	88.56
409.12	79.56
409.344	87.56
409.567	90.56
409.791	84.56
410.014	81.56
410.238	83.56
410.461	84.56
410.685	86.56
410.908	91.56
411.132	106.56
411.355	91.56
411.578	87.56
411.802	77.56
412.025	79.56
412.249	80.56
412.472	98.56
412.695	92.56
412.919	98.56
413.142	84.56
413.365	89.56
413.589	92.56
413.812	86.56
414.035	87.56
414.258	88.56
414.482	101.56
414.705	85.56
414.928	83.56
415.151	91.56
415.374	102.56
415.597	90.56
415.821	89.56
416.044	84.56
416.267	83.56
416.49	76.56
416.713	96.56
416.936	85.56
417.159	85.56
417.382	81.56
417.605	88.56
417.828	79.56
418.051	95.56
418.274	98.56
418.497	67.56
418.72	80.56
418.943	78.56
419.166	81.56
419.389	97.56
419.611	105.56
419.834	86.56
420.057	101.56
420.28	77.56
420.503	97.56
420.726	81.56
420.948	89.56
421.171	96.56
421.394	91.56
421.617	96.56
421.839	87.56
422.062	94.56
422.285	80.56
422.507	86.56
422.73	77.56
422.953	89.56
423.175	84.56
423.398	88.56
423.621	101.56
423.843	81.56
424.066	84.56
424.288	83.56
424.511	67.56
424.733	83.56
424.956	77.56
425.178	78.56
425.401	91.56
425.623	87.56
425.846	97.56
426.068	102.56
426.291	88.56
426.513	89.56
426.735	98.56
426.958	98.56
427.18	90.56
427.402	90.56
427.625	89.56
427.847	78.56
428.069	72.56
428.292	87.56
428.514	93.56
428.736	82.56
428.958	78.56
429.181	104.56
429.403	85.56
429.625	79.56
429.847	79.56
430.069	96.56
430.292	90.56
430.514	87.56
430.736	86.56
430.958	89.56
431.18	93.56
431.402	81.56
431.624	96.56
431.846	93.56
432.068	72.56
432.29	84.56
432.512	86.56
432.734	91.56
432.956	74.56
433.178	101.56
433.4	87.56
433.622	79.56
433.844	96.56
434.066	89.56
434.287	78.56
434.509	80.56
434.731	78.56
434.953	84.56
435.175	75.56
435.397	100.56
435.618	85.56
435.84	93.56
436.062	76.56
436.284	81.56
436.505	83.56
436.727	79.56
436.949	92.56
437.17	90.56
437.392	94.56
437.614	83.56
437.835	84.56
438.057	77.56
438.278	68.56
438.5	91.56
438.721	86.56
438.943	98.56
439.165	101.56
439.386	77.56
439.608	97.56
439.829	83.56
440.05	77.56
440.272	96.56
440.493	91.56
440.715	88.56
440.936	82.56
441.158	87.56
441.379	76.56
441.6	97.56
441.822	90.56
442.043	93.56
442.264	85.56
442.486	90.56
442.707	87.56
442.928	91.56
443.149	75.56
443.371	82.56
443.592	88.56
443.813	76.56
444.034	68.56
444.255	95.56
444.476	92.56
444.698	86.56
444.919	78.56
445.14	188.56
445.361	118.56
445.582	97.56
445.803	91.56
446.024	88.56
446.245	88.56
446.466	99.56
446.687	92.56
446.908	102.56
447.129	92.56
447.35	88.56
447.571	84.56
447.792	91.56
448.013	68.56
448.234	72.56
448.455	96.56
448.675	91.56
448.896	86.56
449.117	86.56
449.338	86.56
449.559	80.56
449.779	77.56
450	77.56
450.221	88.56
450.442	66.56
450.662	94.56
450.883	77.56
451.104	89.56
451.324	80.56
451.545	90.56
451.766	88.56
451.986	79.56
452.207	100.56
452.428	90.56
452.648	91.56
452.869	91.56
453.089	97.56
453.31	76.56
453.53	92.56
453.751	101.56
453.971	90.56
454.192	78.56
454.412	76.56
454.633	96.56
454.853	80.56
455.073	91.56
455.294	76.56
455.514	88.56
455.734	63.56
455.955	75.56
456.175	89.56
456.395	99.56
456.616	95.56
456.836	92.56
457.056	96.56
457.276	82.56
457.497	77.56
457.717	85.56
457.937	84.56
458.157	84.56
458.377	79.56
458.598	82.56
458.818	81.56
459.038	75.56
459.258	87.56
459.478	76.56
459.698	87.56
459.918	77.56
460.138	85.56
460.358	90.56
460.578	101.56
460.798	79.56
461.018	95.56
461.238	97.56
461.458	78.56
461.678	82.56
461.898	76.56
462.118	92.56
462.338	87.56
462.558	104.56
462.777	74.56
462.997	85.56
463.217	77.56
463.437	81.56
463.657	88.56
463.876	88.56
464.096	87.56
464.316	74.56
464.536	66.56
464.755	101.56
464.975	88.56
465.195	78.56
465.414	85.56
465.634	94.56
465.854	85.56
466.073	76.56
466.293	88.56
466.512	77.56
466.732	101.56
466.951	86.56
467.171	83.56
467.391	84.56
467.61	75.56
467.829	98.56
468.049	96.56
468.268	102.56
468.488	96.56
468.707	100.56
468.927	80.56
469.146	85.56
469.365	84.56
469.585	93.56
469.804	105.56
470.023	86.56
470.243	89.56
470.462	92.56
470.681	81.56
470.901	74.56
471.12	85.56
471.339	94.56
471.558	89.56
471.777	81.56
471.997	76.56
472.216	81.56
472.435	81.56
472.654	91.56
472.873	98.56
473.092	82.56
473.311	84.56
473.53	89.56
473.749	101.56
473.968	99.56
474.187	102.56
474.406	96.56
474.625	85.56
474.844	101.56
475.063	88.56
475.282	97.56
475.501	89.56
475.72	89.56
475.939	75.56
476.158	94.56
476.377	83.56
476.596	86.56
476.814	96.56
477.033	96.56
477.252	68.56
477.471	82.56
477.69	81.56
477.908	88.56
478.127	78.56
478.346	87.56
478.564	103.56
478.783	87.56
479.002	88.56
479.22	80.56
479.439	97.56
479.658	90.56
479.876	76.56
480.095	88.56
480.313	89.56
480.532	100.56
480.751	79.56
480.969	84.56
481.188	96.56
481.406	90.56
481.624	86.56
481.843	80.56
482.061	81.56
482.28	78.56
482.498	100.56
482.717	82.56
482.935	84.56
483.153	90.56
483.372	88.56
483.59	88.56
483.808	93.56
484.027	79.56
484.245	91.56
484.463	76.56
484.681	96.56
484.9	92.56
485.118	92.56
485.336	93.56
485.554	91.56
485.772	81.56
485.99	86.56
486.209	74.56
486.427	73.56
486.645	89.56
486.863	99.56
487.081	101.56
487.299	90.56
487.517	97.56
487.735	89.56
487.953	99.56
488.171	115.56
488.389	89.56
488.607	84.56
488.825	86.56
489.043	81.56
489.261	84.56
489.479	95.56
489.696	92.56
489.914	98.56
490.132	100.56
490.35	81.56
490.568	93.56
490.786	88.56
491.003	115.56
491.221	106.56
491.439	99.56
491.657	107.56
491.874	92.56
492.092	106.56
492.31	121.56
492.527	112.56
492.745	101.56
492.963	86.56
493.18	108.56
493.398	95.56
493.615	100.56
493.833	104.56
494.05	84.56
494.268	102.56
494.485	93.56
494.703	93.56
494.92	93.56
495.138	89.56
495.355	87.56
495.573	117.56
495.79	88.56
496.008	96.56
496.225	84.56
496.442	86.56
496.66	106.56
496.877	100.56
497.094	96.56
497.312	110.56
497.529	112.56
497.746	90.56
497.963	99.56
498.181	106.56
498.398	84.56
498.615	94.56
498.832	105.56
499.049	92.56
499.267	78.56
499.484	97.56
499.701	76.56
499.918	74.56
500.135	88.56
500.352	91.56
500.569	100.56
500.786	103.56
501.003	113.56
501.22	100.56
501.437	84.56
501.654	89.56
501.871	94.56
502.088	97.56
502.305	84.56
502.522	83.56
502.739	83.56
502.956	92.56
503.172	89.56
503.389	94.56
503.606	73.56
503.823	87.56
504.04	94.56
504.256	85.56
504.473	100.56
504.69	92.56
504.907	97.56
505.123	88.56
505.34	97.56
505.557	81.56
505.773	77.56
505.99	84.56
506.207	80.56
506.423	93.56
506.64	98.56
506.856	86.56
507.073	96.56
507.289	94.56
507.506	86.56
507.722	92.56
507.939	92.56
508.155	82.56
508.372	75.56
508.588	77.56
508.805	87.56
509.021	81.56
509.238	100.56
509.454	85.56
509.67	78.56
509.887	77.56
510.103	83.56
510.319	91.56
510.536	88.56
510.752	91.56
510.968	80.56
511.184	96.56
511.401	78.56
511.617	97.56
511.833	93.56
512.049	84.56
512.265	80.56
512.481	75.56
512.698	84.56
512.914	88.56
513.13	98.56
513.346	90.56
513.562	74.56
513.778	82.56
513.994	67.56
514.21	76.56
514.426	88.56
514.642	89.56
514.858	91.56
515.074	95.56
515.29	88.56
515.506	83.56
515.721	93.56
515.937	87.56
516.153	68.56
516.369	96.56
516.585	80.56
516.801	85.56
517.016	85.56
517.232	78.56
517.448	98.56
517.664	64.56
517.879	86.56
518.095	84.56
518.311	90.56
518.527	90.56
