Data from Zn(NO3)2Standard.Agarose3%.GreenCap.LampEnergy5.5.E.O_HRD10591_15-02-27-767.txt Node
Date: Mon Jul 22 15:02:27 EDT 2019
User: cochatt
Spectrometer: HR+D1059
Trigger mode: 1
Integration Time (sec): 1.000000E-1
Scans to average: 1
Electric dark correction enabled: true
Nonlinearity correction enabled: false
Boxcar width: 0
XAxis mode: Wavelengths
Number of Pixels in Spectrum: 2048
>>>>>Begin Spectral Data<<<<<
223.165	-13.12
223.4	-13.12
223.635	-13.12
223.869	3.88
224.104	-8.12
224.338	-21.12
224.573	-8.12
224.808	-20.12
225.042	-7.12
225.277	-7.12
225.511	-4.12
225.746	0.88
225.98	1.88
226.215	9.88
226.449	13.88
226.683	8.88
226.918	25.88
227.152	23.88
227.387	32.88
227.621	47.88
227.856	44.88
228.09	33.88
228.324	51.88
228.559	47.88
228.793	59.88
229.027	60.88
229.262	44.88
229.496	66.88
229.73	75.88
229.964	69.88
230.199	81.88
230.433	73.88
230.667	88.88
230.901	59.88
231.136	75.88
231.37	76.88
231.604	89.88
231.838	87.88
232.072	82.88
232.306	74.88
232.541	82.88
232.775	71.88
233.009	72.88
233.243	76.88
233.477	87.88
233.711	74.88
233.945	88.88
234.179	82.88
234.413	67.88
234.647	73.88
234.881	79.88
235.115	78.88
235.349	74.88
235.583	82.88
235.817	78.88
236.051	76.88
236.285	77.88
236.519	79.88
236.753	77.88
236.987	74.88
237.221	91.88
237.455	86.88
237.689	67.88
237.922	77.88
238.156	76.88
238.39	78.88
238.624	81.88
238.858	77.88
239.091	73.88
239.325	88.88
239.559	82.88
239.793	56.88
240.027	81.88
240.26	72.88
240.494	77.88
240.728	71.88
240.961	74.88
241.195	87.88
241.429	76.88
241.662	82.88
241.896	81.88
242.13	79.88
242.363	90.88
242.597	79.88
242.83	74.88
243.064	86.88
243.298	78.88
243.531	82.88
243.765	74.88
243.998	72.88
244.232	74.88
244.465	82.88
244.699	75.88
244.932	65.88
245.166	63.88
245.399	84.88
245.633	85.88
245.866	85.88
246.099	69.88
246.333	78.88
246.566	77.88
246.8	69.88
247.033	63.88
247.266	72.88
247.5	84.88
247.733	86.88
247.966	69.88
248.2	85.88
248.433	79.88
248.666	79.88
248.899	76.88
249.133	80.88
249.366	82.88
249.599	65.88
249.832	85.88
250.066	87.88
250.299	75.88
250.532	75.88
250.765	76.88
250.998	78.88
251.231	68.88
251.465	68.88
251.698	74.88
251.931	87.88
252.164	88.88
252.397	77.88
252.63	79.88
252.863	82.88
253.096	76.88
253.329	87.88
253.562	83.88
253.795	63.88
254.028	80.88
254.261	82.88
254.494	72.88
254.727	81.88
254.96	72.88
255.193	77.88
255.426	79.88
255.659	77.88
255.892	88.88
256.124	79.88
256.357	67.88
256.59	79.88
256.823	76.88
257.056	92.88
257.289	86.88
257.521	59.88
257.754	70.88
257.987	71.88
258.22	73.88
258.452	78.88
258.685	81.88
258.918	69.88
259.151	68.88
259.383	75.88
259.616	74.88
259.849	80.88
260.081	63.88
260.314	74.88
260.547	75.88
260.779	79.88
261.012	86.88
261.244	87.88
261.477	75.88
261.71	71.88
261.942	71.88
262.175	83.88
262.407	67.88
262.64	77.88
262.872	89.88
263.105	76.88
263.337	90.88
263.57	67.88
263.802	77.88
264.035	73.88
264.267	82.88
264.499	75.88
264.732	90.88
264.964	87.88
265.197	87.88
265.429	83.88
265.661	90.88
265.894	83.88
266.126	76.88
266.358	81.88
266.591	69.88
266.823	86.88
267.055	83.88
267.287	74.88
267.52	76.88
267.752	81.88
267.984	92.88
268.216	83.88
268.448	88.88
268.681	81.88
268.913	86.88
269.145	93.88
269.377	64.88
269.609	76.88
269.841	81.88
270.073	79.88
270.306	75.88
270.538	86.88
270.77	84.88
271.002	78.88
271.234	93.88
271.466	76.88
271.698	79.88
271.93	83.88
272.162	67.88
272.394	83.88
272.626	63.88
272.858	57.88
273.09	82.88
273.322	87.88
273.553	88.88
273.785	77.88
274.017	85.88
274.249	91.88
274.481	87.88
274.713	88.88
274.945	81.88
275.176	93.88
275.408	71.88
275.64	76.88
275.872	74.88
276.104	91.88
276.335	75.88
276.567	73.88
276.799	79.88
277.031	74.88
277.262	80.88
277.494	81.88
277.726	87.88
277.957	66.88
278.189	74.88
278.421	77.88
278.652	86.88
278.884	82.88
279.115	91.88
279.347	68.88
279.579	71.88
279.81	76.88
280.042	85.88
280.273	90.88
280.505	97.88
280.736	77.88
280.968	76.88
281.199	69.88
281.431	82.88
281.662	87.88
281.894	77.88
282.125	75.88
282.356	82.88
282.588	95.88
282.819	74.88
283.051	88.88
283.282	88.88
283.513	80.88
283.745	87.88
283.976	86.88
284.207	84.88
284.439	98.88
284.67	91.88
284.901	79.88
285.132	81.88
285.364	86.88
285.595	93.88
285.826	78.88
286.057	88.88
286.288	87.88
286.52	87.88
286.751	89.88
286.982	69.88
287.213	82.88
287.444	91.88
287.675	96.88
287.906	81.88
288.138	88.88
288.369	92.88
288.6	89.88
288.831	86.88
289.062	77.88
289.293	85.88
289.524	82.88
289.755	84.88
289.986	90.88
290.217	97.88
290.448	82.88
290.679	80.88
290.91	82.88
291.141	71.88
291.371	93.88
291.602	82.88
291.833	79.88
292.064	82.88
292.295	83.88
292.526	86.88
292.757	80.88
292.987	84.88
293.218	69.88
293.449	75.88
293.68	68.88
293.91	87.88
294.141	85.88
294.372	83.88
294.603	81.88
294.833	84.88
295.064	80.88
295.295	74.88
295.525	92.88
295.756	81.88
295.987	87.88
296.217	84.88
296.448	91.88
296.679	79.88
296.909	85.88
297.14	79.88
297.37	75.88
297.601	77.88
297.831	79.88
298.062	93.88
298.292	80.88
298.523	88.88
298.753	92.88
298.984	88.88
299.214	88.88
299.445	76.88
299.675	72.88
299.905	90.88
300.136	88.88
300.366	89.88
300.597	90.88
300.827	80.88
301.057	85.88
301.288	88.88
301.518	81.88
301.748	84.88
301.979	73.88
302.209	84.88
302.439	92.88
302.669	88.88
302.9	83.88
303.13	77.88
303.36	86.88
303.59	78.88
303.82	91.88
304.051	89.88
304.281	87.88
304.511	81.88
304.741	77.88
304.971	76.88
305.201	76.88
305.431	87.88
305.661	75.88
305.891	75.88
306.121	84.88
306.352	84.88
306.582	90.88
306.812	90.88
307.042	82.88
307.272	84.88
307.502	83.88
307.731	65.88
307.961	88.88
308.191	90.88
308.421	81.88
308.651	77.88
308.881	85.88
309.111	82.88
309.341	77.88
309.571	90.88
309.8	84.88
310.03	89.88
310.26	104.88
310.49	85.88
310.72	89.88
310.949	86.88
311.179	89.88
311.409	82.88
311.639	89.88
311.868	75.88
312.098	87.88
312.328	83.88
312.557	85.88
312.787	82.88
313.017	79.88
313.246	88.88
313.476	81.88
313.706	88.88
313.935	89.88
314.165	93.88
314.394	80.88
314.624	76.88
314.853	84.88
315.083	78.88
315.312	72.88
315.542	91.88
315.771	74.88
316.001	80.88
316.23	92.88
316.46	84.88
316.689	83.88
316.919	77.88
317.148	84.88
317.377	77.88
317.607	82.88
317.836	96.88
318.065	73.88
318.295	84.88
318.524	81.88
318.753	88.88
318.983	88.88
319.212	92.88
319.441	84.88
319.67	79.88
319.9	91.88
320.129	85.88
320.358	81.88
320.587	78.88
320.816	94.88
321.046	82.88
321.275	83.88
321.504	84.88
321.733	66.88
321.962	78.88
322.191	77.88
322.42	82.88
322.649	89.88
322.878	85.88
323.108	92.88
323.337	91.88
323.566	76.88
323.795	75.88
324.024	80.88
324.253	87.88
324.482	102.88
324.71	73.88
324.939	84.88
325.168	74.88
325.397	99.88
325.626	75.88
325.855	90.88
326.084	79.88
326.313	80.88
326.542	87.88
326.77	99.88
326.999	86.88
327.228	88.88
327.457	77.88
327.686	83.88
327.914	80.88
328.143	83.88
328.372	89.88
328.6	78.88
328.829	79.88
329.058	95.88
329.287	85.88
329.515	87.88
329.744	85.88
329.972	86.88
330.201	94.88
330.43	84.88
330.658	84.88
330.887	81.88
331.115	80.88
331.344	86.88
331.572	84.88
331.801	71.88
332.03	74.88
332.258	73.88
332.486	82.88
332.715	92.88
332.943	76.88
333.172	70.88
333.4	82.88
333.629	81.88
333.857	87.88
334.085	79.88
334.314	69.88
334.542	89.88
334.771	83.88
334.999	77.88
335.227	77.88
335.455	82.88
335.684	81.88
335.912	86.88
336.14	80.88
336.369	85.88
336.597	79.88
336.825	85.88
337.053	83.88
337.281	92.88
337.51	88.88
337.738	89.88
337.966	92.88
338.194	67.88
338.422	86.88
338.65	93.88
338.878	85.88
339.106	85.88
339.334	96.88
339.562	78.88
339.79	74.88
340.018	94.88
340.246	93.88
340.474	76.88
340.702	91.88
340.93	79.88
341.158	69.88
341.386	81.88
341.614	77.88
341.842	85.88
342.07	74.88
342.298	70.88
342.526	75.88
342.754	81.88
342.981	79.88
343.209	73.88
343.437	85.88
343.665	79.88
343.893	67.88
344.12	80.88
344.348	71.88
344.576	73.88
344.804	64.88
345.031	89.88
345.259	72.88
345.487	67.88
345.714	74.88
345.942	77.88
346.17	89.88
346.397	84.88
346.625	89.88
346.853	81.88
347.08	76.88
347.308	83.88
347.535	70.88
347.763	88.88
347.99	82.88
348.218	90.88
348.445	83.88
348.673	71.88
348.9	97.88
349.128	87.88
349.355	89.88
349.583	76.88
349.81	85.88
350.037	82.88
350.265	86.88
350.492	79.88
350.72	70.88
350.947	90.88
351.174	92.88
351.402	85.88
351.629	86.88
351.856	89.88
352.083	85.88
352.311	79.88
352.538	75.88
352.765	79.88
352.992	87.88
353.22	88.88
353.447	64.88
353.674	82.88
353.901	87.88
354.128	78.88
354.355	82.88
354.583	80.88
354.81	72.88
355.037	91.88
355.264	88.88
355.491	95.88
355.718	74.88
355.945	81.88
356.172	81.88
356.399	80.88
356.626	96.88
356.853	79.88
357.08	91.88
357.307	91.88
357.534	80.88
357.761	74.88
357.988	82.88
358.215	79.88
358.441	88.88
358.668	93.88
358.895	86.88
359.122	84.88
359.349	81.88
359.576	69.88
359.802	80.88
360.029	76.88
360.256	75.88
360.483	77.88
360.709	84.88
360.936	74.88
361.163	87.88
361.39	82.88
361.616	69.88
361.843	76.88
362.07	73.88
362.296	81.88
362.523	93.88
362.749	76.88
362.976	86.88
363.203	80.88
363.429	85.88
363.656	92.88
363.882	63.88
364.109	80.88
364.335	64.88
364.562	84.88
364.788	75.88
365.015	83.88
365.241	85.88
365.468	88.88
365.694	61.88
365.92	67.88
366.147	75.88
366.373	83.88
366.599	77.88
366.826	76.88
367.052	75.88
367.278	88.88
367.505	80.88
367.731	84.88
367.957	81.88
368.184	98.88
368.41	69.88
368.636	77.88
368.862	81.88
369.089	79.88
369.315	80.88
369.541	82.88
369.767	81.88
369.993	82.88
370.219	87.88
370.445	78.88
370.672	73.88
370.898	77.88
371.124	105.88
371.35	92.88
371.576	82.88
371.802	90.88
372.028	67.88
372.254	106.88
372.48	71.88
372.706	74.88
372.932	69.88
373.158	97.88
373.384	78.88
373.61	89.88
373.835	79.88
374.061	83.88
374.287	86.88
374.513	61.88
374.739	79.88
374.965	73.88
375.191	74.88
375.416	75.88
375.642	91.88
375.868	80.88
376.094	68.88
376.319	78.88
376.545	77.88
376.771	72.88
376.997	76.88
377.222	84.88
377.448	81.88
377.674	79.88
377.899	85.88
378.125	84.88
378.35	79.88
378.576	70.88
378.802	88.88
379.027	75.88
379.253	81.88
379.478	83.88
379.704	68.88
379.929	71.88
380.155	72.88
380.38	72.88
380.606	71.88
380.831	85.88
381.057	88.88
381.282	79.88
381.507	75.88
381.733	68.88
381.958	77.88
382.184	68.88
382.409	89.88
382.634	81.88
382.86	82.88
383.085	69.88
383.31	76.88
383.535	69.88
383.761	89.88
383.986	90.88
384.211	68.88
384.436	72.88
384.662	75.88
384.887	74.88
385.112	78.88
385.337	82.88
385.562	90.88
385.787	76.88
386.013	89.88
386.238	88.88
386.463	87.88
386.688	86.88
386.913	68.88
387.138	83.88
387.363	91.88
387.588	92.88
387.813	77.88
388.038	76.88
388.263	81.88
388.488	77.88
388.713	69.88
388.938	83.88
389.163	68.88
389.387	67.88
389.612	73.88
389.837	82.88
390.062	85.88
390.287	78.88
390.512	86.88
390.736	76.88
390.961	76.88
391.186	84.88
391.411	80.88
391.636	81.88
391.86	80.88
392.085	80.88
392.31	87.88
392.534	85.88
392.759	75.88
392.984	83.88
393.208	86.88
393.433	87.88
393.658	69.88
393.882	83.88
394.107	73.88
394.331	93.88
394.556	81.88
394.78	60.88
395.005	83.88
395.229	90.88
395.454	72.88
395.678	79.88
395.903	66.88
396.127	100.88
396.352	86.88
396.576	93.88
396.801	95.88
397.025	80.88
397.249	87.88
397.474	77.88
397.698	88.88
397.922	85.88
398.147	77.88
398.371	77.88
398.595	69.88
398.82	69.88
399.044	84.88
399.268	83.88
399.492	83.88
399.717	80.88
399.941	79.88
400.165	74.88
400.389	82.88
400.613	65.88
400.837	75.88
401.062	85.88
401.286	96.88
401.51	76.88
401.734	85.88
401.958	70.88
402.182	76.88
402.406	73.88
402.63	78.88
402.854	81.88
403.078	72.88
403.302	78.88
403.526	71.88
403.75	79.88
403.974	82.88
404.198	74.88
404.422	75.88
404.645	75.88
404.869	74.88
405.093	81.88
405.317	87.88
405.541	82.88
405.765	68.88
405.988	70.88
406.212	82.88
406.436	97.88
406.66	84.88
406.883	82.88
407.107	70.88
407.331	68.88
407.555	85.88
407.778	75.88
408.002	70.88
408.226	73.88
408.449	95.88
408.673	82.88
408.896	85.88
409.12	80.88
409.344	80.88
409.567	80.88
409.791	76.88
410.014	79.88
410.238	81.88
410.461	97.88
410.685	83.88
410.908	75.88
411.132	88.88
411.355	90.88
411.578	88.88
411.802	91.88
412.025	91.88
412.249	88.88
412.472	91.88
412.695	87.88
412.919	93.88
413.142	80.88
413.365	84.88
413.589	83.88
413.812	89.88
414.035	97.88
414.258	92.88
414.482	85.88
414.705	83.88
414.928	92.88
415.151	85.88
415.374	78.88
415.597	79.88
415.821	81.88
416.044	96.88
416.267	82.88
416.49	82.88
416.713	87.88
416.936	84.88
417.159	80.88
417.382	80.88
417.605	83.88
417.828	83.88
418.051	85.88
418.274	63.88
418.497	85.88
418.72	76.88
418.943	90.88
419.166	94.88
419.389	71.88
419.611	93.88
419.834	90.88
420.057	76.88
420.28	74.88
420.503	81.88
420.726	82.88
420.948	94.88
421.171	77.88
421.394	94.88
421.617	94.88
421.839	87.88
422.062	76.88
422.285	79.88
422.507	91.88
422.73	98.88
422.953	95.88
423.175	86.88
423.398	81.88
423.621	97.88
423.843	74.88
424.066	97.88
424.288	90.88
424.511	95.88
424.733	87.88
424.956	98.88
425.178	87.88
425.401	88.88
425.623	72.88
425.846	80.88
426.068	83.88
426.291	77.88
426.513	88.88
426.735	87.88
426.958	89.88
427.18	93.88
427.402	94.88
427.625	86.88
427.847	89.88
428.069	83.88
428.292	75.88
428.514	78.88
428.736	86.88
428.958	94.88
429.181	87.88
429.403	91.88
429.625	99.88
429.847	96.88
430.069	87.88
430.292	84.88
430.514	71.88
430.736	89.88
430.958	84.88
431.18	75.88
431.402	77.88
431.624	76.88
431.846	85.88
432.068	80.88
432.29	73.88
432.512	81.88
432.734	83.88
432.956	76.88
433.178	81.88
433.4	84.88
433.622	98.88
433.844	93.88
434.066	89.88
434.287	93.88
434.509	84.88
434.731	79.88
434.953	86.88
435.175	85.88
435.397	84.88
435.618	74.88
435.84	79.88
436.062	82.88
436.284	82.88
436.505	89.88
436.727	86.88
436.949	79.88
437.17	90.88
437.392	93.88
437.614	91.88
437.835	84.88
438.057	78.88
438.278	91.88
438.5	90.88
438.721	74.88
438.943	80.88
439.165	92.88
439.386	100.88
439.608	91.88
439.829	83.88
440.05	97.88
440.272	85.88
440.493	85.88
440.715	100.88
440.936	80.88
441.158	98.88
441.379	86.88
441.6	70.88
441.822	87.88
442.043	88.88
442.264	75.88
442.486	101.88
442.707	80.88
442.928	96.88
443.149	85.88
443.371	80.88
443.592	93.88
443.813	86.88
444.034	89.88
444.255	82.88
444.476	83.88
444.698	80.88
444.919	89.88
445.14	221.88
445.361	157.88
445.582	99.88
445.803	107.88
446.024	88.88
446.245	96.88
446.466	106.88
446.687	91.88
446.908	100.88
447.129	79.88
447.35	82.88
447.571	84.88
447.792	90.88
448.013	92.88
448.234	102.88
448.455	95.88
448.675	95.88
448.896	87.88
449.117	76.88
449.338	93.88
449.559	86.88
449.779	87.88
450	93.88
450.221	90.88
450.442	89.88
450.662	84.88
450.883	77.88
451.104	83.88
451.324	85.88
451.545	88.88
451.766	88.88
451.986	80.88
452.207	76.88
452.428	81.88
452.648	78.88
452.869	84.88
453.089	86.88
453.31	69.88
453.53	77.88
453.751	89.88
453.971	90.88
454.192	91.88
454.412	73.88
454.633	81.88
454.853	92.88
455.073	80.88
455.294	87.88
455.514	72.88
455.734	91.88
455.955	85.88
456.175	87.88
456.395	78.88
456.616	77.88
456.836	76.88
457.056	91.88
457.276	97.88
457.497	81.88
457.717	96.88
457.937	71.88
458.157	87.88
458.377	81.88
458.598	96.88
458.818	99.88
459.038	87.88
459.258	81.88
459.478	63.88
459.698	85.88
459.918	95.88
460.138	99.88
460.358	91.88
460.578	102.88
460.798	77.88
461.018	81.88
461.238	82.88
461.458	67.88
461.678	90.88
461.898	82.88
462.118	83.88
462.338	85.88
462.558	81.88
462.777	81.88
462.997	85.88
463.217	79.88
463.437	65.88
463.657	82.88
463.876	85.88
464.096	82.88
464.316	87.88
464.536	81.88
464.755	83.88
464.975	81.88
465.195	85.88
465.414	94.88
465.634	74.88
465.854	88.88
466.073	86.88
466.293	78.88
466.512	83.88
466.732	92.88
466.951	76.88
467.171	99.88
467.391	85.88
467.61	85.88
467.829	105.88
468.049	91.88
468.268	93.88
468.488	101.88
468.707	97.88
468.927	100.88
469.146	87.88
469.365	92.88
469.585	96.88
469.804	81.88
470.023	79.88
470.243	88.88
470.462	89.88
470.681	91.88
470.901	84.88
471.12	96.88
471.339	84.88
471.558	97.88
471.777	95.88
471.997	93.88
472.216	88.88
472.435	84.88
472.654	91.88
472.873	89.88
473.092	89.88
473.311	92.88
473.53	71.88
473.749	90.88
473.968	88.88
474.187	92.88
474.406	87.88
474.625	101.88
474.844	83.88
475.063	85.88
475.282	93.88
475.501	101.88
475.72	82.88
475.939	85.88
476.158	82.88
476.377	94.88
476.596	64.88
476.814	67.88
477.033	66.88
477.252	91.88
477.471	91.88
477.69	82.88
477.908	77.88
478.127	92.88
478.346	73.88
478.564	86.88
478.783	87.88
479.002	93.88
479.22	97.88
479.439	78.88
479.658	89.88
479.876	82.88
480.095	81.88
480.313	85.88
480.532	86.88
480.751	70.88
480.969	85.88
481.188	77.88
481.406	75.88
481.624	72.88
481.843	82.88
482.061	75.88
482.28	91.88
482.498	88.88
482.717	80.88
482.935	91.88
483.153	80.88
483.372	97.88
483.59	82.88
483.808	91.88
484.027	93.88
484.245	92.88
484.463	98.88
484.681	96.88
484.9	89.88
485.118	82.88
485.336	73.88
485.554	94.88
485.772	99.88
485.99	68.88
486.209	100.88
486.427	76.88
486.645	74.88
486.863	83.88
487.081	90.88
487.299	80.88
487.517	107.88
487.735	92.88
487.953	91.88
488.171	107.88
488.389	89.88
488.607	85.88
488.825	91.88
489.043	87.88
489.261	88.88
489.479	96.88
489.696	96.88
489.914	91.88
490.132	100.88
490.35	98.88
490.568	95.88
490.786	87.88
491.003	92.88
491.221	95.88
491.439	96.88
491.657	99.88
491.874	93.88
492.092	97.88
492.31	96.88
492.527	105.88
492.745	109.88
492.963	92.88
493.18	95.88
493.398	113.88
493.615	104.88
493.833	96.88
494.05	84.88
494.268	104.88
494.485	76.88
494.703	85.88
494.92	104.88
495.138	99.88
495.355	97.88
495.573	104.88
495.79	103.88
496.008	91.88
496.225	95.88
496.442	78.88
496.66	99.88
496.877	96.88
497.094	99.88
497.312	100.88
497.529	93.88
497.746	92.88
497.963	92.88
498.181	75.88
498.398	80.88
498.615	85.88
498.832	97.88
499.049	86.88
499.267	84.88
499.484	96.88
499.701	91.88
499.918	102.88
500.135	89.88
500.352	81.88
500.569	93.88
500.786	112.88
501.003	97.88
501.22	89.88
501.437	89.88
501.654	101.88
501.871	90.88
502.088	76.88
502.305	90.88
502.522	86.88
502.739	81.88
502.956	74.88
503.172	87.88
503.389	94.88
503.606	89.88
503.823	83.88
504.04	87.88
504.256	87.88
504.473	82.88
504.69	79.88
504.907	88.88
505.123	80.88
505.34	88.88
505.557	83.88
505.773	80.88
505.99	87.88
506.207	92.88
506.423	87.88
506.64	85.88
506.856	94.88
507.073	74.88
507.289	86.88
507.506	86.88
507.722	77.88
507.939	81.88
508.155	99.88
508.372	93.88
508.588	87.88
508.805	81.88
509.021	83.88
509.238	75.88
509.454	84.88
509.67	83.88
509.887	84.88
510.103	80.88
510.319	69.88
510.536	79.88
510.752	89.88
510.968	88.88
511.184	93.88
511.401	86.88
511.617	81.88
511.833	82.88
512.049	82.88
512.265	94.88
512.481	77.88
512.698	93.88
512.914	84.88
513.13	83.88
513.346	85.88
513.562	83.88
513.778	78.88
513.994	87.88
514.21	87.88
514.426	78.88
514.642	84.88
514.858	83.88
515.074	83.88
515.29	75.88
515.506	65.88
515.721	71.88
515.937	81.88
516.153	82.88
516.369	84.88
516.585	82.88
516.801	82.88
517.016	90.88
517.232	89.88
517.448	83.88
517.664	84.88
517.879	84.88
518.095	62.88
518.311	79.88
518.527	92.88
518.742	90.88
518.958	101.88
