Data from Zn(NO3)2Standard.Agarose3%.GreenCap.LampEnergy5.5.E.O_HRD10591_15-03-26-768.txt Node
Date: Mon Jul 22 15:03:26 EDT 2019
User: cochatt
Spectrometer: HR+D1059
Trigger mode: 1
Integration Time (sec): 1.000000E-1
Scans to average: 1
Electric dark correction enabled: true
Nonlinearity correction enabled: false
Boxcar width: 0
XAxis mode: Wavelengths
Number of Pixels in Spectrum: 2048
>>>>>Begin Spectral Data<<<<<
223.165	-12.06
223.4	-12.06
223.635	-12.06
223.869	-21.06
224.104	-19.06
224.338	-9.06
224.573	-5.06
224.808	-25.06
225.042	-15.06
225.277	-5.06
225.511	-1.06
225.746	-3.06
225.98	-7.06
226.215	30.94
226.449	12.94
226.683	24.94
226.918	22.94
227.152	30.94
227.387	34.94
227.621	48.94
227.856	37.94
228.09	53.94
228.324	41.94
228.559	49.94
228.793	43.94
229.027	54.94
229.262	68.94
229.496	70.94
229.73	67.94
229.964	67.94
230.199	62.94
230.433	88.94
230.667	84.94
230.901	78.94
231.136	78.94
231.37	93.94
231.604	78.94
231.838	89.94
232.072	70.94
232.306	73.94
232.541	70.94
232.775	79.94
233.009	80.94
233.243	78.94
233.477	87.94
233.711	81.94
233.945	82.94
234.179	73.94
234.413	83.94
234.647	83.94
234.881	92.94
235.115	88.94
235.349	95.94
235.583	91.94
235.817	80.94
236.051	64.94
236.285	68.94
236.519	75.94
236.753	75.94
236.987	72.94
237.221	77.94
237.455	70.94
237.689	78.94
237.922	78.94
238.156	69.94
238.39	75.94
238.624	78.94
238.858	72.94
239.091	81.94
239.325	84.94
239.559	82.94
239.793	80.94
240.027	73.94
240.26	75.94
240.494	86.94
240.728	83.94
240.961	86.94
241.195	80.94
241.429	73.94
241.662	78.94
241.896	94.94
242.13	80.94
242.363	83.94
242.597	83.94
242.83	74.94
243.064	79.94
243.298	72.94
243.531	90.94
243.765	88.94
243.998	64.94
244.232	88.94
244.465	82.94
244.699	81.94
244.932	72.94
245.166	78.94
245.399	77.94
245.633	89.94
245.866	80.94
246.099	78.94
246.333	89.94
246.566	79.94
246.8	82.94
247.033	77.94
247.266	73.94
247.5	71.94
247.733	81.94
247.966	90.94
248.2	72.94
248.433	83.94
248.666	87.94
248.899	79.94
249.133	88.94
249.366	66.94
249.599	76.94
249.832	73.94
250.066	84.94
250.299	77.94
250.532	82.94
250.765	76.94
250.998	84.94
251.231	71.94
251.465	77.94
251.698	84.94
251.931	72.94
252.164	77.94
252.397	70.94
252.63	89.94
252.863	82.94
253.096	93.94
253.329	92.94
253.562	76.94
253.795	88.94
254.028	91.94
254.261	79.94
254.494	94.94
254.727	78.94
254.96	80.94
255.193	72.94
255.426	78.94
255.659	81.94
255.892	85.94
256.124	74.94
256.357	87.94
256.59	76.94
256.823	74.94
257.056	84.94
257.289	84.94
257.521	77.94
257.754	76.94
257.987	87.94
258.22	87.94
258.452	86.94
258.685	72.94
258.918	79.94
259.151	83.94
259.383	67.94
259.616	74.94
259.849	70.94
260.081	89.94
260.314	83.94
260.547	82.94
260.779	87.94
261.012	79.94
261.244	76.94
261.477	81.94
261.71	84.94
261.942	84.94
262.175	81.94
262.407	87.94
262.64	80.94
262.872	84.94
263.105	76.94
263.337	84.94
263.57	91.94
263.802	75.94
264.035	84.94
264.267	84.94
264.499	83.94
264.732	74.94
264.964	72.94
265.197	82.94
265.429	75.94
265.661	66.94
265.894	84.94
266.126	74.94
266.358	81.94
266.591	81.94
266.823	84.94
267.055	86.94
267.287	79.94
267.52	86.94
267.752	82.94
267.984	73.94
268.216	96.94
268.448	93.94
268.681	76.94
268.913	85.94
269.145	74.94
269.377	91.94
269.609	77.94
269.841	83.94
270.073	85.94
270.306	82.94
270.538	91.94
270.77	93.94
271.002	84.94
271.234	79.94
271.466	75.94
271.698	84.94
271.93	77.94
272.162	83.94
272.394	78.94
272.626	77.94
272.858	75.94
273.09	72.94
273.322	77.94
273.553	73.94
273.785	101.94
274.017	84.94
274.249	75.94
274.481	81.94
274.713	83.94
274.945	84.94
275.176	84.94
275.408	85.94
275.64	78.94
275.872	84.94
276.104	88.94
276.335	84.94
276.567	87.94
276.799	74.94
277.031	70.94
277.262	85.94
277.494	87.94
277.726	77.94
277.957	89.94
278.189	93.94
278.421	92.94
278.652	90.94
278.884	84.94
279.115	88.94
279.347	76.94
279.579	84.94
279.81	90.94
280.042	81.94
280.273	84.94
280.505	78.94
280.736	81.94
280.968	85.94
281.199	76.94
281.431	76.94
281.662	85.94
281.894	93.94
282.125	76.94
282.356	78.94
282.588	84.94
282.819	91.94
283.051	86.94
283.282	92.94
283.513	88.94
283.745	89.94
283.976	82.94
284.207	81.94
284.439	87.94
284.67	84.94
284.901	90.94
285.132	94.94
285.364	85.94
285.595	94.94
285.826	98.94
286.057	73.94
286.288	78.94
286.52	78.94
286.751	69.94
286.982	87.94
287.213	77.94
287.444	84.94
287.675	83.94
287.906	79.94
288.138	71.94
288.369	92.94
288.6	93.94
288.831	105.94
289.062	93.94
289.293	89.94
289.524	74.94
289.755	83.94
289.986	80.94
290.217	81.94
290.448	79.94
290.679	92.94
290.91	88.94
291.141	78.94
291.371	81.94
291.602	83.94
291.833	77.94
292.064	86.94
292.295	80.94
292.526	97.94
292.757	71.94
292.987	89.94
293.218	89.94
293.449	84.94
293.68	82.94
293.91	73.94
294.141	84.94
294.372	74.94
294.603	100.94
294.833	106.94
295.064	86.94
295.295	83.94
295.525	85.94
295.756	79.94
295.987	72.94
296.217	90.94
296.448	71.94
296.679	74.94
296.909	93.94
297.14	86.94
297.37	92.94
297.601	91.94
297.831	68.94
298.062	76.94
298.292	83.94
298.523	93.94
298.753	97.94
298.984	96.94
299.214	83.94
299.445	75.94
299.675	94.94
299.905	69.94
300.136	65.94
300.366	83.94
300.597	84.94
300.827	82.94
301.057	80.94
301.288	65.94
301.518	82.94
301.748	85.94
301.979	87.94
302.209	81.94
302.439	67.94
302.669	75.94
302.9	78.94
303.13	99.94
303.36	77.94
303.59	84.94
303.82	94.94
304.051	77.94
304.281	79.94
304.511	88.94
304.741	85.94
304.971	93.94
305.201	97.94
305.431	96.94
305.661	83.94
305.891	81.94
306.121	85.94
306.352	98.94
306.582	86.94
306.812	88.94
307.042	74.94
307.272	85.94
307.502	80.94
307.731	82.94
307.961	77.94
308.191	71.94
308.421	76.94
308.651	72.94
308.881	81.94
309.111	77.94
309.341	85.94
309.571	85.94
309.8	98.94
310.03	82.94
310.26	81.94
310.49	88.94
310.72	85.94
310.949	100.94
311.179	81.94
311.409	80.94
311.639	75.94
311.868	76.94
312.098	72.94
312.328	75.94
312.557	88.94
312.787	81.94
313.017	83.94
313.246	92.94
313.476	88.94
313.706	82.94
313.935	97.94
314.165	90.94
314.394	77.94
314.624	84.94
314.853	89.94
315.083	80.94
315.312	80.94
315.542	84.94
315.771	100.94
316.001	85.94
316.23	76.94
316.46	90.94
316.689	70.94
316.919	77.94
317.148	100.94
317.377	90.94
317.607	101.94
317.836	77.94
318.065	94.94
318.295	98.94
318.524	84.94
318.753	86.94
318.983	98.94
319.212	89.94
319.441	73.94
319.67	81.94
319.9	96.94
320.129	84.94
320.358	81.94
320.587	83.94
320.816	97.94
321.046	86.94
321.275	82.94
321.504	92.94
321.733	70.94
321.962	75.94
322.191	78.94
322.42	83.94
322.649	80.94
322.878	78.94
323.108	89.94
323.337	83.94
323.566	81.94
323.795	71.94
324.024	83.94
324.253	78.94
324.482	87.94
324.71	74.94
324.939	92.94
325.168	90.94
325.397	78.94
325.626	78.94
325.855	101.94
326.084	96.94
326.313	83.94
326.542	83.94
326.77	88.94
326.999	84.94
327.228	75.94
327.457	76.94
327.686	85.94
327.914	98.94
328.143	97.94
328.372	88.94
328.6	82.94
328.829	85.94
329.058	89.94
329.287	81.94
329.515	88.94
329.744	98.94
329.972	99.94
330.201	82.94
330.43	83.94
330.658	74.94
330.887	88.94
331.115	72.94
331.344	83.94
331.572	71.94
331.801	84.94
332.03	76.94
332.258	93.94
332.486	96.94
332.715	88.94
332.943	83.94
333.172	88.94
333.4	86.94
333.629	93.94
333.857	93.94
334.085	88.94
334.314	82.94
334.542	76.94
334.771	88.94
334.999	91.94
335.227	80.94
335.455	80.94
335.684	82.94
335.912	93.94
336.14	81.94
336.369	78.94
336.597	92.94
336.825	83.94
337.053	77.94
337.281	77.94
337.51	60.94
337.738	92.94
337.966	75.94
338.194	83.94
338.422	92.94
338.65	74.94
338.878	88.94
339.106	84.94
339.334	78.94
339.562	92.94
339.79	90.94
340.018	78.94
340.246	77.94
340.474	84.94
340.702	88.94
340.93	67.94
341.158	73.94
341.386	88.94
341.614	81.94
341.842	70.94
342.07	82.94
342.298	84.94
342.526	84.94
342.754	82.94
342.981	93.94
343.209	81.94
343.437	86.94
343.665	86.94
343.893	81.94
344.12	85.94
344.348	82.94
344.576	104.94
344.804	83.94
345.031	70.94
345.259	94.94
345.487	77.94
345.714	85.94
345.942	80.94
346.17	97.94
346.397	77.94
346.625	69.94
346.853	89.94
347.08	82.94
347.308	83.94
347.535	83.94
347.763	80.94
347.99	77.94
348.218	85.94
348.445	89.94
348.673	86.94
348.9	73.94
349.128	74.94
349.355	64.94
349.583	87.94
349.81	77.94
350.037	72.94
350.265	98.94
350.492	73.94
350.72	74.94
350.947	88.94
351.174	100.94
351.402	82.94
351.629	93.94
351.856	74.94
352.083	84.94
352.311	74.94
352.538	80.94
352.765	79.94
352.992	77.94
353.22	85.94
353.447	82.94
353.674	91.94
353.901	81.94
354.128	83.94
354.355	90.94
354.583	95.94
354.81	92.94
355.037	81.94
355.264	94.94
355.491	88.94
355.718	80.94
355.945	89.94
356.172	92.94
356.399	88.94
356.626	84.94
356.853	81.94
357.08	74.94
357.307	83.94
357.534	83.94
357.761	74.94
357.988	93.94
358.215	70.94
358.441	70.94
358.668	80.94
358.895	88.94
359.122	91.94
359.349	92.94
359.576	73.94
359.802	76.94
360.029	92.94
360.256	98.94
360.483	81.94
360.709	65.94
360.936	89.94
361.163	81.94
361.39	89.94
361.616	78.94
361.843	89.94
362.07	80.94
362.296	90.94
362.523	76.94
362.749	69.94
362.976	80.94
363.203	89.94
363.429	79.94
363.656	78.94
363.882	96.94
364.109	94.94
364.335	85.94
364.562	94.94
364.788	71.94
365.015	78.94
365.241	83.94
365.468	83.94
365.694	77.94
365.92	83.94
366.147	83.94
366.373	83.94
366.599	67.94
366.826	87.94
367.052	79.94
367.278	71.94
367.505	74.94
367.731	86.94
367.957	80.94
368.184	76.94
368.41	86.94
368.636	87.94
368.862	70.94
369.089	85.94
369.315	95.94
369.541	72.94
369.767	87.94
369.993	82.94
370.219	74.94
370.445	90.94
370.672	77.94
370.898	66.94
371.124	95.94
371.35	75.94
371.576	81.94
371.802	77.94
372.028	84.94
372.254	91.94
372.48	95.94
372.706	88.94
372.932	77.94
373.158	84.94
373.384	68.94
373.61	85.94
373.835	82.94
374.061	92.94
374.287	89.94
374.513	84.94
374.739	76.94
374.965	69.94
375.191	88.94
375.416	86.94
375.642	86.94
375.868	90.94
376.094	75.94
376.319	80.94
376.545	75.94
376.771	84.94
376.997	79.94
377.222	76.94
377.448	85.94
377.674	75.94
377.899	78.94
378.125	78.94
378.35	93.94
378.576	71.94
378.802	77.94
379.027	83.94
379.253	81.94
379.478	76.94
379.704	90.94
379.929	74.94
380.155	79.94
380.38	84.94
380.606	91.94
380.831	87.94
381.057	83.94
381.282	87.94
381.507	79.94
381.733	88.94
381.958	76.94
382.184	80.94
382.409	84.94
382.634	82.94
382.86	77.94
383.085	72.94
383.31	72.94
383.535	79.94
383.761	76.94
383.986	89.94
384.211	77.94
384.436	84.94
384.662	71.94
384.887	75.94
385.112	92.94
385.337	74.94
385.562	85.94
385.787	72.94
386.013	80.94
386.238	90.94
386.463	84.94
386.688	83.94
386.913	97.94
387.138	78.94
387.363	97.94
387.588	99.94
387.813	102.94
388.038	84.94
388.263	83.94
388.488	83.94
388.713	91.94
388.938	71.94
389.163	82.94
389.387	84.94
389.612	88.94
389.837	92.94
390.062	91.94
390.287	83.94
390.512	83.94
390.736	73.94
390.961	74.94
391.186	86.94
391.411	83.94
391.636	92.94
391.86	88.94
392.085	79.94
392.31	81.94
392.534	92.94
392.759	83.94
392.984	87.94
393.208	87.94
393.433	82.94
393.658	92.94
393.882	81.94
394.107	89.94
394.331	84.94
394.556	68.94
394.78	76.94
395.005	81.94
395.229	84.94
395.454	90.94
395.678	93.94
395.903	91.94
396.127	84.94
396.352	73.94
396.576	85.94
396.801	73.94
397.025	80.94
397.249	73.94
397.474	80.94
397.698	85.94
397.922	89.94
398.147	93.94
398.371	76.94
398.595	84.94
398.82	72.94
399.044	91.94
399.268	82.94
399.492	94.94
399.717	95.94
399.941	93.94
400.165	77.94
400.389	84.94
400.613	96.94
400.837	78.94
401.062	90.94
401.286	89.94
401.51	80.94
401.734	90.94
401.958	73.94
402.182	81.94
402.406	84.94
402.63	93.94
402.854	61.94
403.078	83.94
403.302	81.94
403.526	76.94
403.75	67.94
403.974	92.94
404.198	95.94
404.422	89.94
404.645	88.94
404.869	80.94
405.093	78.94
405.317	82.94
405.541	94.94
405.765	83.94
405.988	85.94
406.212	89.94
406.436	85.94
406.66	97.94
406.883	82.94
407.107	93.94
407.331	91.94
407.555	90.94
407.778	88.94
408.002	81.94
408.226	77.94
408.449	86.94
408.673	101.94
408.896	93.94
409.12	91.94
409.344	75.94
409.567	82.94
409.791	84.94
410.014	96.94
410.238	81.94
410.461	98.94
410.685	81.94
410.908	100.94
411.132	93.94
411.355	76.94
411.578	96.94
411.802	88.94
412.025	76.94
412.249	73.94
412.472	82.94
412.695	78.94
412.919	89.94
413.142	98.94
413.365	76.94
413.589	84.94
413.812	84.94
414.035	105.94
414.258	83.94
414.482	78.94
414.705	85.94
414.928	89.94
415.151	73.94
415.374	89.94
415.597	85.94
415.821	81.94
416.044	86.94
416.267	83.94
416.49	98.94
416.713	86.94
416.936	78.94
417.159	80.94
417.382	79.94
417.605	76.94
417.828	101.94
418.051	82.94
418.274	89.94
418.497	91.94
418.72	73.94
418.943	82.94
419.166	85.94
419.389	87.94
419.611	94.94
419.834	96.94
420.057	93.94
420.28	88.94
420.503	87.94
420.726	95.94
420.948	84.94
421.171	85.94
421.394	94.94
421.617	80.94
421.839	82.94
422.062	90.94
422.285	86.94
422.507	99.94
422.73	75.94
422.953	87.94
423.175	94.94
423.398	84.94
423.621	91.94
423.843	84.94
424.066	87.94
424.288	88.94
424.511	87.94
424.733	92.94
424.956	96.94
425.178	92.94
425.401	77.94
425.623	90.94
425.846	90.94
426.068	98.94
426.291	87.94
426.513	101.94
426.735	96.94
426.958	88.94
427.18	92.94
427.402	86.94
427.625	102.94
427.847	93.94
428.069	77.94
428.292	84.94
428.514	81.94
428.736	97.94
428.958	83.94
429.181	89.94
429.403	91.94
429.625	94.94
429.847	97.94
430.069	91.94
430.292	89.94
430.514	88.94
430.736	88.94
430.958	93.94
431.18	87.94
431.402	85.94
431.624	81.94
431.846	98.94
432.068	78.94
432.29	80.94
432.512	83.94
432.734	82.94
432.956	91.94
433.178	98.94
433.4	96.94
433.622	92.94
433.844	81.94
434.066	81.94
434.287	79.94
434.509	87.94
434.731	96.94
434.953	86.94
435.175	77.94
435.397	83.94
435.618	77.94
435.84	94.94
436.062	92.94
436.284	90.94
436.505	89.94
436.727	89.94
436.949	78.94
437.17	83.94
437.392	85.94
437.614	89.94
437.835	69.94
438.057	79.94
438.278	78.94
438.5	81.94
438.721	101.94
438.943	97.94
439.165	80.94
439.386	80.94
439.608	92.94
439.829	94.94
440.05	83.94
440.272	91.94
440.493	78.94
440.715	88.94
440.936	102.94
441.158	84.94
441.379	98.94
441.6	101.94
441.822	92.94
442.043	87.94
442.264	96.94
442.486	88.94
442.707	73.94
442.928	97.94
443.149	77.94
443.371	77.94
443.592	94.94
443.813	73.94
444.034	106.94
444.255	90.94
444.476	88.94
444.698	91.94
444.919	93.94
445.14	230.94
445.361	153.94
445.582	77.94
445.803	91.94
446.024	83.94
446.245	95.94
446.466	84.94
446.687	99.94
446.908	85.94
447.129	81.94
447.35	85.94
447.571	95.94
447.792	90.94
448.013	96.94
448.234	86.94
448.455	84.94
448.675	82.94
448.896	97.94
449.117	86.94
449.338	87.94
449.559	86.94
449.779	96.94
450	82.94
450.221	89.94
450.442	88.94
450.662	88.94
450.883	88.94
451.104	96.94
451.324	87.94
451.545	85.94
451.766	77.94
451.986	92.94
452.207	90.94
452.428	74.94
452.648	77.94
452.869	84.94
453.089	97.94
453.31	93.94
453.53	96.94
453.751	87.94
453.971	89.94
454.192	75.94
454.412	88.94
454.633	79.94
454.853	76.94
455.073	89.94
455.294	86.94
455.514	102.94
455.734	98.94
455.955	102.94
456.175	83.94
456.395	81.94
456.616	81.94
456.836	82.94
457.056	78.94
457.276	73.94
457.497	103.94
457.717	78.94
457.937	70.94
458.157	91.94
458.377	82.94
458.598	78.94
458.818	104.94
459.038	73.94
459.258	85.94
459.478	94.94
459.698	69.94
459.918	94.94
460.138	90.94
460.358	93.94
460.578	94.94
460.798	83.94
461.018	71.94
461.238	85.94
461.458	89.94
461.678	89.94
461.898	84.94
462.118	93.94
462.338	83.94
462.558	80.94
462.777	77.94
462.997	73.94
463.217	96.94
463.437	83.94
463.657	89.94
463.876	97.94
464.096	94.94
464.316	82.94
464.536	76.94
464.755	98.94
464.975	82.94
465.195	84.94
465.414	88.94
465.634	88.94
465.854	53.94
466.073	80.94
466.293	83.94
466.512	86.94
466.732	84.94
466.951	84.94
467.171	76.94
467.391	81.94
467.61	103.94
467.829	90.94
468.049	93.94
468.268	98.94
468.488	88.94
468.707	88.94
468.927	88.94
469.146	96.94
469.365	100.94
469.585	77.94
469.804	78.94
470.023	93.94
470.243	87.94
470.462	84.94
470.681	94.94
470.901	94.94
471.12	91.94
471.339	104.94
471.558	88.94
471.777	83.94
471.997	90.94
472.216	92.94
472.435	97.94
472.654	66.94
472.873	82.94
473.092	94.94
473.311	76.94
473.53	88.94
473.749	90.94
473.968	96.94
474.187	88.94
474.406	85.94
474.625	88.94
474.844	90.94
475.063	78.94
475.282	70.94
475.501	73.94
475.72	88.94
475.939	93.94
476.158	87.94
476.377	83.94
476.596	84.94
476.814	96.94
477.033	84.94
477.252	109.94
477.471	91.94
477.69	99.94
477.908	94.94
478.127	109.94
478.346	91.94
478.564	99.94
478.783	104.94
479.002	78.94
479.22	88.94
479.439	100.94
479.658	84.94
479.876	91.94
480.095	78.94
480.313	100.94
480.532	93.94
480.751	99.94
480.969	90.94
481.188	83.94
481.406	79.94
481.624	75.94
481.843	82.94
482.061	83.94
482.28	87.94
482.498	103.94
482.717	90.94
482.935	80.94
483.153	84.94
483.372	98.94
483.59	88.94
483.808	78.94
484.027	82.94
484.245	89.94
484.463	86.94
484.681	118.94
484.9	86.94
485.118	93.94
485.336	94.94
485.554	84.94
485.772	77.94
485.99	76.94
486.209	86.94
486.427	81.94
486.645	96.94
486.863	92.94
487.081	89.94
487.299	94.94
487.517	90.94
487.735	98.94
487.953	109.94
488.171	98.94
488.389	103.94
488.607	92.94
488.825	84.94
489.043	101.94
489.261	88.94
489.479	105.94
489.696	96.94
489.914	85.94
490.132	95.94
490.35	84.94
490.568	88.94
490.786	103.94
491.003	104.94
491.221	92.94
491.439	106.94
491.657	98.94
491.874	101.94
492.092	97.94
492.31	103.94
492.527	97.94
492.745	100.94
492.963	98.94
493.18	99.94
493.398	103.94
493.615	92.94
493.833	106.94
494.05	112.94
494.268	100.94
494.485	100.94
494.703	96.94
494.92	100.94
495.138	90.94
495.355	94.94
495.573	85.94
495.79	91.94
496.008	105.94
496.225	92.94
496.442	83.94
496.66	95.94
496.877	82.94
497.094	96.94
497.312	96.94
497.529	101.94
497.746	106.94
497.963	82.94
498.181	85.94
498.398	92.94
498.615	98.94
498.832	86.94
499.049	104.94
499.267	100.94
499.484	87.94
499.701	93.94
499.918	92.94
500.135	85.94
500.352	87.94
500.569	100.94
500.786	105.94
501.003	87.94
501.22	96.94
501.437	84.94
501.654	89.94
501.871	96.94
502.088	93.94
502.305	91.94
502.522	91.94
502.739	76.94
502.956	91.94
503.172	93.94
503.389	83.94
503.606	87.94
503.823	92.94
504.04	97.94
504.256	76.94
504.473	77.94
504.69	84.94
504.907	102.94
505.123	95.94
505.34	86.94
505.557	95.94
505.773	81.94
505.99	98.94
506.207	92.94
506.423	76.94
506.64	77.94
506.856	86.94
507.073	88.94
507.289	95.94
507.506	93.94
507.722	92.94
507.939	93.94
508.155	102.94
508.372	94.94
508.588	83.94
508.805	87.94
509.021	80.94
509.238	78.94
509.454	94.94
509.67	85.94
509.887	84.94
510.103	75.94
510.319	88.94
510.536	83.94
510.752	86.94
510.968	78.94
511.184	78.94
511.401	89.94
511.617	86.94
511.833	76.94
512.049	90.94
512.265	88.94
512.481	85.94
512.698	89.94
512.914	87.94
513.13	82.94
513.346	77.94
513.562	80.94
513.778	96.94
513.994	76.94
514.21	73.94
514.426	90.94
514.642	93.94
514.858	78.94
515.074	90.94
515.29	77.94
515.506	69.94
515.721	81.94
515.937	69.94
516.153	77.94
516.369	74.94
516.585	73.94
516.801	91.94
517.016	92.94
517.232	83.94
517.448	84.94
517.664	80.94
517.879	78.94
518.095	89.94
518.311	82.94
518.527	88.94
