Data from Zn(NO3)2Standard.Agarose3%.GreenCap.LampEnergy10E.O_HRD10591_15-08-25-949.txt Node
Date: Mon Jul 22 15:08:25 EDT 2019
User: cochatt
Spectrometer: HR+D1059
Trigger mode: 1
Integration Time (sec): 1.000000E-1
Scans to average: 1
Electric dark correction enabled: true
Nonlinearity correction enabled: false
Boxcar width: 0
XAxis mode: Wavelengths
Number of Pixels in Spectrum: 2048
>>>>>Begin Spectral Data<<<<<
223.165	-9.69
223.4	-9.69
223.635	-9.69
223.869	-20.69
224.104	-14.69
224.338	-22.69
224.573	-16.69
224.808	-23.69
225.042	0.31
225.277	4.31
225.511	1.31
225.746	-0.69
225.98	9.31
226.215	5.31
226.449	17.31
226.683	19.31
226.918	20.31
227.152	31.31
227.387	41.31
227.621	39.31
227.856	44.31
228.09	39.31
228.324	62.31
228.559	43.31
228.793	54.31
229.027	65.31
229.262	60.31
229.496	74.31
229.73	78.31
229.964	70.31
230.199	73.31
230.433	78.31
230.667	58.31
230.901	72.31
231.136	74.31
231.37	75.31
231.604	87.31
231.838	74.31
232.072	78.31
232.306	82.31
232.541	89.31
232.775	78.31
233.009	67.31
233.243	69.31
233.477	82.31
233.711	88.31
233.945	74.31
234.179	87.31
234.413	83.31
234.647	82.31
234.881	72.31
235.115	71.31
235.349	70.31
235.583	81.31
235.817	84.31
236.051	73.31
236.285	73.31
236.519	57.31
236.753	88.31
236.987	65.31
237.221	76.31
237.455	69.31
237.689	80.31
237.922	61.31
238.156	78.31
238.39	67.31
238.624	73.31
238.858	79.31
239.091	66.31
239.325	78.31
239.559	71.31
239.793	78.31
240.027	76.31
240.26	79.31
240.494	65.31
240.728	70.31
240.961	72.31
241.195	75.31
241.429	85.31
241.662	80.31
241.896	85.31
242.13	70.31
242.363	76.31
242.597	72.31
242.83	78.31
243.064	72.31
243.298	76.31
243.531	79.31
243.765	76.31
243.998	82.31
244.232	85.31
244.465	72.31
244.699	80.31
244.932	74.31
245.166	71.31
245.399	65.31
245.633	68.31
245.866	81.31
246.099	59.31
246.333	94.31
246.566	80.31
246.8	68.31
247.033	93.31
247.266	70.31
247.5	74.31
247.733	79.31
247.966	69.31
248.2	70.31
248.433	74.31
248.666	75.31
248.899	74.31
249.133	74.31
249.366	72.31
249.599	84.31
249.832	76.31
250.066	82.31
250.299	77.31
250.532	90.31
250.765	72.31
250.998	79.31
251.231	73.31
251.465	68.31
251.698	74.31
251.931	74.31
252.164	84.31
252.397	93.31
252.63	75.31
252.863	85.31
253.096	85.31
253.329	80.31
253.562	73.31
253.795	74.31
254.028	77.31
254.261	73.31
254.494	83.31
254.727	69.31
254.96	79.31
255.193	81.31
255.426	77.31
255.659	71.31
255.892	84.31
256.124	69.31
256.357	87.31
256.59	86.31
256.823	80.31
257.056	89.31
257.289	86.31
257.521	73.31
257.754	72.31
257.987	65.31
258.22	83.31
258.452	87.31
258.685	73.31
258.918	88.31
259.151	78.31
259.383	82.31
259.616	84.31
259.849	73.31
260.081	88.31
260.314	72.31
260.547	81.31
260.779	79.31
261.012	90.31
261.244	68.31
261.477	79.31
261.71	68.31
261.942	76.31
262.175	76.31
262.407	68.31
262.64	73.31
262.872	81.31
263.105	71.31
263.337	84.31
263.57	89.31
263.802	81.31
264.035	90.31
264.267	84.31
264.499	76.31
264.732	78.31
264.964	88.31
265.197	61.31
265.429	74.31
265.661	62.31
265.894	69.31
266.126	82.31
266.358	73.31
266.591	74.31
266.823	88.31
267.055	68.31
267.287	82.31
267.52	82.31
267.752	84.31
267.984	84.31
268.216	85.31
268.448	92.31
268.681	76.31
268.913	81.31
269.145	86.31
269.377	68.31
269.609	72.31
269.841	87.31
270.073	79.31
270.306	85.31
270.538	88.31
270.77	80.31
271.002	77.31
271.234	82.31
271.466	66.31
271.698	86.31
271.93	69.31
272.162	74.31
272.394	80.31
272.626	80.31
272.858	74.31
273.09	88.31
273.322	83.31
273.553	81.31
273.785	79.31
274.017	75.31
274.249	66.31
274.481	89.31
274.713	87.31
274.945	90.31
275.176	76.31
275.408	93.31
275.64	71.31
275.872	72.31
276.104	74.31
276.335	79.31
276.567	80.31
276.799	88.31
277.031	75.31
277.262	79.31
277.494	76.31
277.726	66.31
277.957	79.31
278.189	83.31
278.421	74.31
278.652	76.31
278.884	68.31
279.115	97.31
279.347	76.31
279.579	73.31
279.81	89.31
280.042	85.31
280.273	80.31
280.505	80.31
280.736	74.31
280.968	87.31
281.199	83.31
281.431	67.31
281.662	93.31
281.894	83.31
282.125	84.31
282.356	84.31
282.588	67.31
282.819	89.31
283.051	91.31
283.282	86.31
283.513	98.31
283.745	78.31
283.976	76.31
284.207	79.31
284.439	89.31
284.67	85.31
284.901	76.31
285.132	74.31
285.364	79.31
285.595	79.31
285.826	87.31
286.057	82.31
286.288	85.31
286.52	93.31
286.751	87.31
286.982	78.31
287.213	65.31
287.444	78.31
287.675	85.31
287.906	84.31
288.138	88.31
288.369	80.31
288.6	82.31
288.831	82.31
289.062	81.31
289.293	85.31
289.524	67.31
289.755	75.31
289.986	82.31
290.217	72.31
290.448	76.31
290.679	86.31
290.91	96.31
291.141	78.31
291.371	74.31
291.602	72.31
291.833	78.31
292.064	84.31
292.295	64.31
292.526	72.31
292.757	82.31
292.987	77.31
293.218	82.31
293.449	78.31
293.68	81.31
293.91	83.31
294.141	90.31
294.372	86.31
294.603	71.31
294.833	72.31
295.064	87.31
295.295	79.31
295.525	89.31
295.756	77.31
295.987	93.31
296.217	89.31
296.448	78.31
296.679	72.31
296.909	76.31
297.14	64.31
297.37	71.31
297.601	77.31
297.831	69.31
298.062	76.31
298.292	71.31
298.523	74.31
298.753	69.31
298.984	58.31
299.214	65.31
299.445	78.31
299.675	85.31
299.905	87.31
300.136	72.31
300.366	96.31
300.597	71.31
300.827	72.31
301.057	84.31
301.288	71.31
301.518	71.31
301.748	73.31
301.979	83.31
302.209	84.31
302.439	72.31
302.669	92.31
302.9	81.31
303.13	93.31
303.36	85.31
303.59	78.31
303.82	84.31
304.051	81.31
304.281	84.31
304.511	78.31
304.741	90.31
304.971	77.31
305.201	72.31
305.431	75.31
305.661	76.31
305.891	83.31
306.121	85.31
306.352	78.31
306.582	82.31
306.812	78.31
307.042	73.31
307.272	79.31
307.502	84.31
307.731	81.31
307.961	88.31
308.191	79.31
308.421	98.31
308.651	85.31
308.881	85.31
309.111	82.31
309.341	89.31
309.571	71.31
309.8	105.31
310.03	84.31
310.26	86.31
310.49	82.31
310.72	92.31
310.949	77.31
311.179	83.31
311.409	78.31
311.639	86.31
311.868	83.31
312.098	89.31
312.328	82.31
312.557	86.31
312.787	98.31
313.017	91.31
313.246	95.31
313.476	77.31
313.706	72.31
313.935	76.31
314.165	81.31
314.394	98.31
314.624	76.31
314.853	73.31
315.083	80.31
315.312	69.31
315.542	71.31
315.771	81.31
316.001	83.31
316.23	92.31
316.46	84.31
316.689	70.31
316.919	75.31
317.148	72.31
317.377	68.31
317.607	86.31
317.836	95.31
318.065	69.31
318.295	73.31
318.524	76.31
318.753	82.31
318.983	88.31
319.212	76.31
319.441	68.31
319.67	79.31
319.9	86.31
320.129	82.31
320.358	79.31
320.587	79.31
320.816	85.31
321.046	92.31
321.275	78.31
321.504	84.31
321.733	72.31
321.962	69.31
322.191	62.31
322.42	88.31
322.649	84.31
322.878	82.31
323.108	83.31
323.337	84.31
323.566	90.31
323.795	92.31
324.024	84.31
324.253	80.31
324.482	85.31
324.71	87.31
324.939	91.31
325.168	79.31
325.397	88.31
325.626	82.31
325.855	76.31
326.084	84.31
326.313	77.31
326.542	90.31
326.77	80.31
326.999	83.31
327.228	76.31
327.457	93.31
327.686	70.31
327.914	95.31
328.143	72.31
328.372	78.31
328.6	82.31
328.829	84.31
329.058	72.31
329.287	76.31
329.515	67.31
329.744	84.31
329.972	71.31
330.201	62.31
330.43	84.31
330.658	84.31
330.887	72.31
331.115	77.31
331.344	68.31
331.572	83.31
331.801	90.31
332.03	78.31
332.258	82.31
332.486	74.31
332.715	81.31
332.943	71.31
333.172	81.31
333.4	78.31
333.629	74.31
333.857	78.31
334.085	74.31
334.314	76.31
334.542	70.31
334.771	85.31
334.999	79.31
335.227	86.31
335.455	76.31
335.684	74.31
335.912	77.31
336.14	75.31
336.369	78.31
336.597	82.31
336.825	78.31
337.053	73.31
337.281	77.31
337.51	84.31
337.738	74.31
337.966	82.31
338.194	89.31
338.422	77.31
338.65	92.31
338.878	88.31
339.106	83.31
339.334	79.31
339.562	81.31
339.79	89.31
340.018	70.31
340.246	82.31
340.474	75.31
340.702	80.31
340.93	70.31
341.158	84.31
341.386	78.31
341.614	80.31
341.842	76.31
342.07	74.31
342.298	81.31
342.526	73.31
342.754	84.31
342.981	78.31
343.209	77.31
343.437	92.31
343.665	95.31
343.893	84.31
344.12	90.31
344.348	75.31
344.576	84.31
344.804	93.31
345.031	96.31
345.259	95.31
345.487	82.31
345.714	77.31
345.942	73.31
346.17	78.31
346.397	75.31
346.625	74.31
346.853	77.31
347.08	74.31
347.308	89.31
347.535	82.31
347.763	72.31
347.99	79.31
348.218	93.31
348.445	85.31
348.673	85.31
348.9	93.31
349.128	82.31
349.355	77.31
349.583	89.31
349.81	92.31
350.037	80.31
350.265	83.31
350.492	83.31
350.72	78.31
350.947	75.31
351.174	78.31
351.402	75.31
351.629	78.31
351.856	79.31
352.083	81.31
352.311	79.31
352.538	68.31
352.765	72.31
352.992	92.31
353.22	72.31
353.447	73.31
353.674	88.31
353.901	89.31
354.128	91.31
354.355	89.31
354.583	75.31
354.81	87.31
355.037	61.31
355.264	74.31
355.491	63.31
355.718	73.31
355.945	75.31
356.172	80.31
356.399	82.31
356.626	80.31
356.853	93.31
357.08	81.31
357.307	72.31
357.534	85.31
357.761	82.31
357.988	93.31
358.215	85.31
358.441	70.31
358.668	78.31
358.895	80.31
359.122	77.31
359.349	85.31
359.576	70.31
359.802	81.31
360.029	76.31
360.256	78.31
360.483	91.31
360.709	93.31
360.936	79.31
361.163	76.31
361.39	74.31
361.616	87.31
361.843	77.31
362.07	89.31
362.296	87.31
362.523	75.31
362.749	66.31
362.976	65.31
363.203	93.31
363.429	85.31
363.656	74.31
363.882	87.31
364.109	76.31
364.335	80.31
364.562	85.31
364.788	93.31
365.015	78.31
365.241	71.31
365.468	88.31
365.694	78.31
365.92	91.31
366.147	71.31
366.373	84.31
366.599	95.31
366.826	81.31
367.052	78.31
367.278	80.31
367.505	72.31
367.731	70.31
367.957	81.31
368.184	90.31
368.41	79.31
368.636	79.31
368.862	89.31
369.089	88.31
369.315	86.31
369.541	101.31
369.767	76.31
369.993	74.31
370.219	85.31
370.445	102.31
370.672	92.31
370.898	76.31
371.124	78.31
371.35	94.31
371.576	82.31
371.802	86.31
372.028	81.31
372.254	81.31
372.48	84.31
372.706	82.31
372.932	81.31
373.158	84.31
373.384	96.31
373.61	94.31
373.835	82.31
374.061	76.31
374.287	83.31
374.513	70.31
374.739	88.31
374.965	76.31
375.191	91.31
375.416	97.31
375.642	85.31
375.868	85.31
376.094	92.31
376.319	79.31
376.545	82.31
376.771	76.31
376.997	79.31
377.222	93.31
377.448	82.31
377.674	89.31
377.899	80.31
378.125	101.31
378.35	92.31
378.576	74.31
378.802	96.31
379.027	97.31
379.253	86.31
379.478	81.31
379.704	83.31
379.929	82.31
380.155	82.31
380.38	87.31
380.606	69.31
380.831	84.31
381.057	99.31
381.282	81.31
381.507	93.31
381.733	89.31
381.958	80.31
382.184	97.31
382.409	60.31
382.634	96.31
382.86	76.31
383.085	79.31
383.31	75.31
383.535	79.31
383.761	84.31
383.986	69.31
384.211	82.31
384.436	84.31
384.662	92.31
384.887	83.31
385.112	95.31
385.337	91.31
385.562	86.31
385.787	90.31
386.013	87.31
386.238	96.31
386.463	89.31
386.688	88.31
386.913	93.31
387.138	102.31
387.363	104.31
387.588	82.31
387.813	97.31
388.038	85.31
388.263	94.31
388.488	94.31
388.713	83.31
388.938	86.31
389.163	87.31
389.387	92.31
389.612	94.31
389.837	88.31
390.062	82.31
390.287	85.31
390.512	78.31
390.736	105.31
390.961	88.31
391.186	94.31
391.411	102.31
391.636	77.31
391.86	96.31
392.085	81.31
392.31	96.31
392.534	82.31
392.759	93.31
392.984	78.31
393.208	92.31
393.433	87.31
393.658	99.31
393.882	85.31
394.107	91.31
394.331	74.31
394.556	100.31
394.78	103.31
395.005	85.31
395.229	85.31
395.454	77.31
395.678	69.31
395.903	87.31
396.127	91.31
396.352	87.31
396.576	82.31
396.801	84.31
397.025	77.31
397.249	80.31
397.474	81.31
397.698	98.31
397.922	96.31
398.147	88.31
398.371	89.31
398.595	90.31
398.82	85.31
399.044	89.31
399.268	88.31
399.492	91.31
399.717	90.31
399.941	91.31
400.165	96.31
400.389	87.31
400.613	92.31
400.837	101.31
401.062	96.31
401.286	95.31
401.51	89.31
401.734	86.31
401.958	110.31
402.182	92.31
402.406	86.31
402.63	82.31
402.854	108.31
403.078	90.31
403.302	100.31
403.526	85.31
403.75	91.31
403.974	96.31
404.198	80.31
404.422	94.31
404.645	98.31
404.869	98.31
405.093	101.31
405.317	84.31
405.541	88.31
405.765	89.31
405.988	77.31
406.212	87.31
406.436	94.31
406.66	99.31
406.883	97.31
407.107	89.31
407.331	103.31
407.555	96.31
407.778	102.31
408.002	98.31
408.226	94.31
408.449	97.31
408.673	94.31
408.896	99.31
409.12	84.31
409.344	99.31
409.567	98.31
409.791	99.31
410.014	93.31
410.238	86.31
410.461	90.31
410.685	97.31
410.908	100.31
411.132	97.31
411.355	91.31
411.578	113.31
411.802	84.31
412.025	91.31
412.249	79.31
412.472	103.31
412.695	107.31
412.919	93.31
413.142	95.31
413.365	99.31
413.589	86.31
413.812	91.31
414.035	98.31
414.258	85.31
414.482	110.31
414.705	96.31
414.928	96.31
415.151	91.31
415.374	94.31
415.597	96.31
415.821	118.31
416.044	92.31
416.267	91.31
416.49	96.31
416.713	102.31
416.936	108.31
417.159	94.31
417.382	90.31
417.605	108.31
417.828	93.31
418.051	106.31
418.274	103.31
418.497	101.31
418.72	93.31
418.943	106.31
419.166	109.31
419.389	119.31
419.611	114.31
419.834	105.31
420.057	112.31
420.28	101.31
420.503	114.31
420.726	103.31
420.948	96.31
421.171	101.31
421.394	102.31
421.617	122.31
421.839	95.31
422.062	108.31
422.285	100.31
422.507	103.31
422.73	99.31
422.953	105.31
423.175	106.31
423.398	80.31
423.621	116.31
423.843	97.31
424.066	85.31
424.288	100.31
424.511	90.31
424.733	108.31
424.956	124.31
425.178	103.31
425.401	86.31
425.623	82.31
425.846	97.31
426.068	98.31
426.291	104.31
426.513	103.31
426.735	91.31
426.958	105.31
427.18	111.31
427.402	111.31
427.625	85.31
427.847	92.31
428.069	107.31
428.292	108.31
428.514	99.31
428.736	94.31
428.958	109.31
429.181	100.31
429.403	103.31
429.625	107.31
429.847	95.31
430.069	115.31
430.292	100.31
430.514	97.31
430.736	93.31
430.958	110.31
431.18	97.31
431.402	115.31
431.624	95.31
431.846	92.31
432.068	87.31
432.29	89.31
432.512	106.31
432.734	88.31
432.956	95.31
433.178	109.31
433.4	78.31
433.622	100.31
433.844	103.31
434.066	91.31
434.287	76.31
434.509	66.31
434.731	94.31
434.953	91.31
435.175	97.31
435.397	106.31
435.618	83.31
435.84	100.31
436.062	93.31
436.284	83.31
436.505	92.31
436.727	89.31
436.949	95.31
437.17	103.31
437.392	90.31
437.614	103.31
437.835	94.31
438.057	94.31
438.278	98.31
438.5	97.31
438.721	99.31
438.943	110.31
439.165	98.31
439.386	102.31
439.608	118.31
439.829	118.31
440.05	113.31
440.272	104.31
440.493	108.31
440.715	112.31
440.936	103.31
441.158	94.31
441.379	107.31
441.6	119.31
441.822	102.31
442.043	99.31
442.264	106.31
442.486	104.31
442.707	97.31
442.928	106.31
443.149	97.31
443.371	112.31
443.592	113.31
443.813	108.31
444.034	118.31
444.255	98.31
444.476	103.31
444.698	100.31
444.919	117.31
445.14	198.31
445.361	151.31
445.582	109.31
445.803	99.31
446.024	98.31
446.245	119.31
446.466	123.31
446.687	127.31
446.908	108.31
447.129	119.31
447.35	115.31
447.571	102.31
447.792	120.31
448.013	119.31
448.234	96.31
448.455	112.31
448.675	113.31
448.896	94.31
449.117	102.31
449.338	93.31
449.559	105.31
449.779	106.31
450	117.31
450.221	99.31
450.442	112.31
450.662	103.31
450.883	105.31
451.104	115.31
451.324	106.31
451.545	87.31
451.766	87.31
451.986	93.31
452.207	103.31
452.428	105.31
452.648	111.31
452.869	102.31
453.089	86.31
453.31	93.31
453.53	90.31
453.751	96.31
453.971	102.31
454.192	101.31
454.412	84.31
454.633	101.31
454.853	100.31
455.073	97.31
455.294	111.31
455.514	98.31
455.734	112.31
455.955	108.31
456.175	91.31
456.395	93.31
456.616	93.31
456.836	96.31
457.056	89.31
457.276	87.31
457.497	104.31
457.717	93.31
457.937	106.31
458.157	110.31
458.377	99.31
458.598	74.31
458.818	81.31
459.038	93.31
459.258	87.31
459.478	104.31
459.698	81.31
459.918	96.31
460.138	106.31
460.358	96.31
460.578	84.31
460.798	94.31
461.018	94.31
461.238	86.31
461.458	88.31
461.678	93.31
461.898	110.31
462.118	93.31
462.338	93.31
462.558	108.31
462.777	91.31
462.997	94.31
463.217	82.31
463.437	108.31
463.657	80.31
463.876	94.31
464.096	104.31
464.316	89.31
464.536	98.31
464.755	105.31
464.975	91.31
465.195	108.31
465.414	89.31
465.634	80.31
465.854	105.31
466.073	105.31
466.293	102.31
466.512	109.31
466.732	101.31
466.951	100.31
467.171	97.31
467.391	88.31
467.61	96.31
467.829	105.31
468.049	106.31
468.268	100.31
468.488	97.31
468.707	103.31
468.927	105.31
469.146	97.31
469.365	105.31
469.585	104.31
469.804	108.31
470.023	109.31
470.243	110.31
470.462	109.31
470.681	95.31
470.901	105.31
471.12	105.31
471.339	113.31
471.558	127.31
471.777	102.31
471.997	106.31
472.216	98.31
472.435	89.31
472.654	85.31
472.873	98.31
473.092	97.31
473.311	102.31
473.53	90.31
473.749	119.31
473.968	104.31
474.187	102.31
474.406	111.31
474.625	96.31
474.844	112.31
475.063	95.31
475.282	108.31
475.501	100.31
475.72	101.31
475.939	96.31
476.158	96.31
476.377	105.31
476.596	112.31
476.814	81.31
477.033	84.31
477.252	95.31
477.471	88.31
477.69	127.31
477.908	108.31
478.127	119.31
478.346	109.31
478.564	102.31
478.783	99.31
479.002	97.31
479.22	103.31
479.439	116.31
479.658	108.31
479.876	104.31
480.095	88.31
480.313	88.31
480.532	101.31
480.751	86.31
480.969	88.31
481.188	69.31
481.406	78.31
481.624	82.31
481.843	89.31
482.061	81.31
482.28	112.31
482.498	93.31
482.717	85.31
482.935	95.31
483.153	103.31
483.372	127.31
483.59	104.31
483.808	112.31
484.027	112.31
484.245	105.31
484.463	98.31
484.681	121.31
484.9	123.31
485.118	114.31
485.336	102.31
485.554	98.31
485.772	96.31
485.99	84.31
486.209	77.31
486.427	81.31
486.645	91.31
486.863	110.31
487.081	118.31
487.299	101.31
487.517	115.31
487.735	122.31
487.953	121.31
488.171	121.31
488.389	118.31
488.607	113.31
488.825	116.31
489.043	121.31
489.261	103.31
489.479	98.31
489.696	118.31
489.914	116.31
490.132	112.31
490.35	122.31
490.568	128.31
490.786	124.31
491.003	121.31
491.221	128.31
491.439	134.31
491.657	137.31
491.874	131.31
492.092	137.31
492.31	148.31
492.527	162.31
492.745	143.31
492.963	144.31
493.18	137.31
493.398	119.31
493.615	134.31
493.833	127.31
494.05	123.31
494.268	138.31
494.485	128.31
494.703	128.31
494.92	143.31
495.138	121.31
495.355	120.31
495.573	122.31
495.79	131.31
496.008	117.31
496.225	117.31
496.442	112.31
496.66	129.31
496.877	115.31
497.094	117.31
497.312	121.31
497.529	128.31
497.746	120.31
497.963	94.31
498.181	101.31
498.398	92.31
498.615	92.31
498.832	95.31
499.049	105.31
499.267	102.31
499.484	113.31
499.701	97.31
499.918	94.31
500.135	101.31
500.352	107.31
500.569	108.31
500.786	110.31
501.003	117.31
501.22	116.31
501.437	110.31
501.654	122.31
501.871	102.31
502.088	113.31
502.305	121.31
502.522	112.31
502.739	92.31
502.956	104.31
503.172	109.31
503.389	102.31
503.606	86.31
503.823	91.31
504.04	100.31
504.256	105.31
504.473	93.31
504.69	108.31
504.907	102.31
505.123	75.31
505.34	105.31
505.557	108.31
505.773	103.31
505.99	110.31
506.207	108.31
506.423	102.31
506.64	92.31
506.856	89.31
507.073	100.31
507.289	99.31
507.506	99.31
507.722	114.31
507.939	114.31
508.155	104.31
508.372	101.31
508.588	96.31
508.805	100.31
509.021	105.31
509.238	97.31
509.454	85.31
509.67	74.31
509.887	94.31
510.103	100.31
510.319	76.31
510.536	90.31
510.752	78.31
510.968	75.31
511.184	92.31
511.401	89.31
511.617	89.31
511.833	77.31
512.049	98.31
512.265	86.31
512.481	90.31
512.698	88.31
512.914	80.31
513.13	88.31
513.346	85.31
513.562	92.31
513.778	82.31
513.994	89.31
514.21	88.31
514.426	73.31
514.642	80.31
514.858	84.31
515.074	86.31
515.29	84.31
515.506	91.31
