Data from Zn(NO3)2Standard.Agarose3%.GreenCap.LampEnergy10E.O_HRD10591_15-08-37-950.txt Node
Date: Mon Jul 22 15:08:37 EDT 2019
User: cochatt
Spectrometer: HR+D1059
Trigger mode: 1
Integration Time (sec): 1.000000E-1
Scans to average: 1
Electric dark correction enabled: true
Nonlinearity correction enabled: false
Boxcar width: 0
XAxis mode: Wavelengths
Number of Pixels in Spectrum: 2048
>>>>>Begin Spectral Data<<<<<
223.165	-12.19
223.4	-12.19
223.635	-12.19
223.869	-12.19
224.104	-3.19
224.338	-14.19
224.573	-26.19
224.808	-22.19
225.042	-20.19
225.277	-1.19
225.511	-2.19
225.746	6.81
225.98	5.81
226.215	14.81
226.449	2.81
226.683	10.81
226.918	31.81
227.152	40.81
227.387	44.81
227.621	49.81
227.856	35.81
228.09	45.81
228.324	50.81
228.559	69.81
228.793	68.81
229.027	55.81
229.262	60.81
229.496	68.81
229.73	78.81
229.964	80.81
230.199	81.81
230.433	71.81
230.667	71.81
230.901	65.81
231.136	80.81
231.37	74.81
231.604	81.81
231.838	80.81
232.072	70.81
232.306	87.81
232.541	85.81
232.775	79.81
233.009	75.81
233.243	89.81
233.477	96.81
233.711	101.81
233.945	92.81
234.179	77.81
234.413	88.81
234.647	86.81
234.881	80.81
235.115	81.81
235.349	70.81
235.583	79.81
235.817	92.81
236.051	70.81
236.285	78.81
236.519	83.81
236.753	66.81
236.987	75.81
237.221	90.81
237.455	73.81
237.689	79.81
237.922	67.81
238.156	78.81
238.39	73.81
238.624	63.81
238.858	79.81
239.091	70.81
239.325	75.81
239.559	85.81
239.793	77.81
240.027	97.81
240.26	77.81
240.494	70.81
240.728	81.81
240.961	77.81
241.195	88.81
241.429	75.81
241.662	90.81
241.896	63.81
242.13	71.81
242.363	86.81
242.597	76.81
242.83	80.81
243.064	80.81
243.298	90.81
243.531	77.81
243.765	80.81
243.998	81.81
244.232	82.81
244.465	78.81
244.699	86.81
244.932	75.81
245.166	72.81
245.399	89.81
245.633	80.81
245.866	85.81
246.099	87.81
246.333	81.81
246.566	92.81
246.8	82.81
247.033	73.81
247.266	83.81
247.5	73.81
247.733	77.81
247.966	85.81
248.2	71.81
248.433	91.81
248.666	77.81
248.899	83.81
249.133	87.81
249.366	81.81
249.599	83.81
249.832	79.81
250.066	91.81
250.299	80.81
250.532	65.81
250.765	83.81
250.998	75.81
251.231	90.81
251.465	92.81
251.698	77.81
251.931	81.81
252.164	92.81
252.397	76.81
252.63	78.81
252.863	82.81
253.096	90.81
253.329	85.81
253.562	88.81
253.795	81.81
254.028	87.81
254.261	85.81
254.494	78.81
254.727	70.81
254.96	74.81
255.193	94.81
255.426	72.81
255.659	83.81
255.892	87.81
256.124	83.81
256.357	73.81
256.59	84.81
256.823	93.81
257.056	85.81
257.289	86.81
257.521	89.81
257.754	93.81
257.987	88.81
258.22	91.81
258.452	91.81
258.685	92.81
258.918	76.81
259.151	96.81
259.383	68.81
259.616	82.81
259.849	87.81
260.081	72.81
260.314	89.81
260.547	77.81
260.779	82.81
261.012	88.81
261.244	94.81
261.477	91.81
261.71	68.81
261.942	81.81
262.175	78.81
262.407	70.81
262.64	96.81
262.872	81.81
263.105	94.81
263.337	75.81
263.57	87.81
263.802	86.81
264.035	87.81
264.267	69.81
264.499	77.81
264.732	95.81
264.964	99.81
265.197	73.81
265.429	66.81
265.661	72.81
265.894	84.81
266.126	80.81
266.358	83.81
266.591	84.81
266.823	73.81
267.055	76.81
267.287	80.81
267.52	97.81
267.752	97.81
267.984	84.81
268.216	78.81
268.448	99.81
268.681	92.81
268.913	94.81
269.145	92.81
269.377	88.81
269.609	87.81
269.841	96.81
270.073	87.81
270.306	84.81
270.538	95.81
270.77	83.81
271.002	71.81
271.234	79.81
271.466	82.81
271.698	88.81
271.93	90.81
272.162	86.81
272.394	75.81
272.626	96.81
272.858	79.81
273.09	83.81
273.322	91.81
273.553	87.81
273.785	80.81
274.017	75.81
274.249	87.81
274.481	93.81
274.713	81.81
274.945	81.81
275.176	94.81
275.408	89.81
275.64	76.81
275.872	89.81
276.104	80.81
276.335	92.81
276.567	88.81
276.799	94.81
277.031	70.81
277.262	98.81
277.494	91.81
277.726	83.81
277.957	89.81
278.189	81.81
278.421	76.81
278.652	76.81
278.884	85.81
279.115	112.81
279.347	84.81
279.579	87.81
279.81	82.81
280.042	79.81
280.273	86.81
280.505	91.81
280.736	92.81
280.968	91.81
281.199	87.81
281.431	76.81
281.662	79.81
281.894	82.81
282.125	85.81
282.356	78.81
282.588	85.81
282.819	91.81
283.051	87.81
283.282	79.81
283.513	92.81
283.745	91.81
283.976	86.81
284.207	79.81
284.439	77.81
284.67	96.81
284.901	93.81
285.132	80.81
285.364	81.81
285.595	94.81
285.826	86.81
286.057	101.81
286.288	79.81
286.52	93.81
286.751	99.81
286.982	74.81
287.213	77.81
287.444	75.81
287.675	91.81
287.906	79.81
288.138	93.81
288.369	89.81
288.6	93.81
288.831	78.81
289.062	87.81
289.293	85.81
289.524	87.81
289.755	96.81
289.986	92.81
290.217	78.81
290.448	87.81
290.679	94.81
290.91	93.81
291.141	83.81
291.371	87.81
291.602	94.81
291.833	99.81
292.064	97.81
292.295	87.81
292.526	88.81
292.757	94.81
292.987	81.81
293.218	84.81
293.449	88.81
293.68	87.81
293.91	94.81
294.141	78.81
294.372	92.81
294.603	94.81
294.833	89.81
295.064	80.81
295.295	100.81
295.525	107.81
295.756	89.81
295.987	92.81
296.217	91.81
296.448	97.81
296.679	71.81
296.909	86.81
297.14	88.81
297.37	91.81
297.601	80.81
297.831	91.81
298.062	88.81
298.292	99.81
298.523	81.81
298.753	93.81
298.984	79.81
299.214	82.81
299.445	91.81
299.675	89.81
299.905	94.81
300.136	81.81
300.366	101.81
300.597	91.81
300.827	64.81
301.057	75.81
301.288	74.81
301.518	90.81
301.748	92.81
301.979	79.81
302.209	85.81
302.439	88.81
302.669	85.81
302.9	79.81
303.13	85.81
303.36	87.81
303.59	87.81
303.82	98.81
304.051	88.81
304.281	81.81
304.511	88.81
304.741	91.81
304.971	88.81
305.201	94.81
305.431	87.81
305.661	93.81
305.891	82.81
306.121	103.81
306.352	82.81
306.582	91.81
306.812	77.81
307.042	80.81
307.272	96.81
307.502	90.81
307.731	90.81
307.961	86.81
308.191	99.81
308.421	88.81
308.651	91.81
308.881	80.81
309.111	72.81
309.341	71.81
309.571	81.81
309.8	89.81
310.03	93.81
310.26	100.81
310.49	81.81
310.72	78.81
310.949	89.81
311.179	94.81
311.409	91.81
311.639	87.81
311.868	95.81
312.098	96.81
312.328	95.81
312.557	88.81
312.787	89.81
313.017	86.81
313.246	82.81
313.476	82.81
313.706	87.81
313.935	88.81
314.165	100.81
314.394	87.81
314.624	92.81
314.853	105.81
315.083	76.81
315.312	82.81
315.542	82.81
315.771	100.81
316.001	89.81
316.23	91.81
316.46	85.81
316.689	94.81
316.919	100.81
317.148	81.81
317.377	78.81
317.607	81.81
317.836	97.81
318.065	73.81
318.295	97.81
318.524	96.81
318.753	88.81
318.983	93.81
319.212	92.81
319.441	85.81
319.67	94.81
319.9	82.81
320.129	87.81
320.358	77.81
320.587	91.81
320.816	79.81
321.046	87.81
321.275	87.81
321.504	86.81
321.733	85.81
321.962	80.81
322.191	97.81
322.42	102.81
322.649	95.81
322.878	83.81
323.108	86.81
323.337	87.81
323.566	92.81
323.795	75.81
324.024	87.81
324.253	85.81
324.482	74.81
324.71	80.81
324.939	87.81
325.168	83.81
325.397	92.81
325.626	83.81
325.855	84.81
326.084	91.81
326.313	87.81
326.542	91.81
326.77	76.81
326.999	90.81
327.228	76.81
327.457	86.81
327.686	84.81
327.914	77.81
328.143	85.81
328.372	79.81
328.6	87.81
328.829	88.81
329.058	96.81
329.287	76.81
329.515	84.81
329.744	81.81
329.972	82.81
330.201	91.81
330.43	97.81
330.658	81.81
330.887	103.81
331.115	83.81
331.344	92.81
331.572	84.81
331.801	89.81
332.03	83.81
332.258	89.81
332.486	96.81
332.715	71.81
332.943	99.81
333.172	95.81
333.4	83.81
333.629	108.81
333.857	87.81
334.085	83.81
334.314	94.81
334.542	92.81
334.771	82.81
334.999	93.81
335.227	82.81
335.455	83.81
335.684	103.81
335.912	65.81
336.14	85.81
336.369	93.81
336.597	96.81
336.825	93.81
337.053	89.81
337.281	93.81
337.51	74.81
337.738	89.81
337.966	86.81
338.194	83.81
338.422	81.81
338.65	84.81
338.878	96.81
339.106	88.81
339.334	93.81
339.562	75.81
339.79	88.81
340.018	89.81
340.246	76.81
340.474	89.81
340.702	91.81
340.93	80.81
341.158	86.81
341.386	87.81
341.614	80.81
341.842	93.81
342.07	100.81
342.298	107.81
342.526	99.81
342.754	91.81
342.981	84.81
343.209	87.81
343.437	92.81
343.665	73.81
343.893	73.81
344.12	80.81
344.348	101.81
344.576	91.81
344.804	92.81
345.031	77.81
345.259	81.81
345.487	96.81
345.714	81.81
345.942	71.81
346.17	83.81
346.397	91.81
346.625	83.81
346.853	77.81
347.08	95.81
347.308	77.81
347.535	76.81
347.763	78.81
347.99	79.81
348.218	98.81
348.445	103.81
348.673	83.81
348.9	99.81
349.128	82.81
349.355	83.81
349.583	83.81
349.81	90.81
350.037	88.81
350.265	78.81
350.492	86.81
350.72	91.81
350.947	91.81
351.174	86.81
351.402	88.81
351.629	93.81
351.856	75.81
352.083	84.81
352.311	92.81
352.538	75.81
352.765	74.81
352.992	93.81
353.22	81.81
353.447	79.81
353.674	96.81
353.901	92.81
354.128	82.81
354.355	72.81
354.583	84.81
354.81	83.81
355.037	85.81
355.264	82.81
355.491	82.81
355.718	83.81
355.945	81.81
356.172	75.81
356.399	96.81
356.626	89.81
356.853	99.81
357.08	89.81
357.307	86.81
357.534	92.81
357.761	84.81
357.988	76.81
358.215	81.81
358.441	96.81
358.668	80.81
358.895	84.81
359.122	100.81
359.349	88.81
359.576	80.81
359.802	93.81
360.029	88.81
360.256	90.81
360.483	88.81
360.709	94.81
360.936	81.81
361.163	99.81
361.39	82.81
361.616	72.81
361.843	82.81
362.07	88.81
362.296	87.81
362.523	102.81
362.749	76.81
362.976	78.81
363.203	94.81
363.429	85.81
363.656	85.81
363.882	79.81
364.109	90.81
364.335	97.81
364.562	73.81
364.788	91.81
365.015	81.81
365.241	91.81
365.468	81.81
365.694	71.81
365.92	77.81
366.147	75.81
366.373	86.81
366.599	85.81
366.826	83.81
367.052	84.81
367.278	77.81
367.505	84.81
367.731	99.81
367.957	85.81
368.184	84.81
368.41	89.81
368.636	80.81
368.862	76.81
369.089	84.81
369.315	101.81
369.541	99.81
369.767	84.81
369.993	84.81
370.219	87.81
370.445	84.81
370.672	77.81
370.898	90.81
371.124	81.81
371.35	89.81
371.576	75.81
371.802	82.81
372.028	94.81
372.254	87.81
372.48	92.81
372.706	94.81
372.932	93.81
373.158	93.81
373.384	91.81
373.61	88.81
373.835	92.81
374.061	95.81
374.287	92.81
374.513	90.81
374.739	97.81
374.965	75.81
375.191	85.81
375.416	92.81
375.642	90.81
375.868	87.81
376.094	81.81
376.319	81.81
376.545	88.81
376.771	107.81
376.997	86.81
377.222	103.81
377.448	90.81
377.674	87.81
377.899	73.81
378.125	83.81
378.35	80.81
378.576	91.81
378.802	96.81
379.027	92.81
379.253	75.81
379.478	93.81
379.704	81.81
379.929	82.81
380.155	104.81
380.38	91.81
380.606	85.81
380.831	95.81
381.057	100.81
381.282	89.81
381.507	94.81
381.733	88.81
381.958	72.81
382.184	88.81
382.409	93.81
382.634	82.81
382.86	90.81
383.085	77.81
383.31	86.81
383.535	95.81
383.761	80.81
383.986	91.81
384.211	93.81
384.436	87.81
384.662	87.81
384.887	94.81
385.112	79.81
385.337	81.81
385.562	92.81
385.787	83.81
386.013	88.81
386.238	96.81
386.463	92.81
386.688	95.81
386.913	91.81
387.138	94.81
387.363	90.81
387.588	106.81
387.813	93.81
388.038	81.81
388.263	98.81
388.488	100.81
388.713	94.81
388.938	97.81
389.163	91.81
389.387	86.81
389.612	92.81
389.837	98.81
390.062	90.81
390.287	88.81
390.512	76.81
390.736	93.81
390.961	96.81
391.186	79.81
391.411	99.81
391.636	88.81
391.86	87.81
392.085	96.81
392.31	92.81
392.534	100.81
392.759	111.81
392.984	93.81
393.208	99.81
393.433	89.81
393.658	98.81
393.882	87.81
394.107	87.81
394.331	89.81
394.556	98.81
394.78	110.81
395.005	95.81
395.229	103.81
395.454	104.81
395.678	81.81
395.903	87.81
396.127	95.81
396.352	100.81
396.576	100.81
396.801	91.81
397.025	91.81
397.249	95.81
397.474	111.81
397.698	96.81
397.922	81.81
398.147	88.81
398.371	104.81
398.595	88.81
398.82	92.81
399.044	101.81
399.268	107.81
399.492	96.81
399.717	93.81
399.941	101.81
400.165	97.81
400.389	104.81
400.613	100.81
400.837	86.81
401.062	100.81
401.286	97.81
401.51	93.81
401.734	97.81
401.958	108.81
402.182	108.81
402.406	99.81
402.63	92.81
402.854	91.81
403.078	114.81
403.302	95.81
403.526	117.81
403.75	101.81
403.974	98.81
404.198	94.81
404.422	88.81
404.645	110.81
404.869	105.81
405.093	94.81
405.317	94.81
405.541	84.81
405.765	89.81
405.988	86.81
406.212	95.81
406.436	117.81
406.66	102.81
406.883	89.81
407.107	91.81
407.331	98.81
407.555	93.81
407.778	96.81
408.002	105.81
408.226	92.81
408.449	108.81
408.673	83.81
408.896	115.81
409.12	106.81
409.344	99.81
409.567	108.81
409.791	87.81
410.014	105.81
410.238	110.81
410.461	95.81
410.685	104.81
410.908	90.81
411.132	103.81
411.355	102.81
411.578	101.81
411.802	87.81
412.025	102.81
412.249	93.81
412.472	105.81
412.695	104.81
412.919	99.81
413.142	92.81
413.365	98.81
413.589	102.81
413.812	99.81
414.035	92.81
414.258	92.81
414.482	95.81
414.705	110.81
414.928	108.81
415.151	103.81
415.374	100.81
415.597	107.81
415.821	91.81
416.044	100.81
416.267	109.81
416.49	108.81
416.713	92.81
416.936	105.81
417.159	110.81
417.382	93.81
417.605	101.81
417.828	113.81
418.051	118.81
418.274	107.81
418.497	99.81
418.72	102.81
418.943	111.81
419.166	124.81
419.389	95.81
419.611	112.81
419.834	102.81
420.057	110.81
420.28	96.81
420.503	107.81
420.726	93.81
420.948	105.81
421.171	106.81
421.394	98.81
421.617	116.81
421.839	115.81
422.062	102.81
422.285	102.81
422.507	103.81
422.73	117.81
422.953	102.81
423.175	100.81
423.398	89.81
423.621	100.81
423.843	111.81
424.066	100.81
424.288	110.81
424.511	110.81
424.733	107.81
424.956	116.81
425.178	126.81
425.401	104.81
425.623	131.81
425.846	106.81
426.068	113.81
426.291	99.81
426.513	101.81
426.735	109.81
426.958	98.81
427.18	108.81
427.402	94.81
427.625	112.81
427.847	101.81
428.069	95.81
428.292	107.81
428.514	98.81
428.736	112.81
428.958	110.81
429.181	88.81
429.403	100.81
429.625	104.81
429.847	94.81
430.069	92.81
430.292	115.81
430.514	108.81
430.736	99.81
430.958	117.81
431.18	105.81
431.402	110.81
431.624	107.81
431.846	111.81
432.068	87.81
432.29	98.81
432.512	105.81
432.734	92.81
432.956	110.81
433.178	102.81
433.4	105.81
433.622	95.81
433.844	102.81
434.066	88.81
434.287	97.81
434.509	81.81
434.731	95.81
434.953	103.81
435.175	98.81
435.397	119.81
435.618	95.81
435.84	103.81
436.062	102.81
436.284	120.81
436.505	116.81
436.727	111.81
436.949	101.81
437.17	115.81
437.392	105.81
437.614	116.81
437.835	95.81
438.057	99.81
438.278	99.81
438.5	106.81
438.721	111.81
438.943	116.81
439.165	111.81
439.386	99.81
439.608	115.81
439.829	107.81
440.05	104.81
440.272	115.81
440.493	116.81
440.715	128.81
440.936	119.81
441.158	120.81
441.379	96.81
441.6	108.81
441.822	108.81
442.043	123.81
442.264	127.81
442.486	117.81
442.707	111.81
442.928	119.81
443.149	118.81
443.371	119.81
443.592	113.81
443.813	103.81
444.034	94.81
444.255	123.81
444.476	123.81
444.698	116.81
444.919	128.81
445.14	238.81
445.361	161.81
445.582	127.81
445.803	107.81
446.024	119.81
446.245	112.81
446.466	120.81
446.687	107.81
446.908	111.81
447.129	117.81
447.35	126.81
447.571	108.81
447.792	102.81
448.013	102.81
448.234	121.81
448.455	112.81
448.675	108.81
448.896	106.81
449.117	99.81
449.338	93.81
449.559	116.81
449.779	104.81
450	104.81
450.221	110.81
450.442	103.81
450.662	108.81
450.883	114.81
451.104	116.81
451.324	96.81
451.545	121.81
451.766	92.81
451.986	104.81
452.207	112.81
452.428	118.81
452.648	106.81
452.869	94.81
453.089	105.81
453.31	95.81
453.53	86.81
453.751	87.81
453.971	98.81
454.192	88.81
454.412	93.81
454.633	103.81
454.853	97.81
455.073	92.81
455.294	113.81
455.514	109.81
455.734	104.81
455.955	90.81
456.175	114.81
456.395	101.81
456.616	99.81
456.836	94.81
457.056	94.81
457.276	105.81
457.497	84.81
457.717	96.81
457.937	114.81
458.157	96.81
458.377	100.81
458.598	95.81
458.818	82.81
459.038	78.81
459.258	99.81
459.478	88.81
459.698	88.81
459.918	87.81
460.138	97.81
460.358	101.81
460.578	84.81
460.798	89.81
461.018	115.81
461.238	106.81
461.458	110.81
461.678	99.81
461.898	98.81
462.118	104.81
462.338	107.81
462.558	105.81
462.777	84.81
462.997	96.81
463.217	89.81
463.437	96.81
463.657	92.81
463.876	100.81
464.096	102.81
464.316	99.81
464.536	102.81
464.755	99.81
464.975	112.81
465.195	94.81
465.414	100.81
465.634	100.81
465.854	111.81
466.073	105.81
466.293	105.81
466.512	119.81
466.732	111.81
466.951	109.81
467.171	105.81
467.391	121.81
467.61	115.81
467.829	116.81
468.049	101.81
468.268	120.81
468.488	111.81
468.707	125.81
468.927	116.81
469.146	111.81
469.365	115.81
469.585	108.81
469.804	124.81
470.023	102.81
470.243	119.81
470.462	106.81
470.681	103.81
470.901	114.81
471.12	91.81
471.339	107.81
471.558	102.81
471.777	119.81
471.997	122.81
472.216	109.81
472.435	88.81
472.654	93.81
472.873	104.81
473.092	96.81
473.311	96.81
473.53	111.81
473.749	103.81
473.968	122.81
474.187	110.81
474.406	112.81
474.625	117.81
474.844	106.81
475.063	106.81
475.282	112.81
475.501	111.81
475.72	108.81
475.939	104.81
476.158	113.81
476.377	120.81
476.596	111.81
476.814	95.81
477.033	104.81
477.252	98.81
477.471	116.81
477.69	102.81
477.908	119.81
478.127	112.81
478.346	103.81
478.564	101.81
478.783	113.81
479.002	103.81
479.22	116.81
479.439	107.81
479.658	115.81
479.876	102.81
480.095	98.81
480.313	106.81
480.532	102.81
480.751	96.81
480.969	87.81
481.188	83.81
481.406	88.81
481.624	84.81
481.843	80.81
482.061	87.81
482.28	112.81
482.498	94.81
482.717	91.81
482.935	108.81
483.153	116.81
483.372	118.81
483.59	122.81
483.808	109.81
484.027	103.81
484.245	109.81
484.463	100.81
484.681	126.81
484.9	121.81
485.118	108.81
485.336	111.81
485.554	97.81
485.772	82.81
485.99	92.81
486.209	93.81
486.427	102.81
486.645	108.81
486.863	106.81
487.081	107.81
487.299	123.81
487.517	113.81
487.735	109.81
487.953	144.81
488.171	131.81
488.389	127.81
488.607	117.81
488.825	133.81
489.043	97.81
489.261	112.81
489.479	123.81
489.696	123.81
489.914	113.81
490.132	117.81
490.35	119.81
490.568	116.81
490.786	120.81
491.003	136.81
491.221	112.81
491.439	151.81
491.657	135.81
491.874	145.81
492.092	164.81
492.31	147.81
492.527	143.81
492.745	150.81
492.963	135.81
493.18	146.81
493.398	125.81
493.615	141.81
493.833	144.81
494.05	131.81
494.268	119.81
494.485	120.81
494.703	132.81
494.92	127.81
495.138	131.81
495.355	126.81
495.573	139.81
495.79	125.81
496.008	134.81
496.225	117.81
496.442	141.81
496.66	135.81
496.877	124.81
497.094	131.81
497.312	121.81
497.529	122.81
497.746	131.81
497.963	108.81
498.181	112.81
498.398	118.81
498.615	102.81
498.832	112.81
499.049	118.81
499.267	107.81
499.484	102.81
499.701	120.81
499.918	122.81
500.135	123.81
500.352	132.81
500.569	111.81
500.786	126.81
501.003	112.81
501.22	118.81
501.437	111.81
501.654	121.81
501.871	112.81
502.088	93.81
502.305	107.81
502.522	112.81
502.739	123.81
502.956	112.81
503.172	99.81
503.389	96.81
503.606	95.81
503.823	119.81
504.04	105.81
504.256	116.81
504.473	84.81
504.69	111.81
504.907	103.81
505.123	107.81
505.34	105.81
505.557	123.81
505.773	118.81
505.99	93.81
506.207	102.81
506.423	95.81
506.64	112.81
506.856	103.81
507.073	109.81
507.289	113.81
507.506	103.81
507.722	101.81
507.939	101.81
508.155	117.81
508.372	91.81
508.588	83.81
508.805	88.81
509.021	102.81
509.238	106.81
509.454	88.81
509.67	100.81
509.887	87.81
510.103	90.81
510.319	84.81
510.536	93.81
510.752	108.81
510.968	97.81
511.184	89.81
511.401	76.81
511.617	85.81
511.833	100.81
512.049	92.81
512.265	99.81
512.481	96.81
512.698	85.81
512.914	100.81
513.13	86.81
513.346	80.81
513.562	91.81
513.778	83.81
