Data from Zn(NO3)2Standard.Agarose3%.GreenCap.LampEnergy10E.O_HRD10591_15-06-19-942.txt Node
Date: Mon Jul 22 15:06:19 EDT 2019
User: cochatt
Spectrometer: HR+D1059
Trigger mode: 1
Integration Time (sec): 1.000000E-1
Scans to average: 1
Electric dark correction enabled: true
Nonlinearity correction enabled: false
Boxcar width: 0
XAxis mode: Wavelengths
Number of Pixels in Spectrum: 2048
>>>>>Begin Spectral Data<<<<<
223.165	-13.19
223.4	-13.19
223.635	-13.19
223.869	-16.19
224.104	-3.19
224.338	-15.19
224.573	-0.19
224.808	-17.19
225.042	-10.19
225.277	-22.19
225.511	-6.19
225.746	0.81
225.98	8.81
226.215	1.81
226.449	0.81
226.683	29.81
226.918	19.81
227.152	41.81
227.387	30.81
227.621	36.81
227.856	33.81
228.09	40.81
228.324	51.81
228.559	57.81
228.793	63.81
229.027	62.81
229.262	52.81
229.496	58.81
229.73	62.81
229.964	73.81
230.199	72.81
230.433	76.81
230.667	78.81
230.901	65.81
231.136	70.81
231.37	78.81
231.604	73.81
231.838	93.81
232.072	74.81
232.306	73.81
232.541	80.81
232.775	76.81
233.009	70.81
233.243	63.81
233.477	69.81
233.711	66.81
233.945	67.81
234.179	82.81
234.413	71.81
234.647	77.81
234.881	87.81
235.115	62.81
235.349	72.81
235.583	75.81
235.817	77.81
236.051	70.81
236.285	67.81
236.519	72.81
236.753	62.81
236.987	75.81
237.221	72.81
237.455	71.81
237.689	87.81
237.922	77.81
238.156	65.81
238.39	74.81
238.624	68.81
238.858	74.81
239.091	67.81
239.325	82.81
239.559	73.81
239.793	60.81
240.027	77.81
240.26	75.81
240.494	63.81
240.728	73.81
240.961	81.81
241.195	72.81
241.429	82.81
241.662	77.81
241.896	67.81
242.13	61.81
242.363	84.81
242.597	69.81
242.83	69.81
243.064	64.81
243.298	55.81
243.531	60.81
243.765	71.81
243.998	58.81
244.232	71.81
244.465	72.81
244.699	72.81
244.932	91.81
245.166	77.81
245.399	80.81
245.633	74.81
245.866	59.81
246.099	68.81
246.333	65.81
246.566	85.81
246.8	60.81
247.033	74.81
247.266	92.81
247.5	66.81
247.733	74.81
247.966	74.81
248.2	65.81
248.433	79.81
248.666	79.81
248.899	85.81
249.133	79.81
249.366	71.81
249.599	78.81
249.832	59.81
250.066	69.81
250.299	70.81
250.532	72.81
250.765	71.81
250.998	86.81
251.231	73.81
251.465	74.81
251.698	89.81
251.931	81.81
252.164	70.81
252.397	87.81
252.63	74.81
252.863	82.81
253.096	81.81
253.329	73.81
253.562	72.81
253.795	81.81
254.028	63.81
254.261	85.81
254.494	87.81
254.727	75.81
254.96	64.81
255.193	83.81
255.426	65.81
255.659	76.81
255.892	93.81
256.124	84.81
256.357	72.81
256.59	73.81
256.823	81.81
257.056	90.81
257.289	84.81
257.521	77.81
257.754	85.81
257.987	79.81
258.22	70.81
258.452	78.81
258.685	89.81
258.918	81.81
259.151	66.81
259.383	73.81
259.616	67.81
259.849	83.81
260.081	80.81
260.314	69.81
260.547	82.81
260.779	66.81
261.012	88.81
261.244	81.81
261.477	100.81
261.71	85.81
261.942	56.81
262.175	82.81
262.407	81.81
262.64	76.81
262.872	81.81
263.105	71.81
263.337	71.81
263.57	81.81
263.802	78.81
264.035	89.81
264.267	88.81
264.499	71.81
264.732	75.81
264.964	72.81
265.197	70.81
265.429	68.81
265.661	79.81
265.894	68.81
266.126	80.81
266.358	85.81
266.591	83.81
266.823	80.81
267.055	71.81
267.287	84.81
267.52	76.81
267.752	85.81
267.984	74.81
268.216	89.81
268.448	85.81
268.681	71.81
268.913	69.81
269.145	66.81
269.377	81.81
269.609	73.81
269.841	69.81
270.073	77.81
270.306	72.81
270.538	89.81
270.77	66.81
271.002	75.81
271.234	83.81
271.466	80.81
271.698	84.81
271.93	74.81
272.162	86.81
272.394	64.81
272.626	77.81
272.858	75.81
273.09	81.81
273.322	73.81
273.553	74.81
273.785	93.81
274.017	58.81
274.249	64.81
274.481	82.81
274.713	80.81
274.945	80.81
275.176	70.81
275.408	89.81
275.64	73.81
275.872	98.81
276.104	78.81
276.335	78.81
276.567	69.81
276.799	78.81
277.031	78.81
277.262	80.81
277.494	75.81
277.726	84.81
277.957	85.81
278.189	68.81
278.421	66.81
278.652	78.81
278.884	89.81
279.115	89.81
279.347	77.81
279.579	76.81
279.81	80.81
280.042	73.81
280.273	85.81
280.505	86.81
280.736	83.81
280.968	81.81
281.199	80.81
281.431	81.81
281.662	72.81
281.894	75.81
282.125	77.81
282.356	89.81
282.588	81.81
282.819	78.81
283.051	81.81
283.282	78.81
283.513	80.81
283.745	72.81
283.976	78.81
284.207	62.81
284.439	80.81
284.67	78.81
284.901	86.81
285.132	88.81
285.364	64.81
285.595	74.81
285.826	79.81
286.057	71.81
286.288	76.81
286.52	89.81
286.751	62.81
286.982	81.81
287.213	85.81
287.444	74.81
287.675	74.81
287.906	95.81
288.138	76.81
288.369	93.81
288.6	84.81
288.831	96.81
289.062	81.81
289.293	80.81
289.524	79.81
289.755	83.81
289.986	90.81
290.217	95.81
290.448	77.81
290.679	79.81
290.91	80.81
291.141	82.81
291.371	84.81
291.602	80.81
291.833	70.81
292.064	69.81
292.295	87.81
292.526	92.81
292.757	73.81
292.987	96.81
293.218	73.81
293.449	84.81
293.68	86.81
293.91	85.81
294.141	79.81
294.372	74.81
294.603	82.81
294.833	90.81
295.064	80.81
295.295	70.81
295.525	76.81
295.756	90.81
295.987	77.81
296.217	82.81
296.448	77.81
296.679	85.81
296.909	87.81
297.14	83.81
297.37	89.81
297.601	81.81
297.831	81.81
298.062	72.81
298.292	80.81
298.523	80.81
298.753	71.81
298.984	62.81
299.214	80.81
299.445	86.81
299.675	83.81
299.905	81.81
300.136	87.81
300.366	84.81
300.597	69.81
300.827	77.81
301.057	79.81
301.288	77.81
301.518	79.81
301.748	72.81
301.979	87.81
302.209	72.81
302.439	85.81
302.669	81.81
302.9	94.81
303.13	77.81
303.36	72.81
303.59	84.81
303.82	87.81
304.051	78.81
304.281	78.81
304.511	81.81
304.741	78.81
304.971	85.81
305.201	87.81
305.431	87.81
305.661	94.81
305.891	86.81
306.121	89.81
306.352	81.81
306.582	71.81
306.812	75.81
307.042	78.81
307.272	71.81
307.502	74.81
307.731	68.81
307.961	74.81
308.191	79.81
308.421	71.81
308.651	74.81
308.881	84.81
309.111	88.81
309.341	86.81
309.571	81.81
309.8	72.81
310.03	73.81
310.26	80.81
310.49	75.81
310.72	83.81
310.949	95.81
311.179	64.81
311.409	72.81
311.639	84.81
311.868	72.81
312.098	80.81
312.328	90.81
312.557	88.81
312.787	88.81
313.017	85.81
313.246	77.81
313.476	77.81
313.706	93.81
313.935	74.81
314.165	80.81
314.394	94.81
314.624	97.81
314.853	80.81
315.083	87.81
315.312	79.81
315.542	99.81
315.771	78.81
316.001	81.81
316.23	92.81
316.46	76.81
316.689	82.81
316.919	85.81
317.148	87.81
317.377	93.81
317.607	92.81
317.836	72.81
318.065	81.81
318.295	73.81
318.524	83.81
318.753	100.81
318.983	81.81
319.212	87.81
319.441	82.81
319.67	78.81
319.9	79.81
320.129	74.81
320.358	76.81
320.587	75.81
320.816	73.81
321.046	74.81
321.275	82.81
321.504	90.81
321.733	90.81
321.962	92.81
322.191	74.81
322.42	73.81
322.649	70.81
322.878	76.81
323.108	79.81
323.337	88.81
323.566	69.81
323.795	80.81
324.024	69.81
324.253	77.81
324.482	82.81
324.71	74.81
324.939	74.81
325.168	94.81
325.397	83.81
325.626	96.81
325.855	89.81
326.084	80.81
326.313	77.81
326.542	78.81
326.77	72.81
326.999	77.81
327.228	72.81
327.457	78.81
327.686	88.81
327.914	72.81
328.143	84.81
328.372	78.81
328.6	81.81
328.829	76.81
329.058	86.81
329.287	92.81
329.515	85.81
329.744	78.81
329.972	84.81
330.201	81.81
330.43	81.81
330.658	79.81
330.887	92.81
331.115	77.81
331.344	79.81
331.572	64.81
331.801	80.81
332.03	83.81
332.258	84.81
332.486	85.81
332.715	77.81
332.943	75.81
333.172	78.81
333.4	61.81
333.629	86.81
333.857	71.81
334.085	82.81
334.314	81.81
334.542	71.81
334.771	70.81
334.999	71.81
335.227	72.81
335.455	66.81
335.684	77.81
335.912	98.81
336.14	77.81
336.369	92.81
336.597	80.81
336.825	82.81
337.053	83.81
337.281	83.81
337.51	78.81
337.738	82.81
337.966	87.81
338.194	74.81
338.422	68.81
338.65	73.81
338.878	90.81
339.106	78.81
339.334	80.81
339.562	84.81
339.79	92.81
340.018	84.81
340.246	89.81
340.474	86.81
340.702	79.81
340.93	67.81
341.158	70.81
341.386	98.81
341.614	64.81
341.842	85.81
342.07	87.81
342.298	84.81
342.526	74.81
342.754	64.81
342.981	67.81
343.209	80.81
343.437	85.81
343.665	92.81
343.893	86.81
344.12	82.81
344.348	87.81
344.576	70.81
344.804	77.81
345.031	57.81
345.259	76.81
345.487	84.81
345.714	84.81
345.942	87.81
346.17	75.81
346.397	72.81
346.625	90.81
346.853	78.81
347.08	87.81
347.308	79.81
347.535	86.81
347.763	86.81
347.99	88.81
348.218	78.81
348.445	87.81
348.673	78.81
348.9	82.81
349.128	93.81
349.355	82.81
349.583	80.81
349.81	90.81
350.037	74.81
350.265	86.81
350.492	63.81
350.72	72.81
350.947	94.81
351.174	76.81
351.402	75.81
351.629	81.81
351.856	72.81
352.083	84.81
352.311	79.81
352.538	72.81
352.765	78.81
352.992	93.81
353.22	68.81
353.447	86.81
353.674	79.81
353.901	76.81
354.128	83.81
354.355	83.81
354.583	85.81
354.81	78.81
355.037	78.81
355.264	85.81
355.491	75.81
355.718	88.81
355.945	74.81
356.172	88.81
356.399	73.81
356.626	75.81
356.853	93.81
357.08	74.81
357.307	86.81
357.534	89.81
357.761	83.81
357.988	75.81
358.215	72.81
358.441	79.81
358.668	70.81
358.895	72.81
359.122	86.81
359.349	76.81
359.576	85.81
359.802	80.81
360.029	80.81
360.256	81.81
360.483	76.81
360.709	73.81
360.936	90.81
361.163	90.81
361.39	63.81
361.616	75.81
361.843	78.81
362.07	75.81
362.296	85.81
362.523	74.81
362.749	70.81
362.976	77.81
363.203	74.81
363.429	88.81
363.656	81.81
363.882	101.81
364.109	84.81
364.335	70.81
364.562	86.81
364.788	78.81
365.015	80.81
365.241	72.81
365.468	72.81
365.694	70.81
365.92	80.81
366.147	93.81
366.373	75.81
366.599	72.81
366.826	89.81
367.052	82.81
367.278	81.81
367.505	64.81
367.731	69.81
367.957	77.81
368.184	78.81
368.41	79.81
368.636	84.81
368.862	79.81
369.089	81.81
369.315	71.81
369.541	80.81
369.767	80.81
369.993	77.81
370.219	78.81
370.445	77.81
370.672	79.81
370.898	82.81
371.124	75.81
371.35	77.81
371.576	82.81
371.802	86.81
372.028	86.81
372.254	87.81
372.48	92.81
372.706	72.81
372.932	83.81
373.158	71.81
373.384	89.81
373.61	79.81
373.835	74.81
374.061	84.81
374.287	67.81
374.513	77.81
374.739	79.81
374.965	84.81
375.191	89.81
375.416	82.81
375.642	90.81
375.868	83.81
376.094	88.81
376.319	81.81
376.545	82.81
376.771	90.81
376.997	96.81
377.222	80.81
377.448	81.81
377.674	80.81
377.899	92.81
378.125	79.81
378.35	96.81
378.576	87.81
378.802	87.81
379.027	84.81
379.253	79.81
379.478	80.81
379.704	79.81
379.929	89.81
380.155	72.81
380.38	93.81
380.606	87.81
380.831	85.81
381.057	80.81
381.282	82.81
381.507	88.81
381.733	79.81
381.958	77.81
382.184	73.81
382.409	85.81
382.634	75.81
382.86	86.81
383.085	99.81
383.31	87.81
383.535	81.81
383.761	77.81
383.986	91.81
384.211	86.81
384.436	87.81
384.662	82.81
384.887	98.81
385.112	91.81
385.337	80.81
385.562	89.81
385.787	73.81
386.013	87.81
386.238	84.81
386.463	79.81
386.688	84.81
386.913	95.81
387.138	78.81
387.363	76.81
387.588	102.81
387.813	74.81
388.038	87.81
388.263	109.81
388.488	84.81
388.713	68.81
388.938	86.81
389.163	86.81
389.387	99.81
389.612	91.81
389.837	82.81
390.062	88.81
390.287	97.81
390.512	90.81
390.736	82.81
390.961	82.81
391.186	84.81
391.411	85.81
391.636	89.81
391.86	97.81
392.085	96.81
392.31	102.81
392.534	99.81
392.759	81.81
392.984	86.81
393.208	94.81
393.433	96.81
393.658	93.81
393.882	91.81
394.107	95.81
394.331	90.81
394.556	80.81
394.78	86.81
395.005	98.81
395.229	90.81
395.454	87.81
395.678	87.81
395.903	100.81
396.127	104.81
396.352	88.81
396.576	91.81
396.801	84.81
397.025	90.81
397.249	93.81
397.474	91.81
397.698	105.81
397.922	101.81
398.147	70.81
398.371	88.81
398.595	84.81
398.82	82.81
399.044	81.81
399.268	95.81
399.492	81.81
399.717	82.81
399.941	78.81
400.165	104.81
400.389	93.81
400.613	90.81
400.837	77.81
401.062	68.81
401.286	87.81
401.51	96.81
401.734	93.81
401.958	93.81
402.182	85.81
402.406	100.81
402.63	81.81
402.854	81.81
403.078	96.81
403.302	92.81
403.526	78.81
403.75	83.81
403.974	97.81
404.198	93.81
404.422	95.81
404.645	91.81
404.869	92.81
405.093	89.81
405.317	104.81
405.541	103.81
405.765	98.81
405.988	87.81
406.212	89.81
406.436	88.81
406.66	98.81
406.883	93.81
407.107	89.81
407.331	93.81
407.555	105.81
407.778	104.81
408.002	93.81
408.226	92.81
408.449	88.81
408.673	92.81
408.896	99.81
409.12	95.81
409.344	108.81
409.567	108.81
409.791	97.81
410.014	97.81
410.238	96.81
410.461	87.81
410.685	104.81
410.908	96.81
411.132	91.81
411.355	98.81
411.578	87.81
411.802	96.81
412.025	89.81
412.249	86.81
412.472	89.81
412.695	110.81
412.919	86.81
413.142	89.81
413.365	105.81
413.589	94.81
413.812	88.81
414.035	93.81
414.258	98.81
414.482	88.81
414.705	101.81
414.928	100.81
415.151	102.81
415.374	85.81
415.597	102.81
415.821	105.81
416.044	99.81
416.267	101.81
416.49	85.81
416.713	91.81
416.936	86.81
417.159	102.81
417.382	84.81
417.605	88.81
417.828	101.81
418.051	111.81
418.274	103.81
418.497	84.81
418.72	101.81
418.943	99.81
419.166	110.81
419.389	103.81
419.611	112.81
419.834	93.81
420.057	101.81
420.28	101.81
420.503	102.81
420.726	97.81
420.948	99.81
421.171	108.81
421.394	109.81
421.617	90.81
421.839	91.81
422.062	99.81
422.285	123.81
422.507	89.81
422.73	110.81
422.953	94.81
423.175	89.81
423.398	103.81
423.621	92.81
423.843	89.81
424.066	91.81
424.288	102.81
424.511	108.81
424.733	115.81
424.956	98.81
425.178	117.81
425.401	106.81
425.623	110.81
425.846	105.81
426.068	107.81
426.291	104.81
426.513	95.81
426.735	93.81
426.958	113.81
427.18	97.81
427.402	101.81
427.625	103.81
427.847	104.81
428.069	109.81
428.292	112.81
428.514	96.81
428.736	86.81
428.958	97.81
429.181	111.81
429.403	104.81
429.625	105.81
429.847	104.81
430.069	97.81
430.292	109.81
430.514	89.81
430.736	92.81
430.958	93.81
431.18	99.81
431.402	101.81
431.624	105.81
431.846	84.81
432.068	86.81
432.29	88.81
432.512	101.81
432.734	94.81
432.956	103.81
433.178	112.81
433.4	111.81
433.622	96.81
433.844	104.81
434.066	84.81
434.287	101.81
434.509	77.81
434.731	88.81
434.953	99.81
435.175	99.81
435.397	110.81
435.618	101.81
435.84	99.81
436.062	92.81
436.284	111.81
436.505	114.81
436.727	93.81
436.949	102.81
437.17	88.81
437.392	89.81
437.614	102.81
437.835	99.81
438.057	100.81
438.278	106.81
438.5	91.81
438.721	124.81
438.943	96.81
439.165	100.81
439.386	117.81
439.608	105.81
439.829	117.81
440.05	116.81
440.272	109.81
440.493	94.81
440.715	108.81
440.936	100.81
441.158	111.81
441.379	102.81
441.6	105.81
441.822	128.81
442.043	105.81
442.264	106.81
442.486	113.81
442.707	108.81
442.928	101.81
443.149	103.81
443.371	105.81
443.592	85.81
443.813	88.81
444.034	113.81
444.255	112.81
444.476	106.81
444.698	105.81
444.919	106.81
445.14	228.81
445.361	136.81
445.582	112.81
445.803	91.81
446.024	101.81
446.245	109.81
446.466	102.81
446.687	122.81
446.908	106.81
447.129	122.81
447.35	116.81
447.571	118.81
447.792	98.81
448.013	110.81
448.234	112.81
448.455	95.81
448.675	109.81
448.896	112.81
449.117	92.81
449.338	97.81
449.559	114.81
449.779	92.81
450	94.81
450.221	99.81
450.442	98.81
450.662	102.81
450.883	104.81
451.104	111.81
451.324	104.81
451.545	100.81
451.766	91.81
451.986	98.81
452.207	95.81
452.428	85.81
452.648	90.81
452.869	86.81
453.089	97.81
453.31	95.81
453.53	80.81
453.751	77.81
453.971	104.81
454.192	95.81
454.412	91.81
454.633	85.81
454.853	106.81
455.073	102.81
455.294	81.81
455.514	106.81
455.734	87.81
455.955	82.81
456.175	92.81
456.395	102.81
456.616	79.81
456.836	104.81
457.056	102.81
457.276	102.81
457.497	83.81
457.717	83.81
457.937	98.81
458.157	88.81
458.377	92.81
458.598	94.81
458.818	91.81
459.038	87.81
459.258	79.81
459.478	81.81
459.698	86.81
459.918	97.81
460.138	88.81
460.358	85.81
460.578	94.81
460.798	84.81
461.018	109.81
461.238	97.81
461.458	97.81
461.678	77.81
461.898	90.81
462.118	93.81
462.338	100.81
462.558	75.81
462.777	101.81
462.997	108.81
463.217	88.81
463.437	93.81
463.657	103.81
463.876	90.81
464.096	74.81
464.316	89.81
464.536	99.81
464.755	94.81
464.975	92.81
465.195	101.81
465.414	104.81
465.634	97.81
465.854	96.81
466.073	103.81
466.293	101.81
466.512	84.81
466.732	119.81
466.951	102.81
467.171	104.81
467.391	101.81
467.61	101.81
467.829	103.81
468.049	118.81
468.268	116.81
468.488	108.81
468.707	109.81
468.927	112.81
469.146	120.81
469.365	98.81
469.585	96.81
469.804	96.81
470.023	107.81
470.243	113.81
470.462	115.81
470.681	108.81
470.901	112.81
471.12	104.81
471.339	118.81
471.558	111.81
471.777	93.81
471.997	103.81
472.216	111.81
472.435	102.81
472.654	94.81
472.873	93.81
473.092	93.81
473.311	98.81
473.53	99.81
473.749	99.81
473.968	87.81
474.187	87.81
474.406	96.81
474.625	85.81
474.844	104.81
475.063	101.81
475.282	98.81
475.501	87.81
475.72	98.81
475.939	88.81
476.158	104.81
476.377	102.81
476.596	98.81
476.814	94.81
477.033	86.81
477.252	85.81
477.471	102.81
477.69	91.81
477.908	98.81
478.127	106.81
478.346	114.81
478.564	109.81
478.783	94.81
479.002	101.81
479.22	109.81
479.439	119.81
479.658	97.81
479.876	90.81
480.095	90.81
480.313	91.81
480.532	93.81
480.751	94.81
480.969	74.81
481.188	73.81
481.406	88.81
481.624	73.81
481.843	97.81
482.061	110.81
482.28	103.81
482.498	93.81
482.717	78.81
482.935	93.81
483.153	107.81
483.372	110.81
483.59	117.81
483.808	117.81
484.027	109.81
484.245	109.81
484.463	106.81
484.681	101.81
484.9	112.81
485.118	100.81
485.336	96.81
485.554	104.81
485.772	95.81
485.99	105.81
486.209	88.81
486.427	91.81
486.645	95.81
486.863	109.81
487.081	96.81
487.299	96.81
487.517	102.81
487.735	112.81
487.953	120.81
488.171	138.81
488.389	129.81
488.607	126.81
488.825	103.81
489.043	96.81
489.261	95.81
489.479	121.81
489.696	123.81
489.914	110.81
490.132	103.81
490.35	105.81
490.568	128.81
490.786	124.81
491.003	108.81
491.221	139.81
491.439	117.81
491.657	126.81
491.874	141.81
492.092	151.81
492.31	158.81
492.527	142.81
492.745	137.81
492.963	130.81
493.18	118.81
493.398	132.81
493.615	129.81
493.833	136.81
494.05	125.81
494.268	120.81
494.485	134.81
494.703	126.81
494.92	116.81
495.138	122.81
495.355	122.81
495.573	134.81
495.79	128.81
496.008	140.81
496.225	124.81
496.442	121.81
496.66	112.81
496.877	118.81
497.094	132.81
497.312	124.81
497.529	121.81
497.746	105.81
497.963	98.81
498.181	107.81
498.398	101.81
498.615	113.81
498.832	88.81
499.049	98.81
499.267	106.81
499.484	106.81
499.701	113.81
499.918	109.81
500.135	94.81
500.352	112.81
500.569	114.81
500.786	113.81
501.003	105.81
501.22	116.81
501.437	102.81
501.654	102.81
501.871	117.81
502.088	103.81
502.305	110.81
502.522	116.81
502.739	94.81
502.956	101.81
503.172	101.81
503.389	105.81
503.606	100.81
503.823	115.81
504.04	106.81
504.256	102.81
504.473	93.81
504.69	97.81
504.907	108.81
505.123	116.81
505.34	98.81
505.557	110.81
505.773	96.81
505.99	95.81
506.207	100.81
506.423	101.81
506.64	95.81
506.856	104.81
507.073	97.81
507.289	107.81
507.506	91.81
507.722	100.81
507.939	90.81
508.155	82.81
508.372	90.81
508.588	97.81
508.805	94.81
509.021	86.81
509.238	87.81
509.454	93.81
509.67	88.81
509.887	87.81
510.103	78.81
510.319	85.81
510.536	92.81
510.752	80.81
510.968	86.81
511.184	77.81
511.401	72.81
511.617	77.81
511.833	90.81
512.049	74.81
512.265	73.81
512.481	86.81
512.698	95.81
512.914	91.81
513.13	105.81
513.346	93.81
513.562	85.81
513.778	88.81
513.994	103.81
514.21	72.81
514.426	89.81
514.642	76.81
514.858	86.81
515.074	72.81
515.29	88.81
515.506	83.81
515.721	83.81
