Data from Zn(NO3)2Standard.Agarose3%.GreenCap.LampEnergy10E.O_HRD10591_15-06-09-941.txt Node
Date: Mon Jul 22 15:06:09 EDT 2019
User: cochatt
Spectrometer: HR+D1059
Trigger mode: 1
Integration Time (sec): 1.000000E-1
Scans to average: 1
Electric dark correction enabled: true
Nonlinearity correction enabled: false
Boxcar width: 0
XAxis mode: Wavelengths
Number of Pixels in Spectrum: 2048
>>>>>Begin Spectral Data<<<<<
223.165	-12.75
223.4	-12.75
223.635	-12.75
223.869	-7.75
224.104	-22.75
224.338	-22.75
224.573	-17.75
224.808	-11.75
225.042	-9.75
225.277	-5.75
225.511	-10.75
225.746	10.25
225.98	12.25
226.215	13.25
226.449	19.25
226.683	14.25
226.918	24.25
227.152	28.25
227.387	19.25
227.621	42.25
227.856	46.25
228.09	43.25
228.324	52.25
228.559	60.25
228.793	58.25
229.027	54.25
229.262	64.25
229.496	71.25
229.73	72.25
229.964	69.25
230.199	70.25
230.433	76.25
230.667	73.25
230.901	74.25
231.136	73.25
231.37	71.25
231.604	78.25
231.838	89.25
232.072	62.25
232.306	60.25
232.541	92.25
232.775	83.25
233.009	77.25
233.243	82.25
233.477	76.25
233.711	83.25
233.945	77.25
234.179	81.25
234.413	89.25
234.647	92.25
234.881	62.25
235.115	73.25
235.349	90.25
235.583	78.25
235.817	85.25
236.051	83.25
236.285	81.25
236.519	65.25
236.753	85.25
236.987	70.25
237.221	74.25
237.455	77.25
237.689	84.25
237.922	74.25
238.156	61.25
238.39	78.25
238.624	75.25
238.858	86.25
239.091	62.25
239.325	83.25
239.559	74.25
239.793	70.25
240.027	81.25
240.26	74.25
240.494	77.25
240.728	77.25
240.961	74.25
241.195	82.25
241.429	91.25
241.662	88.25
241.896	82.25
242.13	74.25
242.363	90.25
242.597	80.25
242.83	86.25
243.064	82.25
243.298	74.25
243.531	86.25
243.765	78.25
243.998	77.25
244.232	66.25
244.465	72.25
244.699	80.25
244.932	61.25
245.166	77.25
245.399	72.25
245.633	77.25
245.866	66.25
246.099	87.25
246.333	69.25
246.566	99.25
246.8	80.25
247.033	68.25
247.266	85.25
247.5	84.25
247.733	61.25
247.966	73.25
248.2	74.25
248.433	72.25
248.666	100.25
248.899	85.25
249.133	66.25
249.366	75.25
249.599	69.25
249.832	78.25
250.066	76.25
250.299	95.25
250.532	78.25
250.765	88.25
250.998	73.25
251.231	72.25
251.465	86.25
251.698	79.25
251.931	66.25
252.164	78.25
252.397	87.25
252.63	86.25
252.863	84.25
253.096	74.25
253.329	86.25
253.562	87.25
253.795	76.25
254.028	71.25
254.261	77.25
254.494	92.25
254.727	81.25
254.96	71.25
255.193	72.25
255.426	72.25
255.659	80.25
255.892	84.25
256.124	75.25
256.357	76.25
256.59	79.25
256.823	91.25
257.056	82.25
257.289	90.25
257.521	86.25
257.754	75.25
257.987	74.25
258.22	77.25
258.452	80.25
258.685	97.25
258.918	82.25
259.151	84.25
259.383	69.25
259.616	83.25
259.849	79.25
260.081	78.25
260.314	82.25
260.547	86.25
260.779	84.25
261.012	73.25
261.244	92.25
261.477	97.25
261.71	88.25
261.942	66.25
262.175	85.25
262.407	64.25
262.64	77.25
262.872	68.25
263.105	76.25
263.337	82.25
263.57	94.25
263.802	87.25
264.035	84.25
264.267	71.25
264.499	84.25
264.732	88.25
264.964	86.25
265.197	85.25
265.429	81.25
265.661	78.25
265.894	78.25
266.126	66.25
266.358	69.25
266.591	87.25
266.823	82.25
267.055	96.25
267.287	71.25
267.52	78.25
267.752	85.25
267.984	84.25
268.216	88.25
268.448	83.25
268.681	79.25
268.913	85.25
269.145	69.25
269.377	85.25
269.609	88.25
269.841	90.25
270.073	89.25
270.306	76.25
270.538	69.25
270.77	76.25
271.002	92.25
271.234	86.25
271.466	73.25
271.698	60.25
271.93	74.25
272.162	78.25
272.394	96.25
272.626	83.25
272.858	80.25
273.09	85.25
273.322	83.25
273.553	84.25
273.785	83.25
274.017	97.25
274.249	71.25
274.481	83.25
274.713	86.25
274.945	82.25
275.176	92.25
275.408	76.25
275.64	74.25
275.872	82.25
276.104	95.25
276.335	93.25
276.567	85.25
276.799	82.25
277.031	73.25
277.262	79.25
277.494	69.25
277.726	87.25
277.957	87.25
278.189	85.25
278.421	88.25
278.652	84.25
278.884	88.25
279.115	79.25
279.347	79.25
279.579	72.25
279.81	80.25
280.042	97.25
280.273	82.25
280.505	83.25
280.736	88.25
280.968	79.25
281.199	82.25
281.431	89.25
281.662	91.25
281.894	87.25
282.125	80.25
282.356	77.25
282.588	82.25
282.819	75.25
283.051	68.25
283.282	76.25
283.513	81.25
283.745	78.25
283.976	80.25
284.207	86.25
284.439	81.25
284.67	69.25
284.901	80.25
285.132	66.25
285.364	73.25
285.595	67.25
285.826	96.25
286.057	95.25
286.288	96.25
286.52	82.25
286.751	86.25
286.982	77.25
287.213	93.25
287.444	91.25
287.675	90.25
287.906	94.25
288.138	94.25
288.369	76.25
288.6	80.25
288.831	85.25
289.062	90.25
289.293	82.25
289.524	84.25
289.755	83.25
289.986	92.25
290.217	88.25
290.448	95.25
290.679	88.25
290.91	81.25
291.141	83.25
291.371	93.25
291.602	87.25
291.833	90.25
292.064	82.25
292.295	92.25
292.526	78.25
292.757	78.25
292.987	82.25
293.218	86.25
293.449	87.25
293.68	83.25
293.91	82.25
294.141	76.25
294.372	86.25
294.603	80.25
294.833	80.25
295.064	86.25
295.295	74.25
295.525	85.25
295.756	81.25
295.987	92.25
296.217	78.25
296.448	90.25
296.679	87.25
296.909	80.25
297.14	72.25
297.37	96.25
297.601	100.25
297.831	84.25
298.062	73.25
298.292	88.25
298.523	81.25
298.753	99.25
298.984	84.25
299.214	84.25
299.445	81.25
299.675	76.25
299.905	73.25
300.136	76.25
300.366	71.25
300.597	79.25
300.827	78.25
301.057	84.25
301.288	78.25
301.518	75.25
301.748	77.25
301.979	79.25
302.209	78.25
302.439	79.25
302.669	84.25
302.9	86.25
303.13	81.25
303.36	83.25
303.59	86.25
303.82	84.25
304.051	97.25
304.281	89.25
304.511	89.25
304.741	89.25
304.971	82.25
305.201	66.25
305.431	77.25
305.661	70.25
305.891	86.25
306.121	90.25
306.352	78.25
306.582	89.25
306.812	73.25
307.042	78.25
307.272	89.25
307.502	82.25
307.731	78.25
307.961	87.25
308.191	89.25
308.421	97.25
308.651	92.25
308.881	100.25
309.111	82.25
309.341	75.25
309.571	77.25
309.8	85.25
310.03	103.25
310.26	89.25
310.49	93.25
310.72	75.25
310.949	86.25
311.179	80.25
311.409	86.25
311.639	84.25
311.868	87.25
312.098	91.25
312.328	81.25
312.557	93.25
312.787	81.25
313.017	91.25
313.246	78.25
313.476	85.25
313.706	86.25
313.935	89.25
314.165	78.25
314.394	77.25
314.624	77.25
314.853	84.25
315.083	79.25
315.312	90.25
315.542	86.25
315.771	95.25
316.001	79.25
316.23	78.25
316.46	84.25
316.689	88.25
316.919	86.25
317.148	92.25
317.377	84.25
317.607	82.25
317.836	86.25
318.065	72.25
318.295	86.25
318.524	71.25
318.753	89.25
318.983	83.25
319.212	84.25
319.441	82.25
319.67	82.25
319.9	93.25
320.129	83.25
320.358	88.25
320.587	92.25
320.816	96.25
321.046	86.25
321.275	96.25
321.504	91.25
321.733	93.25
321.962	84.25
322.191	73.25
322.42	100.25
322.649	93.25
322.878	89.25
323.108	69.25
323.337	98.25
323.566	78.25
323.795	83.25
324.024	81.25
324.253	81.25
324.482	81.25
324.71	91.25
324.939	86.25
325.168	81.25
325.397	89.25
325.626	97.25
325.855	81.25
326.084	89.25
326.313	83.25
326.542	91.25
326.77	86.25
326.999	82.25
327.228	88.25
327.457	86.25
327.686	86.25
327.914	98.25
328.143	95.25
328.372	88.25
328.6	82.25
328.829	90.25
329.058	90.25
329.287	81.25
329.515	94.25
329.744	82.25
329.972	74.25
330.201	78.25
330.43	93.25
330.658	88.25
330.887	79.25
331.115	74.25
331.344	90.25
331.572	89.25
331.801	89.25
332.03	80.25
332.258	79.25
332.486	86.25
332.715	70.25
332.943	89.25
333.172	92.25
333.4	94.25
333.629	85.25
333.857	81.25
334.085	73.25
334.314	84.25
334.542	82.25
334.771	86.25
334.999	90.25
335.227	91.25
335.455	89.25
335.684	84.25
335.912	80.25
336.14	93.25
336.369	82.25
336.597	81.25
336.825	77.25
337.053	80.25
337.281	96.25
337.51	88.25
337.738	91.25
337.966	81.25
338.194	74.25
338.422	81.25
338.65	92.25
338.878	87.25
339.106	77.25
339.334	90.25
339.562	82.25
339.79	75.25
340.018	72.25
340.246	88.25
340.474	75.25
340.702	66.25
340.93	84.25
341.158	86.25
341.386	78.25
341.614	74.25
341.842	90.25
342.07	80.25
342.298	97.25
342.526	91.25
342.754	82.25
342.981	89.25
343.209	80.25
343.437	85.25
343.665	78.25
343.893	96.25
344.12	80.25
344.348	68.25
344.576	82.25
344.804	78.25
345.031	77.25
345.259	94.25
345.487	84.25
345.714	90.25
345.942	97.25
346.17	105.25
346.397	94.25
346.625	86.25
346.853	100.25
347.08	71.25
347.308	88.25
347.535	85.25
347.763	85.25
347.99	78.25
348.218	83.25
348.445	76.25
348.673	83.25
348.9	87.25
349.128	97.25
349.355	81.25
349.583	81.25
349.81	81.25
350.037	92.25
350.265	75.25
350.492	85.25
350.72	85.25
350.947	87.25
351.174	86.25
351.402	86.25
351.629	90.25
351.856	84.25
352.083	87.25
352.311	92.25
352.538	73.25
352.765	84.25
352.992	83.25
353.22	86.25
353.447	85.25
353.674	72.25
353.901	92.25
354.128	74.25
354.355	76.25
354.583	91.25
354.81	64.25
355.037	81.25
355.264	84.25
355.491	85.25
355.718	70.25
355.945	94.25
356.172	84.25
356.399	91.25
356.626	86.25
356.853	85.25
357.08	84.25
357.307	85.25
357.534	92.25
357.761	82.25
357.988	88.25
358.215	83.25
358.441	90.25
358.668	98.25
358.895	103.25
359.122	76.25
359.349	87.25
359.576	91.25
359.802	87.25
360.029	87.25
360.256	85.25
360.483	77.25
360.709	81.25
360.936	75.25
361.163	77.25
361.39	79.25
361.616	85.25
361.843	78.25
362.07	91.25
362.296	77.25
362.523	69.25
362.749	102.25
362.976	84.25
363.203	100.25
363.429	83.25
363.656	89.25
363.882	82.25
364.109	78.25
364.335	72.25
364.562	72.25
364.788	84.25
365.015	80.25
365.241	91.25
365.468	90.25
365.694	85.25
365.92	77.25
366.147	94.25
366.373	93.25
366.599	86.25
366.826	87.25
367.052	83.25
367.278	82.25
367.505	96.25
367.731	87.25
367.957	82.25
368.184	84.25
368.41	78.25
368.636	87.25
368.862	79.25
369.089	85.25
369.315	94.25
369.541	90.25
369.767	85.25
369.993	75.25
370.219	79.25
370.445	87.25
370.672	81.25
370.898	82.25
371.124	83.25
371.35	74.25
371.576	75.25
371.802	86.25
372.028	82.25
372.254	85.25
372.48	86.25
372.706	83.25
372.932	87.25
373.158	83.25
373.384	90.25
373.61	93.25
373.835	85.25
374.061	78.25
374.287	83.25
374.513	89.25
374.739	97.25
374.965	87.25
375.191	84.25
375.416	91.25
375.642	83.25
375.868	103.25
376.094	87.25
376.319	99.25
376.545	86.25
376.771	81.25
376.997	78.25
377.222	96.25
377.448	87.25
377.674	91.25
377.899	84.25
378.125	82.25
378.35	89.25
378.576	85.25
378.802	93.25
379.027	94.25
379.253	84.25
379.478	92.25
379.704	96.25
379.929	85.25
380.155	102.25
380.38	79.25
380.606	74.25
380.831	99.25
381.057	97.25
381.282	80.25
381.507	84.25
381.733	101.25
381.958	81.25
382.184	88.25
382.409	86.25
382.634	89.25
382.86	86.25
383.085	100.25
383.31	86.25
383.535	76.25
383.761	86.25
383.986	84.25
384.211	89.25
384.436	84.25
384.662	92.25
384.887	106.25
385.112	111.25
385.337	92.25
385.562	82.25
385.787	78.25
386.013	82.25
386.238	83.25
386.463	92.25
386.688	87.25
386.913	97.25
387.138	101.25
387.363	85.25
387.588	89.25
387.813	94.25
388.038	89.25
388.263	90.25
388.488	95.25
388.713	92.25
388.938	88.25
389.163	86.25
389.387	98.25
389.612	85.25
389.837	85.25
390.062	105.25
390.287	94.25
390.512	93.25
390.736	86.25
390.961	91.25
391.186	83.25
391.411	92.25
391.636	93.25
391.86	96.25
392.085	88.25
392.31	89.25
392.534	97.25
392.759	94.25
392.984	97.25
393.208	89.25
393.433	88.25
393.658	102.25
393.882	95.25
394.107	98.25
394.331	96.25
394.556	96.25
394.78	88.25
395.005	87.25
395.229	88.25
395.454	107.25
395.678	95.25
395.903	93.25
396.127	98.25
396.352	88.25
396.576	99.25
396.801	84.25
397.025	89.25
397.249	94.25
397.474	113.25
397.698	98.25
397.922	100.25
398.147	112.25
398.371	75.25
398.595	90.25
398.82	99.25
399.044	107.25
399.268	112.25
399.492	101.25
399.717	90.25
399.941	95.25
400.165	112.25
400.389	88.25
400.613	84.25
400.837	98.25
401.062	93.25
401.286	103.25
401.51	87.25
401.734	104.25
401.958	88.25
402.182	102.25
402.406	94.25
402.63	103.25
402.854	96.25
403.078	104.25
403.302	100.25
403.526	103.25
403.75	100.25
403.974	97.25
404.198	102.25
404.422	92.25
404.645	100.25
404.869	101.25
405.093	89.25
405.317	116.25
405.541	101.25
405.765	85.25
405.988	105.25
406.212	107.25
406.436	109.25
406.66	105.25
406.883	100.25
407.107	89.25
407.331	93.25
407.555	89.25
407.778	97.25
408.002	99.25
408.226	95.25
408.449	96.25
408.673	94.25
408.896	105.25
409.12	99.25
409.344	114.25
409.567	111.25
409.791	113.25
410.014	117.25
410.238	109.25
410.461	84.25
410.685	102.25
410.908	96.25
411.132	102.25
411.355	105.25
411.578	106.25
411.802	91.25
412.025	112.25
412.249	106.25
412.472	112.25
412.695	100.25
412.919	99.25
413.142	93.25
413.365	95.25
413.589	96.25
413.812	112.25
414.035	109.25
414.258	106.25
414.482	115.25
414.705	112.25
414.928	94.25
415.151	89.25
415.374	95.25
415.597	121.25
415.821	103.25
416.044	114.25
416.267	103.25
416.49	104.25
416.713	93.25
416.936	102.25
417.159	104.25
417.382	114.25
417.605	109.25
417.828	104.25
418.051	116.25
418.274	121.25
418.497	108.25
418.72	100.25
418.943	118.25
419.166	122.25
419.389	105.25
419.611	105.25
419.834	104.25
420.057	100.25
420.28	114.25
420.503	96.25
420.726	106.25
420.948	106.25
421.171	87.25
421.394	113.25
421.617	107.25
421.839	109.25
422.062	117.25
422.285	110.25
422.507	106.25
422.73	108.25
422.953	101.25
423.175	104.25
423.398	125.25
423.621	117.25
423.843	102.25
424.066	118.25
424.288	115.25
424.511	103.25
424.733	130.25
424.956	117.25
425.178	107.25
425.401	98.25
425.623	104.25
425.846	109.25
426.068	102.25
426.291	115.25
426.513	119.25
426.735	107.25
426.958	102.25
427.18	116.25
427.402	118.25
427.625	102.25
427.847	117.25
428.069	115.25
428.292	100.25
428.514	108.25
428.736	105.25
428.958	111.25
429.181	113.25
429.403	116.25
429.625	102.25
429.847	96.25
430.069	104.25
430.292	102.25
430.514	102.25
430.736	105.25
430.958	106.25
431.18	106.25
431.402	104.25
431.624	90.25
431.846	94.25
432.068	96.25
432.29	77.25
432.512	114.25
432.734	90.25
432.956	111.25
433.178	112.25
433.4	100.25
433.622	105.25
433.844	98.25
434.066	95.25
434.287	101.25
434.509	94.25
434.731	93.25
434.953	91.25
435.175	95.25
435.397	107.25
435.618	101.25
435.84	93.25
436.062	98.25
436.284	90.25
436.505	94.25
436.727	102.25
436.949	122.25
437.17	108.25
437.392	83.25
437.614	84.25
437.835	92.25
438.057	86.25
438.278	96.25
438.5	103.25
438.721	113.25
438.943	101.25
439.165	105.25
439.386	109.25
439.608	115.25
439.829	106.25
440.05	110.25
440.272	104.25
440.493	110.25
440.715	124.25
440.936	112.25
441.158	119.25
441.379	116.25
441.6	108.25
441.822	108.25
442.043	103.25
442.264	105.25
442.486	105.25
442.707	96.25
442.928	109.25
443.149	103.25
443.371	109.25
443.592	97.25
443.813	95.25
444.034	105.25
444.255	116.25
444.476	102.25
444.698	125.25
444.919	109.25
445.14	235.25
445.361	168.25
445.582	110.25
445.803	110.25
446.024	123.25
446.245	102.25
446.466	112.25
446.687	112.25
446.908	111.25
447.129	110.25
447.35	117.25
447.571	107.25
447.792	106.25
448.013	103.25
448.234	115.25
448.455	94.25
448.675	105.25
448.896	109.25
449.117	120.25
449.338	112.25
449.559	106.25
449.779	101.25
450	111.25
450.221	116.25
450.442	113.25
450.662	105.25
450.883	95.25
451.104	106.25
451.324	110.25
451.545	89.25
451.766	98.25
451.986	105.25
452.207	103.25
452.428	94.25
452.648	119.25
452.869	102.25
453.089	89.25
453.31	94.25
453.53	83.25
453.751	90.25
453.971	109.25
454.192	88.25
454.412	100.25
454.633	109.25
454.853	101.25
455.073	107.25
455.294	106.25
455.514	106.25
455.734	100.25
455.955	98.25
456.175	105.25
456.395	86.25
456.616	112.25
456.836	96.25
457.056	96.25
457.276	101.25
457.497	89.25
457.717	94.25
457.937	100.25
458.157	86.25
458.377	80.25
458.598	84.25
458.818	77.25
459.038	77.25
459.258	88.25
459.478	86.25
459.698	93.25
459.918	92.25
460.138	91.25
460.358	104.25
460.578	105.25
460.798	104.25
461.018	91.25
461.238	109.25
461.458	96.25
461.678	96.25
461.898	94.25
462.118	104.25
462.338	92.25
462.558	95.25
462.777	97.25
462.997	86.25
463.217	96.25
463.437	91.25
463.657	95.25
463.876	97.25
464.096	83.25
464.316	83.25
464.536	110.25
464.755	110.25
464.975	107.25
465.195	108.25
465.414	104.25
465.634	98.25
465.854	91.25
466.073	82.25
466.293	112.25
466.512	90.25
466.732	93.25
466.951	95.25
467.171	100.25
467.391	96.25
467.61	101.25
467.829	100.25
468.049	108.25
468.268	99.25
468.488	106.25
468.707	116.25
468.927	99.25
469.146	98.25
469.365	112.25
469.585	109.25
469.804	121.25
470.023	104.25
470.243	114.25
470.462	121.25
470.681	119.25
470.901	106.25
471.12	95.25
471.339	118.25
471.558	112.25
471.777	113.25
471.997	107.25
472.216	109.25
472.435	89.25
472.654	88.25
472.873	124.25
473.092	102.25
473.311	119.25
473.53	113.25
473.749	97.25
473.968	104.25
474.187	99.25
474.406	88.25
474.625	103.25
474.844	108.25
475.063	107.25
475.282	99.25
475.501	98.25
475.72	119.25
475.939	85.25
476.158	109.25
476.377	92.25
476.596	101.25
476.814	96.25
477.033	91.25
477.252	102.25
477.471	107.25
477.69	115.25
477.908	112.25
478.127	91.25
478.346	108.25
478.564	105.25
478.783	106.25
479.002	119.25
479.22	104.25
479.439	124.25
479.658	110.25
479.876	109.25
480.095	98.25
480.313	99.25
480.532	109.25
480.751	108.25
480.969	78.25
481.188	78.25
481.406	85.25
481.624	87.25
481.843	87.25
482.061	102.25
482.28	110.25
482.498	107.25
482.717	104.25
482.935	118.25
483.153	119.25
483.372	124.25
483.59	119.25
483.808	116.25
484.027	112.25
484.245	108.25
484.463	124.25
484.681	120.25
484.9	111.25
485.118	102.25
485.336	114.25
485.554	91.25
485.772	92.25
485.99	94.25
486.209	88.25
486.427	98.25
486.645	104.25
486.863	100.25
487.081	114.25
487.299	118.25
487.517	135.25
487.735	107.25
487.953	128.25
488.171	142.25
488.389	135.25
488.607	112.25
488.825	112.25
489.043	95.25
489.261	102.25
489.479	98.25
489.696	100.25
489.914	113.25
490.132	105.25
490.35	132.25
490.568	121.25
490.786	127.25
491.003	130.25
491.221	128.25
491.439	133.25
491.657	120.25
491.874	135.25
492.092	147.25
492.31	149.25
492.527	151.25
492.745	132.25
492.963	135.25
493.18	134.25
493.398	133.25
493.615	142.25
493.833	128.25
494.05	122.25
494.268	121.25
494.485	129.25
494.703	122.25
494.92	127.25
495.138	118.25
495.355	128.25
495.573	122.25
495.79	110.25
496.008	121.25
496.225	124.25
496.442	116.25
496.66	140.25
496.877	114.25
497.094	126.25
497.312	117.25
497.529	128.25
497.746	114.25
497.963	115.25
498.181	100.25
498.398	116.25
498.615	100.25
498.832	102.25
499.049	107.25
499.267	112.25
499.484	99.25
499.701	109.25
499.918	104.25
500.135	104.25
500.352	113.25
500.569	108.25
500.786	113.25
501.003	120.25
501.22	113.25
501.437	134.25
501.654	116.25
501.871	121.25
502.088	100.25
502.305	100.25
502.522	108.25
502.739	110.25
502.956	103.25
503.172	106.25
503.389	102.25
503.606	100.25
503.823	109.25
504.04	108.25
504.256	90.25
504.473	90.25
504.69	102.25
504.907	112.25
505.123	98.25
505.34	104.25
505.557	115.25
505.773	116.25
505.99	94.25
506.207	102.25
506.423	112.25
506.64	83.25
506.856	103.25
507.073	97.25
507.289	101.25
507.506	101.25
507.722	97.25
507.939	106.25
508.155	98.25
508.372	96.25
508.588	78.25
508.805	94.25
509.021	95.25
509.238	100.25
509.454	85.25
509.67	80.25
509.887	89.25
510.103	94.25
510.319	88.25
510.536	90.25
510.752	82.25
510.968	81.25
511.184	91.25
511.401	92.25
511.617	79.25
511.833	99.25
512.049	89.25
512.265	74.25
512.481	84.25
512.698	94.25
512.914	106.25
513.13	79.25
513.346	97.25
513.562	80.25
513.778	89.25
513.994	61.25
