Data from Zn(NO3)2Standard.Agarose3%.GreenCap.LampEnergy10E.O_HRD10591_15-07-59-947.txt Node
Date: Mon Jul 22 15:07:59 EDT 2019
User: cochatt
Spectrometer: HR+D1059
Trigger mode: 1
Integration Time (sec): 1.000000E-1
Scans to average: 1
Electric dark correction enabled: true
Nonlinearity correction enabled: false
Boxcar width: 0
XAxis mode: Wavelengths
Number of Pixels in Spectrum: 2048
>>>>>Begin Spectral Data<<<<<
223.165	-15.19
223.4	-15.19
223.635	-15.19
223.869	-9.19
224.104	-15.19
224.338	-3.19
224.573	-7.19
224.808	-21.19
225.042	-12.19
225.277	0.81
225.511	-3.19
225.746	2.81
225.98	1.81
226.215	-0.19
226.449	3.81
226.683	17.81
226.918	18.81
227.152	40.81
227.387	32.81
227.621	38.81
227.856	42.81
228.09	43.81
228.324	45.81
228.559	46.81
228.793	64.81
229.027	59.81
229.262	71.81
229.496	74.81
229.73	64.81
229.964	64.81
230.199	69.81
230.433	85.81
230.667	81.81
230.901	82.81
231.136	77.81
231.37	82.81
231.604	89.81
231.838	90.81
232.072	78.81
232.306	73.81
232.541	88.81
232.775	81.81
233.009	77.81
233.243	88.81
233.477	75.81
233.711	80.81
233.945	87.81
234.179	78.81
234.413	86.81
234.647	82.81
234.881	81.81
235.115	74.81
235.349	78.81
235.583	96.81
235.817	75.81
236.051	81.81
236.285	72.81
236.519	71.81
236.753	73.81
236.987	82.81
237.221	69.81
237.455	71.81
237.689	79.81
237.922	75.81
238.156	87.81
238.39	82.81
238.624	75.81
238.858	86.81
239.091	79.81
239.325	81.81
239.559	71.81
239.793	73.81
240.027	74.81
240.26	65.81
240.494	76.81
240.728	76.81
240.961	82.81
241.195	58.81
241.429	69.81
241.662	70.81
241.896	84.81
242.13	94.81
242.363	84.81
242.597	79.81
242.83	70.81
243.064	83.81
243.298	78.81
243.531	73.81
243.765	77.81
243.998	79.81
244.232	67.81
244.465	66.81
244.699	91.81
244.932	97.81
245.166	79.81
245.399	77.81
245.633	68.81
245.866	78.81
246.099	76.81
246.333	68.81
246.566	59.81
246.8	75.81
247.033	77.81
247.266	78.81
247.5	69.81
247.733	72.81
247.966	66.81
248.2	75.81
248.433	89.81
248.666	75.81
248.899	76.81
249.133	78.81
249.366	60.81
249.599	80.81
249.832	88.81
250.066	73.81
250.299	76.81
250.532	72.81
250.765	75.81
250.998	83.81
251.231	75.81
251.465	70.81
251.698	93.81
251.931	85.81
252.164	82.81
252.397	77.81
252.63	79.81
252.863	74.81
253.096	81.81
253.329	74.81
253.562	83.81
253.795	87.81
254.028	75.81
254.261	82.81
254.494	74.81
254.727	88.81
254.96	101.81
255.193	90.81
255.426	69.81
255.659	68.81
255.892	88.81
256.124	81.81
256.357	86.81
256.59	87.81
256.823	78.81
257.056	81.81
257.289	83.81
257.521	70.81
257.754	92.81
257.987	88.81
258.22	83.81
258.452	89.81
258.685	74.81
258.918	89.81
259.151	90.81
259.383	79.81
259.616	90.81
259.849	66.81
260.081	80.81
260.314	86.81
260.547	64.81
260.779	73.81
261.012	90.81
261.244	70.81
261.477	83.81
261.71	82.81
261.942	72.81
262.175	69.81
262.407	77.81
262.64	83.81
262.872	78.81
263.105	81.81
263.337	96.81
263.57	89.81
263.802	78.81
264.035	95.81
264.267	72.81
264.499	96.81
264.732	88.81
264.964	97.81
265.197	68.81
265.429	78.81
265.661	85.81
265.894	77.81
266.126	81.81
266.358	77.81
266.591	79.81
266.823	78.81
267.055	91.81
267.287	82.81
267.52	73.81
267.752	82.81
267.984	72.81
268.216	83.81
268.448	77.81
268.681	70.81
268.913	78.81
269.145	85.81
269.377	77.81
269.609	78.81
269.841	88.81
270.073	79.81
270.306	81.81
270.538	93.81
270.77	72.81
271.002	76.81
271.234	92.81
271.466	87.81
271.698	79.81
271.93	82.81
272.162	85.81
272.394	90.81
272.626	85.81
272.858	88.81
273.09	76.81
273.322	97.81
273.553	89.81
273.785	92.81
274.017	85.81
274.249	92.81
274.481	94.81
274.713	81.81
274.945	87.81
275.176	81.81
275.408	97.81
275.64	91.81
275.872	83.81
276.104	78.81
276.335	90.81
276.567	72.81
276.799	74.81
277.031	61.81
277.262	82.81
277.494	97.81
277.726	78.81
277.957	85.81
278.189	83.81
278.421	83.81
278.652	89.81
278.884	77.81
279.115	76.81
279.347	75.81
279.579	84.81
279.81	94.81
280.042	81.81
280.273	99.81
280.505	93.81
280.736	76.81
280.968	83.81
281.199	82.81
281.431	87.81
281.662	88.81
281.894	93.81
282.125	81.81
282.356	85.81
282.588	90.81
282.819	97.81
283.051	83.81
283.282	89.81
283.513	85.81
283.745	77.81
283.976	89.81
284.207	93.81
284.439	78.81
284.67	96.81
284.901	81.81
285.132	80.81
285.364	90.81
285.595	82.81
285.826	81.81
286.057	91.81
286.288	73.81
286.52	81.81
286.751	86.81
286.982	80.81
287.213	88.81
287.444	90.81
287.675	100.81
287.906	90.81
288.138	82.81
288.369	88.81
288.6	79.81
288.831	84.81
289.062	88.81
289.293	93.81
289.524	100.81
289.755	70.81
289.986	102.81
290.217	95.81
290.448	91.81
290.679	86.81
290.91	89.81
291.141	93.81
291.371	99.81
291.602	94.81
291.833	83.81
292.064	85.81
292.295	82.81
292.526	79.81
292.757	92.81
292.987	94.81
293.218	88.81
293.449	84.81
293.68	88.81
293.91	89.81
294.141	72.81
294.372	94.81
294.603	92.81
294.833	70.81
295.064	79.81
295.295	77.81
295.525	86.81
295.756	91.81
295.987	76.81
296.217	85.81
296.448	77.81
296.679	92.81
296.909	88.81
297.14	89.81
297.37	87.81
297.601	80.81
297.831	82.81
298.062	82.81
298.292	90.81
298.523	86.81
298.753	87.81
298.984	88.81
299.214	95.81
299.445	86.81
299.675	95.81
299.905	87.81
300.136	95.81
300.366	81.81
300.597	82.81
300.827	93.81
301.057	90.81
301.288	90.81
301.518	80.81
301.748	84.81
301.979	81.81
302.209	80.81
302.439	85.81
302.669	94.81
302.9	83.81
303.13	79.81
303.36	95.81
303.59	82.81
303.82	89.81
304.051	112.81
304.281	92.81
304.511	92.81
304.741	96.81
304.971	79.81
305.201	92.81
305.431	86.81
305.661	85.81
305.891	76.81
306.121	82.81
306.352	84.81
306.582	84.81
306.812	86.81
307.042	84.81
307.272	85.81
307.502	85.81
307.731	88.81
307.961	77.81
308.191	84.81
308.421	75.81
308.651	82.81
308.881	96.81
309.111	85.81
309.341	85.81
309.571	90.81
309.8	86.81
310.03	71.81
310.26	94.81
310.49	81.81
310.72	75.81
310.949	82.81
311.179	90.81
311.409	86.81
311.639	84.81
311.868	97.81
312.098	65.81
312.328	93.81
312.557	88.81
312.787	68.81
313.017	90.81
313.246	96.81
313.476	86.81
313.706	84.81
313.935	109.81
314.165	90.81
314.394	86.81
314.624	84.81
314.853	85.81
315.083	68.81
315.312	92.81
315.542	79.81
315.771	93.81
316.001	80.81
316.23	94.81
316.46	95.81
316.689	82.81
316.919	69.81
317.148	70.81
317.377	86.81
317.607	90.81
317.836	74.81
318.065	85.81
318.295	91.81
318.524	100.81
318.753	83.81
318.983	81.81
319.212	88.81
319.441	87.81
319.67	87.81
319.9	75.81
320.129	84.81
320.358	74.81
320.587	93.81
320.816	92.81
321.046	82.81
321.275	90.81
321.504	81.81
321.733	97.81
321.962	72.81
322.191	89.81
322.42	80.81
322.649	85.81
322.878	90.81
323.108	77.81
323.337	81.81
323.566	84.81
323.795	79.81
324.024	89.81
324.253	83.81
324.482	74.81
324.71	79.81
324.939	85.81
325.168	85.81
325.397	80.81
325.626	85.81
325.855	79.81
326.084	81.81
326.313	86.81
326.542	75.81
326.77	91.81
326.999	89.81
327.228	98.81
327.457	85.81
327.686	88.81
327.914	87.81
328.143	68.81
328.372	86.81
328.6	89.81
328.829	94.81
329.058	91.81
329.287	96.81
329.515	74.81
329.744	90.81
329.972	73.81
330.201	90.81
330.43	88.81
330.658	81.81
330.887	82.81
331.115	81.81
331.344	79.81
331.572	82.81
331.801	90.81
332.03	80.81
332.258	79.81
332.486	84.81
332.715	72.81
332.943	84.81
333.172	81.81
333.4	92.81
333.629	95.81
333.857	81.81
334.085	95.81
334.314	92.81
334.542	80.81
334.771	76.81
334.999	68.81
335.227	70.81
335.455	84.81
335.684	88.81
335.912	75.81
336.14	65.81
336.369	98.81
336.597	94.81
336.825	94.81
337.053	85.81
337.281	74.81
337.51	74.81
337.738	93.81
337.966	84.81
338.194	78.81
338.422	84.81
338.65	100.81
338.878	78.81
339.106	77.81
339.334	91.81
339.562	88.81
339.79	82.81
340.018	87.81
340.246	90.81
340.474	98.81
340.702	88.81
340.93	96.81
341.158	95.81
341.386	95.81
341.614	80.81
341.842	87.81
342.07	96.81
342.298	60.81
342.526	77.81
342.754	94.81
342.981	83.81
343.209	72.81
343.437	87.81
343.665	86.81
343.893	85.81
344.12	84.81
344.348	95.81
344.576	90.81
344.804	101.81
345.031	94.81
345.259	91.81
345.487	69.81
345.714	84.81
345.942	87.81
346.17	86.81
346.397	80.81
346.625	81.81
346.853	77.81
347.08	90.81
347.308	78.81
347.535	78.81
347.763	81.81
347.99	90.81
348.218	84.81
348.445	86.81
348.673	93.81
348.9	85.81
349.128	91.81
349.355	89.81
349.583	86.81
349.81	78.81
350.037	86.81
350.265	89.81
350.492	82.81
350.72	85.81
350.947	86.81
351.174	85.81
351.402	89.81
351.629	92.81
351.856	86.81
352.083	79.81
352.311	85.81
352.538	82.81
352.765	79.81
352.992	87.81
353.22	81.81
353.447	84.81
353.674	83.81
353.901	99.81
354.128	75.81
354.355	88.81
354.583	82.81
354.81	88.81
355.037	97.81
355.264	94.81
355.491	88.81
355.718	81.81
355.945	88.81
356.172	84.81
356.399	84.81
356.626	91.81
356.853	89.81
357.08	97.81
357.307	82.81
357.534	84.81
357.761	82.81
357.988	82.81
358.215	91.81
358.441	68.81
358.668	71.81
358.895	83.81
359.122	62.81
359.349	91.81
359.576	84.81
359.802	85.81
360.029	88.81
360.256	82.81
360.483	74.81
360.709	94.81
360.936	88.81
361.163	93.81
361.39	99.81
361.616	80.81
361.843	87.81
362.07	90.81
362.296	86.81
362.523	82.81
362.749	78.81
362.976	90.81
363.203	88.81
363.429	73.81
363.656	76.81
363.882	84.81
364.109	95.81
364.335	77.81
364.562	86.81
364.788	82.81
365.015	93.81
365.241	94.81
365.468	85.81
365.694	97.81
365.92	98.81
366.147	91.81
366.373	104.81
366.599	88.81
366.826	90.81
367.052	97.81
367.278	95.81
367.505	94.81
367.731	93.81
367.957	79.81
368.184	76.81
368.41	72.81
368.636	100.81
368.862	97.81
369.089	90.81
369.315	89.81
369.541	84.81
369.767	93.81
369.993	88.81
370.219	84.81
370.445	88.81
370.672	88.81
370.898	78.81
371.124	84.81
371.35	102.81
371.576	82.81
371.802	88.81
372.028	84.81
372.254	94.81
372.48	93.81
372.706	92.81
372.932	82.81
373.158	93.81
373.384	97.81
373.61	105.81
373.835	76.81
374.061	90.81
374.287	100.81
374.513	76.81
374.739	87.81
374.965	86.81
375.191	75.81
375.416	98.81
375.642	86.81
375.868	97.81
376.094	91.81
376.319	97.81
376.545	84.81
376.771	88.81
376.997	81.81
377.222	95.81
377.448	90.81
377.674	98.81
377.899	99.81
378.125	83.81
378.35	81.81
378.576	96.81
378.802	84.81
379.027	90.81
379.253	96.81
379.478	99.81
379.704	88.81
379.929	94.81
380.155	85.81
380.38	79.81
380.606	83.81
380.831	81.81
381.057	96.81
381.282	76.81
381.507	76.81
381.733	97.81
381.958	98.81
382.184	97.81
382.409	89.81
382.634	78.81
382.86	96.81
383.085	88.81
383.31	87.81
383.535	95.81
383.761	91.81
383.986	89.81
384.211	75.81
384.436	98.81
384.662	85.81
384.887	87.81
385.112	83.81
385.337	94.81
385.562	97.81
385.787	95.81
386.013	92.81
386.238	91.81
386.463	93.81
386.688	75.81
386.913	104.81
387.138	86.81
387.363	87.81
387.588	96.81
387.813	94.81
388.038	101.81
388.263	97.81
388.488	100.81
388.713	102.81
388.938	89.81
389.163	109.81
389.387	77.81
389.612	83.81
389.837	88.81
390.062	83.81
390.287	103.81
390.512	101.81
390.736	96.81
390.961	93.81
391.186	114.81
391.411	106.81
391.636	89.81
391.86	78.81
392.085	95.81
392.31	97.81
392.534	103.81
392.759	93.81
392.984	107.81
393.208	102.81
393.433	93.81
393.658	90.81
393.882	105.81
394.107	98.81
394.331	86.81
394.556	95.81
394.78	107.81
395.005	93.81
395.229	98.81
395.454	91.81
395.678	101.81
395.903	84.81
396.127	107.81
396.352	96.81
396.576	86.81
396.801	88.81
397.025	103.81
397.249	105.81
397.474	94.81
397.698	91.81
397.922	99.81
398.147	84.81
398.371	84.81
398.595	96.81
398.82	93.81
399.044	97.81
399.268	92.81
399.492	84.81
399.717	90.81
399.941	85.81
400.165	103.81
400.389	90.81
400.613	100.81
400.837	83.81
401.062	99.81
401.286	75.81
401.51	116.81
401.734	102.81
401.958	100.81
402.182	104.81
402.406	96.81
402.63	94.81
402.854	96.81
403.078	96.81
403.302	88.81
403.526	95.81
403.75	96.81
403.974	96.81
404.198	92.81
404.422	98.81
404.645	97.81
404.869	93.81
405.093	97.81
405.317	105.81
405.541	104.81
405.765	105.81
405.988	94.81
406.212	100.81
406.436	88.81
406.66	90.81
406.883	95.81
407.107	80.81
407.331	99.81
407.555	96.81
407.778	98.81
408.002	89.81
408.226	99.81
408.449	87.81
408.673	104.81
408.896	106.81
409.12	91.81
409.344	105.81
409.567	112.81
409.791	108.81
410.014	106.81
410.238	108.81
410.461	106.81
410.685	103.81
410.908	95.81
411.132	101.81
411.355	84.81
411.578	104.81
411.802	94.81
412.025	101.81
412.249	99.81
412.472	100.81
412.695	92.81
412.919	105.81
413.142	104.81
413.365	98.81
413.589	102.81
413.812	102.81
414.035	93.81
414.258	102.81
414.482	99.81
414.705	108.81
414.928	99.81
415.151	114.81
415.374	106.81
415.597	96.81
415.821	105.81
416.044	122.81
416.267	107.81
416.49	102.81
416.713	98.81
416.936	107.81
417.159	92.81
417.382	98.81
417.605	103.81
417.828	96.81
418.051	86.81
418.274	103.81
418.497	121.81
418.72	99.81
418.943	114.81
419.166	110.81
419.389	93.81
419.611	102.81
419.834	106.81
420.057	110.81
420.28	112.81
420.503	87.81
420.726	99.81
420.948	93.81
421.171	99.81
421.394	115.81
421.617	94.81
421.839	126.81
422.062	109.81
422.285	93.81
422.507	91.81
422.73	111.81
422.953	104.81
423.175	112.81
423.398	98.81
423.621	107.81
423.843	104.81
424.066	105.81
424.288	109.81
424.511	102.81
424.733	122.81
424.956	124.81
425.178	97.81
425.401	100.81
425.623	102.81
425.846	114.81
426.068	109.81
426.291	106.81
426.513	105.81
426.735	121.81
426.958	104.81
427.18	105.81
427.402	117.81
427.625	101.81
427.847	103.81
428.069	107.81
428.292	109.81
428.514	102.81
428.736	114.81
428.958	106.81
429.181	98.81
429.403	114.81
429.625	106.81
429.847	90.81
430.069	99.81
430.292	91.81
430.514	93.81
430.736	116.81
430.958	107.81
431.18	104.81
431.402	93.81
431.624	97.81
431.846	109.81
432.068	83.81
432.29	101.81
432.512	110.81
432.734	103.81
432.956	108.81
433.178	109.81
433.4	98.81
433.622	109.81
433.844	116.81
434.066	119.81
434.287	97.81
434.509	86.81
434.731	105.81
434.953	81.81
435.175	105.81
435.397	102.81
435.618	104.81
435.84	100.81
436.062	98.81
436.284	106.81
436.505	121.81
436.727	109.81
436.949	102.81
437.17	116.81
437.392	98.81
437.614	106.81
437.835	115.81
438.057	89.81
438.278	82.81
438.5	109.81
438.721	103.81
438.943	116.81
439.165	106.81
439.386	110.81
439.608	115.81
439.829	120.81
440.05	122.81
440.272	118.81
440.493	104.81
440.715	105.81
440.936	113.81
441.158	116.81
441.379	102.81
441.6	112.81
441.822	105.81
442.043	101.81
442.264	114.81
442.486	121.81
442.707	104.81
442.928	104.81
443.149	95.81
443.371	107.81
443.592	105.81
443.813	105.81
444.034	107.81
444.255	112.81
444.476	110.81
444.698	118.81
444.919	112.81
445.14	216.81
445.361	150.81
445.582	122.81
445.803	109.81
446.024	119.81
446.245	119.81
446.466	117.81
446.687	135.81
446.908	142.81
447.129	113.81
447.35	120.81
447.571	123.81
447.792	128.81
448.013	120.81
448.234	122.81
448.455	110.81
448.675	114.81
448.896	100.81
449.117	100.81
449.338	113.81
449.559	110.81
449.779	110.81
450	99.81
450.221	107.81
450.442	98.81
450.662	105.81
450.883	105.81
451.104	102.81
451.324	108.81
451.545	112.81
451.766	110.81
451.986	107.81
452.207	107.81
452.428	97.81
452.648	116.81
452.869	108.81
453.089	92.81
453.31	86.81
453.53	99.81
453.751	85.81
453.971	104.81
454.192	107.81
454.412	103.81
454.633	103.81
454.853	89.81
455.073	109.81
455.294	111.81
455.514	100.81
455.734	94.81
455.955	107.81
456.175	103.81
456.395	107.81
456.616	86.81
456.836	87.81
457.056	96.81
457.276	86.81
457.497	87.81
457.717	85.81
457.937	97.81
458.157	87.81
458.377	90.81
458.598	91.81
458.818	85.81
459.038	74.81
459.258	101.81
459.478	77.81
459.698	102.81
459.918	98.81
460.138	99.81
460.358	100.81
460.578	99.81
460.798	92.81
461.018	98.81
461.238	88.81
461.458	100.81
461.678	110.81
461.898	95.81
462.118	101.81
462.338	94.81
462.558	101.81
462.777	105.81
462.997	97.81
463.217	87.81
463.437	98.81
463.657	107.81
463.876	104.81
464.096	100.81
464.316	96.81
464.536	110.81
464.755	97.81
464.975	87.81
465.195	98.81
465.414	90.81
465.634	106.81
465.854	97.81
466.073	104.81
466.293	96.81
466.512	114.81
466.732	108.81
466.951	109.81
467.171	118.81
467.391	102.81
467.61	105.81
467.829	117.81
468.049	116.81
468.268	108.81
468.488	124.81
468.707	122.81
468.927	102.81
469.146	116.81
469.365	115.81
469.585	102.81
469.804	120.81
470.023	108.81
470.243	96.81
470.462	114.81
470.681	117.81
470.901	108.81
471.12	104.81
471.339	123.81
471.558	116.81
471.777	115.81
471.997	102.81
472.216	102.81
472.435	93.81
472.654	84.81
472.873	97.81
473.092	101.81
473.311	94.81
473.53	103.81
473.749	106.81
473.968	115.81
474.187	102.81
474.406	102.81
474.625	108.81
474.844	114.81
475.063	98.81
475.282	99.81
475.501	108.81
475.72	108.81
475.939	114.81
476.158	114.81
476.377	108.81
476.596	92.81
476.814	97.81
477.033	91.81
477.252	100.81
477.471	111.81
477.69	120.81
477.908	109.81
478.127	113.81
478.346	109.81
478.564	110.81
478.783	115.81
479.002	112.81
479.22	113.81
479.439	108.81
479.658	92.81
479.876	89.81
480.095	117.81
480.313	95.81
480.532	106.81
480.751	111.81
480.969	97.81
481.188	91.81
481.406	80.81
481.624	89.81
481.843	75.81
482.061	94.81
482.28	105.81
482.498	107.81
482.717	94.81
482.935	112.81
483.153	117.81
483.372	107.81
483.59	120.81
483.808	96.81
484.027	114.81
484.245	126.81
484.463	116.81
484.681	121.81
484.9	113.81
485.118	109.81
485.336	92.81
485.554	111.81
485.772	93.81
485.99	83.81
486.209	90.81
486.427	90.81
486.645	94.81
486.863	129.81
487.081	116.81
487.299	115.81
487.517	114.81
487.735	138.81
487.953	131.81
488.171	140.81
488.389	123.81
488.607	131.81
488.825	113.81
489.043	105.81
489.261	94.81
489.479	119.81
489.696	114.81
489.914	118.81
490.132	129.81
490.35	134.81
490.568	121.81
490.786	126.81
491.003	125.81
491.221	142.81
491.439	139.81
491.657	133.81
491.874	135.81
492.092	147.81
492.31	170.81
492.527	151.81
492.745	134.81
492.963	130.81
493.18	130.81
493.398	133.81
493.615	117.81
493.833	124.81
494.05	113.81
494.268	124.81
494.485	126.81
494.703	112.81
494.92	123.81
495.138	132.81
495.355	128.81
495.573	141.81
495.79	117.81
496.008	118.81
496.225	129.81
496.442	123.81
496.66	131.81
496.877	121.81
497.094	138.81
497.312	123.81
497.529	130.81
497.746	121.81
497.963	96.81
498.181	102.81
498.398	116.81
498.615	110.81
498.832	98.81
499.049	101.81
499.267	123.81
499.484	115.81
499.701	110.81
499.918	101.81
500.135	102.81
500.352	117.81
500.569	107.81
500.786	106.81
501.003	100.81
501.22	117.81
501.437	120.81
501.654	113.81
501.871	96.81
502.088	112.81
502.305	107.81
502.522	125.81
502.739	112.81
502.956	118.81
503.172	115.81
503.389	107.81
503.606	112.81
503.823	98.81
504.04	93.81
504.256	103.81
504.473	104.81
504.69	99.81
504.907	108.81
505.123	117.81
505.34	116.81
505.557	107.81
505.773	103.81
505.99	108.81
506.207	84.81
506.423	95.81
506.64	101.81
506.856	96.81
507.073	109.81
507.289	107.81
507.506	119.81
507.722	96.81
507.939	96.81
508.155	103.81
508.372	119.81
508.588	108.81
508.805	94.81
509.021	94.81
509.238	91.81
509.454	98.81
509.67	80.81
509.887	84.81
510.103	91.81
510.319	85.81
510.536	101.81
510.752	82.81
510.968	104.81
511.184	86.81
511.401	84.81
511.617	85.81
511.833	97.81
512.049	75.81
512.265	94.81
512.481	91.81
512.698	86.81
512.914	95.81
513.13	89.81
513.346	85.81
513.562	94.81
513.778	88.81
513.994	77.81
514.21	105.81
