Data from Zn(NO3)2Standard.Agarose3%.GreenCap.LampEnergy5.5.E.O_HRD10591_15-03-59-768.txt Node
Date: Mon Jul 22 15:03:59 EDT 2019
User: cochatt
Spectrometer: HR+D1059
Trigger mode: 1
Integration Time (sec): 1.000000E-1
Scans to average: 1
Electric dark correction enabled: true
Nonlinearity correction enabled: false
Boxcar width: 0
XAxis mode: Wavelengths
Number of Pixels in Spectrum: 2048
>>>>>Begin Spectral Data<<<<<
223.165	-0.38
223.4	-0.38
223.635	-0.38
223.869	-7.38
224.104	-19.38
224.338	-14.38
224.573	-18.38
224.808	-7.38
225.042	-11.38
225.277	-15.38
225.511	3.62
225.746	-3.38
225.98	-10.38
226.215	16.62
226.449	7.62
226.683	11.62
226.918	34.62
227.152	33.62
227.387	35.62
227.621	48.62
227.856	47.62
228.09	60.62
228.324	65.62
228.559	69.62
228.793	66.62
229.027	69.62
229.262	74.62
229.496	74.62
229.73	71.62
229.964	77.62
230.199	78.62
230.433	78.62
230.667	63.62
230.901	74.62
231.136	95.62
231.37	91.62
231.604	90.62
231.838	88.62
232.072	80.62
232.306	86.62
232.541	90.62
232.775	78.62
233.009	76.62
233.243	103.62
233.477	97.62
233.711	81.62
233.945	84.62
234.179	94.62
234.413	97.62
234.647	83.62
234.881	74.62
235.115	87.62
235.349	88.62
235.583	82.62
235.817	74.62
236.051	93.62
236.285	81.62
236.519	84.62
236.753	81.62
236.987	87.62
237.221	78.62
237.455	80.62
237.689	77.62
237.922	80.62
238.156	80.62
238.39	76.62
238.624	84.62
238.858	84.62
239.091	89.62
239.325	75.62
239.559	73.62
239.793	84.62
240.027	82.62
240.26	84.62
240.494	91.62
240.728	70.62
240.961	88.62
241.195	89.62
241.429	85.62
241.662	96.62
241.896	79.62
242.13	79.62
242.363	85.62
242.597	68.62
242.83	88.62
243.064	83.62
243.298	76.62
243.531	73.62
243.765	90.62
243.998	70.62
244.232	77.62
244.465	72.62
244.699	77.62
244.932	91.62
245.166	83.62
245.399	83.62
245.633	90.62
245.866	72.62
246.099	78.62
246.333	63.62
246.566	83.62
246.8	83.62
247.033	79.62
247.266	84.62
247.5	74.62
247.733	90.62
247.966	89.62
248.2	96.62
248.433	91.62
248.666	100.62
248.899	74.62
249.133	81.62
249.366	91.62
249.599	88.62
249.832	91.62
250.066	104.62
250.299	88.62
250.532	78.62
250.765	78.62
250.998	81.62
251.231	88.62
251.465	75.62
251.698	94.62
251.931	76.62
252.164	94.62
252.397	83.62
252.63	92.62
252.863	85.62
253.096	75.62
253.329	87.62
253.562	101.62
253.795	80.62
254.028	107.62
254.261	91.62
254.494	66.62
254.727	75.62
254.96	87.62
255.193	92.62
255.426	66.62
255.659	90.62
255.892	81.62
256.124	76.62
256.357	87.62
256.59	87.62
256.823	96.62
257.056	83.62
257.289	82.62
257.521	71.62
257.754	97.62
257.987	75.62
258.22	89.62
258.452	88.62
258.685	69.62
258.918	86.62
259.151	81.62
259.383	79.62
259.616	96.62
259.849	82.62
260.081	87.62
260.314	84.62
260.547	109.62
260.779	82.62
261.012	83.62
261.244	86.62
261.477	83.62
261.71	80.62
261.942	82.62
262.175	79.62
262.407	103.62
262.64	80.62
262.872	94.62
263.105	84.62
263.337	83.62
263.57	95.62
263.802	93.62
264.035	87.62
264.267	85.62
264.499	87.62
264.732	78.62
264.964	74.62
265.197	78.62
265.429	82.62
265.661	80.62
265.894	83.62
266.126	91.62
266.358	90.62
266.591	83.62
266.823	94.62
267.055	93.62
267.287	93.62
267.52	88.62
267.752	95.62
267.984	100.62
268.216	75.62
268.448	89.62
268.681	72.62
268.913	78.62
269.145	85.62
269.377	97.62
269.609	74.62
269.841	77.62
270.073	84.62
270.306	96.62
270.538	70.62
270.77	82.62
271.002	105.62
271.234	95.62
271.466	82.62
271.698	92.62
271.93	96.62
272.162	92.62
272.394	82.62
272.626	84.62
272.858	77.62
273.09	88.62
273.322	81.62
273.553	90.62
273.785	79.62
274.017	97.62
274.249	84.62
274.481	93.62
274.713	87.62
274.945	92.62
275.176	83.62
275.408	85.62
275.64	89.62
275.872	85.62
276.104	70.62
276.335	78.62
276.567	101.62
276.799	80.62
277.031	85.62
277.262	82.62
277.494	87.62
277.726	88.62
277.957	94.62
278.189	96.62
278.421	95.62
278.652	93.62
278.884	93.62
279.115	82.62
279.347	87.62
279.579	82.62
279.81	94.62
280.042	87.62
280.273	87.62
280.505	88.62
280.736	80.62
280.968	93.62
281.199	83.62
281.431	76.62
281.662	82.62
281.894	85.62
282.125	95.62
282.356	94.62
282.588	81.62
282.819	99.62
283.051	77.62
283.282	87.62
283.513	79.62
283.745	84.62
283.976	87.62
284.207	93.62
284.439	97.62
284.67	87.62
284.901	91.62
285.132	77.62
285.364	84.62
285.595	93.62
285.826	82.62
286.057	88.62
286.288	85.62
286.52	96.62
286.751	90.62
286.982	90.62
287.213	77.62
287.444	97.62
287.675	92.62
287.906	81.62
288.138	102.62
288.369	78.62
288.6	86.62
288.831	96.62
289.062	95.62
289.293	83.62
289.524	80.62
289.755	82.62
289.986	87.62
290.217	85.62
290.448	74.62
290.679	85.62
290.91	85.62
291.141	95.62
291.371	82.62
291.602	86.62
291.833	88.62
292.064	100.62
292.295	82.62
292.526	78.62
292.757	90.62
292.987	83.62
293.218	78.62
293.449	89.62
293.68	98.62
293.91	81.62
294.141	96.62
294.372	97.62
294.603	95.62
294.833	91.62
295.064	90.62
295.295	94.62
295.525	91.62
295.756	87.62
295.987	95.62
296.217	102.62
296.448	86.62
296.679	96.62
296.909	82.62
297.14	90.62
297.37	93.62
297.601	81.62
297.831	91.62
298.062	96.62
298.292	89.62
298.523	95.62
298.753	79.62
298.984	93.62
299.214	90.62
299.445	96.62
299.675	90.62
299.905	94.62
300.136	86.62
300.366	84.62
300.597	96.62
300.827	75.62
301.057	87.62
301.288	88.62
301.518	83.62
301.748	89.62
301.979	90.62
302.209	88.62
302.439	79.62
302.669	89.62
302.9	96.62
303.13	98.62
303.36	86.62
303.59	95.62
303.82	83.62
304.051	98.62
304.281	93.62
304.511	95.62
304.741	92.62
304.971	76.62
305.201	88.62
305.431	78.62
305.661	95.62
305.891	93.62
306.121	92.62
306.352	90.62
306.582	93.62
306.812	100.62
307.042	97.62
307.272	97.62
307.502	73.62
307.731	86.62
307.961	92.62
308.191	96.62
308.421	96.62
308.651	97.62
308.881	99.62
309.111	83.62
309.341	80.62
309.571	100.62
309.8	86.62
310.03	86.62
310.26	95.62
310.49	97.62
310.72	94.62
310.949	78.62
311.179	80.62
311.409	81.62
311.639	86.62
311.868	93.62
312.098	89.62
312.328	98.62
312.557	96.62
312.787	91.62
313.017	92.62
313.246	97.62
313.476	102.62
313.706	97.62
313.935	92.62
314.165	76.62
314.394	94.62
314.624	89.62
314.853	76.62
315.083	80.62
315.312	95.62
315.542	89.62
315.771	86.62
316.001	81.62
316.23	96.62
316.46	93.62
316.689	97.62
316.919	98.62
317.148	78.62
317.377	82.62
317.607	93.62
317.836	83.62
318.065	90.62
318.295	78.62
318.524	96.62
318.753	68.62
318.983	90.62
319.212	91.62
319.441	90.62
319.67	95.62
319.9	103.62
320.129	80.62
320.358	88.62
320.587	86.62
320.816	79.62
321.046	92.62
321.275	93.62
321.504	85.62
321.733	89.62
321.962	79.62
322.191	93.62
322.42	80.62
322.649	97.62
322.878	102.62
323.108	87.62
323.337	86.62
323.566	77.62
323.795	83.62
324.024	88.62
324.253	91.62
324.482	80.62
324.71	102.62
324.939	102.62
325.168	87.62
325.397	85.62
325.626	86.62
325.855	93.62
326.084	92.62
326.313	87.62
326.542	90.62
326.77	95.62
326.999	81.62
327.228	77.62
327.457	90.62
327.686	83.62
327.914	73.62
328.143	108.62
328.372	91.62
328.6	109.62
328.829	95.62
329.058	91.62
329.287	78.62
329.515	90.62
329.744	93.62
329.972	99.62
330.201	101.62
330.43	99.62
330.658	90.62
330.887	86.62
331.115	92.62
331.344	91.62
331.572	82.62
331.801	88.62
332.03	87.62
332.258	96.62
332.486	78.62
332.715	74.62
332.943	91.62
333.172	89.62
333.4	97.62
333.629	91.62
333.857	83.62
334.085	83.62
334.314	91.62
334.542	92.62
334.771	91.62
334.999	89.62
335.227	82.62
335.455	75.62
335.684	83.62
335.912	90.62
336.14	97.62
336.369	98.62
336.597	80.62
336.825	97.62
337.053	100.62
337.281	104.62
337.51	87.62
337.738	86.62
337.966	75.62
338.194	89.62
338.422	82.62
338.65	84.62
338.878	91.62
339.106	95.62
339.334	85.62
339.562	82.62
339.79	88.62
340.018	85.62
340.246	92.62
340.474	93.62
340.702	109.62
340.93	86.62
341.158	82.62
341.386	87.62
341.614	83.62
341.842	84.62
342.07	96.62
342.298	94.62
342.526	89.62
342.754	81.62
342.981	83.62
343.209	93.62
343.437	99.62
343.665	99.62
343.893	83.62
344.12	83.62
344.348	99.62
344.576	81.62
344.804	101.62
345.031	86.62
345.259	86.62
345.487	94.62
345.714	86.62
345.942	95.62
346.17	91.62
346.397	82.62
346.625	91.62
346.853	93.62
347.08	94.62
347.308	91.62
347.535	93.62
347.763	96.62
347.99	83.62
348.218	91.62
348.445	87.62
348.673	93.62
348.9	75.62
349.128	84.62
349.355	93.62
349.583	88.62
349.81	94.62
350.037	90.62
350.265	82.62
350.492	74.62
350.72	83.62
350.947	91.62
351.174	99.62
351.402	90.62
351.629	89.62
351.856	92.62
352.083	83.62
352.311	73.62
352.538	91.62
352.765	81.62
352.992	94.62
353.22	99.62
353.447	95.62
353.674	82.62
353.901	101.62
354.128	93.62
354.355	98.62
354.583	89.62
354.81	95.62
355.037	80.62
355.264	89.62
355.491	87.62
355.718	83.62
355.945	96.62
356.172	82.62
356.399	89.62
356.626	90.62
356.853	90.62
357.08	99.62
357.307	86.62
357.534	71.62
357.761	86.62
357.988	86.62
358.215	100.62
358.441	77.62
358.668	84.62
358.895	89.62
359.122	108.62
359.349	93.62
359.576	89.62
359.802	94.62
360.029	86.62
360.256	87.62
360.483	83.62
360.709	82.62
360.936	79.62
361.163	100.62
361.39	83.62
361.616	92.62
361.843	96.62
362.07	91.62
362.296	92.62
362.523	99.62
362.749	76.62
362.976	90.62
363.203	106.62
363.429	89.62
363.656	92.62
363.882	95.62
364.109	82.62
364.335	107.62
364.562	100.62
364.788	80.62
365.015	96.62
365.241	102.62
365.468	87.62
365.694	79.62
365.92	96.62
366.147	73.62
366.373	66.62
366.599	85.62
366.826	90.62
367.052	91.62
367.278	97.62
367.505	83.62
367.731	93.62
367.957	93.62
368.184	78.62
368.41	79.62
368.636	94.62
368.862	92.62
369.089	87.62
369.315	99.62
369.541	98.62
369.767	73.62
369.993	80.62
370.219	88.62
370.445	88.62
370.672	85.62
370.898	82.62
371.124	92.62
371.35	83.62
371.576	77.62
371.802	85.62
372.028	82.62
372.254	93.62
372.48	89.62
372.706	97.62
372.932	105.62
373.158	87.62
373.384	94.62
373.61	96.62
373.835	88.62
374.061	77.62
374.287	94.62
374.513	94.62
374.739	86.62
374.965	85.62
375.191	95.62
375.416	86.62
375.642	79.62
375.868	93.62
376.094	96.62
376.319	91.62
376.545	92.62
376.771	103.62
376.997	87.62
377.222	94.62
377.448	84.62
377.674	87.62
377.899	84.62
378.125	89.62
378.35	85.62
378.576	93.62
378.802	98.62
379.027	93.62
379.253	90.62
379.478	89.62
379.704	87.62
379.929	75.62
380.155	96.62
380.38	100.62
380.606	94.62
380.831	89.62
381.057	99.62
381.282	89.62
381.507	85.62
381.733	88.62
381.958	94.62
382.184	90.62
382.409	81.62
382.634	89.62
382.86	97.62
383.085	99.62
383.31	67.62
383.535	79.62
383.761	95.62
383.986	91.62
384.211	101.62
384.436	79.62
384.662	84.62
384.887	78.62
385.112	84.62
385.337	101.62
385.562	92.62
385.787	85.62
386.013	90.62
386.238	89.62
386.463	97.62
386.688	100.62
386.913	97.62
387.138	74.62
387.363	82.62
387.588	78.62
387.813	83.62
388.038	82.62
388.263	80.62
388.488	99.62
388.713	87.62
388.938	90.62
389.163	93.62
389.387	81.62
389.612	85.62
389.837	80.62
390.062	78.62
390.287	81.62
390.512	75.62
390.736	91.62
390.961	83.62
391.186	99.62
391.411	91.62
391.636	102.62
391.86	83.62
392.085	89.62
392.31	83.62
392.534	100.62
392.759	94.62
392.984	91.62
393.208	93.62
393.433	94.62
393.658	78.62
393.882	79.62
394.107	91.62
394.331	90.62
394.556	78.62
394.78	95.62
395.005	88.62
395.229	91.62
395.454	82.62
395.678	67.62
395.903	83.62
396.127	78.62
396.352	92.62
396.576	89.62
396.801	93.62
397.025	84.62
397.249	77.62
397.474	88.62
397.698	90.62
397.922	82.62
398.147	96.62
398.371	80.62
398.595	80.62
398.82	84.62
399.044	83.62
399.268	78.62
399.492	91.62
399.717	97.62
399.941	93.62
400.165	82.62
400.389	88.62
400.613	86.62
400.837	93.62
401.062	85.62
401.286	73.62
401.51	93.62
401.734	80.62
401.958	65.62
402.182	87.62
402.406	83.62
402.63	98.62
402.854	101.62
403.078	99.62
403.302	75.62
403.526	89.62
403.75	101.62
403.974	99.62
404.198	87.62
404.422	93.62
404.645	90.62
404.869	89.62
405.093	102.62
405.317	93.62
405.541	86.62
405.765	84.62
405.988	91.62
406.212	95.62
406.436	88.62
406.66	97.62
406.883	78.62
407.107	92.62
407.331	85.62
407.555	99.62
407.778	78.62
408.002	94.62
408.226	89.62
408.449	93.62
408.673	77.62
408.896	94.62
409.12	89.62
409.344	95.62
409.567	85.62
409.791	108.62
410.014	97.62
410.238	82.62
410.461	81.62
410.685	96.62
410.908	89.62
411.132	91.62
411.355	94.62
411.578	100.62
411.802	77.62
412.025	83.62
412.249	81.62
412.472	89.62
412.695	77.62
412.919	86.62
413.142	81.62
413.365	97.62
413.589	92.62
413.812	93.62
414.035	92.62
414.258	87.62
414.482	80.62
414.705	79.62
414.928	92.62
415.151	92.62
415.374	92.62
415.597	108.62
415.821	86.62
416.044	101.62
416.267	80.62
416.49	87.62
416.713	94.62
416.936	90.62
417.159	94.62
417.382	93.62
417.605	84.62
417.828	101.62
418.051	84.62
418.274	72.62
418.497	88.62
418.72	97.62
418.943	97.62
419.166	97.62
419.389	104.62
419.611	102.62
419.834	92.62
420.057	93.62
420.28	92.62
420.503	100.62
420.726	91.62
420.948	82.62
421.171	90.62
421.394	95.62
421.617	84.62
421.839	97.62
422.062	93.62
422.285	108.62
422.507	79.62
422.73	89.62
422.953	89.62
423.175	90.62
423.398	99.62
423.621	91.62
423.843	86.62
424.066	96.62
424.288	100.62
424.511	85.62
424.733	96.62
424.956	90.62
425.178	97.62
425.401	81.62
425.623	90.62
425.846	91.62
426.068	81.62
426.291	87.62
426.513	93.62
426.735	101.62
426.958	94.62
427.18	79.62
427.402	94.62
427.625	102.62
427.847	90.62
428.069	101.62
428.292	92.62
428.514	103.62
428.736	94.62
428.958	112.62
429.181	97.62
429.403	96.62
429.625	91.62
429.847	92.62
430.069	96.62
430.292	87.62
430.514	87.62
430.736	95.62
430.958	94.62
431.18	83.62
431.402	92.62
431.624	106.62
431.846	92.62
432.068	79.62
432.29	91.62
432.512	88.62
432.734	84.62
432.956	86.62
433.178	90.62
433.4	83.62
433.622	89.62
433.844	96.62
434.066	99.62
434.287	87.62
434.509	88.62
434.731	84.62
434.953	84.62
435.175	101.62
435.397	95.62
435.618	86.62
435.84	93.62
436.062	89.62
436.284	93.62
436.505	89.62
436.727	93.62
436.949	85.62
437.17	113.62
437.392	99.62
437.614	93.62
437.835	90.62
438.057	91.62
438.278	85.62
438.5	86.62
438.721	86.62
438.943	97.62
439.165	92.62
439.386	106.62
439.608	83.62
439.829	106.62
440.05	95.62
440.272	102.62
440.493	107.62
440.715	85.62
440.936	102.62
441.158	103.62
441.379	105.62
441.6	95.62
441.822	96.62
442.043	96.62
442.264	104.62
442.486	84.62
442.707	91.62
442.928	92.62
443.149	100.62
443.371	90.62
443.592	94.62
443.813	94.62
444.034	86.62
444.255	84.62
444.476	104.62
444.698	104.62
444.919	103.62
445.14	208.62
445.361	139.62
445.582	110.62
445.803	93.62
446.024	96.62
446.245	95.62
446.466	88.62
446.687	97.62
446.908	92.62
447.129	95.62
447.35	106.62
447.571	96.62
447.792	97.62
448.013	103.62
448.234	85.62
448.455	92.62
448.675	87.62
448.896	109.62
449.117	93.62
449.338	70.62
449.559	97.62
449.779	99.62
450	79.62
450.221	95.62
450.442	91.62
450.662	99.62
450.883	84.62
451.104	95.62
451.324	91.62
451.545	95.62
451.766	90.62
451.986	83.62
452.207	77.62
452.428	81.62
452.648	95.62
452.869	85.62
453.089	84.62
453.31	112.62
453.53	85.62
453.751	106.62
453.971	89.62
454.192	94.62
454.412	81.62
454.633	105.62
454.853	87.62
455.073	92.62
455.294	88.62
455.514	83.62
455.734	100.62
455.955	98.62
456.175	84.62
456.395	99.62
456.616	104.62
456.836	73.62
457.056	85.62
457.276	91.62
457.497	97.62
457.717	93.62
457.937	86.62
458.157	92.62
458.377	104.62
458.598	91.62
458.818	90.62
459.038	88.62
459.258	74.62
459.478	89.62
459.698	89.62
459.918	88.62
460.138	75.62
460.358	87.62
460.578	78.62
460.798	95.62
461.018	87.62
461.238	84.62
461.458	94.62
461.678	100.62
461.898	81.62
462.118	90.62
462.338	89.62
462.558	88.62
462.777	94.62
462.997	91.62
463.217	99.62
463.437	79.62
463.657	91.62
463.876	98.62
464.096	101.62
464.316	91.62
464.536	98.62
464.755	89.62
464.975	100.62
465.195	79.62
465.414	75.62
465.634	105.62
465.854	96.62
466.073	88.62
466.293	108.62
466.512	89.62
466.732	85.62
466.951	103.62
467.171	74.62
467.391	94.62
467.61	98.62
467.829	98.62
468.049	96.62
468.268	103.62
468.488	115.62
468.707	88.62
468.927	100.62
469.146	97.62
469.365	92.62
469.585	89.62
469.804	90.62
470.023	94.62
470.243	99.62
470.462	101.62
470.681	92.62
470.901	97.62
471.12	89.62
471.339	89.62
471.558	88.62
471.777	90.62
471.997	101.62
472.216	112.62
472.435	91.62
472.654	86.62
472.873	88.62
473.092	85.62
473.311	88.62
473.53	90.62
473.749	95.62
473.968	96.62
474.187	89.62
474.406	90.62
474.625	83.62
474.844	96.62
475.063	87.62
475.282	89.62
475.501	86.62
475.72	97.62
475.939	75.62
476.158	95.62
476.377	81.62
476.596	90.62
476.814	82.62
477.033	97.62
477.252	108.62
477.471	98.62
477.69	97.62
477.908	101.62
478.127	97.62
478.346	102.62
478.564	82.62
478.783	105.62
479.002	84.62
479.22	81.62
479.439	87.62
479.658	93.62
479.876	94.62
480.095	107.62
480.313	92.62
480.532	91.62
480.751	91.62
480.969	87.62
481.188	85.62
481.406	96.62
481.624	99.62
481.843	86.62
482.061	79.62
482.28	90.62
482.498	69.62
482.717	89.62
482.935	102.62
483.153	99.62
483.372	95.62
483.59	92.62
483.808	100.62
484.027	81.62
484.245	94.62
484.463	98.62
484.681	94.62
484.9	98.62
485.118	81.62
485.336	92.62
485.554	89.62
485.772	96.62
485.99	66.62
486.209	93.62
486.427	91.62
486.645	84.62
486.863	99.62
487.081	90.62
487.299	91.62
487.517	104.62
487.735	105.62
487.953	106.62
488.171	101.62
488.389	98.62
488.607	93.62
488.825	94.62
489.043	93.62
489.261	97.62
489.479	93.62
489.696	83.62
489.914	102.62
490.132	94.62
490.35	101.62
490.568	97.62
490.786	94.62
491.003	94.62
491.221	110.62
491.439	103.62
491.657	98.62
491.874	110.62
492.092	124.62
492.31	107.62
492.527	109.62
492.745	102.62
492.963	93.62
493.18	108.62
493.398	103.62
493.615	109.62
493.833	108.62
494.05	109.62
494.268	93.62
494.485	90.62
494.703	111.62
494.92	99.62
495.138	110.62
495.355	108.62
495.573	103.62
495.79	95.62
496.008	96.62
496.225	102.62
496.442	109.62
496.66	107.62
496.877	111.62
497.094	108.62
497.312	109.62
497.529	90.62
497.746	92.62
497.963	90.62
498.181	91.62
498.398	90.62
498.615	97.62
498.832	99.62
499.049	106.62
499.267	106.62
499.484	99.62
499.701	84.62
499.918	93.62
500.135	90.62
500.352	100.62
500.569	102.62
500.786	96.62
501.003	93.62
501.22	97.62
501.437	98.62
501.654	104.62
501.871	94.62
502.088	77.62
502.305	87.62
502.522	83.62
502.739	97.62
502.956	88.62
503.172	102.62
503.389	110.62
503.606	86.62
503.823	101.62
504.04	108.62
504.256	105.62
504.473	89.62
504.69	78.62
504.907	106.62
505.123	93.62
505.34	103.62
505.557	112.62
505.773	95.62
505.99	100.62
506.207	99.62
506.423	89.62
506.64	96.62
506.856	80.62
507.073	105.62
507.289	99.62
507.506	85.62
507.722	89.62
507.939	89.62
508.155	89.62
508.372	91.62
508.588	92.62
508.805	87.62
509.021	94.62
509.238	101.62
509.454	91.62
509.67	102.62
509.887	91.62
510.103	88.62
510.319	97.62
510.536	95.62
510.752	85.62
510.968	76.62
511.184	92.62
511.401	73.62
511.617	87.62
511.833	99.62
512.049	93.62
512.265	87.62
512.481	95.62
512.698	86.62
512.914	91.62
513.13	88.62
513.346	87.62
513.562	97.62
513.778	88.62
513.994	103.62
514.21	94.62
514.426	76.62
514.642	79.62
514.858	91.62
515.074	75.62
515.29	79.62
515.506	94.62
515.721	99.62
515.937	92.62
516.153	93.62
516.369	94.62
516.585	90.62
516.801	84.62
517.016	105.62
517.232	96.62
