Data from Zn(NO3)2Standard.Agarose3%.GreenCap.LampEnergy10E.O_HRD10591_15-08-10-947.txt Node
Date: Mon Jul 22 15:08:10 EDT 2019
User: cochatt
Spectrometer: HR+D1059
Trigger mode: 1
Integration Time (sec): 1.000000E-1
Scans to average: 1
Electric dark correction enabled: true
Nonlinearity correction enabled: false
Boxcar width: 0
XAxis mode: Wavelengths
Number of Pixels in Spectrum: 2048
>>>>>Begin Spectral Data<<<<<
223.165	-20.12
223.4	-20.12
223.635	-20.12
223.869	-15.12
224.104	-15.12
224.338	-9.12
224.573	-3.12
224.808	-23.12
225.042	-3.12
225.277	-4.12
225.511	-4.12
225.746	5.88
225.98	3.88
226.215	9.88
226.449	9.88
226.683	15.88
226.918	18.88
227.152	32.88
227.387	36.88
227.621	30.88
227.856	48.88
228.09	41.88
228.324	50.88
228.559	51.88
228.793	49.88
229.027	52.88
229.262	50.88
229.496	63.88
229.73	73.88
229.964	74.88
230.199	75.88
230.433	67.88
230.667	81.88
230.901	69.88
231.136	68.88
231.37	80.88
231.604	77.88
231.838	70.88
232.072	95.88
232.306	76.88
232.541	75.88
232.775	72.88
233.009	78.88
233.243	87.88
233.477	88.88
233.711	66.88
233.945	92.88
234.179	86.88
234.413	89.88
234.647	94.88
234.881	74.88
235.115	77.88
235.349	68.88
235.583	90.88
235.817	84.88
236.051	72.88
236.285	80.88
236.519	88.88
236.753	87.88
236.987	73.88
237.221	66.88
237.455	63.88
237.689	71.88
237.922	82.88
238.156	61.88
238.39	70.88
238.624	75.88
238.858	69.88
239.091	57.88
239.325	60.88
239.559	71.88
239.793	68.88
240.027	65.88
240.26	66.88
240.494	81.88
240.728	68.88
240.961	83.88
241.195	78.88
241.429	74.88
241.662	67.88
241.896	66.88
242.13	75.88
242.363	73.88
242.597	66.88
242.83	72.88
243.064	78.88
243.298	62.88
243.531	83.88
243.765	79.88
243.998	94.88
244.232	71.88
244.465	70.88
244.699	68.88
244.932	74.88
245.166	79.88
245.399	81.88
245.633	75.88
245.866	74.88
246.099	83.88
246.333	83.88
246.566	83.88
246.8	81.88
247.033	78.88
247.266	78.88
247.5	77.88
247.733	74.88
247.966	96.88
248.2	64.88
248.433	72.88
248.666	82.88
248.899	59.88
249.133	71.88
249.366	72.88
249.599	83.88
249.832	76.88
250.066	83.88
250.299	66.88
250.532	98.88
250.765	82.88
250.998	89.88
251.231	64.88
251.465	71.88
251.698	75.88
251.931	72.88
252.164	71.88
252.397	91.88
252.63	82.88
252.863	63.88
253.096	77.88
253.329	82.88
253.562	88.88
253.795	73.88
254.028	78.88
254.261	70.88
254.494	76.88
254.727	73.88
254.96	89.88
255.193	86.88
255.426	77.88
255.659	73.88
255.892	74.88
256.124	82.88
256.357	76.88
256.59	91.88
256.823	74.88
257.056	79.88
257.289	79.88
257.521	85.88
257.754	91.88
257.987	78.88
258.22	86.88
258.452	83.88
258.685	70.88
258.918	76.88
259.151	81.88
259.383	81.88
259.616	83.88
259.849	90.88
260.081	86.88
260.314	89.88
260.547	88.88
260.779	88.88
261.012	75.88
261.244	73.88
261.477	74.88
261.71	89.88
261.942	81.88
262.175	86.88
262.407	98.88
262.64	82.88
262.872	93.88
263.105	82.88
263.337	94.88
263.57	72.88
263.802	72.88
264.035	72.88
264.267	81.88
264.499	73.88
264.732	85.88
264.964	83.88
265.197	80.88
265.429	75.88
265.661	83.88
265.894	76.88
266.126	92.88
266.358	78.88
266.591	76.88
266.823	62.88
267.055	81.88
267.287	91.88
267.52	82.88
267.752	96.88
267.984	73.88
268.216	82.88
268.448	60.88
268.681	79.88
268.913	82.88
269.145	75.88
269.377	74.88
269.609	72.88
269.841	82.88
270.073	82.88
270.306	92.88
270.538	88.88
270.77	90.88
271.002	73.88
271.234	89.88
271.466	79.88
271.698	79.88
271.93	76.88
272.162	84.88
272.394	93.88
272.626	82.88
272.858	81.88
273.09	91.88
273.322	89.88
273.553	79.88
273.785	94.88
274.017	86.88
274.249	78.88
274.481	69.88
274.713	75.88
274.945	85.88
275.176	67.88
275.408	87.88
275.64	89.88
275.872	82.88
276.104	73.88
276.335	93.88
276.567	87.88
276.799	73.88
277.031	86.88
277.262	82.88
277.494	79.88
277.726	76.88
277.957	86.88
278.189	78.88
278.421	78.88
278.652	81.88
278.884	66.88
279.115	94.88
279.347	78.88
279.579	81.88
279.81	87.88
280.042	79.88
280.273	82.88
280.505	74.88
280.736	84.88
280.968	78.88
281.199	72.88
281.431	89.88
281.662	83.88
281.894	76.88
282.125	91.88
282.356	73.88
282.588	92.88
282.819	90.88
283.051	86.88
283.282	84.88
283.513	89.88
283.745	80.88
283.976	77.88
284.207	85.88
284.439	75.88
284.67	77.88
284.901	82.88
285.132	78.88
285.364	90.88
285.595	86.88
285.826	75.88
286.057	80.88
286.288	91.88
286.52	75.88
286.751	86.88
286.982	83.88
287.213	73.88
287.444	75.88
287.675	87.88
287.906	79.88
288.138	78.88
288.369	83.88
288.6	91.88
288.831	88.88
289.062	96.88
289.293	79.88
289.524	91.88
289.755	67.88
289.986	86.88
290.217	89.88
290.448	79.88
290.679	84.88
290.91	81.88
291.141	88.88
291.371	86.88
291.602	84.88
291.833	81.88
292.064	79.88
292.295	78.88
292.526	74.88
292.757	92.88
292.987	90.88
293.218	72.88
293.449	87.88
293.68	84.88
293.91	85.88
294.141	86.88
294.372	86.88
294.603	65.88
294.833	78.88
295.064	75.88
295.295	91.88
295.525	83.88
295.756	79.88
295.987	89.88
296.217	74.88
296.448	81.88
296.679	85.88
296.909	79.88
297.14	93.88
297.37	97.88
297.601	82.88
297.831	85.88
298.062	87.88
298.292	84.88
298.523	74.88
298.753	82.88
298.984	84.88
299.214	73.88
299.445	75.88
299.675	89.88
299.905	87.88
300.136	80.88
300.366	84.88
300.597	83.88
300.827	84.88
301.057	90.88
301.288	75.88
301.518	80.88
301.748	83.88
301.979	65.88
302.209	80.88
302.439	83.88
302.669	78.88
302.9	98.88
303.13	95.88
303.36	92.88
303.59	76.88
303.82	90.88
304.051	87.88
304.281	88.88
304.511	81.88
304.741	63.88
304.971	75.88
305.201	77.88
305.431	88.88
305.661	68.88
305.891	93.88
306.121	90.88
306.352	86.88
306.582	101.88
306.812	81.88
307.042	77.88
307.272	83.88
307.502	74.88
307.731	66.88
307.961	86.88
308.191	87.88
308.421	90.88
308.651	81.88
308.881	78.88
309.111	83.88
309.341	83.88
309.571	75.88
309.8	74.88
310.03	80.88
310.26	86.88
310.49	78.88
310.72	86.88
310.949	89.88
311.179	82.88
311.409	81.88
311.639	82.88
311.868	94.88
312.098	103.88
312.328	85.88
312.557	75.88
312.787	75.88
313.017	78.88
313.246	99.88
313.476	90.88
313.706	88.88
313.935	85.88
314.165	81.88
314.394	83.88
314.624	90.88
314.853	94.88
315.083	97.88
315.312	88.88
315.542	96.88
315.771	78.88
316.001	94.88
316.23	82.88
316.46	75.88
316.689	90.88
316.919	92.88
317.148	81.88
317.377	76.88
317.607	81.88
317.836	80.88
318.065	74.88
318.295	85.88
318.524	99.88
318.753	89.88
318.983	79.88
319.212	81.88
319.441	89.88
319.67	98.88
319.9	81.88
320.129	73.88
320.358	60.88
320.587	88.88
320.816	86.88
321.046	75.88
321.275	76.88
321.504	74.88
321.733	86.88
321.962	85.88
322.191	84.88
322.42	94.88
322.649	89.88
322.878	88.88
323.108	85.88
323.337	82.88
323.566	87.88
323.795	86.88
324.024	96.88
324.253	75.88
324.482	78.88
324.71	88.88
324.939	74.88
325.168	88.88
325.397	83.88
325.626	88.88
325.855	83.88
326.084	84.88
326.313	82.88
326.542	99.88
326.77	86.88
326.999	70.88
327.228	87.88
327.457	95.88
327.686	75.88
327.914	84.88
328.143	80.88
328.372	80.88
328.6	80.88
328.829	83.88
329.058	85.88
329.287	72.88
329.515	89.88
329.744	69.88
329.972	67.88
330.201	89.88
330.43	68.88
330.658	91.88
330.887	78.88
331.115	73.88
331.344	80.88
331.572	83.88
331.801	82.88
332.03	89.88
332.258	82.88
332.486	81.88
332.715	83.88
332.943	82.88
333.172	71.88
333.4	75.88
333.629	72.88
333.857	83.88
334.085	73.88
334.314	82.88
334.542	82.88
334.771	97.88
334.999	88.88
335.227	71.88
335.455	83.88
335.684	88.88
335.912	88.88
336.14	91.88
336.369	86.88
336.597	78.88
336.825	88.88
337.053	75.88
337.281	85.88
337.51	84.88
337.738	98.88
337.966	78.88
338.194	88.88
338.422	85.88
338.65	84.88
338.878	88.88
339.106	90.88
339.334	83.88
339.562	85.88
339.79	78.88
340.018	74.88
340.246	80.88
340.474	82.88
340.702	90.88
340.93	92.88
341.158	81.88
341.386	70.88
341.614	75.88
341.842	76.88
342.07	74.88
342.298	80.88
342.526	86.88
342.754	75.88
342.981	82.88
343.209	78.88
343.437	93.88
343.665	71.88
343.893	71.88
344.12	71.88
344.348	77.88
344.576	74.88
344.804	81.88
345.031	85.88
345.259	102.88
345.487	80.88
345.714	78.88
345.942	83.88
346.17	84.88
346.397	92.88
346.625	70.88
346.853	80.88
347.08	78.88
347.308	87.88
347.535	86.88
347.763	75.88
347.99	78.88
348.218	81.88
348.445	72.88
348.673	67.88
348.9	75.88
349.128	80.88
349.355	83.88
349.583	68.88
349.81	66.88
350.037	75.88
350.265	80.88
350.492	84.88
350.72	93.88
350.947	85.88
351.174	96.88
351.402	82.88
351.629	72.88
351.856	70.88
352.083	79.88
352.311	89.88
352.538	83.88
352.765	72.88
352.992	80.88
353.22	74.88
353.447	88.88
353.674	78.88
353.901	77.88
354.128	77.88
354.355	84.88
354.583	90.88
354.81	89.88
355.037	84.88
355.264	90.88
355.491	86.88
355.718	84.88
355.945	83.88
356.172	93.88
356.399	80.88
356.626	77.88
356.853	70.88
357.08	80.88
357.307	83.88
357.534	77.88
357.761	83.88
357.988	81.88
358.215	83.88
358.441	66.88
358.668	93.88
358.895	81.88
359.122	85.88
359.349	70.88
359.576	83.88
359.802	86.88
360.029	82.88
360.256	91.88
360.483	78.88
360.709	78.88
360.936	92.88
361.163	95.88
361.39	87.88
361.616	84.88
361.843	82.88
362.07	85.88
362.296	74.88
362.523	86.88
362.749	72.88
362.976	84.88
363.203	97.88
363.429	93.88
363.656	96.88
363.882	85.88
364.109	81.88
364.335	82.88
364.562	77.88
364.788	86.88
365.015	90.88
365.241	94.88
365.468	88.88
365.694	69.88
365.92	64.88
366.147	74.88
366.373	69.88
366.599	91.88
366.826	89.88
367.052	82.88
367.278	83.88
367.505	85.88
367.731	88.88
367.957	80.88
368.184	97.88
368.41	73.88
368.636	78.88
368.862	85.88
369.089	85.88
369.315	70.88
369.541	78.88
369.767	88.88
369.993	83.88
370.219	70.88
370.445	78.88
370.672	80.88
370.898	82.88
371.124	76.88
371.35	76.88
371.576	82.88
371.802	95.88
372.028	87.88
372.254	76.88
372.48	73.88
372.706	88.88
372.932	87.88
373.158	89.88
373.384	83.88
373.61	81.88
373.835	91.88
374.061	79.88
374.287	78.88
374.513	89.88
374.739	67.88
374.965	76.88
375.191	90.88
375.416	96.88
375.642	91.88
375.868	100.88
376.094	90.88
376.319	94.88
376.545	86.88
376.771	84.88
376.997	79.88
377.222	103.88
377.448	76.88
377.674	84.88
377.899	92.88
378.125	79.88
378.35	87.88
378.576	89.88
378.802	88.88
379.027	72.88
379.253	85.88
379.478	82.88
379.704	98.88
379.929	94.88
380.155	83.88
380.38	82.88
380.606	89.88
380.831	81.88
381.057	93.88
381.282	91.88
381.507	74.88
381.733	83.88
381.958	96.88
382.184	98.88
382.409	75.88
382.634	80.88
382.86	96.88
383.085	92.88
383.31	80.88
383.535	95.88
383.761	84.88
383.986	76.88
384.211	90.88
384.436	70.88
384.662	82.88
384.887	71.88
385.112	91.88
385.337	89.88
385.562	82.88
385.787	84.88
386.013	96.88
386.238	84.88
386.463	83.88
386.688	79.88
386.913	87.88
387.138	84.88
387.363	90.88
387.588	95.88
387.813	90.88
388.038	87.88
388.263	86.88
388.488	100.88
388.713	82.88
388.938	100.88
389.163	98.88
389.387	90.88
389.612	93.88
389.837	72.88
390.062	72.88
390.287	90.88
390.512	92.88
390.736	82.88
390.961	84.88
391.186	90.88
391.411	83.88
391.636	89.88
391.86	73.88
392.085	91.88
392.31	88.88
392.534	96.88
392.759	99.88
392.984	86.88
393.208	91.88
393.433	97.88
393.658	104.88
393.882	100.88
394.107	80.88
394.331	81.88
394.556	91.88
394.78	90.88
395.005	85.88
395.229	83.88
395.454	84.88
395.678	102.88
395.903	80.88
396.127	101.88
396.352	89.88
396.576	92.88
396.801	94.88
397.025	87.88
397.249	97.88
397.474	84.88
397.698	104.88
397.922	87.88
398.147	70.88
398.371	102.88
398.595	89.88
398.82	97.88
399.044	110.88
399.268	97.88
399.492	87.88
399.717	88.88
399.941	90.88
400.165	99.88
400.389	98.88
400.613	86.88
400.837	82.88
401.062	94.88
401.286	90.88
401.51	98.88
401.734	98.88
401.958	99.88
402.182	100.88
402.406	89.88
402.63	85.88
402.854	88.88
403.078	94.88
403.302	102.88
403.526	101.88
403.75	102.88
403.974	91.88
404.198	86.88
404.422	105.88
404.645	88.88
404.869	97.88
405.093	98.88
405.317	88.88
405.541	91.88
405.765	91.88
405.988	95.88
406.212	98.88
406.436	93.88
406.66	92.88
406.883	93.88
407.107	91.88
407.331	101.88
407.555	95.88
407.778	99.88
408.002	105.88
408.226	96.88
408.449	98.88
408.673	84.88
408.896	106.88
409.12	105.88
409.344	114.88
409.567	116.88
409.791	92.88
410.014	112.88
410.238	96.88
410.461	94.88
410.685	92.88
410.908	104.88
411.132	106.88
411.355	104.88
411.578	99.88
411.802	99.88
412.025	97.88
412.249	91.88
412.472	86.88
412.695	103.88
412.919	94.88
413.142	87.88
413.365	103.88
413.589	108.88
413.812	107.88
414.035	110.88
414.258	99.88
414.482	105.88
414.705	106.88
414.928	110.88
415.151	103.88
415.374	93.88
415.597	103.88
415.821	106.88
416.044	96.88
416.267	91.88
416.49	95.88
416.713	88.88
416.936	100.88
417.159	79.88
417.382	99.88
417.605	110.88
417.828	99.88
418.051	98.88
418.274	103.88
418.497	96.88
418.72	95.88
418.943	104.88
419.166	98.88
419.389	96.88
419.611	104.88
419.834	106.88
420.057	103.88
420.28	88.88
420.503	105.88
420.726	104.88
420.948	98.88
421.171	95.88
421.394	104.88
421.617	104.88
421.839	113.88
422.062	112.88
422.285	96.88
422.507	106.88
422.73	97.88
422.953	122.88
423.175	103.88
423.398	104.88
423.621	97.88
423.843	109.88
424.066	96.88
424.288	112.88
424.511	100.88
424.733	116.88
424.956	107.88
425.178	103.88
425.401	106.88
425.623	94.88
425.846	113.88
426.068	107.88
426.291	108.88
426.513	100.88
426.735	112.88
426.958	103.88
427.18	115.88
427.402	102.88
427.625	101.88
427.847	102.88
428.069	88.88
428.292	89.88
428.514	102.88
428.736	100.88
428.958	105.88
429.181	105.88
429.403	100.88
429.625	101.88
429.847	108.88
430.069	90.88
430.292	101.88
430.514	97.88
430.736	116.88
430.958	104.88
431.18	108.88
431.402	79.88
431.624	83.88
431.846	90.88
432.068	84.88
432.29	90.88
432.512	107.88
432.734	90.88
432.956	89.88
433.178	100.88
433.4	102.88
433.622	91.88
433.844	94.88
434.066	97.88
434.287	86.88
434.509	90.88
434.731	77.88
434.953	98.88
435.175	106.88
435.397	99.88
435.618	99.88
435.84	92.88
436.062	99.88
436.284	103.88
436.505	97.88
436.727	88.88
436.949	114.88
437.17	95.88
437.392	91.88
437.614	99.88
437.835	97.88
438.057	97.88
438.278	88.88
438.5	103.88
438.721	90.88
438.943	102.88
439.165	95.88
439.386	100.88
439.608	102.88
439.829	98.88
440.05	96.88
440.272	104.88
440.493	81.88
440.715	110.88
440.936	111.88
441.158	106.88
441.379	100.88
441.6	89.88
441.822	118.88
442.043	113.88
442.264	113.88
442.486	123.88
442.707	114.88
442.928	109.88
443.149	105.88
443.371	118.88
443.592	106.88
443.813	103.88
444.034	103.88
444.255	110.88
444.476	114.88
444.698	123.88
444.919	97.88
445.14	193.88
445.361	149.88
445.582	120.88
445.803	109.88
446.024	104.88
446.245	115.88
446.466	114.88
446.687	122.88
446.908	131.88
447.129	113.88
447.35	92.88
447.571	117.88
447.792	93.88
448.013	109.88
448.234	122.88
448.455	110.88
448.675	110.88
448.896	116.88
449.117	107.88
449.338	103.88
449.559	104.88
449.779	95.88
450	98.88
450.221	100.88
450.442	118.88
450.662	94.88
450.883	103.88
451.104	102.88
451.324	92.88
451.545	95.88
451.766	100.88
451.986	106.88
452.207	104.88
452.428	99.88
452.648	111.88
452.869	103.88
453.089	94.88
453.31	95.88
453.53	94.88
453.751	82.88
453.971	95.88
454.192	83.88
454.412	83.88
454.633	100.88
454.853	99.88
455.073	82.88
455.294	96.88
455.514	100.88
455.734	105.88
455.955	110.88
456.175	96.88
456.395	100.88
456.616	90.88
456.836	89.88
457.056	93.88
457.276	96.88
457.497	90.88
457.717	97.88
457.937	95.88
458.157	101.88
458.377	85.88
458.598	86.88
458.818	94.88
459.038	86.88
459.258	83.88
459.478	72.88
459.698	89.88
459.918	84.88
460.138	85.88
460.358	106.88
460.578	101.88
460.798	92.88
461.018	91.88
461.238	103.88
461.458	106.88
461.678	90.88
461.898	84.88
462.118	104.88
462.338	96.88
462.558	103.88
462.777	96.88
462.997	90.88
463.217	81.88
463.437	87.88
463.657	83.88
463.876	84.88
464.096	85.88
464.316	105.88
464.536	98.88
464.755	104.88
464.975	88.88
465.195	93.88
465.414	84.88
465.634	87.88
465.854	95.88
466.073	108.88
466.293	104.88
466.512	86.88
466.732	115.88
466.951	100.88
467.171	111.88
467.391	105.88
467.61	105.88
467.829	110.88
468.049	102.88
468.268	112.88
468.488	106.88
468.707	100.88
468.927	89.88
469.146	100.88
469.365	111.88
469.585	112.88
469.804	99.88
470.023	99.88
470.243	110.88
470.462	93.88
470.681	108.88
470.901	110.88
471.12	105.88
471.339	111.88
471.558	95.88
471.777	103.88
471.997	99.88
472.216	99.88
472.435	86.88
472.654	81.88
472.873	102.88
473.092	97.88
473.311	97.88
473.53	83.88
473.749	113.88
473.968	109.88
474.187	105.88
474.406	98.88
474.625	102.88
474.844	99.88
475.063	96.88
475.282	114.88
475.501	98.88
475.72	111.88
475.939	103.88
476.158	100.88
476.377	95.88
476.596	108.88
476.814	108.88
477.033	84.88
477.252	89.88
477.471	114.88
477.69	103.88
477.908	108.88
478.127	119.88
478.346	118.88
478.564	106.88
478.783	113.88
479.002	117.88
479.22	100.88
479.439	97.88
479.658	97.88
479.876	95.88
480.095	96.88
480.313	92.88
480.532	104.88
480.751	92.88
480.969	76.88
481.188	104.88
481.406	87.88
481.624	76.88
481.843	83.88
482.061	86.88
482.28	74.88
482.498	92.88
482.717	96.88
482.935	95.88
483.153	114.88
483.372	110.88
483.59	99.88
483.808	109.88
484.027	92.88
484.245	112.88
484.463	118.88
484.681	114.88
484.9	115.88
485.118	122.88
485.336	92.88
485.554	87.88
485.772	81.88
485.99	95.88
486.209	90.88
486.427	101.88
486.645	86.88
486.863	118.88
487.081	124.88
487.299	107.88
487.517	110.88
487.735	115.88
487.953	124.88
488.171	132.88
488.389	149.88
488.607	104.88
488.825	121.88
489.043	112.88
489.261	107.88
489.479	107.88
489.696	115.88
489.914	92.88
490.132	100.88
490.35	104.88
490.568	116.88
490.786	109.88
491.003	124.88
491.221	133.88
491.439	127.88
491.657	116.88
491.874	152.88
492.092	165.88
492.31	148.88
492.527	150.88
492.745	143.88
492.963	125.88
493.18	124.88
493.398	132.88
493.615	119.88
493.833	112.88
494.05	144.88
494.268	132.88
494.485	123.88
494.703	154.88
494.92	119.88
495.138	122.88
495.355	131.88
495.573	117.88
495.79	118.88
496.008	120.88
496.225	116.88
496.442	123.88
496.66	126.88
496.877	124.88
497.094	139.88
497.312	106.88
497.529	129.88
497.746	130.88
497.963	105.88
498.181	107.88
498.398	103.88
498.615	112.88
498.832	93.88
499.049	84.88
499.267	103.88
499.484	97.88
499.701	102.88
499.918	104.88
500.135	120.88
500.352	107.88
500.569	105.88
500.786	126.88
501.003	117.88
501.22	111.88
501.437	106.88
501.654	121.88
501.871	106.88
502.088	111.88
502.305	105.88
502.522	98.88
502.739	112.88
502.956	99.88
503.172	96.88
503.389	98.88
503.606	105.88
503.823	105.88
504.04	102.88
504.256	118.88
504.473	98.88
504.69	95.88
504.907	113.88
505.123	114.88
505.34	98.88
505.557	99.88
505.773	108.88
505.99	100.88
506.207	104.88
506.423	109.88
506.64	108.88
506.856	99.88
507.073	89.88
507.289	95.88
507.506	107.88
507.722	96.88
507.939	100.88
508.155	82.88
508.372	94.88
508.588	97.88
508.805	97.88
509.021	95.88
509.238	106.88
509.454	95.88
509.67	90.88
509.887	87.88
510.103	90.88
510.319	84.88
510.536	88.88
510.752	86.88
510.968	75.88
511.184	75.88
511.401	70.88
511.617	82.88
511.833	78.88
512.049	83.88
512.265	94.88
512.481	74.88
512.698	89.88
512.914	83.88
513.13	84.88
513.346	91.88
513.562	85.88
513.778	80.88
513.994	85.88
514.21	85.88
514.426	88.88
514.642	98.88
514.858	78.88
515.074	73.88
515.29	84.88
