Data from Zn(NO3)2Standard.Agarose3%.GreenCap.LampEnergy10E.O_HRD10591_15-08-36-950.txt Node
Date: Mon Jul 22 15:08:36 EDT 2019
User: cochatt
Spectrometer: HR+D1059
Trigger mode: 1
Integration Time (sec): 1.000000E-1
Scans to average: 1
Electric dark correction enabled: true
Nonlinearity correction enabled: false
Boxcar width: 0
XAxis mode: Wavelengths
Number of Pixels in Spectrum: 2048
>>>>>Begin Spectral Data<<<<<
223.165	-9.94
223.4	-9.94
223.635	-9.94
223.869	-22.94
224.104	-20.94
224.338	-13.94
224.573	-15.94
224.808	-10.94
225.042	-5.94
225.277	-4.94
225.511	9.06
225.746	15.06
225.98	5.06
226.215	8.06
226.449	18.06
226.683	11.06
226.918	19.06
227.152	20.06
227.387	27.06
227.621	44.06
227.856	42.06
228.09	44.06
228.324	39.06
228.559	58.06
228.793	51.06
229.027	59.06
229.262	73.06
229.496	62.06
229.73	78.06
229.964	69.06
230.199	78.06
230.433	61.06
230.667	74.06
230.901	84.06
231.136	69.06
231.37	83.06
231.604	72.06
231.838	79.06
232.072	84.06
232.306	81.06
232.541	84.06
232.775	78.06
233.009	80.06
233.243	84.06
233.477	90.06
233.711	80.06
233.945	88.06
234.179	95.06
234.413	84.06
234.647	83.06
234.881	83.06
235.115	78.06
235.349	82.06
235.583	69.06
235.817	75.06
236.051	77.06
236.285	81.06
236.519	73.06
236.753	66.06
236.987	82.06
237.221	74.06
237.455	78.06
237.689	76.06
237.922	84.06
238.156	75.06
238.39	81.06
238.624	75.06
238.858	68.06
239.091	72.06
239.325	60.06
239.559	70.06
239.793	74.06
240.027	81.06
240.26	74.06
240.494	82.06
240.728	81.06
240.961	83.06
241.195	72.06
241.429	67.06
241.662	61.06
241.896	69.06
242.13	74.06
242.363	69.06
242.597	87.06
242.83	76.06
243.064	78.06
243.298	76.06
243.531	73.06
243.765	61.06
243.998	88.06
244.232	93.06
244.465	64.06
244.699	71.06
244.932	90.06
245.166	74.06
245.399	62.06
245.633	83.06
245.866	76.06
246.099	73.06
246.333	82.06
246.566	67.06
246.8	71.06
247.033	76.06
247.266	54.06
247.5	80.06
247.733	77.06
247.966	74.06
248.2	70.06
248.433	72.06
248.666	70.06
248.899	80.06
249.133	84.06
249.366	82.06
249.599	67.06
249.832	72.06
250.066	74.06
250.299	73.06
250.532	83.06
250.765	91.06
250.998	65.06
251.231	89.06
251.465	69.06
251.698	83.06
251.931	68.06
252.164	79.06
252.397	91.06
252.63	85.06
252.863	84.06
253.096	85.06
253.329	79.06
253.562	71.06
253.795	79.06
254.028	77.06
254.261	72.06
254.494	84.06
254.727	80.06
254.96	92.06
255.193	80.06
255.426	77.06
255.659	83.06
255.892	88.06
256.124	86.06
256.357	82.06
256.59	75.06
256.823	88.06
257.056	74.06
257.289	73.06
257.521	86.06
257.754	75.06
257.987	72.06
258.22	86.06
258.452	82.06
258.685	77.06
258.918	79.06
259.151	79.06
259.383	84.06
259.616	81.06
259.849	85.06
260.081	73.06
260.314	81.06
260.547	90.06
260.779	84.06
261.012	82.06
261.244	85.06
261.477	75.06
261.71	77.06
261.942	76.06
262.175	81.06
262.407	76.06
262.64	76.06
262.872	70.06
263.105	74.06
263.337	77.06
263.57	80.06
263.802	76.06
264.035	84.06
264.267	76.06
264.499	80.06
264.732	86.06
264.964	73.06
265.197	96.06
265.429	76.06
265.661	88.06
265.894	94.06
266.126	72.06
266.358	74.06
266.591	83.06
266.823	74.06
267.055	87.06
267.287	80.06
267.52	77.06
267.752	81.06
267.984	75.06
268.216	81.06
268.448	77.06
268.681	86.06
268.913	96.06
269.145	83.06
269.377	86.06
269.609	81.06
269.841	87.06
270.073	72.06
270.306	75.06
270.538	74.06
270.77	81.06
271.002	75.06
271.234	84.06
271.466	80.06
271.698	81.06
271.93	86.06
272.162	80.06
272.394	80.06
272.626	99.06
272.858	89.06
273.09	86.06
273.322	91.06
273.553	82.06
273.785	80.06
274.017	73.06
274.249	74.06
274.481	75.06
274.713	75.06
274.945	70.06
275.176	86.06
275.408	89.06
275.64	80.06
275.872	85.06
276.104	83.06
276.335	95.06
276.567	95.06
276.799	83.06
277.031	95.06
277.262	87.06
277.494	79.06
277.726	78.06
277.957	73.06
278.189	85.06
278.421	76.06
278.652	83.06
278.884	79.06
279.115	76.06
279.347	77.06
279.579	82.06
279.81	90.06
280.042	74.06
280.273	75.06
280.505	79.06
280.736	70.06
280.968	68.06
281.199	72.06
281.431	74.06
281.662	75.06
281.894	106.06
282.125	87.06
282.356	77.06
282.588	90.06
282.819	78.06
283.051	79.06
283.282	78.06
283.513	88.06
283.745	76.06
283.976	76.06
284.207	82.06
284.439	99.06
284.67	78.06
284.901	70.06
285.132	83.06
285.364	71.06
285.595	73.06
285.826	88.06
286.057	80.06
286.288	95.06
286.52	98.06
286.751	78.06
286.982	81.06
287.213	62.06
287.444	80.06
287.675	74.06
287.906	94.06
288.138	87.06
288.369	82.06
288.6	94.06
288.831	84.06
289.062	81.06
289.293	83.06
289.524	82.06
289.755	80.06
289.986	101.06
290.217	90.06
290.448	99.06
290.679	86.06
290.91	97.06
291.141	65.06
291.371	96.06
291.602	89.06
291.833	83.06
292.064	85.06
292.295	86.06
292.526	83.06
292.757	79.06
292.987	73.06
293.218	83.06
293.449	83.06
293.68	87.06
293.91	92.06
294.141	75.06
294.372	82.06
294.603	77.06
294.833	74.06
295.064	82.06
295.295	65.06
295.525	91.06
295.756	91.06
295.987	87.06
296.217	68.06
296.448	91.06
296.679	98.06
296.909	91.06
297.14	90.06
297.37	75.06
297.601	89.06
297.831	83.06
298.062	90.06
298.292	79.06
298.523	84.06
298.753	79.06
298.984	85.06
299.214	89.06
299.445	81.06
299.675	80.06
299.905	69.06
300.136	92.06
300.366	79.06
300.597	72.06
300.827	75.06
301.057	92.06
301.288	84.06
301.518	85.06
301.748	87.06
301.979	93.06
302.209	83.06
302.439	93.06
302.669	76.06
302.9	87.06
303.13	80.06
303.36	76.06
303.59	81.06
303.82	91.06
304.051	84.06
304.281	93.06
304.511	94.06
304.741	87.06
304.971	77.06
305.201	89.06
305.431	82.06
305.661	91.06
305.891	89.06
306.121	111.06
306.352	76.06
306.582	80.06
306.812	74.06
307.042	83.06
307.272	84.06
307.502	81.06
307.731	68.06
307.961	82.06
308.191	85.06
308.421	84.06
308.651	70.06
308.881	95.06
309.111	96.06
309.341	85.06
309.571	95.06
309.8	76.06
310.03	74.06
310.26	91.06
310.49	83.06
310.72	111.06
310.949	82.06
311.179	92.06
311.409	96.06
311.639	89.06
311.868	78.06
312.098	70.06
312.328	76.06
312.557	86.06
312.787	83.06
313.017	75.06
313.246	89.06
313.476	77.06
313.706	76.06
313.935	84.06
314.165	97.06
314.394	83.06
314.624	87.06
314.853	79.06
315.083	81.06
315.312	72.06
315.542	77.06
315.771	65.06
316.001	96.06
316.23	79.06
316.46	96.06
316.689	79.06
316.919	77.06
317.148	84.06
317.377	77.06
317.607	98.06
317.836	100.06
318.065	74.06
318.295	73.06
318.524	87.06
318.753	79.06
318.983	86.06
319.212	86.06
319.441	88.06
319.67	95.06
319.9	87.06
320.129	91.06
320.358	76.06
320.587	81.06
320.816	87.06
321.046	87.06
321.275	76.06
321.504	87.06
321.733	80.06
321.962	75.06
322.191	85.06
322.42	76.06
322.649	86.06
322.878	77.06
323.108	88.06
323.337	77.06
323.566	81.06
323.795	87.06
324.024	84.06
324.253	83.06
324.482	79.06
324.71	72.06
324.939	67.06
325.168	95.06
325.397	84.06
325.626	90.06
325.855	88.06
326.084	89.06
326.313	84.06
326.542	91.06
326.77	83.06
326.999	93.06
327.228	79.06
327.457	79.06
327.686	81.06
327.914	84.06
328.143	84.06
328.372	84.06
328.6	79.06
328.829	90.06
329.058	77.06
329.287	86.06
329.515	80.06
329.744	99.06
329.972	80.06
330.201	94.06
330.43	94.06
330.658	87.06
330.887	90.06
331.115	77.06
331.344	83.06
331.572	89.06
331.801	81.06
332.03	63.06
332.258	83.06
332.486	82.06
332.715	82.06
332.943	73.06
333.172	98.06
333.4	73.06
333.629	76.06
333.857	92.06
334.085	93.06
334.314	74.06
334.542	81.06
334.771	94.06
334.999	83.06
335.227	82.06
335.455	93.06
335.684	92.06
335.912	88.06
336.14	84.06
336.369	72.06
336.597	92.06
336.825	103.06
337.053	72.06
337.281	88.06
337.51	81.06
337.738	94.06
337.966	80.06
338.194	91.06
338.422	87.06
338.65	89.06
338.878	92.06
339.106	85.06
339.334	88.06
339.562	73.06
339.79	91.06
340.018	81.06
340.246	81.06
340.474	75.06
340.702	77.06
340.93	85.06
341.158	76.06
341.386	90.06
341.614	75.06
341.842	81.06
342.07	88.06
342.298	82.06
342.526	91.06
342.754	85.06
342.981	83.06
343.209	87.06
343.437	86.06
343.665	84.06
343.893	81.06
344.12	92.06
344.348	75.06
344.576	82.06
344.804	79.06
345.031	96.06
345.259	84.06
345.487	89.06
345.714	80.06
345.942	77.06
346.17	67.06
346.397	83.06
346.625	84.06
346.853	91.06
347.08	92.06
347.308	84.06
347.535	83.06
347.763	84.06
347.99	79.06
348.218	82.06
348.445	95.06
348.673	77.06
348.9	86.06
349.128	93.06
349.355	71.06
349.583	90.06
349.81	87.06
350.037	81.06
350.265	92.06
350.492	83.06
350.72	78.06
350.947	76.06
351.174	84.06
351.402	94.06
351.629	83.06
351.856	99.06
352.083	79.06
352.311	82.06
352.538	89.06
352.765	77.06
352.992	83.06
353.22	65.06
353.447	77.06
353.674	78.06
353.901	87.06
354.128	91.06
354.355	76.06
354.583	86.06
354.81	83.06
355.037	95.06
355.264	82.06
355.491	96.06
355.718	60.06
355.945	92.06
356.172	71.06
356.399	85.06
356.626	68.06
356.853	83.06
357.08	81.06
357.307	91.06
357.534	90.06
357.761	93.06
357.988	98.06
358.215	88.06
358.441	85.06
358.668	81.06
358.895	79.06
359.122	84.06
359.349	85.06
359.576	87.06
359.802	70.06
360.029	88.06
360.256	86.06
360.483	83.06
360.709	90.06
360.936	88.06
361.163	75.06
361.39	83.06
361.616	94.06
361.843	88.06
362.07	77.06
362.296	91.06
362.523	84.06
362.749	96.06
362.976	84.06
363.203	89.06
363.429	66.06
363.656	69.06
363.882	72.06
364.109	95.06
364.335	69.06
364.562	77.06
364.788	75.06
365.015	85.06
365.241	81.06
365.468	86.06
365.694	89.06
365.92	87.06
366.147	87.06
366.373	87.06
366.599	67.06
366.826	85.06
367.052	84.06
367.278	84.06
367.505	77.06
367.731	100.06
367.957	84.06
368.184	101.06
368.41	88.06
368.636	79.06
368.862	89.06
369.089	77.06
369.315	86.06
369.541	83.06
369.767	91.06
369.993	73.06
370.219	93.06
370.445	92.06
370.672	89.06
370.898	89.06
371.124	91.06
371.35	85.06
371.576	99.06
371.802	89.06
372.028	81.06
372.254	81.06
372.48	70.06
372.706	95.06
372.932	73.06
373.158	96.06
373.384	94.06
373.61	84.06
373.835	83.06
374.061	83.06
374.287	85.06
374.513	83.06
374.739	74.06
374.965	76.06
375.191	74.06
375.416	89.06
375.642	98.06
375.868	90.06
376.094	85.06
376.319	85.06
376.545	83.06
376.771	86.06
376.997	95.06
377.222	87.06
377.448	84.06
377.674	76.06
377.899	90.06
378.125	83.06
378.35	93.06
378.576	80.06
378.802	89.06
379.027	89.06
379.253	87.06
379.478	78.06
379.704	96.06
379.929	83.06
380.155	80.06
380.38	89.06
380.606	86.06
380.831	86.06
381.057	99.06
381.282	105.06
381.507	87.06
381.733	88.06
381.958	96.06
382.184	89.06
382.409	81.06
382.634	83.06
382.86	90.06
383.085	83.06
383.31	87.06
383.535	96.06
383.761	93.06
383.986	105.06
384.211	92.06
384.436	83.06
384.662	105.06
384.887	81.06
385.112	81.06
385.337	77.06
385.562	87.06
385.787	89.06
386.013	95.06
386.238	92.06
386.463	93.06
386.688	83.06
386.913	71.06
387.138	86.06
387.363	78.06
387.588	95.06
387.813	84.06
388.038	90.06
388.263	82.06
388.488	73.06
388.713	97.06
388.938	93.06
389.163	86.06
389.387	78.06
389.612	100.06
389.837	77.06
390.062	97.06
390.287	86.06
390.512	92.06
390.736	81.06
390.961	74.06
391.186	85.06
391.411	80.06
391.636	86.06
391.86	88.06
392.085	88.06
392.31	80.06
392.534	99.06
392.759	83.06
392.984	100.06
393.208	104.06
393.433	105.06
393.658	95.06
393.882	103.06
394.107	101.06
394.331	82.06
394.556	98.06
394.78	87.06
395.005	95.06
395.229	96.06
395.454	100.06
395.678	81.06
395.903	89.06
396.127	83.06
396.352	88.06
396.576	71.06
396.801	90.06
397.025	95.06
397.249	98.06
397.474	81.06
397.698	104.06
397.922	75.06
398.147	82.06
398.371	91.06
398.595	98.06
398.82	90.06
399.044	95.06
399.268	100.06
399.492	81.06
399.717	92.06
399.941	101.06
400.165	85.06
400.389	80.06
400.613	92.06
400.837	91.06
401.062	104.06
401.286	83.06
401.51	89.06
401.734	97.06
401.958	86.06
402.182	75.06
402.406	83.06
402.63	91.06
402.854	114.06
403.078	98.06
403.302	84.06
403.526	97.06
403.75	109.06
403.974	86.06
404.198	102.06
404.422	96.06
404.645	99.06
404.869	105.06
405.093	113.06
405.317	97.06
405.541	95.06
405.765	88.06
405.988	99.06
406.212	87.06
406.436	88.06
406.66	102.06
406.883	95.06
407.107	90.06
407.331	107.06
407.555	101.06
407.778	98.06
408.002	97.06
408.226	103.06
408.449	105.06
408.673	98.06
408.896	96.06
409.12	102.06
409.344	92.06
409.567	99.06
409.791	97.06
410.014	96.06
410.238	86.06
410.461	89.06
410.685	99.06
410.908	101.06
411.132	85.06
411.355	85.06
411.578	108.06
411.802	99.06
412.025	97.06
412.249	104.06
412.472	91.06
412.695	97.06
412.919	90.06
413.142	100.06
413.365	105.06
413.589	99.06
413.812	88.06
414.035	98.06
414.258	95.06
414.482	94.06
414.705	106.06
414.928	118.06
415.151	103.06
415.374	101.06
415.597	104.06
415.821	101.06
416.044	84.06
416.267	86.06
416.49	94.06
416.713	97.06
416.936	106.06
417.159	103.06
417.382	96.06
417.605	105.06
417.828	107.06
418.051	94.06
418.274	98.06
418.497	101.06
418.72	107.06
418.943	114.06
419.166	99.06
419.389	103.06
419.611	99.06
419.834	105.06
420.057	111.06
420.28	92.06
420.503	90.06
420.726	107.06
420.948	98.06
421.171	92.06
421.394	97.06
421.617	106.06
421.839	106.06
422.062	92.06
422.285	88.06
422.507	97.06
422.73	77.06
422.953	99.06
423.175	104.06
423.398	102.06
423.621	90.06
423.843	84.06
424.066	102.06
424.288	119.06
424.511	111.06
424.733	122.06
424.956	114.06
425.178	98.06
425.401	100.06
425.623	108.06
425.846	102.06
426.068	108.06
426.291	92.06
426.513	116.06
426.735	98.06
426.958	105.06
427.18	115.06
427.402	106.06
427.625	97.06
427.847	112.06
428.069	105.06
428.292	97.06
428.514	97.06
428.736	91.06
428.958	100.06
429.181	106.06
429.403	100.06
429.625	87.06
429.847	105.06
430.069	105.06
430.292	116.06
430.514	102.06
430.736	108.06
430.958	111.06
431.18	108.06
431.402	123.06
431.624	91.06
431.846	85.06
432.068	88.06
432.29	94.06
432.512	103.06
432.734	92.06
432.956	97.06
433.178	118.06
433.4	105.06
433.622	121.06
433.844	103.06
434.066	97.06
434.287	93.06
434.509	86.06
434.731	104.06
434.953	83.06
435.175	97.06
435.397	94.06
435.618	103.06
435.84	93.06
436.062	109.06
436.284	80.06
436.505	103.06
436.727	111.06
436.949	103.06
437.17	103.06
437.392	125.06
437.614	96.06
437.835	111.06
438.057	103.06
438.278	99.06
438.5	96.06
438.721	114.06
438.943	113.06
439.165	116.06
439.386	111.06
439.608	117.06
439.829	107.06
440.05	103.06
440.272	120.06
440.493	109.06
440.715	94.06
440.936	111.06
441.158	101.06
441.379	118.06
441.6	119.06
441.822	116.06
442.043	112.06
442.264	97.06
442.486	109.06
442.707	112.06
442.928	115.06
443.149	104.06
443.371	110.06
443.592	104.06
443.813	114.06
444.034	113.06
444.255	106.06
444.476	96.06
444.698	117.06
444.919	102.06
445.14	232.06
445.361	167.06
445.582	105.06
445.803	107.06
446.024	108.06
446.245	117.06
446.466	104.06
446.687	121.06
446.908	121.06
447.129	115.06
447.35	121.06
447.571	108.06
447.792	116.06
448.013	111.06
448.234	95.06
448.455	96.06
448.675	98.06
448.896	111.06
449.117	109.06
449.338	111.06
449.559	113.06
449.779	117.06
450	99.06
450.221	107.06
450.442	111.06
450.662	100.06
450.883	105.06
451.104	108.06
451.324	98.06
451.545	109.06
451.766	103.06
451.986	107.06
452.207	97.06
452.428	106.06
452.648	93.06
452.869	92.06
453.089	84.06
453.31	97.06
453.53	101.06
453.751	100.06
453.971	91.06
454.192	95.06
454.412	98.06
454.633	107.06
454.853	95.06
455.073	102.06
455.294	112.06
455.514	105.06
455.734	98.06
455.955	102.06
456.175	99.06
456.395	88.06
456.616	100.06
456.836	113.06
457.056	92.06
457.276	103.06
457.497	102.06
457.717	92.06
457.937	92.06
458.157	99.06
458.377	91.06
458.598	73.06
458.818	76.06
459.038	74.06
459.258	94.06
459.478	100.06
459.698	73.06
459.918	89.06
460.138	96.06
460.358	91.06
460.578	88.06
460.798	95.06
461.018	87.06
461.238	91.06
461.458	102.06
461.678	105.06
461.898	91.06
462.118	106.06
462.338	83.06
462.558	100.06
462.777	99.06
462.997	96.06
463.217	99.06
463.437	98.06
463.657	92.06
463.876	93.06
464.096	87.06
464.316	97.06
464.536	83.06
464.755	81.06
464.975	105.06
465.195	104.06
465.414	96.06
465.634	92.06
465.854	93.06
466.073	100.06
466.293	105.06
466.512	105.06
466.732	98.06
466.951	102.06
467.171	108.06
467.391	104.06
467.61	104.06
467.829	105.06
468.049	100.06
468.268	108.06
468.488	108.06
468.707	117.06
468.927	84.06
469.146	107.06
469.365	106.06
469.585	108.06
469.804	92.06
470.023	112.06
470.243	111.06
470.462	119.06
470.681	116.06
470.901	104.06
471.12	114.06
471.339	104.06
471.558	108.06
471.777	97.06
471.997	100.06
472.216	116.06
472.435	90.06
472.654	73.06
472.873	87.06
473.092	87.06
473.311	98.06
473.53	100.06
473.749	99.06
473.968	113.06
474.187	98.06
474.406	94.06
474.625	112.06
474.844	99.06
475.063	99.06
475.282	100.06
475.501	98.06
475.72	105.06
475.939	107.06
476.158	94.06
476.377	90.06
476.596	101.06
476.814	91.06
477.033	84.06
477.252	90.06
477.471	87.06
477.69	108.06
477.908	109.06
478.127	97.06
478.346	107.06
478.564	103.06
478.783	121.06
479.002	96.06
479.22	99.06
479.439	108.06
479.658	101.06
479.876	91.06
480.095	94.06
480.313	93.06
480.532	105.06
480.751	89.06
480.969	88.06
481.188	87.06
481.406	98.06
481.624	87.06
481.843	90.06
482.061	91.06
482.28	92.06
482.498	89.06
482.717	103.06
482.935	105.06
483.153	117.06
483.372	121.06
483.59	123.06
483.808	108.06
484.027	114.06
484.245	108.06
484.463	106.06
484.681	112.06
484.9	105.06
485.118	113.06
485.336	93.06
485.554	84.06
485.772	87.06
485.99	88.06
486.209	69.06
486.427	104.06
486.645	104.06
486.863	113.06
487.081	121.06
487.299	108.06
487.517	119.06
487.735	116.06
487.953	133.06
488.171	127.06
488.389	109.06
488.607	125.06
488.825	120.06
489.043	108.06
489.261	111.06
489.479	125.06
489.696	112.06
489.914	120.06
490.132	113.06
490.35	121.06
490.568	124.06
490.786	137.06
491.003	125.06
491.221	133.06
491.439	130.06
491.657	131.06
491.874	148.06
492.092	175.06
492.31	148.06
492.527	153.06
492.745	141.06
492.963	140.06
493.18	135.06
493.398	133.06
493.615	130.06
493.833	123.06
494.05	124.06
494.268	118.06
494.485	117.06
494.703	119.06
494.92	127.06
495.138	118.06
495.355	128.06
495.573	122.06
495.79	119.06
496.008	123.06
496.225	127.06
496.442	112.06
496.66	118.06
496.877	124.06
497.094	115.06
497.312	120.06
497.529	115.06
497.746	104.06
497.963	103.06
498.181	100.06
498.398	97.06
498.615	88.06
498.832	104.06
499.049	100.06
499.267	105.06
499.484	104.06
499.701	99.06
499.918	95.06
500.135	111.06
500.352	106.06
500.569	101.06
500.786	118.06
501.003	104.06
501.22	112.06
501.437	111.06
501.654	117.06
501.871	91.06
502.088	99.06
502.305	116.06
502.522	111.06
502.739	101.06
502.956	102.06
503.172	105.06
503.389	96.06
503.606	97.06
503.823	95.06
504.04	123.06
504.256	103.06
504.473	85.06
504.69	91.06
504.907	98.06
505.123	99.06
505.34	105.06
505.557	98.06
505.773	93.06
505.99	95.06
506.207	98.06
506.423	100.06
506.64	115.06
506.856	110.06
507.073	99.06
507.289	108.06
507.506	113.06
507.722	91.06
507.939	86.06
508.155	98.06
508.372	99.06
508.588	100.06
508.805	74.06
509.021	97.06
509.238	86.06
509.454	78.06
509.67	90.06
509.887	91.06
510.103	84.06
510.319	79.06
510.536	96.06
510.752	95.06
510.968	87.06
511.184	82.06
511.401	83.06
511.617	92.06
511.833	91.06
512.049	87.06
512.265	99.06
512.481	75.06
512.698	96.06
512.914	82.06
513.13	88.06
513.346	93.06
513.562	90.06
513.778	91.06
513.994	90.06
514.21	95.06
514.426	88.06
514.642	91.06
514.858	81.06
515.074	88.06
515.29	85.06
