Data from Zn(NO3)2Standard.Agarose3%.GreenCap.LampEnergy5.5.E.O_HRD10591_15-03-10-768.txt Node
Date: Mon Jul 22 15:03:10 EDT 2019
User: cochatt
Spectrometer: HR+D1059
Trigger mode: 1
Integration Time (sec): 1.000000E-1
Scans to average: 1
Electric dark correction enabled: true
Nonlinearity correction enabled: false
Boxcar width: 0
XAxis mode: Wavelengths
Number of Pixels in Spectrum: 2048
>>>>>Begin Spectral Data<<<<<
223.165	-14.75
223.4	-14.75
223.635	-14.75
223.869	-10.75
224.104	-9.75
224.338	-18.75
224.573	-17.75
224.808	-0.75
225.042	-10.75
225.277	7.25
225.511	-9.75
225.746	-2.75
225.98	10.25
226.215	13.25
226.449	14.25
226.683	8.25
226.918	16.25
227.152	26.25
227.387	47.25
227.621	37.25
227.856	53.25
228.09	39.25
228.324	57.25
228.559	57.25
228.793	61.25
229.027	54.25
229.262	71.25
229.496	72.25
229.73	70.25
229.964	66.25
230.199	71.25
230.433	69.25
230.667	73.25
230.901	72.25
231.136	82.25
231.37	78.25
231.604	78.25
231.838	71.25
232.072	71.25
232.306	86.25
232.541	79.25
232.775	86.25
233.009	79.25
233.243	87.25
233.477	78.25
233.711	75.25
233.945	90.25
234.179	73.25
234.413	79.25
234.647	78.25
234.881	77.25
235.115	79.25
235.349	77.25
235.583	87.25
235.817	69.25
236.051	78.25
236.285	85.25
236.519	80.25
236.753	74.25
236.987	70.25
237.221	83.25
237.455	81.25
237.689	72.25
237.922	71.25
238.156	95.25
238.39	74.25
238.624	83.25
238.858	70.25
239.091	88.25
239.325	75.25
239.559	79.25
239.793	82.25
240.027	76.25
240.26	78.25
240.494	73.25
240.728	82.25
240.961	93.25
241.195	71.25
241.429	73.25
241.662	79.25
241.896	58.25
242.13	81.25
242.363	77.25
242.597	82.25
242.83	68.25
243.064	78.25
243.298	80.25
243.531	77.25
243.765	74.25
243.998	75.25
244.232	77.25
244.465	70.25
244.699	87.25
244.932	69.25
245.166	78.25
245.399	85.25
245.633	80.25
245.866	75.25
246.099	77.25
246.333	76.25
246.566	87.25
246.8	83.25
247.033	80.25
247.266	85.25
247.5	80.25
247.733	79.25
247.966	88.25
248.2	82.25
248.433	86.25
248.666	79.25
248.899	74.25
249.133	86.25
249.366	86.25
249.599	83.25
249.832	72.25
250.066	83.25
250.299	87.25
250.532	89.25
250.765	100.25
250.998	75.25
251.231	91.25
251.465	73.25
251.698	67.25
251.931	80.25
252.164	82.25
252.397	78.25
252.63	67.25
252.863	72.25
253.096	92.25
253.329	80.25
253.562	73.25
253.795	80.25
254.028	77.25
254.261	75.25
254.494	87.25
254.727	79.25
254.96	76.25
255.193	83.25
255.426	83.25
255.659	85.25
255.892	89.25
256.124	89.25
256.357	79.25
256.59	86.25
256.823	74.25
257.056	71.25
257.289	69.25
257.521	84.25
257.754	75.25
257.987	79.25
258.22	96.25
258.452	74.25
258.685	72.25
258.918	78.25
259.151	80.25
259.383	83.25
259.616	65.25
259.849	78.25
260.081	78.25
260.314	73.25
260.547	78.25
260.779	85.25
261.012	75.25
261.244	71.25
261.477	71.25
261.71	87.25
261.942	82.25
262.175	81.25
262.407	86.25
262.64	86.25
262.872	72.25
263.105	78.25
263.337	85.25
263.57	79.25
263.802	88.25
264.035	89.25
264.267	89.25
264.499	79.25
264.732	81.25
264.964	79.25
265.197	101.25
265.429	83.25
265.661	72.25
265.894	85.25
266.126	80.25
266.358	85.25
266.591	72.25
266.823	87.25
267.055	81.25
267.287	75.25
267.52	75.25
267.752	76.25
267.984	83.25
268.216	80.25
268.448	75.25
268.681	81.25
268.913	91.25
269.145	74.25
269.377	83.25
269.609	72.25
269.841	86.25
270.073	87.25
270.306	71.25
270.538	86.25
270.77	90.25
271.002	90.25
271.234	79.25
271.466	83.25
271.698	77.25
271.93	67.25
272.162	91.25
272.394	87.25
272.626	83.25
272.858	76.25
273.09	77.25
273.322	99.25
273.553	82.25
273.785	83.25
274.017	87.25
274.249	79.25
274.481	88.25
274.713	79.25
274.945	82.25
275.176	72.25
275.408	73.25
275.64	94.25
275.872	91.25
276.104	97.25
276.335	89.25
276.567	76.25
276.799	100.25
277.031	77.25
277.262	81.25
277.494	73.25
277.726	78.25
277.957	78.25
278.189	94.25
278.421	83.25
278.652	86.25
278.884	97.25
279.115	85.25
279.347	74.25
279.579	75.25
279.81	76.25
280.042	93.25
280.273	87.25
280.505	78.25
280.736	79.25
280.968	87.25
281.199	77.25
281.431	83.25
281.662	80.25
281.894	94.25
282.125	75.25
282.356	83.25
282.588	87.25
282.819	84.25
283.051	96.25
283.282	91.25
283.513	71.25
283.745	81.25
283.976	73.25
284.207	93.25
284.439	92.25
284.67	91.25
284.901	95.25
285.132	92.25
285.364	79.25
285.595	81.25
285.826	89.25
286.057	79.25
286.288	100.25
286.52	90.25
286.751	95.25
286.982	72.25
287.213	85.25
287.444	78.25
287.675	92.25
287.906	92.25
288.138	90.25
288.369	86.25
288.6	73.25
288.831	84.25
289.062	71.25
289.293	68.25
289.524	88.25
289.755	88.25
289.986	79.25
290.217	87.25
290.448	84.25
290.679	87.25
290.91	93.25
291.141	95.25
291.371	89.25
291.602	76.25
291.833	81.25
292.064	69.25
292.295	85.25
292.526	70.25
292.757	91.25
292.987	91.25
293.218	72.25
293.449	89.25
293.68	101.25
293.91	66.25
294.141	89.25
294.372	80.25
294.603	97.25
294.833	84.25
295.064	95.25
295.295	77.25
295.525	84.25
295.756	76.25
295.987	91.25
296.217	89.25
296.448	84.25
296.679	76.25
296.909	80.25
297.14	93.25
297.37	86.25
297.601	82.25
297.831	90.25
298.062	77.25
298.292	87.25
298.523	88.25
298.753	75.25
298.984	87.25
299.214	79.25
299.445	80.25
299.675	88.25
299.905	69.25
300.136	71.25
300.366	86.25
300.597	82.25
300.827	76.25
301.057	74.25
301.288	93.25
301.518	86.25
301.748	79.25
301.979	88.25
302.209	79.25
302.439	80.25
302.669	93.25
302.9	72.25
303.13	79.25
303.36	78.25
303.59	83.25
303.82	83.25
304.051	77.25
304.281	79.25
304.511	86.25
304.741	80.25
304.971	77.25
305.201	83.25
305.431	82.25
305.661	82.25
305.891	83.25
306.121	84.25
306.352	72.25
306.582	78.25
306.812	76.25
307.042	74.25
307.272	84.25
307.502	85.25
307.731	84.25
307.961	60.25
308.191	89.25
308.421	97.25
308.651	82.25
308.881	89.25
309.111	79.25
309.341	94.25
309.571	93.25
309.8	87.25
310.03	84.25
310.26	69.25
310.49	75.25
310.72	71.25
310.949	78.25
311.179	91.25
311.409	83.25
311.639	84.25
311.868	94.25
312.098	71.25
312.328	85.25
312.557	83.25
312.787	95.25
313.017	92.25
313.246	90.25
313.476	87.25
313.706	105.25
313.935	90.25
314.165	86.25
314.394	87.25
314.624	72.25
314.853	87.25
315.083	91.25
315.312	77.25
315.542	87.25
315.771	72.25
316.001	102.25
316.23	88.25
316.46	74.25
316.689	76.25
316.919	70.25
317.148	92.25
317.377	92.25
317.607	87.25
317.836	90.25
318.065	87.25
318.295	70.25
318.524	97.25
318.753	91.25
318.983	83.25
319.212	85.25
319.441	79.25
319.67	79.25
319.9	87.25
320.129	82.25
320.358	81.25
320.587	88.25
320.816	88.25
321.046	73.25
321.275	70.25
321.504	96.25
321.733	75.25
321.962	84.25
322.191	92.25
322.42	87.25
322.649	82.25
322.878	91.25
323.108	98.25
323.337	79.25
323.566	76.25
323.795	83.25
324.024	97.25
324.253	86.25
324.482	93.25
324.71	74.25
324.939	84.25
325.168	89.25
325.397	80.25
325.626	76.25
325.855	94.25
326.084	79.25
326.313	92.25
326.542	87.25
326.77	80.25
326.999	90.25
327.228	79.25
327.457	83.25
327.686	91.25
327.914	77.25
328.143	94.25
328.372	77.25
328.6	78.25
328.829	81.25
329.058	96.25
329.287	78.25
329.515	85.25
329.744	89.25
329.972	71.25
330.201	81.25
330.43	78.25
330.658	67.25
330.887	90.25
331.115	84.25
331.344	89.25
331.572	85.25
331.801	73.25
332.03	88.25
332.258	77.25
332.486	77.25
332.715	69.25
332.943	82.25
333.172	78.25
333.4	92.25
333.629	84.25
333.857	86.25
334.085	77.25
334.314	85.25
334.542	90.25
334.771	99.25
334.999	87.25
335.227	94.25
335.455	84.25
335.684	85.25
335.912	77.25
336.14	108.25
336.369	93.25
336.597	87.25
336.825	82.25
337.053	77.25
337.281	90.25
337.51	81.25
337.738	94.25
337.966	85.25
338.194	71.25
338.422	84.25
338.65	84.25
338.878	72.25
339.106	76.25
339.334	90.25
339.562	90.25
339.79	79.25
340.018	84.25
340.246	98.25
340.474	85.25
340.702	91.25
340.93	91.25
341.158	93.25
341.386	77.25
341.614	79.25
341.842	70.25
342.07	87.25
342.298	96.25
342.526	76.25
342.754	90.25
342.981	75.25
343.209	69.25
343.437	80.25
343.665	83.25
343.893	84.25
344.12	90.25
344.348	83.25
344.576	77.25
344.804	77.25
345.031	79.25
345.259	85.25
345.487	87.25
345.714	69.25
345.942	101.25
346.17	101.25
346.397	79.25
346.625	92.25
346.853	79.25
347.08	82.25
347.308	86.25
347.535	80.25
347.763	83.25
347.99	86.25
348.218	92.25
348.445	83.25
348.673	76.25
348.9	77.25
349.128	101.25
349.355	68.25
349.583	95.25
349.81	82.25
350.037	79.25
350.265	87.25
350.492	81.25
350.72	91.25
350.947	87.25
351.174	98.25
351.402	79.25
351.629	87.25
351.856	88.25
352.083	87.25
352.311	84.25
352.538	83.25
352.765	76.25
352.992	86.25
353.22	78.25
353.447	81.25
353.674	83.25
353.901	85.25
354.128	93.25
354.355	89.25
354.583	89.25
354.81	84.25
355.037	77.25
355.264	82.25
355.491	79.25
355.718	81.25
355.945	91.25
356.172	77.25
356.399	91.25
356.626	83.25
356.853	84.25
357.08	87.25
357.307	75.25
357.534	86.25
357.761	78.25
357.988	77.25
358.215	76.25
358.441	76.25
358.668	89.25
358.895	80.25
359.122	78.25
359.349	95.25
359.576	81.25
359.802	96.25
360.029	93.25
360.256	87.25
360.483	89.25
360.709	88.25
360.936	97.25
361.163	86.25
361.39	77.25
361.616	82.25
361.843	77.25
362.07	99.25
362.296	74.25
362.523	105.25
362.749	94.25
362.976	86.25
363.203	89.25
363.429	89.25
363.656	99.25
363.882	84.25
364.109	87.25
364.335	97.25
364.562	91.25
364.788	74.25
365.015	84.25
365.241	80.25
365.468	79.25
365.694	84.25
365.92	72.25
366.147	95.25
366.373	81.25
366.599	94.25
366.826	83.25
367.052	92.25
367.278	81.25
367.505	78.25
367.731	74.25
367.957	76.25
368.184	76.25
368.41	90.25
368.636	76.25
368.862	79.25
369.089	77.25
369.315	79.25
369.541	78.25
369.767	97.25
369.993	83.25
370.219	107.25
370.445	83.25
370.672	88.25
370.898	77.25
371.124	81.25
371.35	75.25
371.576	90.25
371.802	82.25
372.028	81.25
372.254	77.25
372.48	83.25
372.706	97.25
372.932	80.25
373.158	78.25
373.384	86.25
373.61	81.25
373.835	83.25
374.061	77.25
374.287	82.25
374.513	83.25
374.739	80.25
374.965	86.25
375.191	92.25
375.416	82.25
375.642	82.25
375.868	89.25
376.094	82.25
376.319	92.25
376.545	75.25
376.771	94.25
376.997	94.25
377.222	86.25
377.448	77.25
377.674	91.25
377.899	79.25
378.125	81.25
378.35	103.25
378.576	92.25
378.802	78.25
379.027	86.25
379.253	82.25
379.478	86.25
379.704	77.25
379.929	75.25
380.155	84.25
380.38	79.25
380.606	78.25
380.831	86.25
381.057	89.25
381.282	95.25
381.507	82.25
381.733	96.25
381.958	82.25
382.184	80.25
382.409	82.25
382.634	95.25
382.86	62.25
383.085	72.25
383.31	87.25
383.535	77.25
383.761	92.25
383.986	96.25
384.211	77.25
384.436	79.25
384.662	84.25
384.887	79.25
385.112	68.25
385.337	89.25
385.562	73.25
385.787	86.25
386.013	87.25
386.238	87.25
386.463	91.25
386.688	85.25
386.913	70.25
387.138	75.25
387.363	63.25
387.588	98.25
387.813	83.25
388.038	77.25
388.263	96.25
388.488	75.25
388.713	77.25
388.938	74.25
389.163	99.25
389.387	79.25
389.612	77.25
389.837	79.25
390.062	92.25
390.287	85.25
390.512	76.25
390.736	83.25
390.961	77.25
391.186	74.25
391.411	84.25
391.636	86.25
391.86	81.25
392.085	93.25
392.31	69.25
392.534	68.25
392.759	97.25
392.984	87.25
393.208	89.25
393.433	95.25
393.658	69.25
393.882	93.25
394.107	88.25
394.331	84.25
394.556	68.25
394.78	83.25
395.005	93.25
395.229	81.25
395.454	88.25
395.678	92.25
395.903	81.25
396.127	88.25
396.352	76.25
396.576	77.25
396.801	91.25
397.025	95.25
397.249	81.25
397.474	85.25
397.698	79.25
397.922	82.25
398.147	77.25
398.371	71.25
398.595	75.25
398.82	73.25
399.044	89.25
399.268	98.25
399.492	73.25
399.717	91.25
399.941	82.25
400.165	95.25
400.389	77.25
400.613	79.25
400.837	88.25
401.062	92.25
401.286	91.25
401.51	96.25
401.734	92.25
401.958	82.25
402.182	80.25
402.406	99.25
402.63	78.25
402.854	98.25
403.078	83.25
403.302	77.25
403.526	76.25
403.75	98.25
403.974	92.25
404.198	88.25
404.422	91.25
404.645	73.25
404.869	75.25
405.093	83.25
405.317	89.25
405.541	82.25
405.765	89.25
405.988	83.25
406.212	74.25
406.436	86.25
406.66	92.25
406.883	78.25
407.107	94.25
407.331	88.25
407.555	91.25
407.778	90.25
408.002	98.25
408.226	97.25
408.449	91.25
408.673	79.25
408.896	75.25
409.12	90.25
409.344	90.25
409.567	93.25
409.791	80.25
410.014	85.25
410.238	100.25
410.461	79.25
410.685	93.25
410.908	98.25
411.132	86.25
411.355	78.25
411.578	96.25
411.802	86.25
412.025	72.25
412.249	73.25
412.472	79.25
412.695	79.25
412.919	89.25
413.142	87.25
413.365	75.25
413.589	84.25
413.812	82.25
414.035	85.25
414.258	88.25
414.482	89.25
414.705	89.25
414.928	77.25
415.151	84.25
415.374	102.25
415.597	84.25
415.821	103.25
416.044	96.25
416.267	105.25
416.49	79.25
416.713	72.25
416.936	91.25
417.159	93.25
417.382	85.25
417.605	83.25
417.828	81.25
418.051	78.25
418.274	91.25
418.497	97.25
418.72	85.25
418.943	78.25
419.166	95.25
419.389	92.25
419.611	93.25
419.834	96.25
420.057	85.25
420.28	91.25
420.503	92.25
420.726	76.25
420.948	83.25
421.171	98.25
421.394	89.25
421.617	95.25
421.839	93.25
422.062	73.25
422.285	103.25
422.507	103.25
422.73	83.25
422.953	101.25
423.175	86.25
423.398	93.25
423.621	90.25
423.843	90.25
424.066	93.25
424.288	98.25
424.511	94.25
424.733	94.25
424.956	83.25
425.178	91.25
425.401	89.25
425.623	85.25
425.846	100.25
426.068	91.25
426.291	89.25
426.513	79.25
426.735	89.25
426.958	81.25
427.18	93.25
427.402	81.25
427.625	78.25
427.847	87.25
428.069	89.25
428.292	74.25
428.514	85.25
428.736	89.25
428.958	89.25
429.181	73.25
429.403	75.25
429.625	87.25
429.847	93.25
430.069	76.25
430.292	97.25
430.514	92.25
430.736	77.25
430.958	92.25
431.18	90.25
431.402	92.25
431.624	89.25
431.846	78.25
432.068	91.25
432.29	74.25
432.512	73.25
432.734	98.25
432.956	96.25
433.178	81.25
433.4	92.25
433.622	92.25
433.844	83.25
434.066	66.25
434.287	83.25
434.509	91.25
434.731	85.25
434.953	89.25
435.175	86.25
435.397	83.25
435.618	74.25
435.84	94.25
436.062	76.25
436.284	88.25
436.505	89.25
436.727	97.25
436.949	87.25
437.17	82.25
437.392	87.25
437.614	95.25
437.835	97.25
438.057	87.25
438.278	91.25
438.5	77.25
438.721	93.25
438.943	87.25
439.165	91.25
439.386	94.25
439.608	102.25
439.829	89.25
440.05	88.25
440.272	92.25
440.493	94.25
440.715	99.25
440.936	83.25
441.158	88.25
441.379	97.25
441.6	107.25
441.822	101.25
442.043	99.25
442.264	86.25
442.486	86.25
442.707	102.25
442.928	99.25
443.149	86.25
443.371	98.25
443.592	90.25
443.813	97.25
444.034	98.25
444.255	84.25
444.476	95.25
444.698	80.25
444.919	83.25
445.14	199.25
445.361	130.25
445.582	107.25
445.803	106.25
446.024	93.25
446.245	102.25
446.466	98.25
446.687	86.25
446.908	97.25
447.129	93.25
447.35	104.25
447.571	92.25
447.792	101.25
448.013	93.25
448.234	92.25
448.455	82.25
448.675	82.25
448.896	97.25
449.117	92.25
449.338	102.25
449.559	84.25
449.779	85.25
450	99.25
450.221	83.25
450.442	99.25
450.662	93.25
450.883	85.25
451.104	97.25
451.324	82.25
451.545	97.25
451.766	89.25
451.986	89.25
452.207	83.25
452.428	82.25
452.648	103.25
452.869	95.25
453.089	82.25
453.31	100.25
453.53	93.25
453.751	81.25
453.971	94.25
454.192	87.25
454.412	95.25
454.633	89.25
454.853	84.25
455.073	89.25
455.294	100.25
455.514	86.25
455.734	77.25
455.955	74.25
456.175	78.25
456.395	89.25
456.616	90.25
456.836	86.25
457.056	93.25
457.276	106.25
457.497	91.25
457.717	80.25
457.937	95.25
458.157	78.25
458.377	82.25
458.598	83.25
458.818	98.25
459.038	81.25
459.258	86.25
459.478	88.25
459.698	81.25
459.918	95.25
460.138	93.25
460.358	75.25
460.578	72.25
460.798	81.25
461.018	78.25
461.238	86.25
461.458	82.25
461.678	77.25
461.898	79.25
462.118	75.25
462.338	97.25
462.558	74.25
462.777	85.25
462.997	91.25
463.217	79.25
463.437	83.25
463.657	89.25
463.876	85.25
464.096	85.25
464.316	97.25
464.536	84.25
464.755	94.25
464.975	88.25
465.195	103.25
465.414	97.25
465.634	72.25
465.854	84.25
466.073	87.25
466.293	91.25
466.512	69.25
466.732	95.25
466.951	89.25
467.171	95.25
467.391	93.25
467.61	91.25
467.829	97.25
468.049	93.25
468.268	97.25
468.488	95.25
468.707	100.25
468.927	91.25
469.146	97.25
469.365	85.25
469.585	81.25
469.804	90.25
470.023	87.25
470.243	91.25
470.462	102.25
470.681	83.25
470.901	95.25
471.12	101.25
471.339	90.25
471.558	92.25
471.777	92.25
471.997	87.25
472.216	95.25
472.435	87.25
472.654	87.25
472.873	97.25
473.092	97.25
473.311	82.25
473.53	86.25
473.749	90.25
473.968	109.25
474.187	85.25
474.406	75.25
474.625	89.25
474.844	94.25
475.063	92.25
475.282	91.25
475.501	103.25
475.72	109.25
475.939	93.25
476.158	92.25
476.377	88.25
476.596	94.25
476.814	89.25
477.033	99.25
477.252	78.25
477.471	88.25
477.69	95.25
477.908	106.25
478.127	80.25
478.346	90.25
478.564	97.25
478.783	105.25
479.002	97.25
479.22	83.25
479.439	89.25
479.658	84.25
479.876	89.25
480.095	83.25
480.313	85.25
480.532	95.25
480.751	95.25
480.969	85.25
481.188	85.25
481.406	78.25
481.624	83.25
481.843	92.25
482.061	100.25
482.28	97.25
482.498	93.25
482.717	87.25
482.935	75.25
483.153	92.25
483.372	101.25
483.59	94.25
483.808	85.25
484.027	87.25
484.245	95.25
484.463	100.25
484.681	92.25
484.9	91.25
485.118	89.25
485.336	103.25
485.554	83.25
485.772	92.25
485.99	107.25
486.209	91.25
486.427	98.25
486.645	97.25
486.863	80.25
487.081	74.25
487.299	86.25
487.517	94.25
487.735	97.25
487.953	102.25
488.171	113.25
488.389	109.25
488.607	84.25
488.825	81.25
489.043	98.25
489.261	87.25
489.479	95.25
489.696	91.25
489.914	85.25
490.132	96.25
490.35	92.25
490.568	97.25
490.786	94.25
491.003	119.25
491.221	105.25
491.439	98.25
491.657	108.25
491.874	102.25
492.092	114.25
492.31	129.25
492.527	113.25
492.745	105.25
492.963	105.25
493.18	97.25
493.398	100.25
493.615	96.25
493.833	94.25
494.05	98.25
494.268	96.25
494.485	95.25
494.703	114.25
494.92	103.25
495.138	95.25
495.355	91.25
495.573	106.25
495.79	98.25
496.008	98.25
496.225	102.25
496.442	102.25
496.66	104.25
496.877	92.25
497.094	99.25
497.312	94.25
497.529	96.25
497.746	94.25
497.963	98.25
498.181	96.25
498.398	104.25
498.615	79.25
498.832	83.25
499.049	88.25
499.267	94.25
499.484	95.25
499.701	93.25
499.918	90.25
500.135	92.25
500.352	99.25
500.569	94.25
500.786	87.25
501.003	99.25
501.22	107.25
501.437	114.25
501.654	101.25
501.871	89.25
502.088	98.25
502.305	89.25
502.522	90.25
502.739	85.25
502.956	93.25
503.172	94.25
503.389	75.25
503.606	85.25
503.823	77.25
504.04	91.25
504.256	83.25
504.473	95.25
504.69	94.25
504.907	89.25
505.123	91.25
505.34	82.25
505.557	94.25
505.773	102.25
505.99	102.25
506.207	92.25
506.423	90.25
506.64	93.25
506.856	78.25
507.073	89.25
507.289	82.25
507.506	86.25
507.722	91.25
507.939	92.25
508.155	86.25
508.372	91.25
508.588	89.25
508.805	88.25
509.021	94.25
509.238	98.25
509.454	89.25
509.67	85.25
509.887	89.25
510.103	90.25
510.319	74.25
510.536	76.25
510.752	93.25
510.968	83.25
511.184	80.25
511.401	81.25
511.617	87.25
511.833	74.25
512.049	80.25
512.265	85.25
512.481	98.25
512.698	86.25
512.914	90.25
513.13	84.25
513.346	86.25
513.562	96.25
513.778	80.25
513.994	71.25
514.21	88.25
514.426	75.25
514.642	88.25
514.858	101.25
515.074	93.25
515.29	91.25
515.506	90.25
515.721	97.25
515.937	95.25
516.153	84.25
516.369	85.25
516.585	86.25
516.801	81.25
517.016	92.25
517.232	97.25
517.448	77.25
517.664	99.25
517.879	82.25
518.095	83.25
518.311	99.25
