Data from Zn(NO3)2Standard.Agarose3%.GreenCap.LampEnergy5.5.E.O_HRD10591_15-02-25-767.txt Node
Date: Mon Jul 22 15:02:25 EDT 2019
User: cochatt
Spectrometer: HR+D1059
Trigger mode: 1
Integration Time (sec): 1.000000E-1
Scans to average: 1
Electric dark correction enabled: true
Nonlinearity correction enabled: false
Boxcar width: 0
XAxis mode: Wavelengths
Number of Pixels in Spectrum: 2048
>>>>>Begin Spectral Data<<<<<
223.165	-12.88
223.4	-12.88
223.635	-12.88
223.869	-17.88
224.104	-29.88
224.338	-13.88
224.573	-10.88
224.808	-11.88
225.042	-5.88
225.277	-17.88
225.511	-9.88
225.746	9.12
225.98	12.12
226.215	18.12
226.449	28.12
226.683	9.12
226.918	26.12
227.152	28.12
227.387	23.12
227.621	32.12
227.856	35.12
228.09	40.12
228.324	46.12
228.559	50.12
228.793	54.12
229.027	62.12
229.262	65.12
229.496	60.12
229.73	70.12
229.964	79.12
230.199	74.12
230.433	63.12
230.667	72.12
230.901	77.12
231.136	85.12
231.37	91.12
231.604	79.12
231.838	76.12
232.072	101.12
232.306	77.12
232.541	92.12
232.775	88.12
233.009	74.12
233.243	68.12
233.477	88.12
233.711	88.12
233.945	89.12
234.179	88.12
234.413	91.12
234.647	87.12
234.881	90.12
235.115	73.12
235.349	78.12
235.583	87.12
235.817	86.12
236.051	83.12
236.285	74.12
236.519	81.12
236.753	65.12
236.987	80.12
237.221	78.12
237.455	81.12
237.689	58.12
237.922	76.12
238.156	81.12
238.39	64.12
238.624	69.12
238.858	70.12
239.091	66.12
239.325	70.12
239.559	71.12
239.793	72.12
240.027	78.12
240.26	74.12
240.494	92.12
240.728	69.12
240.961	53.12
241.195	73.12
241.429	71.12
241.662	78.12
241.896	78.12
242.13	84.12
242.363	70.12
242.597	76.12
242.83	86.12
243.064	76.12
243.298	89.12
243.531	80.12
243.765	60.12
243.998	74.12
244.232	80.12
244.465	78.12
244.699	68.12
244.932	84.12
245.166	62.12
245.399	74.12
245.633	84.12
245.866	69.12
246.099	76.12
246.333	81.12
246.566	77.12
246.8	78.12
247.033	81.12
247.266	74.12
247.5	90.12
247.733	77.12
247.966	70.12
248.2	89.12
248.433	82.12
248.666	68.12
248.899	84.12
249.133	77.12
249.366	89.12
249.599	89.12
249.832	77.12
250.066	88.12
250.299	68.12
250.532	82.12
250.765	69.12
250.998	73.12
251.231	74.12
251.465	73.12
251.698	82.12
251.931	90.12
252.164	80.12
252.397	68.12
252.63	75.12
252.863	70.12
253.096	73.12
253.329	89.12
253.562	88.12
253.795	68.12
254.028	77.12
254.261	88.12
254.494	89.12
254.727	82.12
254.96	69.12
255.193	77.12
255.426	82.12
255.659	78.12
255.892	83.12
256.124	78.12
256.357	84.12
256.59	77.12
256.823	89.12
257.056	78.12
257.289	83.12
257.521	74.12
257.754	74.12
257.987	63.12
258.22	87.12
258.452	88.12
258.685	73.12
258.918	84.12
259.151	87.12
259.383	80.12
259.616	72.12
259.849	90.12
260.081	76.12
260.314	82.12
260.547	91.12
260.779	80.12
261.012	88.12
261.244	84.12
261.477	89.12
261.71	84.12
261.942	76.12
262.175	89.12
262.407	74.12
262.64	90.12
262.872	85.12
263.105	85.12
263.337	91.12
263.57	84.12
263.802	92.12
264.035	74.12
264.267	79.12
264.499	83.12
264.732	86.12
264.964	89.12
265.197	74.12
265.429	77.12
265.661	72.12
265.894	75.12
266.126	94.12
266.358	86.12
266.591	91.12
266.823	79.12
267.055	78.12
267.287	86.12
267.52	73.12
267.752	67.12
267.984	73.12
268.216	81.12
268.448	79.12
268.681	82.12
268.913	78.12
269.145	73.12
269.377	63.12
269.609	71.12
269.841	89.12
270.073	84.12
270.306	85.12
270.538	85.12
270.77	78.12
271.002	95.12
271.234	89.12
271.466	78.12
271.698	76.12
271.93	65.12
272.162	89.12
272.394	75.12
272.626	88.12
272.858	84.12
273.09	81.12
273.322	96.12
273.553	86.12
273.785	72.12
274.017	76.12
274.249	78.12
274.481	87.12
274.713	86.12
274.945	85.12
275.176	84.12
275.408	88.12
275.64	86.12
275.872	77.12
276.104	78.12
276.335	86.12
276.567	78.12
276.799	83.12
277.031	84.12
277.262	85.12
277.494	75.12
277.726	83.12
277.957	82.12
278.189	82.12
278.421	83.12
278.652	87.12
278.884	72.12
279.115	87.12
279.347	79.12
279.579	81.12
279.81	71.12
280.042	79.12
280.273	70.12
280.505	79.12
280.736	76.12
280.968	79.12
281.199	73.12
281.431	95.12
281.662	86.12
281.894	72.12
282.125	77.12
282.356	86.12
282.588	90.12
282.819	86.12
283.051	81.12
283.282	97.12
283.513	71.12
283.745	86.12
283.976	78.12
284.207	86.12
284.439	90.12
284.67	99.12
284.901	83.12
285.132	89.12
285.364	85.12
285.595	91.12
285.826	69.12
286.057	82.12
286.288	75.12
286.52	83.12
286.751	74.12
286.982	77.12
287.213	96.12
287.444	83.12
287.675	86.12
287.906	74.12
288.138	88.12
288.369	78.12
288.6	94.12
288.831	89.12
289.062	85.12
289.293	81.12
289.524	86.12
289.755	82.12
289.986	78.12
290.217	94.12
290.448	93.12
290.679	85.12
290.91	73.12
291.141	86.12
291.371	108.12
291.602	67.12
291.833	85.12
292.064	80.12
292.295	91.12
292.526	89.12
292.757	86.12
292.987	78.12
293.218	84.12
293.449	86.12
293.68	93.12
293.91	69.12
294.141	84.12
294.372	71.12
294.603	88.12
294.833	102.12
295.064	88.12
295.295	88.12
295.525	77.12
295.756	76.12
295.987	94.12
296.217	79.12
296.448	77.12
296.679	73.12
296.909	94.12
297.14	81.12
297.37	101.12
297.601	94.12
297.831	84.12
298.062	88.12
298.292	71.12
298.523	77.12
298.753	67.12
298.984	81.12
299.214	93.12
299.445	85.12
299.675	88.12
299.905	69.12
300.136	74.12
300.366	84.12
300.597	80.12
300.827	80.12
301.057	84.12
301.288	84.12
301.518	73.12
301.748	90.12
301.979	83.12
302.209	80.12
302.439	79.12
302.669	76.12
302.9	81.12
303.13	83.12
303.36	77.12
303.59	78.12
303.82	89.12
304.051	91.12
304.281	84.12
304.511	87.12
304.741	79.12
304.971	85.12
305.201	82.12
305.431	87.12
305.661	77.12
305.891	76.12
306.121	100.12
306.352	85.12
306.582	86.12
306.812	83.12
307.042	91.12
307.272	92.12
307.502	92.12
307.731	81.12
307.961	82.12
308.191	94.12
308.421	85.12
308.651	78.12
308.881	88.12
309.111	85.12
309.341	75.12
309.571	72.12
309.8	87.12
310.03	85.12
310.26	88.12
310.49	91.12
310.72	90.12
310.949	77.12
311.179	80.12
311.409	82.12
311.639	83.12
311.868	88.12
312.098	93.12
312.328	91.12
312.557	98.12
312.787	89.12
313.017	94.12
313.246	82.12
313.476	89.12
313.706	87.12
313.935	82.12
314.165	84.12
314.394	84.12
314.624	83.12
314.853	92.12
315.083	74.12
315.312	69.12
315.542	74.12
315.771	68.12
316.001	85.12
316.23	79.12
316.46	77.12
316.689	65.12
316.919	89.12
317.148	78.12
317.377	90.12
317.607	97.12
317.836	81.12
318.065	86.12
318.295	100.12
318.524	73.12
318.753	84.12
318.983	88.12
319.212	95.12
319.441	78.12
319.67	74.12
319.9	81.12
320.129	93.12
320.358	87.12
320.587	89.12
320.816	82.12
321.046	72.12
321.275	88.12
321.504	87.12
321.733	83.12
321.962	80.12
322.191	83.12
322.42	89.12
322.649	94.12
322.878	95.12
323.108	85.12
323.337	71.12
323.566	82.12
323.795	86.12
324.024	89.12
324.253	91.12
324.482	83.12
324.71	76.12
324.939	96.12
325.168	91.12
325.397	86.12
325.626	94.12
325.855	95.12
326.084	84.12
326.313	86.12
326.542	90.12
326.77	86.12
326.999	84.12
327.228	68.12
327.457	87.12
327.686	89.12
327.914	102.12
328.143	85.12
328.372	82.12
328.6	86.12
328.829	84.12
329.058	88.12
329.287	82.12
329.515	85.12
329.744	88.12
329.972	87.12
330.201	93.12
330.43	89.12
330.658	84.12
330.887	87.12
331.115	90.12
331.344	101.12
331.572	100.12
331.801	85.12
332.03	92.12
332.258	99.12
332.486	101.12
332.715	82.12
332.943	92.12
333.172	74.12
333.4	72.12
333.629	68.12
333.857	88.12
334.085	90.12
334.314	71.12
334.542	83.12
334.771	91.12
334.999	76.12
335.227	77.12
335.455	73.12
335.684	73.12
335.912	91.12
336.14	96.12
336.369	93.12
336.597	89.12
336.825	87.12
337.053	86.12
337.281	60.12
337.51	87.12
337.738	88.12
337.966	77.12
338.194	72.12
338.422	79.12
338.65	96.12
338.878	91.12
339.106	83.12
339.334	88.12
339.562	80.12
339.79	94.12
340.018	84.12
340.246	75.12
340.474	88.12
340.702	89.12
340.93	88.12
341.158	98.12
341.386	86.12
341.614	73.12
341.842	81.12
342.07	93.12
342.298	81.12
342.526	97.12
342.754	89.12
342.981	77.12
343.209	91.12
343.437	89.12
343.665	83.12
343.893	83.12
344.12	81.12
344.348	83.12
344.576	84.12
344.804	85.12
345.031	82.12
345.259	83.12
345.487	72.12
345.714	79.12
345.942	79.12
346.17	81.12
346.397	81.12
346.625	73.12
346.853	81.12
347.08	80.12
347.308	88.12
347.535	87.12
347.763	95.12
347.99	87.12
348.218	81.12
348.445	70.12
348.673	84.12
348.9	83.12
349.128	75.12
349.355	76.12
349.583	90.12
349.81	88.12
350.037	84.12
350.265	82.12
350.492	87.12
350.72	87.12
350.947	82.12
351.174	70.12
351.402	90.12
351.629	91.12
351.856	73.12
352.083	98.12
352.311	88.12
352.538	77.12
352.765	77.12
352.992	79.12
353.22	82.12
353.447	95.12
353.674	92.12
353.901	92.12
354.128	84.12
354.355	93.12
354.583	82.12
354.81	85.12
355.037	74.12
355.264	80.12
355.491	78.12
355.718	77.12
355.945	99.12
356.172	72.12
356.399	92.12
356.626	90.12
356.853	95.12
357.08	88.12
357.307	85.12
357.534	84.12
357.761	74.12
357.988	81.12
358.215	87.12
358.441	105.12
358.668	78.12
358.895	71.12
359.122	91.12
359.349	84.12
359.576	73.12
359.802	82.12
360.029	86.12
360.256	87.12
360.483	77.12
360.709	78.12
360.936	75.12
361.163	95.12
361.39	84.12
361.616	88.12
361.843	91.12
362.07	93.12
362.296	96.12
362.523	90.12
362.749	90.12
362.976	84.12
363.203	99.12
363.429	74.12
363.656	82.12
363.882	73.12
364.109	74.12
364.335	82.12
364.562	77.12
364.788	68.12
365.015	76.12
365.241	93.12
365.468	77.12
365.694	81.12
365.92	88.12
366.147	95.12
366.373	86.12
366.599	79.12
366.826	89.12
367.052	78.12
367.278	89.12
367.505	70.12
367.731	76.12
367.957	81.12
368.184	74.12
368.41	85.12
368.636	83.12
368.862	83.12
369.089	85.12
369.315	83.12
369.541	75.12
369.767	78.12
369.993	85.12
370.219	76.12
370.445	75.12
370.672	90.12
370.898	75.12
371.124	83.12
371.35	88.12
371.576	77.12
371.802	68.12
372.028	85.12
372.254	89.12
372.48	89.12
372.706	76.12
372.932	87.12
373.158	89.12
373.384	86.12
373.61	87.12
373.835	79.12
374.061	88.12
374.287	86.12
374.513	69.12
374.739	67.12
374.965	78.12
375.191	86.12
375.416	83.12
375.642	87.12
375.868	83.12
376.094	64.12
376.319	100.12
376.545	89.12
376.771	86.12
376.997	89.12
377.222	74.12
377.448	93.12
377.674	100.12
377.899	78.12
378.125	84.12
378.35	83.12
378.576	73.12
378.802	93.12
379.027	77.12
379.253	82.12
379.478	85.12
379.704	85.12
379.929	76.12
380.155	82.12
380.38	74.12
380.606	91.12
380.831	85.12
381.057	98.12
381.282	79.12
381.507	86.12
381.733	90.12
381.958	100.12
382.184	88.12
382.409	79.12
382.634	77.12
382.86	89.12
383.085	89.12
383.31	84.12
383.535	87.12
383.761	78.12
383.986	83.12
384.211	89.12
384.436	85.12
384.662	72.12
384.887	86.12
385.112	88.12
385.337	73.12
385.562	80.12
385.787	93.12
386.013	97.12
386.238	81.12
386.463	87.12
386.688	66.12
386.913	82.12
387.138	92.12
387.363	92.12
387.588	82.12
387.813	77.12
388.038	86.12
388.263	73.12
388.488	88.12
388.713	78.12
388.938	91.12
389.163	83.12
389.387	68.12
389.612	85.12
389.837	75.12
390.062	96.12
390.287	75.12
390.512	90.12
390.736	92.12
390.961	83.12
391.186	68.12
391.411	85.12
391.636	87.12
391.86	82.12
392.085	78.12
392.31	92.12
392.534	84.12
392.759	82.12
392.984	78.12
393.208	84.12
393.433	87.12
393.658	89.12
393.882	77.12
394.107	75.12
394.331	97.12
394.556	79.12
394.78	82.12
395.005	92.12
395.229	88.12
395.454	69.12
395.678	80.12
395.903	81.12
396.127	89.12
396.352	88.12
396.576	81.12
396.801	69.12
397.025	89.12
397.249	71.12
397.474	89.12
397.698	97.12
397.922	81.12
398.147	70.12
398.371	76.12
398.595	96.12
398.82	84.12
399.044	78.12
399.268	91.12
399.492	83.12
399.717	78.12
399.941	92.12
400.165	95.12
400.389	85.12
400.613	93.12
400.837	90.12
401.062	85.12
401.286	94.12
401.51	74.12
401.734	101.12
401.958	101.12
402.182	80.12
402.406	73.12
402.63	84.12
402.854	77.12
403.078	81.12
403.302	90.12
403.526	78.12
403.75	85.12
403.974	80.12
404.198	78.12
404.422	76.12
404.645	94.12
404.869	90.12
405.093	91.12
405.317	78.12
405.541	83.12
405.765	102.12
405.988	93.12
406.212	81.12
406.436	92.12
406.66	91.12
406.883	96.12
407.107	74.12
407.331	80.12
407.555	86.12
407.778	87.12
408.002	69.12
408.226	69.12
408.449	72.12
408.673	85.12
408.896	81.12
409.12	80.12
409.344	83.12
409.567	78.12
409.791	88.12
410.014	95.12
410.238	99.12
410.461	83.12
410.685	78.12
410.908	84.12
411.132	89.12
411.355	84.12
411.578	85.12
411.802	82.12
412.025	85.12
412.249	78.12
412.472	82.12
412.695	93.12
412.919	87.12
413.142	91.12
413.365	89.12
413.589	82.12
413.812	84.12
414.035	86.12
414.258	82.12
414.482	75.12
414.705	67.12
414.928	90.12
415.151	87.12
415.374	79.12
415.597	77.12
415.821	90.12
416.044	83.12
416.267	98.12
416.49	87.12
416.713	90.12
416.936	95.12
417.159	82.12
417.382	97.12
417.605	85.12
417.828	97.12
418.051	81.12
418.274	94.12
418.497	86.12
418.72	90.12
418.943	98.12
419.166	93.12
419.389	99.12
419.611	88.12
419.834	76.12
420.057	93.12
420.28	78.12
420.503	87.12
420.726	85.12
420.948	78.12
421.171	106.12
421.394	98.12
421.617	88.12
421.839	82.12
422.062	98.12
422.285	86.12
422.507	81.12
422.73	71.12
422.953	90.12
423.175	84.12
423.398	88.12
423.621	92.12
423.843	83.12
424.066	97.12
424.288	91.12
424.511	92.12
424.733	104.12
424.956	89.12
425.178	106.12
425.401	88.12
425.623	69.12
425.846	79.12
426.068	84.12
426.291	77.12
426.513	92.12
426.735	74.12
426.958	75.12
427.18	76.12
427.402	89.12
427.625	89.12
427.847	86.12
428.069	79.12
428.292	77.12
428.514	101.12
428.736	84.12
428.958	88.12
429.181	89.12
429.403	98.12
429.625	89.12
429.847	83.12
430.069	96.12
430.292	106.12
430.514	93.12
430.736	80.12
430.958	92.12
431.18	74.12
431.402	73.12
431.624	95.12
431.846	81.12
432.068	90.12
432.29	84.12
432.512	86.12
432.734	88.12
432.956	95.12
433.178	80.12
433.4	92.12
433.622	88.12
433.844	92.12
434.066	88.12
434.287	89.12
434.509	82.12
434.731	89.12
434.953	78.12
435.175	81.12
435.397	89.12
435.618	78.12
435.84	73.12
436.062	86.12
436.284	83.12
436.505	82.12
436.727	99.12
436.949	94.12
437.17	85.12
437.392	85.12
437.614	92.12
437.835	66.12
438.057	90.12
438.278	88.12
438.5	91.12
438.721	87.12
438.943	88.12
439.165	93.12
439.386	78.12
439.608	86.12
439.829	78.12
440.05	81.12
440.272	83.12
440.493	85.12
440.715	90.12
440.936	69.12
441.158	79.12
441.379	83.12
441.6	98.12
441.822	77.12
442.043	81.12
442.264	99.12
442.486	104.12
442.707	76.12
442.928	107.12
443.149	82.12
443.371	78.12
443.592	78.12
443.813	84.12
444.034	90.12
444.255	101.12
444.476	97.12
444.698	97.12
444.919	77.12
445.14	224.12
445.361	142.12
445.582	88.12
445.803	90.12
446.024	78.12
446.245	99.12
446.466	86.12
446.687	89.12
446.908	92.12
447.129	94.12
447.35	86.12
447.571	107.12
447.792	99.12
448.013	91.12
448.234	88.12
448.455	88.12
448.675	90.12
448.896	83.12
449.117	99.12
449.338	95.12
449.559	101.12
449.779	106.12
450	82.12
450.221	93.12
450.442	83.12
450.662	93.12
450.883	89.12
451.104	70.12
451.324	80.12
451.545	101.12
451.766	99.12
451.986	86.12
452.207	96.12
452.428	101.12
452.648	91.12
452.869	76.12
453.089	74.12
453.31	79.12
453.53	73.12
453.751	82.12
453.971	73.12
454.192	95.12
454.412	82.12
454.633	78.12
454.853	95.12
455.073	72.12
455.294	77.12
455.514	92.12
455.734	92.12
455.955	82.12
456.175	89.12
456.395	71.12
456.616	81.12
456.836	88.12
457.056	87.12
457.276	89.12
457.497	75.12
457.717	99.12
457.937	89.12
458.157	88.12
458.377	82.12
458.598	81.12
458.818	76.12
459.038	95.12
459.258	85.12
459.478	82.12
459.698	89.12
459.918	80.12
460.138	77.12
460.358	89.12
460.578	74.12
460.798	70.12
461.018	83.12
461.238	87.12
461.458	90.12
461.678	81.12
461.898	77.12
462.118	80.12
462.338	87.12
462.558	90.12
462.777	92.12
462.997	96.12
463.217	77.12
463.437	82.12
463.657	88.12
463.876	84.12
464.096	85.12
464.316	88.12
464.536	77.12
464.755	81.12
464.975	94.12
465.195	94.12
465.414	101.12
465.634	88.12
465.854	78.12
466.073	93.12
466.293	90.12
466.512	101.12
466.732	90.12
466.951	80.12
467.171	107.12
467.391	90.12
467.61	89.12
467.829	99.12
468.049	83.12
468.268	98.12
468.488	77.12
468.707	94.12
468.927	92.12
469.146	94.12
469.365	81.12
469.585	83.12
469.804	88.12
470.023	86.12
470.243	91.12
470.462	84.12
470.681	85.12
470.901	87.12
471.12	86.12
471.339	85.12
471.558	83.12
471.777	104.12
471.997	88.12
472.216	87.12
472.435	93.12
472.654	85.12
472.873	87.12
473.092	94.12
473.311	83.12
473.53	92.12
473.749	91.12
473.968	98.12
474.187	99.12
474.406	88.12
474.625	100.12
474.844	88.12
475.063	90.12
475.282	73.12
475.501	91.12
475.72	94.12
475.939	86.12
476.158	82.12
476.377	92.12
476.596	87.12
476.814	75.12
477.033	91.12
477.252	91.12
477.471	78.12
477.69	93.12
477.908	93.12
478.127	87.12
478.346	82.12
478.564	88.12
478.783	87.12
479.002	80.12
479.22	92.12
479.439	87.12
479.658	84.12
479.876	77.12
480.095	102.12
480.313	87.12
480.532	75.12
480.751	90.12
480.969	71.12
481.188	77.12
481.406	77.12
481.624	78.12
481.843	81.12
482.061	80.12
482.28	89.12
482.498	91.12
482.717	88.12
482.935	87.12
483.153	94.12
483.372	107.12
483.59	102.12
483.808	93.12
484.027	90.12
484.245	96.12
484.463	79.12
484.681	91.12
484.9	84.12
485.118	107.12
485.336	89.12
485.554	77.12
485.772	76.12
485.99	84.12
486.209	96.12
486.427	90.12
486.645	92.12
486.863	96.12
487.081	97.12
487.299	99.12
487.517	105.12
487.735	100.12
487.953	98.12
488.171	104.12
488.389	84.12
488.607	108.12
488.825	98.12
489.043	95.12
489.261	73.12
489.479	87.12
489.696	90.12
489.914	94.12
490.132	92.12
490.35	87.12
490.568	92.12
490.786	81.12
491.003	86.12
491.221	91.12
491.439	101.12
491.657	96.12
491.874	100.12
492.092	106.12
492.31	120.12
492.527	106.12
492.745	107.12
492.963	101.12
493.18	92.12
493.398	113.12
493.615	87.12
493.833	100.12
494.05	118.12
494.268	94.12
494.485	102.12
494.703	99.12
494.92	105.12
495.138	93.12
495.355	115.12
495.573	104.12
495.79	91.12
496.008	106.12
496.225	100.12
496.442	90.12
496.66	105.12
496.877	100.12
497.094	99.12
497.312	102.12
497.529	78.12
497.746	82.12
497.963	88.12
498.181	80.12
498.398	79.12
498.615	108.12
498.832	92.12
499.049	84.12
499.267	91.12
499.484	89.12
499.701	77.12
499.918	92.12
500.135	90.12
500.352	86.12
500.569	90.12
500.786	101.12
501.003	91.12
501.22	85.12
501.437	71.12
501.654	93.12
501.871	110.12
502.088	88.12
502.305	95.12
502.522	92.12
502.739	89.12
502.956	89.12
503.172	95.12
503.389	84.12
503.606	72.12
503.823	85.12
504.04	95.12
504.256	103.12
504.473	97.12
504.69	90.12
504.907	94.12
505.123	83.12
505.34	82.12
505.557	87.12
505.773	71.12
505.99	89.12
506.207	92.12
506.423	90.12
506.64	84.12
506.856	81.12
507.073	82.12
507.289	106.12
507.506	80.12
507.722	82.12
507.939	74.12
508.155	83.12
508.372	97.12
508.588	98.12
508.805	85.12
509.021	82.12
509.238	71.12
509.454	85.12
509.67	88.12
509.887	76.12
510.103	69.12
510.319	76.12
510.536	73.12
510.752	88.12
510.968	66.12
511.184	83.12
511.401	85.12
511.617	69.12
511.833	78.12
512.049	80.12
512.265	81.12
512.481	88.12
512.698	99.12
512.914	99.12
513.13	93.12
513.346	88.12
513.562	75.12
513.778	76.12
513.994	82.12
514.21	93.12
514.426	93.12
514.642	86.12
514.858	75.12
515.074	82.12
515.29	85.12
515.506	91.12
515.721	92.12
515.937	83.12
516.153	89.12
516.369	92.12
516.585	95.12
516.801	93.12
517.016	80.12
517.232	93.12
517.448	97.12
517.664	78.12
517.879	83.12
518.095	77.12
518.311	96.12
518.527	75.12
