Data from Zn(NO3)2Standard.Agarose3%.GreenCap.LampEnergy5.5.E.O_HRD10591_15-03-54-767.txt Node
Date: Mon Jul 22 15:03:54 EDT 2019
User: cochatt
Spectrometer: HR+D1059
Trigger mode: 1
Integration Time (sec): 1.000000E-1
Scans to average: 1
Electric dark correction enabled: true
Nonlinearity correction enabled: false
Boxcar width: 0
XAxis mode: Wavelengths
Number of Pixels in Spectrum: 2048
>>>>>Begin Spectral Data<<<<<
223.165	-18.81
223.4	-18.81
223.635	-18.81
223.869	-19.81
224.104	-12.81
224.338	-4.81
224.573	-9.81
224.808	-14.81
225.042	0.19
225.277	-9.81
225.511	-6.81
225.746	7.19
225.98	10.19
226.215	15.19
226.449	13.19
226.683	13.19
226.918	11.19
227.152	27.19
227.387	35.19
227.621	35.19
227.856	37.19
228.09	37.19
228.324	37.19
228.559	53.19
228.793	59.19
229.027	63.19
229.262	57.19
229.496	72.19
229.73	52.19
229.964	72.19
230.199	62.19
230.433	80.19
230.667	74.19
230.901	73.19
231.136	82.19
231.37	84.19
231.604	85.19
231.838	89.19
232.072	91.19
232.306	75.19
232.541	56.19
232.775	67.19
233.009	75.19
233.243	71.19
233.477	74.19
233.711	80.19
233.945	76.19
234.179	75.19
234.413	76.19
234.647	67.19
234.881	86.19
235.115	75.19
235.349	68.19
235.583	71.19
235.817	78.19
236.051	88.19
236.285	70.19
236.519	83.19
236.753	68.19
236.987	70.19
237.221	87.19
237.455	80.19
237.689	66.19
237.922	80.19
238.156	94.19
238.39	76.19
238.624	73.19
238.858	66.19
239.091	61.19
239.325	85.19
239.559	80.19
239.793	81.19
240.027	82.19
240.26	76.19
240.494	66.19
240.728	75.19
240.961	81.19
241.195	68.19
241.429	75.19
241.662	69.19
241.896	88.19
242.13	78.19
242.363	85.19
242.597	76.19
242.83	63.19
243.064	90.19
243.298	68.19
243.531	70.19
243.765	68.19
243.998	73.19
244.232	71.19
244.465	80.19
244.699	76.19
244.932	74.19
245.166	85.19
245.399	57.19
245.633	76.19
245.866	78.19
246.099	82.19
246.333	79.19
246.566	85.19
246.8	92.19
247.033	77.19
247.266	87.19
247.5	72.19
247.733	78.19
247.966	80.19
248.2	61.19
248.433	80.19
248.666	77.19
248.899	93.19
249.133	66.19
249.366	85.19
249.599	76.19
249.832	73.19
250.066	84.19
250.299	67.19
250.532	70.19
250.765	80.19
250.998	62.19
251.231	83.19
251.465	80.19
251.698	83.19
251.931	69.19
252.164	92.19
252.397	85.19
252.63	91.19
252.863	77.19
253.096	66.19
253.329	72.19
253.562	83.19
253.795	85.19
254.028	74.19
254.261	90.19
254.494	84.19
254.727	67.19
254.96	73.19
255.193	69.19
255.426	82.19
255.659	80.19
255.892	76.19
256.124	74.19
256.357	81.19
256.59	83.19
256.823	87.19
257.056	85.19
257.289	81.19
257.521	63.19
257.754	69.19
257.987	76.19
258.22	85.19
258.452	68.19
258.685	90.19
258.918	75.19
259.151	77.19
259.383	78.19
259.616	79.19
259.849	86.19
260.081	75.19
260.314	83.19
260.547	85.19
260.779	72.19
261.012	85.19
261.244	96.19
261.477	84.19
261.71	76.19
261.942	75.19
262.175	79.19
262.407	83.19
262.64	86.19
262.872	94.19
263.105	77.19
263.337	84.19
263.57	70.19
263.802	88.19
264.035	81.19
264.267	80.19
264.499	77.19
264.732	79.19
264.964	92.19
265.197	88.19
265.429	71.19
265.661	88.19
265.894	70.19
266.126	91.19
266.358	81.19
266.591	77.19
266.823	85.19
267.055	83.19
267.287	83.19
267.52	83.19
267.752	89.19
267.984	74.19
268.216	65.19
268.448	78.19
268.681	93.19
268.913	88.19
269.145	93.19
269.377	84.19
269.609	87.19
269.841	77.19
270.073	86.19
270.306	84.19
270.538	88.19
270.77	84.19
271.002	87.19
271.234	80.19
271.466	95.19
271.698	78.19
271.93	85.19
272.162	82.19
272.394	78.19
272.626	86.19
272.858	80.19
273.09	85.19
273.322	72.19
273.553	83.19
273.785	75.19
274.017	73.19
274.249	89.19
274.481	98.19
274.713	85.19
274.945	77.19
275.176	72.19
275.408	66.19
275.64	87.19
275.872	81.19
276.104	87.19
276.335	92.19
276.567	76.19
276.799	89.19
277.031	99.19
277.262	60.19
277.494	87.19
277.726	77.19
277.957	88.19
278.189	81.19
278.421	74.19
278.652	81.19
278.884	84.19
279.115	98.19
279.347	83.19
279.579	90.19
279.81	68.19
280.042	82.19
280.273	76.19
280.505	68.19
280.736	86.19
280.968	86.19
281.199	80.19
281.431	96.19
281.662	83.19
281.894	82.19
282.125	75.19
282.356	92.19
282.588	89.19
282.819	73.19
283.051	88.19
283.282	72.19
283.513	83.19
283.745	76.19
283.976	83.19
284.207	85.19
284.439	93.19
284.67	82.19
284.901	92.19
285.132	83.19
285.364	88.19
285.595	83.19
285.826	74.19
286.057	83.19
286.288	71.19
286.52	87.19
286.751	78.19
286.982	67.19
287.213	90.19
287.444	95.19
287.675	73.19
287.906	80.19
288.138	88.19
288.369	82.19
288.6	91.19
288.831	80.19
289.062	74.19
289.293	72.19
289.524	80.19
289.755	77.19
289.986	78.19
290.217	76.19
290.448	90.19
290.679	70.19
290.91	97.19
291.141	88.19
291.371	90.19
291.602	97.19
291.833	88.19
292.064	97.19
292.295	88.19
292.526	79.19
292.757	83.19
292.987	90.19
293.218	78.19
293.449	93.19
293.68	93.19
293.91	75.19
294.141	77.19
294.372	79.19
294.603	87.19
294.833	90.19
295.064	84.19
295.295	78.19
295.525	78.19
295.756	93.19
295.987	76.19
296.217	68.19
296.448	93.19
296.679	74.19
296.909	71.19
297.14	84.19
297.37	78.19
297.601	74.19
297.831	74.19
298.062	78.19
298.292	81.19
298.523	71.19
298.753	81.19
298.984	84.19
299.214	72.19
299.445	85.19
299.675	91.19
299.905	104.19
300.136	95.19
300.366	95.19
300.597	89.19
300.827	87.19
301.057	76.19
301.288	80.19
301.518	74.19
301.748	79.19
301.979	85.19
302.209	83.19
302.439	95.19
302.669	91.19
302.9	79.19
303.13	90.19
303.36	82.19
303.59	87.19
303.82	84.19
304.051	90.19
304.281	95.19
304.511	87.19
304.741	82.19
304.971	89.19
305.201	87.19
305.431	89.19
305.661	84.19
305.891	72.19
306.121	100.19
306.352	87.19
306.582	80.19
306.812	78.19
307.042	83.19
307.272	80.19
307.502	71.19
307.731	86.19
307.961	76.19
308.191	83.19
308.421	93.19
308.651	83.19
308.881	92.19
309.111	80.19
309.341	84.19
309.571	93.19
309.8	79.19
310.03	93.19
310.26	99.19
310.49	77.19
310.72	65.19
310.949	94.19
311.179	74.19
311.409	80.19
311.639	81.19
311.868	83.19
312.098	69.19
312.328	83.19
312.557	74.19
312.787	77.19
313.017	77.19
313.246	97.19
313.476	92.19
313.706	89.19
313.935	87.19
314.165	79.19
314.394	80.19
314.624	94.19
314.853	78.19
315.083	84.19
315.312	87.19
315.542	76.19
315.771	86.19
316.001	94.19
316.23	86.19
316.46	93.19
316.689	87.19
316.919	96.19
317.148	83.19
317.377	83.19
317.607	92.19
317.836	76.19
318.065	81.19
318.295	81.19
318.524	89.19
318.753	75.19
318.983	82.19
319.212	85.19
319.441	84.19
319.67	85.19
319.9	80.19
320.129	82.19
320.358	87.19
320.587	86.19
320.816	72.19
321.046	83.19
321.275	74.19
321.504	85.19
321.733	81.19
321.962	79.19
322.191	89.19
322.42	77.19
322.649	81.19
322.878	88.19
323.108	88.19
323.337	79.19
323.566	94.19
323.795	80.19
324.024	77.19
324.253	97.19
324.482	77.19
324.71	81.19
324.939	94.19
325.168	96.19
325.397	89.19
325.626	74.19
325.855	83.19
326.084	93.19
326.313	90.19
326.542	82.19
326.77	88.19
326.999	85.19
327.228	75.19
327.457	82.19
327.686	92.19
327.914	82.19
328.143	77.19
328.372	96.19
328.6	80.19
328.829	76.19
329.058	82.19
329.287	83.19
329.515	93.19
329.744	89.19
329.972	89.19
330.201	84.19
330.43	71.19
330.658	75.19
330.887	77.19
331.115	89.19
331.344	70.19
331.572	88.19
331.801	74.19
332.03	76.19
332.258	87.19
332.486	93.19
332.715	63.19
332.943	82.19
333.172	83.19
333.4	97.19
333.629	91.19
333.857	85.19
334.085	89.19
334.314	82.19
334.542	87.19
334.771	81.19
334.999	85.19
335.227	88.19
335.455	85.19
335.684	82.19
335.912	98.19
336.14	88.19
336.369	83.19
336.597	83.19
336.825	96.19
337.053	82.19
337.281	84.19
337.51	80.19
337.738	87.19
337.966	82.19
338.194	80.19
338.422	63.19
338.65	83.19
338.878	57.19
339.106	65.19
339.334	79.19
339.562	80.19
339.79	88.19
340.018	75.19
340.246	79.19
340.474	78.19
340.702	92.19
340.93	85.19
341.158	84.19
341.386	92.19
341.614	76.19
341.842	84.19
342.07	77.19
342.298	76.19
342.526	90.19
342.754	82.19
342.981	72.19
343.209	89.19
343.437	86.19
343.665	90.19
343.893	98.19
344.12	75.19
344.348	69.19
344.576	80.19
344.804	77.19
345.031	89.19
345.259	90.19
345.487	78.19
345.714	76.19
345.942	80.19
346.17	81.19
346.397	76.19
346.625	70.19
346.853	79.19
347.08	96.19
347.308	84.19
347.535	70.19
347.763	69.19
347.99	93.19
348.218	80.19
348.445	81.19
348.673	96.19
348.9	86.19
349.128	77.19
349.355	77.19
349.583	92.19
349.81	76.19
350.037	79.19
350.265	88.19
350.492	89.19
350.72	82.19
350.947	81.19
351.174	79.19
351.402	72.19
351.629	80.19
351.856	90.19
352.083	90.19
352.311	62.19
352.538	74.19
352.765	77.19
352.992	94.19
353.22	84.19
353.447	74.19
353.674	76.19
353.901	88.19
354.128	91.19
354.355	87.19
354.583	88.19
354.81	84.19
355.037	77.19
355.264	99.19
355.491	74.19
355.718	77.19
355.945	78.19
356.172	82.19
356.399	84.19
356.626	91.19
356.853	77.19
357.08	91.19
357.307	97.19
357.534	85.19
357.761	76.19
357.988	79.19
358.215	74.19
358.441	76.19
358.668	90.19
358.895	82.19
359.122	96.19
359.349	75.19
359.576	76.19
359.802	95.19
360.029	78.19
360.256	71.19
360.483	68.19
360.709	69.19
360.936	91.19
361.163	77.19
361.39	84.19
361.616	77.19
361.843	79.19
362.07	82.19
362.296	73.19
362.523	77.19
362.749	82.19
362.976	89.19
363.203	82.19
363.429	81.19
363.656	80.19
363.882	77.19
364.109	85.19
364.335	88.19
364.562	81.19
364.788	73.19
365.015	77.19
365.241	94.19
365.468	77.19
365.694	79.19
365.92	96.19
366.147	74.19
366.373	69.19
366.599	85.19
366.826	72.19
367.052	72.19
367.278	77.19
367.505	76.19
367.731	68.19
367.957	83.19
368.184	66.19
368.41	92.19
368.636	105.19
368.862	85.19
369.089	73.19
369.315	93.19
369.541	83.19
369.767	66.19
369.993	87.19
370.219	87.19
370.445	78.19
370.672	88.19
370.898	87.19
371.124	73.19
371.35	67.19
371.576	84.19
371.802	81.19
372.028	59.19
372.254	90.19
372.48	90.19
372.706	92.19
372.932	75.19
373.158	85.19
373.384	85.19
373.61	76.19
373.835	71.19
374.061	71.19
374.287	78.19
374.513	79.19
374.739	81.19
374.965	72.19
375.191	88.19
375.416	90.19
375.642	75.19
375.868	86.19
376.094	82.19
376.319	75.19
376.545	90.19
376.771	82.19
376.997	85.19
377.222	84.19
377.448	73.19
377.674	89.19
377.899	80.19
378.125	70.19
378.35	80.19
378.576	79.19
378.802	86.19
379.027	61.19
379.253	70.19
379.478	87.19
379.704	73.19
379.929	78.19
380.155	77.19
380.38	85.19
380.606	85.19
380.831	82.19
381.057	95.19
381.282	90.19
381.507	85.19
381.733	76.19
381.958	68.19
382.184	73.19
382.409	83.19
382.634	80.19
382.86	83.19
383.085	78.19
383.31	85.19
383.535	90.19
383.761	88.19
383.986	86.19
384.211	86.19
384.436	76.19
384.662	88.19
384.887	81.19
385.112	87.19
385.337	82.19
385.562	85.19
385.787	92.19
386.013	82.19
386.238	80.19
386.463	73.19
386.688	85.19
386.913	81.19
387.138	73.19
387.363	66.19
387.588	93.19
387.813	71.19
388.038	86.19
388.263	91.19
388.488	95.19
388.713	82.19
388.938	85.19
389.163	91.19
389.387	72.19
389.612	93.19
389.837	75.19
390.062	86.19
390.287	96.19
390.512	89.19
390.736	81.19
390.961	91.19
391.186	90.19
391.411	66.19
391.636	94.19
391.86	89.19
392.085	88.19
392.31	90.19
392.534	96.19
392.759	84.19
392.984	82.19
393.208	79.19
393.433	88.19
393.658	77.19
393.882	82.19
394.107	76.19
394.331	87.19
394.556	76.19
394.78	82.19
395.005	75.19
395.229	92.19
395.454	77.19
395.678	70.19
395.903	89.19
396.127	85.19
396.352	83.19
396.576	81.19
396.801	72.19
397.025	79.19
397.249	75.19
397.474	75.19
397.698	90.19
397.922	80.19
398.147	87.19
398.371	73.19
398.595	86.19
398.82	82.19
399.044	75.19
399.268	84.19
399.492	79.19
399.717	81.19
399.941	94.19
400.165	74.19
400.389	90.19
400.613	78.19
400.837	85.19
401.062	75.19
401.286	77.19
401.51	80.19
401.734	76.19
401.958	74.19
402.182	89.19
402.406	77.19
402.63	88.19
402.854	81.19
403.078	83.19
403.302	74.19
403.526	88.19
403.75	79.19
403.974	83.19
404.198	87.19
404.422	73.19
404.645	82.19
404.869	85.19
405.093	88.19
405.317	75.19
405.541	80.19
405.765	92.19
405.988	91.19
406.212	95.19
406.436	69.19
406.66	90.19
406.883	94.19
407.107	72.19
407.331	70.19
407.555	64.19
407.778	74.19
408.002	74.19
408.226	73.19
408.449	99.19
408.673	78.19
408.896	90.19
409.12	76.19
409.344	96.19
409.567	88.19
409.791	92.19
410.014	79.19
410.238	77.19
410.461	74.19
410.685	62.19
410.908	71.19
411.132	80.19
411.355	77.19
411.578	92.19
411.802	90.19
412.025	98.19
412.249	81.19
412.472	102.19
412.695	75.19
412.919	85.19
413.142	72.19
413.365	80.19
413.589	82.19
413.812	92.19
414.035	82.19
414.258	73.19
414.482	87.19
414.705	71.19
414.928	90.19
415.151	79.19
415.374	78.19
415.597	80.19
415.821	81.19
416.044	84.19
416.267	83.19
416.49	91.19
416.713	85.19
416.936	74.19
417.159	93.19
417.382	83.19
417.605	89.19
417.828	85.19
418.051	83.19
418.274	84.19
418.497	97.19
418.72	75.19
418.943	87.19
419.166	91.19
419.389	89.19
419.611	81.19
419.834	86.19
420.057	77.19
420.28	79.19
420.503	83.19
420.726	85.19
420.948	81.19
421.171	81.19
421.394	101.19
421.617	89.19
421.839	81.19
422.062	90.19
422.285	95.19
422.507	83.19
422.73	93.19
422.953	87.19
423.175	97.19
423.398	91.19
423.621	90.19
423.843	86.19
424.066	79.19
424.288	91.19
424.511	89.19
424.733	90.19
424.956	89.19
425.178	78.19
425.401	79.19
425.623	87.19
425.846	92.19
426.068	76.19
426.291	91.19
426.513	90.19
426.735	73.19
426.958	108.19
427.18	93.19
427.402	87.19
427.625	93.19
427.847	76.19
428.069	95.19
428.292	80.19
428.514	83.19
428.736	92.19
428.958	85.19
429.181	93.19
429.403	76.19
429.625	96.19
429.847	82.19
430.069	84.19
430.292	101.19
430.514	95.19
430.736	85.19
430.958	84.19
431.18	92.19
431.402	82.19
431.624	71.19
431.846	75.19
432.068	76.19
432.29	89.19
432.512	77.19
432.734	77.19
432.956	90.19
433.178	93.19
433.4	77.19
433.622	93.19
433.844	85.19
434.066	88.19
434.287	82.19
434.509	76.19
434.731	72.19
434.953	98.19
435.175	94.19
435.397	85.19
435.618	84.19
435.84	82.19
436.062	77.19
436.284	87.19
436.505	82.19
436.727	72.19
436.949	81.19
437.17	79.19
437.392	85.19
437.614	93.19
437.835	81.19
438.057	74.19
438.278	77.19
438.5	90.19
438.721	84.19
438.943	104.19
439.165	81.19
439.386	96.19
439.608	91.19
439.829	88.19
440.05	91.19
440.272	81.19
440.493	89.19
440.715	91.19
440.936	85.19
441.158	81.19
441.379	78.19
441.6	94.19
441.822	92.19
442.043	95.19
442.264	91.19
442.486	82.19
442.707	79.19
442.928	88.19
443.149	93.19
443.371	88.19
443.592	80.19
443.813	96.19
444.034	96.19
444.255	73.19
444.476	87.19
444.698	91.19
444.919	87.19
445.14	217.19
445.361	149.19
445.582	105.19
445.803	100.19
446.024	89.19
446.245	75.19
446.466	102.19
446.687	75.19
446.908	82.19
447.129	87.19
447.35	95.19
447.571	86.19
447.792	87.19
448.013	76.19
448.234	95.19
448.455	98.19
448.675	91.19
448.896	91.19
449.117	90.19
449.338	98.19
449.559	87.19
449.779	96.19
450	92.19
450.221	89.19
450.442	94.19
450.662	87.19
450.883	86.19
451.104	98.19
451.324	74.19
451.545	84.19
451.766	89.19
451.986	92.19
452.207	73.19
452.428	83.19
452.648	98.19
452.869	94.19
453.089	82.19
453.31	76.19
453.53	90.19
453.751	90.19
453.971	68.19
454.192	74.19
454.412	97.19
454.633	71.19
454.853	81.19
455.073	88.19
455.294	75.19
455.514	69.19
455.734	82.19
455.955	97.19
456.175	79.19
456.395	86.19
456.616	87.19
456.836	76.19
457.056	92.19
457.276	75.19
457.497	80.19
457.717	77.19
457.937	83.19
458.157	72.19
458.377	87.19
458.598	71.19
458.818	77.19
459.038	81.19
459.258	80.19
459.478	77.19
459.698	95.19
459.918	64.19
460.138	88.19
460.358	88.19
460.578	78.19
460.798	94.19
461.018	89.19
461.238	92.19
461.458	93.19
461.678	84.19
461.898	86.19
462.118	90.19
462.338	85.19
462.558	87.19
462.777	73.19
462.997	77.19
463.217	86.19
463.437	80.19
463.657	84.19
463.876	80.19
464.096	79.19
464.316	76.19
464.536	79.19
464.755	84.19
464.975	103.19
465.195	87.19
465.414	73.19
465.634	91.19
465.854	100.19
466.073	84.19
466.293	91.19
466.512	91.19
466.732	69.19
466.951	92.19
467.171	82.19
467.391	82.19
467.61	101.19
467.829	80.19
468.049	84.19
468.268	102.19
468.488	73.19
468.707	79.19
468.927	85.19
469.146	90.19
469.365	87.19
469.585	89.19
469.804	91.19
470.023	89.19
470.243	79.19
470.462	82.19
470.681	75.19
470.901	91.19
471.12	92.19
471.339	82.19
471.558	95.19
471.777	92.19
471.997	82.19
472.216	83.19
472.435	77.19
472.654	95.19
472.873	97.19
473.092	77.19
473.311	86.19
473.53	73.19
473.749	92.19
473.968	84.19
474.187	87.19
474.406	82.19
474.625	92.19
474.844	90.19
475.063	93.19
475.282	84.19
475.501	78.19
475.72	115.19
475.939	90.19
476.158	87.19
476.377	92.19
476.596	77.19
476.814	83.19
477.033	87.19
477.252	83.19
477.471	87.19
477.69	77.19
477.908	84.19
478.127	98.19
478.346	85.19
478.564	81.19
478.783	95.19
479.002	80.19
479.22	90.19
479.439	89.19
479.658	85.19
479.876	72.19
480.095	88.19
480.313	90.19
480.532	91.19
480.751	83.19
480.969	101.19
481.188	76.19
481.406	93.19
481.624	90.19
481.843	97.19
482.061	94.19
482.28	90.19
482.498	100.19
482.717	82.19
482.935	91.19
483.153	89.19
483.372	80.19
483.59	89.19
483.808	88.19
484.027	90.19
484.245	80.19
484.463	82.19
484.681	104.19
484.9	86.19
485.118	98.19
485.336	80.19
485.554	78.19
485.772	84.19
485.99	89.19
486.209	85.19
486.427	95.19
486.645	89.19
486.863	63.19
487.081	99.19
487.299	92.19
487.517	83.19
487.735	103.19
487.953	85.19
488.171	99.19
488.389	100.19
488.607	90.19
488.825	89.19
489.043	79.19
489.261	74.19
489.479	87.19
489.696	81.19
489.914	91.19
490.132	79.19
490.35	99.19
490.568	90.19
490.786	95.19
491.003	100.19
491.221	107.19
491.439	106.19
491.657	96.19
491.874	100.19
492.092	108.19
492.31	98.19
492.527	106.19
492.745	98.19
492.963	107.19
493.18	96.19
493.398	98.19
493.615	88.19
493.833	84.19
494.05	103.19
494.268	92.19
494.485	100.19
494.703	97.19
494.92	96.19
495.138	95.19
495.355	90.19
495.573	106.19
495.79	99.19
496.008	85.19
496.225	85.19
496.442	89.19
496.66	94.19
496.877	87.19
497.094	93.19
497.312	111.19
497.529	89.19
497.746	81.19
497.963	88.19
498.181	84.19
498.398	80.19
498.615	78.19
498.832	78.19
499.049	75.19
499.267	93.19
499.484	93.19
499.701	84.19
499.918	89.19
500.135	95.19
500.352	88.19
500.569	79.19
500.786	73.19
501.003	92.19
501.22	88.19
501.437	90.19
501.654	99.19
501.871	87.19
502.088	84.19
502.305	91.19
502.522	94.19
502.739	95.19
502.956	85.19
503.172	80.19
503.389	93.19
503.606	81.19
503.823	81.19
504.04	90.19
504.256	80.19
504.473	102.19
504.69	92.19
504.907	86.19
505.123	94.19
505.34	94.19
505.557	89.19
505.773	87.19
505.99	87.19
506.207	82.19
506.423	94.19
506.64	101.19
506.856	100.19
507.073	84.19
507.289	84.19
507.506	76.19
507.722	77.19
507.939	101.19
508.155	97.19
508.372	91.19
508.588	80.19
508.805	95.19
509.021	103.19
509.238	78.19
509.454	72.19
509.67	75.19
509.887	65.19
510.103	88.19
510.319	80.19
510.536	75.19
510.752	75.19
510.968	86.19
511.184	74.19
511.401	74.19
511.617	75.19
511.833	64.19
512.049	87.19
512.265	81.19
512.481	82.19
512.698	83.19
512.914	82.19
513.13	96.19
513.346	76.19
513.562	87.19
513.778	80.19
513.994	81.19
514.21	82.19
514.426	98.19
514.642	96.19
514.858	84.19
515.074	84.19
515.29	100.19
515.506	75.19
515.721	83.19
515.937	85.19
516.153	64.19
516.369	76.19
516.585	87.19
516.801	68.19
517.016	89.19
517.232	74.19
517.448	76.19
517.664	81.19
517.879	74.19
518.095	93.19
518.311	85.19
518.527	80.19
518.742	82.19
518.958	88.19
