Data from Zn(NO3)2Standard.Agarose3%.GreenCap.LampEnergy5.5.E.O_HRD10591_15-03-48-768.txt Node
Date: Mon Jul 22 15:03:48 EDT 2019
User: cochatt
Spectrometer: HR+D1059
Trigger mode: 1
Integration Time (sec): 1.000000E-1
Scans to average: 1
Electric dark correction enabled: true
Nonlinearity correction enabled: false
Boxcar width: 0
XAxis mode: Wavelengths
Number of Pixels in Spectrum: 2048
>>>>>Begin Spectral Data<<<<<
223.165	-19.5
223.4	-19.5
223.635	-19.5
223.869	-7.5
224.104	-8.5
224.338	-3.5
224.573	-16.5
224.808	-1.5
225.042	-26.5
225.277	-10.5
225.511	-4.5
225.746	-5.5
225.98	5.5
226.215	7.5
226.449	17.5
226.683	28.5
226.918	18.5
227.152	26.5
227.387	27.5
227.621	36.5
227.856	30.5
228.09	60.5
228.324	52.5
228.559	52.5
228.793	76.5
229.027	65.5
229.262	69.5
229.496	71.5
229.73	70.5
229.964	63.5
230.199	81.5
230.433	69.5
230.667	69.5
230.901	77.5
231.136	69.5
231.37	81.5
231.604	73.5
231.838	77.5
232.072	77.5
232.306	67.5
232.541	75.5
232.775	85.5
233.009	87.5
233.243	96.5
233.477	74.5
233.711	94.5
233.945	77.5
234.179	96.5
234.413	91.5
234.647	72.5
234.881	77.5
235.115	75.5
235.349	79.5
235.583	81.5
235.817	85.5
236.051	91.5
236.285	88.5
236.519	69.5
236.753	75.5
236.987	74.5
237.221	87.5
237.455	81.5
237.689	81.5
237.922	75.5
238.156	81.5
238.39	69.5
238.624	75.5
238.858	77.5
239.091	82.5
239.325	80.5
239.559	79.5
239.793	70.5
240.027	75.5
240.26	87.5
240.494	80.5
240.728	81.5
240.961	85.5
241.195	76.5
241.429	88.5
241.662	84.5
241.896	79.5
242.13	69.5
242.363	90.5
242.597	82.5
242.83	84.5
243.064	58.5
243.298	48.5
243.531	70.5
243.765	75.5
243.998	71.5
244.232	87.5
244.465	91.5
244.699	70.5
244.932	83.5
245.166	89.5
245.399	81.5
245.633	86.5
245.866	75.5
246.099	64.5
246.333	73.5
246.566	71.5
246.8	83.5
247.033	83.5
247.266	90.5
247.5	58.5
247.733	80.5
247.966	82.5
248.2	74.5
248.433	66.5
248.666	79.5
248.899	67.5
249.133	64.5
249.366	81.5
249.599	86.5
249.832	81.5
250.066	88.5
250.299	80.5
250.532	90.5
250.765	81.5
250.998	65.5
251.231	81.5
251.465	89.5
251.698	88.5
251.931	84.5
252.164	89.5
252.397	78.5
252.63	77.5
252.863	84.5
253.096	80.5
253.329	73.5
253.562	78.5
253.795	81.5
254.028	80.5
254.261	79.5
254.494	88.5
254.727	79.5
254.96	99.5
255.193	71.5
255.426	71.5
255.659	86.5
255.892	81.5
256.124	85.5
256.357	92.5
256.59	85.5
256.823	75.5
257.056	88.5
257.289	93.5
257.521	92.5
257.754	63.5
257.987	75.5
258.22	93.5
258.452	84.5
258.685	81.5
258.918	79.5
259.151	78.5
259.383	88.5
259.616	84.5
259.849	85.5
260.081	102.5
260.314	85.5
260.547	81.5
260.779	92.5
261.012	89.5
261.244	88.5
261.477	80.5
261.71	68.5
261.942	84.5
262.175	100.5
262.407	75.5
262.64	82.5
262.872	77.5
263.105	94.5
263.337	84.5
263.57	87.5
263.802	85.5
264.035	81.5
264.267	73.5
264.499	85.5
264.732	76.5
264.964	80.5
265.197	82.5
265.429	87.5
265.661	80.5
265.894	77.5
266.126	92.5
266.358	100.5
266.591	91.5
266.823	98.5
267.055	89.5
267.287	83.5
267.52	96.5
267.752	85.5
267.984	91.5
268.216	90.5
268.448	87.5
268.681	87.5
268.913	84.5
269.145	75.5
269.377	76.5
269.609	94.5
269.841	89.5
270.073	86.5
270.306	80.5
270.538	84.5
270.77	92.5
271.002	87.5
271.234	83.5
271.466	96.5
271.698	93.5
271.93	99.5
272.162	85.5
272.394	84.5
272.626	89.5
272.858	78.5
273.09	83.5
273.322	78.5
273.553	95.5
273.785	79.5
274.017	83.5
274.249	82.5
274.481	91.5
274.713	103.5
274.945	88.5
275.176	87.5
275.408	89.5
275.64	95.5
275.872	89.5
276.104	92.5
276.335	85.5
276.567	84.5
276.799	81.5
277.031	91.5
277.262	66.5
277.494	97.5
277.726	85.5
277.957	87.5
278.189	97.5
278.421	84.5
278.652	89.5
278.884	84.5
279.115	74.5
279.347	90.5
279.579	86.5
279.81	77.5
280.042	90.5
280.273	86.5
280.505	75.5
280.736	84.5
280.968	91.5
281.199	78.5
281.431	85.5
281.662	86.5
281.894	95.5
282.125	91.5
282.356	75.5
282.588	90.5
282.819	83.5
283.051	81.5
283.282	86.5
283.513	95.5
283.745	78.5
283.976	81.5
284.207	74.5
284.439	102.5
284.67	79.5
284.901	103.5
285.132	103.5
285.364	91.5
285.595	80.5
285.826	84.5
286.057	93.5
286.288	81.5
286.52	93.5
286.751	96.5
286.982	88.5
287.213	100.5
287.444	81.5
287.675	96.5
287.906	91.5
288.138	76.5
288.369	93.5
288.6	99.5
288.831	89.5
289.062	95.5
289.293	80.5
289.524	70.5
289.755	87.5
289.986	80.5
290.217	100.5
290.448	92.5
290.679	91.5
290.91	95.5
291.141	90.5
291.371	79.5
291.602	75.5
291.833	95.5
292.064	91.5
292.295	98.5
292.526	96.5
292.757	77.5
292.987	86.5
293.218	81.5
293.449	80.5
293.68	99.5
293.91	72.5
294.141	84.5
294.372	90.5
294.603	76.5
294.833	101.5
295.064	91.5
295.295	75.5
295.525	82.5
295.756	74.5
295.987	84.5
296.217	85.5
296.448	87.5
296.679	85.5
296.909	83.5
297.14	84.5
297.37	77.5
297.601	99.5
297.831	90.5
298.062	89.5
298.292	80.5
298.523	101.5
298.753	90.5
298.984	84.5
299.214	90.5
299.445	84.5
299.675	76.5
299.905	95.5
300.136	77.5
300.366	99.5
300.597	88.5
300.827	91.5
301.057	102.5
301.288	88.5
301.518	90.5
301.748	86.5
301.979	94.5
302.209	98.5
302.439	77.5
302.669	87.5
302.9	95.5
303.13	86.5
303.36	90.5
303.59	74.5
303.82	80.5
304.051	79.5
304.281	77.5
304.511	87.5
304.741	79.5
304.971	77.5
305.201	81.5
305.431	92.5
305.661	85.5
305.891	87.5
306.121	86.5
306.352	87.5
306.582	91.5
306.812	84.5
307.042	89.5
307.272	92.5
307.502	80.5
307.731	99.5
307.961	80.5
308.191	81.5
308.421	80.5
308.651	94.5
308.881	93.5
309.111	95.5
309.341	85.5
309.571	65.5
309.8	80.5
310.03	87.5
310.26	88.5
310.49	93.5
310.72	88.5
310.949	93.5
311.179	87.5
311.409	80.5
311.639	82.5
311.868	85.5
312.098	92.5
312.328	70.5
312.557	86.5
312.787	99.5
313.017	78.5
313.246	81.5
313.476	79.5
313.706	92.5
313.935	84.5
314.165	91.5
314.394	92.5
314.624	100.5
314.853	78.5
315.083	81.5
315.312	85.5
315.542	95.5
315.771	88.5
316.001	78.5
316.23	91.5
316.46	102.5
316.689	86.5
316.919	85.5
317.148	98.5
317.377	82.5
317.607	101.5
317.836	77.5
318.065	78.5
318.295	94.5
318.524	97.5
318.753	79.5
318.983	81.5
319.212	93.5
319.441	89.5
319.67	94.5
319.9	91.5
320.129	85.5
320.358	89.5
320.587	86.5
320.816	82.5
321.046	80.5
321.275	99.5
321.504	71.5
321.733	90.5
321.962	100.5
322.191	81.5
322.42	73.5
322.649	82.5
322.878	89.5
323.108	88.5
323.337	93.5
323.566	83.5
323.795	91.5
324.024	85.5
324.253	85.5
324.482	93.5
324.71	97.5
324.939	94.5
325.168	99.5
325.397	91.5
325.626	93.5
325.855	79.5
326.084	95.5
326.313	67.5
326.542	85.5
326.77	85.5
326.999	87.5
327.228	91.5
327.457	93.5
327.686	93.5
327.914	86.5
328.143	95.5
328.372	91.5
328.6	84.5
328.829	102.5
329.058	93.5
329.287	91.5
329.515	87.5
329.744	86.5
329.972	89.5
330.201	97.5
330.43	96.5
330.658	95.5
330.887	99.5
331.115	89.5
331.344	89.5
331.572	81.5
331.801	88.5
332.03	94.5
332.258	101.5
332.486	91.5
332.715	96.5
332.943	84.5
333.172	88.5
333.4	80.5
333.629	92.5
333.857	95.5
334.085	81.5
334.314	94.5
334.542	85.5
334.771	90.5
334.999	88.5
335.227	90.5
335.455	84.5
335.684	84.5
335.912	87.5
336.14	95.5
336.369	87.5
336.597	85.5
336.825	80.5
337.053	85.5
337.281	89.5
337.51	89.5
337.738	97.5
337.966	94.5
338.194	82.5
338.422	86.5
338.65	92.5
338.878	83.5
339.106	82.5
339.334	96.5
339.562	92.5
339.79	99.5
340.018	92.5
340.246	78.5
340.474	93.5
340.702	92.5
340.93	79.5
341.158	89.5
341.386	98.5
341.614	85.5
341.842	86.5
342.07	74.5
342.298	70.5
342.526	91.5
342.754	88.5
342.981	85.5
343.209	78.5
343.437	90.5
343.665	87.5
343.893	94.5
344.12	85.5
344.348	88.5
344.576	80.5
344.804	103.5
345.031	77.5
345.259	99.5
345.487	103.5
345.714	85.5
345.942	95.5
346.17	81.5
346.397	78.5
346.625	83.5
346.853	89.5
347.08	86.5
347.308	84.5
347.535	94.5
347.763	68.5
347.99	91.5
348.218	90.5
348.445	97.5
348.673	88.5
348.9	85.5
349.128	70.5
349.355	96.5
349.583	100.5
349.81	93.5
350.037	84.5
350.265	82.5
350.492	72.5
350.72	89.5
350.947	66.5
351.174	81.5
351.402	97.5
351.629	91.5
351.856	89.5
352.083	89.5
352.311	82.5
352.538	78.5
352.765	94.5
352.992	88.5
353.22	70.5
353.447	88.5
353.674	88.5
353.901	85.5
354.128	79.5
354.355	74.5
354.583	96.5
354.81	91.5
355.037	79.5
355.264	73.5
355.491	87.5
355.718	79.5
355.945	90.5
356.172	95.5
356.399	86.5
356.626	81.5
356.853	80.5
357.08	85.5
357.307	100.5
357.534	89.5
357.761	85.5
357.988	77.5
358.215	78.5
358.441	83.5
358.668	73.5
358.895	78.5
359.122	96.5
359.349	91.5
359.576	88.5
359.802	97.5
360.029	97.5
360.256	89.5
360.483	96.5
360.709	80.5
360.936	87.5
361.163	96.5
361.39	85.5
361.616	82.5
361.843	89.5
362.07	76.5
362.296	91.5
362.523	95.5
362.749	89.5
362.976	80.5
363.203	88.5
363.429	92.5
363.656	85.5
363.882	77.5
364.109	89.5
364.335	89.5
364.562	87.5
364.788	86.5
365.015	90.5
365.241	93.5
365.468	88.5
365.694	87.5
365.92	74.5
366.147	95.5
366.373	78.5
366.599	81.5
366.826	99.5
367.052	87.5
367.278	77.5
367.505	80.5
367.731	81.5
367.957	84.5
368.184	58.5
368.41	87.5
368.636	77.5
368.862	78.5
369.089	92.5
369.315	89.5
369.541	79.5
369.767	82.5
369.993	103.5
370.219	90.5
370.445	96.5
370.672	80.5
370.898	89.5
371.124	75.5
371.35	85.5
371.576	85.5
371.802	93.5
372.028	81.5
372.254	83.5
372.48	92.5
372.706	84.5
372.932	92.5
373.158	84.5
373.384	94.5
373.61	84.5
373.835	89.5
374.061	95.5
374.287	93.5
374.513	99.5
374.739	89.5
374.965	93.5
375.191	65.5
375.416	90.5
375.642	93.5
375.868	89.5
376.094	91.5
376.319	84.5
376.545	70.5
376.771	90.5
376.997	95.5
377.222	91.5
377.448	93.5
377.674	78.5
377.899	77.5
378.125	92.5
378.35	83.5
378.576	74.5
378.802	87.5
379.027	83.5
379.253	84.5
379.478	83.5
379.704	86.5
379.929	73.5
380.155	97.5
380.38	84.5
380.606	83.5
380.831	99.5
381.057	85.5
381.282	81.5
381.507	78.5
381.733	91.5
381.958	78.5
382.184	95.5
382.409	88.5
382.634	111.5
382.86	90.5
383.085	88.5
383.31	81.5
383.535	96.5
383.761	93.5
383.986	101.5
384.211	93.5
384.436	86.5
384.662	78.5
384.887	70.5
385.112	91.5
385.337	78.5
385.562	79.5
385.787	89.5
386.013	86.5
386.238	91.5
386.463	86.5
386.688	70.5
386.913	88.5
387.138	78.5
387.363	87.5
387.588	81.5
387.813	89.5
388.038	80.5
388.263	84.5
388.488	89.5
388.713	77.5
388.938	82.5
389.163	74.5
389.387	85.5
389.612	88.5
389.837	106.5
390.062	88.5
390.287	84.5
390.512	90.5
390.736	82.5
390.961	103.5
391.186	80.5
391.411	82.5
391.636	81.5
391.86	94.5
392.085	71.5
392.31	89.5
392.534	88.5
392.759	79.5
392.984	79.5
393.208	87.5
393.433	85.5
393.658	91.5
393.882	80.5
394.107	74.5
394.331	88.5
394.556	89.5
394.78	77.5
395.005	95.5
395.229	73.5
395.454	88.5
395.678	85.5
395.903	89.5
396.127	85.5
396.352	78.5
396.576	91.5
396.801	83.5
397.025	92.5
397.249	83.5
397.474	87.5
397.698	93.5
397.922	80.5
398.147	89.5
398.371	77.5
398.595	81.5
398.82	74.5
399.044	89.5
399.268	81.5
399.492	93.5
399.717	95.5
399.941	91.5
400.165	86.5
400.389	92.5
400.613	96.5
400.837	85.5
401.062	85.5
401.286	86.5
401.51	81.5
401.734	85.5
401.958	96.5
402.182	87.5
402.406	78.5
402.63	84.5
402.854	85.5
403.078	86.5
403.302	79.5
403.526	73.5
403.75	81.5
403.974	97.5
404.198	89.5
404.422	80.5
404.645	85.5
404.869	97.5
405.093	84.5
405.317	93.5
405.541	85.5
405.765	95.5
405.988	90.5
406.212	94.5
406.436	100.5
406.66	93.5
406.883	84.5
407.107	95.5
407.331	80.5
407.555	93.5
407.778	85.5
408.002	88.5
408.226	81.5
408.449	83.5
408.673	90.5
408.896	94.5
409.12	103.5
409.344	87.5
409.567	84.5
409.791	86.5
410.014	88.5
410.238	90.5
410.461	104.5
410.685	77.5
410.908	85.5
411.132	88.5
411.355	87.5
411.578	88.5
411.802	92.5
412.025	100.5
412.249	97.5
412.472	85.5
412.695	84.5
412.919	92.5
413.142	78.5
413.365	80.5
413.589	76.5
413.812	75.5
414.035	92.5
414.258	87.5
414.482	76.5
414.705	80.5
414.928	91.5
415.151	83.5
415.374	100.5
415.597	84.5
415.821	95.5
416.044	81.5
416.267	100.5
416.49	91.5
416.713	96.5
416.936	88.5
417.159	87.5
417.382	95.5
417.605	96.5
417.828	92.5
418.051	105.5
418.274	90.5
418.497	67.5
418.72	81.5
418.943	88.5
419.166	88.5
419.389	81.5
419.611	84.5
419.834	67.5
420.057	82.5
420.28	85.5
420.503	81.5
420.726	95.5
420.948	100.5
421.171	73.5
421.394	99.5
421.617	88.5
421.839	90.5
422.062	96.5
422.285	80.5
422.507	90.5
422.73	96.5
422.953	98.5
423.175	97.5
423.398	92.5
423.621	91.5
423.843	102.5
424.066	83.5
424.288	97.5
424.511	95.5
424.733	83.5
424.956	96.5
425.178	89.5
425.401	97.5
425.623	83.5
425.846	86.5
426.068	88.5
426.291	91.5
426.513	95.5
426.735	88.5
426.958	98.5
427.18	97.5
427.402	99.5
427.625	90.5
427.847	89.5
428.069	81.5
428.292	80.5
428.514	99.5
428.736	85.5
428.958	97.5
429.181	88.5
429.403	93.5
429.625	77.5
429.847	92.5
430.069	91.5
430.292	92.5
430.514	88.5
430.736	102.5
430.958	94.5
431.18	85.5
431.402	86.5
431.624	96.5
431.846	72.5
432.068	72.5
432.29	86.5
432.512	100.5
432.734	85.5
432.956	91.5
433.178	100.5
433.4	79.5
433.622	85.5
433.844	86.5
434.066	94.5
434.287	92.5
434.509	80.5
434.731	79.5
434.953	73.5
435.175	90.5
435.397	113.5
435.618	86.5
435.84	74.5
436.062	81.5
436.284	100.5
436.505	81.5
436.727	85.5
436.949	92.5
437.17	99.5
437.392	88.5
437.614	95.5
437.835	89.5
438.057	84.5
438.278	88.5
438.5	78.5
438.721	91.5
438.943	95.5
439.165	90.5
439.386	91.5
439.608	92.5
439.829	90.5
440.05	77.5
440.272	87.5
440.493	92.5
440.715	94.5
440.936	89.5
441.158	99.5
441.379	90.5
441.6	94.5
441.822	102.5
442.043	94.5
442.264	99.5
442.486	87.5
442.707	85.5
442.928	110.5
443.149	101.5
443.371	96.5
443.592	99.5
443.813	90.5
444.034	89.5
444.255	79.5
444.476	100.5
444.698	88.5
444.919	100.5
445.14	231.5
445.361	153.5
445.582	90.5
445.803	94.5
446.024	99.5
446.245	113.5
446.466	92.5
446.687	78.5
446.908	106.5
447.129	91.5
447.35	92.5
447.571	102.5
447.792	91.5
448.013	84.5
448.234	89.5
448.455	85.5
448.675	103.5
448.896	84.5
449.117	93.5
449.338	95.5
449.559	101.5
449.779	90.5
450	76.5
450.221	83.5
450.442	83.5
450.662	91.5
450.883	87.5
451.104	85.5
451.324	87.5
451.545	93.5
451.766	86.5
451.986	92.5
452.207	84.5
452.428	83.5
452.648	88.5
452.869	90.5
453.089	85.5
453.31	86.5
453.53	87.5
453.751	87.5
453.971	84.5
454.192	84.5
454.412	86.5
454.633	79.5
454.853	95.5
455.073	91.5
455.294	92.5
455.514	94.5
455.734	95.5
455.955	87.5
456.175	93.5
456.395	90.5
456.616	86.5
456.836	80.5
457.056	75.5
457.276	84.5
457.497	85.5
457.717	82.5
457.937	76.5
458.157	89.5
458.377	107.5
458.598	90.5
458.818	83.5
459.038	93.5
459.258	96.5
459.478	78.5
459.698	90.5
459.918	86.5
460.138	98.5
460.358	89.5
460.578	89.5
460.798	87.5
461.018	94.5
461.238	95.5
461.458	84.5
461.678	96.5
461.898	95.5
462.118	93.5
462.338	91.5
462.558	84.5
462.777	85.5
462.997	85.5
463.217	97.5
463.437	95.5
463.657	80.5
463.876	92.5
464.096	84.5
464.316	88.5
464.536	87.5
464.755	88.5
464.975	86.5
465.195	94.5
465.414	94.5
465.634	89.5
465.854	87.5
466.073	86.5
466.293	88.5
466.512	86.5
466.732	96.5
466.951	88.5
467.171	102.5
467.391	92.5
467.61	78.5
467.829	100.5
468.049	91.5
468.268	84.5
468.488	107.5
468.707	97.5
468.927	77.5
469.146	87.5
469.365	85.5
469.585	83.5
469.804	91.5
470.023	104.5
470.243	90.5
470.462	97.5
470.681	85.5
470.901	87.5
471.12	88.5
471.339	103.5
471.558	95.5
471.777	96.5
471.997	95.5
472.216	99.5
472.435	91.5
472.654	92.5
472.873	96.5
473.092	87.5
473.311	81.5
473.53	96.5
473.749	80.5
473.968	85.5
474.187	97.5
474.406	78.5
474.625	84.5
474.844	91.5
475.063	89.5
475.282	89.5
475.501	88.5
475.72	93.5
475.939	75.5
476.158	73.5
476.377	94.5
476.596	92.5
476.814	94.5
477.033	86.5
477.252	72.5
477.471	91.5
477.69	91.5
477.908	87.5
478.127	107.5
478.346	89.5
478.564	89.5
478.783	86.5
479.002	96.5
479.22	96.5
479.439	100.5
479.658	94.5
479.876	93.5
480.095	93.5
480.313	80.5
480.532	83.5
480.751	89.5
480.969	89.5
481.188	84.5
481.406	78.5
481.624	97.5
481.843	92.5
482.061	82.5
482.28	88.5
482.498	92.5
482.717	107.5
482.935	96.5
483.153	108.5
483.372	105.5
483.59	102.5
483.808	89.5
484.027	85.5
484.245	96.5
484.463	81.5
484.681	94.5
484.9	99.5
485.118	80.5
485.336	88.5
485.554	79.5
485.772	79.5
485.99	101.5
486.209	102.5
486.427	85.5
486.645	84.5
486.863	87.5
487.081	91.5
487.299	97.5
487.517	90.5
487.735	102.5
487.953	92.5
488.171	96.5
488.389	104.5
488.607	102.5
488.825	108.5
489.043	90.5
489.261	90.5
489.479	81.5
489.696	90.5
489.914	91.5
490.132	100.5
490.35	72.5
490.568	99.5
490.786	93.5
491.003	104.5
491.221	97.5
491.439	112.5
491.657	91.5
491.874	96.5
492.092	102.5
492.31	124.5
492.527	115.5
492.745	102.5
492.963	96.5
493.18	112.5
493.398	103.5
493.615	96.5
493.833	108.5
494.05	102.5
494.268	118.5
494.485	106.5
494.703	102.5
494.92	100.5
495.138	97.5
495.355	95.5
495.573	97.5
495.79	92.5
496.008	104.5
496.225	102.5
496.442	106.5
496.66	92.5
496.877	102.5
497.094	117.5
497.312	83.5
497.529	94.5
497.746	110.5
497.963	94.5
498.181	93.5
498.398	89.5
498.615	96.5
498.832	77.5
499.049	91.5
499.267	89.5
499.484	97.5
499.701	91.5
499.918	105.5
500.135	95.5
500.352	99.5
500.569	88.5
500.786	94.5
501.003	103.5
501.22	76.5
501.437	97.5
501.654	94.5
501.871	87.5
502.088	90.5
502.305	81.5
502.522	91.5
502.739	84.5
502.956	97.5
503.172	84.5
503.389	90.5
503.606	93.5
503.823	89.5
504.04	88.5
504.256	97.5
504.473	110.5
504.69	88.5
504.907	89.5
505.123	98.5
505.34	87.5
505.557	96.5
505.773	85.5
505.99	93.5
506.207	89.5
506.423	76.5
506.64	84.5
506.856	92.5
507.073	91.5
507.289	85.5
507.506	107.5
507.722	91.5
507.939	90.5
508.155	80.5
508.372	80.5
508.588	82.5
508.805	99.5
509.021	83.5
509.238	88.5
509.454	73.5
509.67	77.5
509.887	79.5
510.103	72.5
510.319	87.5
510.536	70.5
510.752	87.5
510.968	88.5
511.184	84.5
511.401	103.5
511.617	93.5
511.833	75.5
512.049	84.5
512.265	89.5
512.481	87.5
512.698	79.5
512.914	82.5
513.13	81.5
513.346	78.5
513.562	90.5
513.778	79.5
513.994	91.5
514.21	76.5
514.426	76.5
514.642	77.5
514.858	74.5
515.074	83.5
515.29	101.5
515.506	84.5
515.721	78.5
515.937	77.5
516.153	74.5
516.369	57.5
516.585	74.5
516.801	84.5
517.016	100.5
517.232	85.5
517.448	87.5
517.664	86.5
517.879	94.5
518.095	82.5
518.311	77.5
518.527	83.5
518.742	91.5
518.958	91.5
519.173	73.5
519.389	88.5
519.605	84.5
519.82	73.5
520.036	97.5
520.251	101.5
520.467	98.5
520.682	85.5
520.898	97.5
521.113	82.5
521.329	85.5
521.544	90.5
521.76	80.5
521.975	81.5
522.19	99.5
522.406	100.5
522.621	95.5
522.836	96.5
523.052	80.5
523.267	97.5
523.482	94.5
523.698	80.5
523.913	101.5
524.128	74.5
524.343	83.5
524.559	93.5
524.774	96.5
524.989	87.5
525.204	87.5
525.419	98.5
525.634	82.5
525.849	96.5
526.064	95.5
526.28	91.5
526.495	99.5
526.71	86.5
526.925	70.5
527.14	83.5
527.355	72.5
527.57	78.5
527.785	100.5
527.999	88.5
528.214	83.5
528.429	98.5
528.644	89.5
528.859	97.5
529.074	104.5
529.289	98.5
529.503	104.5
529.718	85.5
529.933	90.5
530.148	80.5
530.363	95.5
530.577	81.5
530.792	72.5
531.007	81.5
531.221	83.5
531.436	84.5
531.651	103.5
531.865	94.5
532.08	86.5
532.295	79.5
532.509	88.5
532.724	91.5
532.938	79.5
533.153	91.5
533.367	88.5
533.582	89.5
533.796	89.5
534.011	85.5
534.225	88.5
534.44	104.5
534.654	101.5
534.868	101.5
535.083	92.5
535.297	90.5
535.511	99.5
535.726	92.5
535.94	90.5
536.154	80.5
536.369	93.5
536.583	77.5
536.797	79.5
537.011	97.5
537.225	71.5
537.44	93.5
537.654	82.5
537.868	87.5
538.082	91.5
538.296	90.5
