Data from Zn(NO3)2Standard.Agarose3%.GreenCap.LampEnergy5.5.E.O_HRD10591_15-02-23-768.txt Node
Date: Mon Jul 22 15:02:23 EDT 2019
User: cochatt
Spectrometer: HR+D1059
Trigger mode: 1
Integration Time (sec): 1.000000E-1
Scans to average: 1
Electric dark correction enabled: true
Nonlinearity correction enabled: false
Boxcar width: 0
XAxis mode: Wavelengths
Number of Pixels in Spectrum: 2048
>>>>>Begin Spectral Data<<<<<
223.165	-14.56
223.4	-14.56
223.635	-14.56
223.869	-20.56
224.104	-12.56
224.338	-11.56
224.573	-11.56
224.808	-26.56
225.042	-13.56
225.277	-3.56
225.511	6.44
225.746	-0.56
225.98	12.44
226.215	14.44
226.449	7.44
226.683	16.44
226.918	35.44
227.152	22.44
227.387	28.44
227.621	24.44
227.856	42.44
228.09	47.44
228.324	43.44
228.559	48.44
228.793	50.44
229.027	71.44
229.262	64.44
229.496	54.44
229.73	60.44
229.964	74.44
230.199	62.44
230.433	65.44
230.667	76.44
230.901	55.44
231.136	78.44
231.37	79.44
231.604	81.44
231.838	81.44
232.072	90.44
232.306	80.44
232.541	75.44
232.775	63.44
233.009	80.44
233.243	79.44
233.477	79.44
233.711	84.44
233.945	83.44
234.179	79.44
234.413	76.44
234.647	71.44
234.881	76.44
235.115	80.44
235.349	72.44
235.583	81.44
235.817	69.44
236.051	68.44
236.285	71.44
236.519	73.44
236.753	72.44
236.987	66.44
237.221	76.44
237.455	78.44
237.689	75.44
237.922	77.44
238.156	71.44
238.39	74.44
238.624	70.44
238.858	81.44
239.091	84.44
239.325	72.44
239.559	88.44
239.793	88.44
240.027	71.44
240.26	72.44
240.494	68.44
240.728	69.44
240.961	88.44
241.195	91.44
241.429	79.44
241.662	74.44
241.896	74.44
242.13	74.44
242.363	73.44
242.597	70.44
242.83	71.44
243.064	92.44
243.298	72.44
243.531	84.44
243.765	75.44
243.998	72.44
244.232	76.44
244.465	76.44
244.699	82.44
244.932	83.44
245.166	77.44
245.399	78.44
245.633	66.44
245.866	82.44
246.099	74.44
246.333	74.44
246.566	78.44
246.8	71.44
247.033	87.44
247.266	84.44
247.5	98.44
247.733	82.44
247.966	68.44
248.2	68.44
248.433	75.44
248.666	68.44
248.899	72.44
249.133	76.44
249.366	92.44
249.599	79.44
249.832	80.44
250.066	95.44
250.299	79.44
250.532	83.44
250.765	68.44
250.998	84.44
251.231	79.44
251.465	72.44
251.698	76.44
251.931	80.44
252.164	81.44
252.397	90.44
252.63	72.44
252.863	86.44
253.096	74.44
253.329	85.44
253.562	72.44
253.795	92.44
254.028	80.44
254.261	71.44
254.494	69.44
254.727	88.44
254.96	88.44
255.193	95.44
255.426	86.44
255.659	67.44
255.892	89.44
256.124	80.44
256.357	92.44
256.59	49.44
256.823	76.44
257.056	87.44
257.289	74.44
257.521	81.44
257.754	74.44
257.987	75.44
258.22	74.44
258.452	67.44
258.685	80.44
258.918	95.44
259.151	73.44
259.383	96.44
259.616	75.44
259.849	71.44
260.081	80.44
260.314	80.44
260.547	79.44
260.779	69.44
261.012	81.44
261.244	81.44
261.477	82.44
261.71	89.44
261.942	74.44
262.175	81.44
262.407	63.44
262.64	87.44
262.872	76.44
263.105	78.44
263.337	83.44
263.57	85.44
263.802	76.44
264.035	82.44
264.267	76.44
264.499	77.44
264.732	86.44
264.964	71.44
265.197	59.44
265.429	84.44
265.661	87.44
265.894	88.44
266.126	81.44
266.358	76.44
266.591	74.44
266.823	75.44
267.055	72.44
267.287	83.44
267.52	83.44
267.752	91.44
267.984	76.44
268.216	64.44
268.448	74.44
268.681	89.44
268.913	91.44
269.145	83.44
269.377	79.44
269.609	74.44
269.841	88.44
270.073	84.44
270.306	82.44
270.538	86.44
270.77	89.44
271.002	84.44
271.234	83.44
271.466	86.44
271.698	91.44
271.93	75.44
272.162	89.44
272.394	92.44
272.626	86.44
272.858	79.44
273.09	73.44
273.322	75.44
273.553	81.44
273.785	83.44
274.017	86.44
274.249	67.44
274.481	82.44
274.713	102.44
274.945	83.44
275.176	75.44
275.408	82.44
275.64	87.44
275.872	78.44
276.104	85.44
276.335	79.44
276.567	73.44
276.799	88.44
277.031	78.44
277.262	76.44
277.494	75.44
277.726	88.44
277.957	70.44
278.189	66.44
278.421	68.44
278.652	71.44
278.884	99.44
279.115	80.44
279.347	69.44
279.579	77.44
279.81	80.44
280.042	78.44
280.273	87.44
280.505	86.44
280.736	85.44
280.968	67.44
281.199	75.44
281.431	86.44
281.662	85.44
281.894	76.44
282.125	85.44
282.356	82.44
282.588	82.44
282.819	74.44
283.051	91.44
283.282	80.44
283.513	86.44
283.745	76.44
283.976	86.44
284.207	101.44
284.439	80.44
284.67	75.44
284.901	76.44
285.132	74.44
285.364	93.44
285.595	84.44
285.826	75.44
286.057	86.44
286.288	90.44
286.52	78.44
286.751	74.44
286.982	94.44
287.213	100.44
287.444	81.44
287.675	85.44
287.906	85.44
288.138	83.44
288.369	82.44
288.6	85.44
288.831	77.44
289.062	90.44
289.293	87.44
289.524	95.44
289.755	92.44
289.986	72.44
290.217	86.44
290.448	85.44
290.679	99.44
290.91	86.44
291.141	84.44
291.371	74.44
291.602	74.44
291.833	74.44
292.064	87.44
292.295	84.44
292.526	77.44
292.757	85.44
292.987	89.44
293.218	83.44
293.449	85.44
293.68	82.44
293.91	77.44
294.141	85.44
294.372	86.44
294.603	70.44
294.833	90.44
295.064	83.44
295.295	75.44
295.525	77.44
295.756	91.44
295.987	70.44
296.217	91.44
296.448	89.44
296.679	86.44
296.909	81.44
297.14	96.44
297.37	81.44
297.601	78.44
297.831	92.44
298.062	82.44
298.292	83.44
298.523	79.44
298.753	73.44
298.984	93.44
299.214	88.44
299.445	80.44
299.675	78.44
299.905	88.44
300.136	83.44
300.366	86.44
300.597	79.44
300.827	73.44
301.057	90.44
301.288	79.44
301.518	86.44
301.748	89.44
301.979	83.44
302.209	83.44
302.439	75.44
302.669	78.44
302.9	88.44
303.13	95.44
303.36	91.44
303.59	74.44
303.82	81.44
304.051	95.44
304.281	88.44
304.511	81.44
304.741	80.44
304.971	71.44
305.201	87.44
305.431	83.44
305.661	75.44
305.891	82.44
306.121	80.44
306.352	84.44
306.582	96.44
306.812	78.44
307.042	92.44
307.272	80.44
307.502	77.44
307.731	91.44
307.961	82.44
308.191	76.44
308.421	80.44
308.651	77.44
308.881	79.44
309.111	91.44
309.341	95.44
309.571	81.44
309.8	70.44
310.03	79.44
310.26	85.44
310.49	83.44
310.72	92.44
310.949	81.44
311.179	87.44
311.409	85.44
311.639	68.44
311.868	96.44
312.098	77.44
312.328	81.44
312.557	94.44
312.787	72.44
313.017	83.44
313.246	80.44
313.476	86.44
313.706	90.44
313.935	76.44
314.165	73.44
314.394	89.44
314.624	73.44
314.853	75.44
315.083	84.44
315.312	87.44
315.542	80.44
315.771	82.44
316.001	75.44
316.23	76.44
316.46	84.44
316.689	89.44
316.919	89.44
317.148	84.44
317.377	86.44
317.607	86.44
317.836	74.44
318.065	79.44
318.295	80.44
318.524	79.44
318.753	83.44
318.983	88.44
319.212	76.44
319.441	89.44
319.67	82.44
319.9	79.44
320.129	78.44
320.358	73.44
320.587	82.44
320.816	74.44
321.046	82.44
321.275	81.44
321.504	83.44
321.733	83.44
321.962	73.44
322.191	71.44
322.42	93.44
322.649	100.44
322.878	80.44
323.108	91.44
323.337	81.44
323.566	83.44
323.795	74.44
324.024	83.44
324.253	82.44
324.482	91.44
324.71	74.44
324.939	75.44
325.168	84.44
325.397	76.44
325.626	85.44
325.855	72.44
326.084	73.44
326.313	87.44
326.542	87.44
326.77	87.44
326.999	85.44
327.228	86.44
327.457	97.44
327.686	84.44
327.914	73.44
328.143	87.44
328.372	76.44
328.6	85.44
328.829	79.44
329.058	82.44
329.287	78.44
329.515	89.44
329.744	95.44
329.972	74.44
330.201	73.44
330.43	85.44
330.658	76.44
330.887	75.44
331.115	86.44
331.344	83.44
331.572	80.44
331.801	81.44
332.03	77.44
332.258	77.44
332.486	88.44
332.715	76.44
332.943	87.44
333.172	90.44
333.4	80.44
333.629	94.44
333.857	85.44
334.085	95.44
334.314	79.44
334.542	73.44
334.771	83.44
334.999	83.44
335.227	84.44
335.455	79.44
335.684	86.44
335.912	86.44
336.14	77.44
336.369	81.44
336.597	87.44
336.825	83.44
337.053	82.44
337.281	96.44
337.51	81.44
337.738	78.44
337.966	73.44
338.194	73.44
338.422	81.44
338.65	78.44
338.878	87.44
339.106	89.44
339.334	82.44
339.562	78.44
339.79	82.44
340.018	72.44
340.246	81.44
340.474	89.44
340.702	79.44
340.93	91.44
341.158	85.44
341.386	77.44
341.614	75.44
341.842	75.44
342.07	68.44
342.298	94.44
342.526	76.44
342.754	84.44
342.981	73.44
343.209	67.44
343.437	80.44
343.665	80.44
343.893	89.44
344.12	94.44
344.348	80.44
344.576	100.44
344.804	94.44
345.031	96.44
345.259	84.44
345.487	79.44
345.714	69.44
345.942	87.44
346.17	83.44
346.397	78.44
346.625	79.44
346.853	79.44
347.08	81.44
347.308	94.44
347.535	93.44
347.763	74.44
347.99	74.44
348.218	87.44
348.445	81.44
348.673	80.44
348.9	75.44
349.128	83.44
349.355	78.44
349.583	80.44
349.81	70.44
350.037	88.44
350.265	83.44
350.492	80.44
350.72	71.44
350.947	77.44
351.174	90.44
351.402	89.44
351.629	107.44
351.856	83.44
352.083	70.44
352.311	94.44
352.538	84.44
352.765	75.44
352.992	92.44
353.22	86.44
353.447	88.44
353.674	85.44
353.901	91.44
354.128	86.44
354.355	82.44
354.583	66.44
354.81	80.44
355.037	88.44
355.264	91.44
355.491	77.44
355.718	81.44
355.945	89.44
356.172	75.44
356.399	80.44
356.626	85.44
356.853	84.44
357.08	89.44
357.307	78.44
357.534	82.44
357.761	81.44
357.988	95.44
358.215	90.44
358.441	80.44
358.668	89.44
358.895	79.44
359.122	76.44
359.349	74.44
359.576	81.44
359.802	72.44
360.029	76.44
360.256	87.44
360.483	62.44
360.709	91.44
360.936	73.44
361.163	88.44
361.39	74.44
361.616	84.44
361.843	72.44
362.07	88.44
362.296	67.44
362.523	88.44
362.749	90.44
362.976	71.44
363.203	92.44
363.429	85.44
363.656	90.44
363.882	77.44
364.109	77.44
364.335	74.44
364.562	95.44
364.788	87.44
365.015	96.44
365.241	78.44
365.468	83.44
365.694	82.44
365.92	85.44
366.147	75.44
366.373	88.44
366.599	76.44
366.826	71.44
367.052	68.44
367.278	81.44
367.505	80.44
367.731	91.44
367.957	81.44
368.184	69.44
368.41	91.44
368.636	69.44
368.862	77.44
369.089	77.44
369.315	103.44
369.541	70.44
369.767	76.44
369.993	81.44
370.219	94.44
370.445	78.44
370.672	78.44
370.898	80.44
371.124	81.44
371.35	70.44
371.576	81.44
371.802	78.44
372.028	77.44
372.254	79.44
372.48	74.44
372.706	73.44
372.932	75.44
373.158	90.44
373.384	75.44
373.61	91.44
373.835	72.44
374.061	80.44
374.287	73.44
374.513	75.44
374.739	75.44
374.965	82.44
375.191	81.44
375.416	94.44
375.642	89.44
375.868	76.44
376.094	83.44
376.319	85.44
376.545	80.44
376.771	98.44
376.997	84.44
377.222	94.44
377.448	103.44
377.674	88.44
377.899	81.44
378.125	82.44
378.35	86.44
378.576	80.44
378.802	71.44
379.027	83.44
379.253	80.44
379.478	75.44
379.704	75.44
379.929	86.44
380.155	73.44
380.38	89.44
380.606	74.44
380.831	83.44
381.057	91.44
381.282	71.44
381.507	80.44
381.733	69.44
381.958	75.44
382.184	55.44
382.409	78.44
382.634	101.44
382.86	92.44
383.085	88.44
383.31	76.44
383.535	72.44
383.761	84.44
383.986	86.44
384.211	75.44
384.436	85.44
384.662	82.44
384.887	101.44
385.112	97.44
385.337	86.44
385.562	79.44
385.787	89.44
386.013	84.44
386.238	83.44
386.463	69.44
386.688	70.44
386.913	93.44
387.138	87.44
387.363	68.44
387.588	75.44
387.813	75.44
388.038	76.44
388.263	88.44
388.488	72.44
388.713	73.44
388.938	74.44
389.163	84.44
389.387	86.44
389.612	83.44
389.837	77.44
390.062	85.44
390.287	80.44
390.512	78.44
390.736	84.44
390.961	64.44
391.186	84.44
391.411	84.44
391.636	79.44
391.86	78.44
392.085	71.44
392.31	77.44
392.534	76.44
392.759	80.44
392.984	79.44
393.208	77.44
393.433	84.44
393.658	102.44
393.882	83.44
394.107	79.44
394.331	81.44
394.556	67.44
394.78	77.44
395.005	82.44
395.229	79.44
395.454	80.44
395.678	89.44
395.903	80.44
396.127	91.44
396.352	79.44
396.576	90.44
396.801	62.44
397.025	73.44
397.249	74.44
397.474	78.44
397.698	75.44
397.922	80.44
398.147	86.44
398.371	81.44
398.595	95.44
398.82	86.44
399.044	86.44
399.268	92.44
399.492	72.44
399.717	95.44
399.941	68.44
400.165	82.44
400.389	84.44
400.613	82.44
400.837	88.44
401.062	80.44
401.286	77.44
401.51	76.44
401.734	78.44
401.958	94.44
402.182	79.44
402.406	82.44
402.63	86.44
402.854	76.44
403.078	98.44
403.302	88.44
403.526	72.44
403.75	83.44
403.974	102.44
404.198	83.44
404.422	90.44
404.645	76.44
404.869	86.44
405.093	78.44
405.317	91.44
405.541	94.44
405.765	74.44
405.988	89.44
406.212	83.44
406.436	74.44
406.66	82.44
406.883	77.44
407.107	96.44
407.331	83.44
407.555	91.44
407.778	93.44
408.002	77.44
408.226	82.44
408.449	84.44
408.673	86.44
408.896	91.44
409.12	83.44
409.344	85.44
409.567	88.44
409.791	80.44
410.014	76.44
410.238	72.44
410.461	88.44
410.685	83.44
410.908	91.44
411.132	88.44
411.355	89.44
411.578	90.44
411.802	82.44
412.025	90.44
412.249	83.44
412.472	82.44
412.695	81.44
412.919	82.44
413.142	82.44
413.365	97.44
413.589	88.44
413.812	84.44
414.035	86.44
414.258	71.44
414.482	80.44
414.705	86.44
414.928	91.44
415.151	81.44
415.374	94.44
415.597	79.44
415.821	92.44
416.044	88.44
416.267	91.44
416.49	88.44
416.713	83.44
416.936	80.44
417.159	82.44
417.382	76.44
417.605	92.44
417.828	77.44
418.051	79.44
418.274	89.44
418.497	85.44
418.72	97.44
418.943	88.44
419.166	73.44
419.389	94.44
419.611	91.44
419.834	81.44
420.057	81.44
420.28	70.44
420.503	96.44
420.726	75.44
420.948	97.44
421.171	83.44
421.394	78.44
421.617	70.44
421.839	74.44
422.062	71.44
422.285	86.44
422.507	89.44
422.73	90.44
422.953	94.44
423.175	70.44
423.398	70.44
423.621	80.44
423.843	76.44
424.066	88.44
424.288	89.44
424.511	83.44
424.733	96.44
424.956	100.44
425.178	107.44
425.401	106.44
425.623	86.44
425.846	94.44
426.068	74.44
426.291	85.44
426.513	78.44
426.735	86.44
426.958	84.44
427.18	92.44
427.402	97.44
427.625	90.44
427.847	97.44
428.069	94.44
428.292	80.44
428.514	85.44
428.736	80.44
428.958	83.44
429.181	84.44
429.403	109.44
429.625	85.44
429.847	77.44
430.069	86.44
430.292	77.44
430.514	74.44
430.736	81.44
430.958	84.44
431.18	92.44
431.402	86.44
431.624	89.44
431.846	74.44
432.068	88.44
432.29	78.44
432.512	76.44
432.734	87.44
432.956	82.44
433.178	87.44
433.4	87.44
433.622	97.44
433.844	72.44
434.066	68.44
434.287	72.44
434.509	81.44
434.731	76.44
434.953	86.44
435.175	69.44
435.397	94.44
435.618	92.44
435.84	85.44
436.062	91.44
436.284	84.44
436.505	88.44
436.727	77.44
436.949	87.44
437.17	92.44
437.392	76.44
437.614	89.44
437.835	90.44
438.057	76.44
438.278	88.44
438.5	76.44
438.721	82.44
438.943	91.44
439.165	82.44
439.386	80.44
439.608	80.44
439.829	86.44
440.05	91.44
440.272	95.44
440.493	84.44
440.715	87.44
440.936	80.44
441.158	91.44
441.379	93.44
441.6	107.44
441.822	84.44
442.043	87.44
442.264	87.44
442.486	92.44
442.707	89.44
442.928	88.44
443.149	100.44
443.371	90.44
443.592	64.44
443.813	84.44
444.034	89.44
444.255	65.44
444.476	73.44
444.698	83.44
444.919	88.44
445.14	218.44
445.361	147.44
445.582	90.44
445.803	75.44
446.024	80.44
446.245	86.44
446.466	99.44
446.687	93.44
446.908	97.44
447.129	91.44
447.35	86.44
447.571	86.44
447.792	86.44
448.013	98.44
448.234	86.44
448.455	89.44
448.675	87.44
448.896	84.44
449.117	88.44
449.338	83.44
449.559	80.44
449.779	92.44
450	88.44
450.221	102.44
450.442	85.44
450.662	82.44
450.883	73.44
451.104	95.44
451.324	89.44
451.545	79.44
451.766	78.44
451.986	77.44
452.207	81.44
452.428	87.44
452.648	88.44
452.869	82.44
453.089	87.44
453.31	72.44
453.53	87.44
453.751	81.44
453.971	81.44
454.192	84.44
454.412	79.44
454.633	73.44
454.853	90.44
455.073	99.44
455.294	87.44
455.514	89.44
455.734	86.44
455.955	83.44
456.175	87.44
456.395	90.44
456.616	89.44
456.836	77.44
457.056	87.44
457.276	87.44
457.497	82.44
457.717	75.44
457.937	90.44
458.157	96.44
458.377	78.44
458.598	81.44
458.818	76.44
459.038	64.44
459.258	69.44
459.478	77.44
459.698	93.44
459.918	76.44
460.138	79.44
460.358	91.44
460.578	87.44
460.798	71.44
461.018	91.44
461.238	92.44
461.458	80.44
461.678	75.44
461.898	94.44
462.118	80.44
462.338	86.44
462.558	91.44
462.777	83.44
462.997	83.44
463.217	77.44
463.437	99.44
463.657	76.44
463.876	74.44
464.096	79.44
464.316	89.44
464.536	103.44
464.755	88.44
464.975	91.44
465.195	77.44
465.414	73.44
465.634	80.44
465.854	84.44
466.073	90.44
466.293	83.44
466.512	91.44
466.732	83.44
466.951	82.44
467.171	70.44
467.391	84.44
467.61	97.44
467.829	93.44
468.049	69.44
468.268	93.44
468.488	82.44
468.707	83.44
468.927	94.44
469.146	83.44
469.365	95.44
469.585	88.44
469.804	104.44
470.023	103.44
470.243	74.44
470.462	97.44
470.681	99.44
470.901	87.44
471.12	82.44
471.339	98.44
471.558	93.44
471.777	88.44
471.997	97.44
472.216	76.44
472.435	84.44
472.654	74.44
472.873	94.44
473.092	92.44
473.311	99.44
473.53	74.44
473.749	87.44
473.968	94.44
474.187	75.44
474.406	81.44
474.625	88.44
474.844	71.44
475.063	81.44
475.282	89.44
475.501	88.44
475.72	86.44
475.939	84.44
476.158	90.44
476.377	101.44
476.596	91.44
476.814	83.44
477.033	87.44
477.252	84.44
477.471	86.44
477.69	80.44
477.908	89.44
478.127	92.44
478.346	93.44
478.564	94.44
478.783	83.44
479.002	96.44
479.22	113.44
479.439	85.44
479.658	94.44
479.876	101.44
480.095	73.44
480.313	79.44
480.532	78.44
480.751	79.44
480.969	94.44
481.188	82.44
481.406	83.44
481.624	88.44
481.843	79.44
482.061	73.44
482.28	76.44
482.498	73.44
482.717	82.44
482.935	75.44
483.153	80.44
483.372	76.44
483.59	92.44
483.808	103.44
484.027	89.44
484.245	95.44
484.463	89.44
484.681	99.44
484.9	97.44
485.118	78.44
485.336	79.44
485.554	95.44
485.772	82.44
485.99	82.44
486.209	75.44
486.427	84.44
486.645	65.44
486.863	89.44
487.081	86.44
487.299	92.44
487.517	92.44
487.735	95.44
487.953	96.44
488.171	97.44
488.389	92.44
488.607	96.44
488.825	93.44
489.043	78.44
489.261	97.44
489.479	83.44
489.696	83.44
489.914	85.44
490.132	82.44
490.35	97.44
490.568	118.44
490.786	111.44
491.003	80.44
491.221	87.44
491.439	106.44
491.657	96.44
491.874	120.44
492.092	98.44
492.31	103.44
492.527	90.44
492.745	102.44
492.963	112.44
493.18	98.44
493.398	88.44
493.615	105.44
493.833	106.44
494.05	112.44
494.268	93.44
494.485	95.44
494.703	104.44
494.92	109.44
495.138	100.44
495.355	104.44
495.573	119.44
495.79	95.44
496.008	94.44
496.225	94.44
496.442	91.44
496.66	82.44
496.877	100.44
497.094	86.44
497.312	98.44
497.529	86.44
497.746	95.44
497.963	90.44
498.181	82.44
498.398	80.44
498.615	90.44
498.832	100.44
499.049	87.44
499.267	100.44
499.484	82.44
499.701	94.44
499.918	87.44
500.135	92.44
500.352	85.44
500.569	90.44
500.786	73.44
501.003	83.44
501.22	80.44
501.437	100.44
501.654	92.44
501.871	93.44
502.088	81.44
502.305	79.44
502.522	92.44
502.739	90.44
502.956	87.44
503.172	95.44
503.389	84.44
503.606	101.44
503.823	89.44
504.04	94.44
504.256	93.44
504.473	96.44
504.69	80.44
504.907	87.44
505.123	89.44
505.34	77.44
505.557	86.44
505.773	86.44
505.99	88.44
506.207	66.44
506.423	84.44
506.64	79.44
506.856	95.44
507.073	98.44
507.289	83.44
507.506	86.44
507.722	79.44
507.939	87.44
508.155	86.44
508.372	84.44
508.588	87.44
508.805	94.44
509.021	97.44
509.238	88.44
509.454	88.44
509.67	73.44
509.887	82.44
510.103	77.44
510.319	84.44
510.536	79.44
510.752	76.44
510.968	84.44
511.184	85.44
511.401	90.44
511.617	71.44
511.833	79.44
512.049	78.44
512.265	87.44
512.481	79.44
512.698	81.44
512.914	83.44
513.13	83.44
513.346	72.44
513.562	89.44
513.778	90.44
513.994	82.44
514.21	92.44
514.426	93.44
514.642	78.44
514.858	69.44
515.074	87.44
515.29	96.44
515.506	76.44
515.721	83.44
515.937	88.44
516.153	83.44
516.369	85.44
516.585	93.44
516.801	85.44
517.016	83.44
517.232	82.44
517.448	67.44
517.664	90.44
517.879	93.44
518.095	84.44
518.311	87.44
518.527	91.44
518.742	86.44
