Data from Zn(NO3)2Standard.Agarose3%.GreenCap.LampEnergy5.5.E.O_HRD10591_15-02-50-767.txt Node
Date: Mon Jul 22 15:02:50 EDT 2019
User: cochatt
Spectrometer: HR+D1059
Trigger mode: 1
Integration Time (sec): 1.000000E-1
Scans to average: 1
Electric dark correction enabled: true
Nonlinearity correction enabled: false
Boxcar width: 0
XAxis mode: Wavelengths
Number of Pixels in Spectrum: 2048
>>>>>Begin Spectral Data<<<<<
223.165	-14.38
223.4	-14.38
223.635	-14.38
223.869	-16.38
224.104	-20.38
224.338	-13.38
224.573	-4.38
224.808	-4.38
225.042	3.62
225.277	0.62
225.511	-8.38
225.746	-1.38
225.98	-1.38
226.215	13.62
226.449	10.62
226.683	9.62
226.918	25.62
227.152	20.62
227.387	26.62
227.621	36.62
227.856	46.62
228.09	40.62
228.324	45.62
228.559	45.62
228.793	66.62
229.027	66.62
229.262	55.62
229.496	58.62
229.73	70.62
229.964	81.62
230.199	70.62
230.433	64.62
230.667	84.62
230.901	80.62
231.136	70.62
231.37	74.62
231.604	75.62
231.838	84.62
232.072	86.62
232.306	88.62
232.541	95.62
232.775	92.62
233.009	77.62
233.243	83.62
233.477	85.62
233.711	78.62
233.945	78.62
234.179	76.62
234.413	80.62
234.647	89.62
234.881	86.62
235.115	84.62
235.349	67.62
235.583	77.62
235.817	68.62
236.051	69.62
236.285	83.62
236.519	82.62
236.753	72.62
236.987	58.62
237.221	78.62
237.455	78.62
237.689	86.62
237.922	73.62
238.156	74.62
238.39	76.62
238.624	84.62
238.858	87.62
239.091	82.62
239.325	64.62
239.559	66.62
239.793	70.62
240.027	86.62
240.26	86.62
240.494	79.62
240.728	69.62
240.961	72.62
241.195	70.62
241.429	72.62
241.662	85.62
241.896	73.62
242.13	79.62
242.363	62.62
242.597	78.62
242.83	77.62
243.064	60.62
243.298	72.62
243.531	72.62
243.765	64.62
243.998	89.62
244.232	79.62
244.465	77.62
244.699	87.62
244.932	76.62
245.166	66.62
245.399	85.62
245.633	73.62
245.866	75.62
246.099	73.62
246.333	89.62
246.566	83.62
246.8	83.62
247.033	71.62
247.266	77.62
247.5	83.62
247.733	62.62
247.966	73.62
248.2	76.62
248.433	74.62
248.666	67.62
248.899	70.62
249.133	76.62
249.366	81.62
249.599	82.62
249.832	61.62
250.066	81.62
250.299	66.62
250.532	78.62
250.765	61.62
250.998	78.62
251.231	83.62
251.465	85.62
251.698	84.62
251.931	75.62
252.164	67.62
252.397	86.62
252.63	84.62
252.863	72.62
253.096	76.62
253.329	81.62
253.562	82.62
253.795	82.62
254.028	87.62
254.261	85.62
254.494	74.62
254.727	73.62
254.96	77.62
255.193	80.62
255.426	86.62
255.659	84.62
255.892	81.62
256.124	74.62
256.357	81.62
256.59	77.62
256.823	87.62
257.056	84.62
257.289	85.62
257.521	83.62
257.754	93.62
257.987	88.62
258.22	78.62
258.452	82.62
258.685	58.62
258.918	79.62
259.151	82.62
259.383	88.62
259.616	75.62
259.849	77.62
260.081	75.62
260.314	85.62
260.547	77.62
260.779	78.62
261.012	79.62
261.244	71.62
261.477	87.62
261.71	78.62
261.942	71.62
262.175	77.62
262.407	75.62
262.64	75.62
262.872	93.62
263.105	79.62
263.337	83.62
263.57	83.62
263.802	89.62
264.035	83.62
264.267	89.62
264.499	74.62
264.732	71.62
264.964	84.62
265.197	95.62
265.429	85.62
265.661	62.62
265.894	79.62
266.126	90.62
266.358	69.62
266.591	85.62
266.823	91.62
267.055	80.62
267.287	87.62
267.52	83.62
267.752	93.62
267.984	79.62
268.216	73.62
268.448	71.62
268.681	96.62
268.913	71.62
269.145	72.62
269.377	83.62
269.609	74.62
269.841	84.62
270.073	84.62
270.306	90.62
270.538	94.62
270.77	92.62
271.002	97.62
271.234	66.62
271.466	90.62
271.698	87.62
271.93	85.62
272.162	79.62
272.394	87.62
272.626	107.62
272.858	83.62
273.09	76.62
273.322	79.62
273.553	91.62
273.785	86.62
274.017	77.62
274.249	101.62
274.481	69.62
274.713	81.62
274.945	98.62
275.176	79.62
275.408	84.62
275.64	92.62
275.872	78.62
276.104	88.62
276.335	81.62
276.567	86.62
276.799	97.62
277.031	87.62
277.262	77.62
277.494	79.62
277.726	94.62
277.957	83.62
278.189	73.62
278.421	78.62
278.652	89.62
278.884	90.62
279.115	86.62
279.347	86.62
279.579	90.62
279.81	76.62
280.042	82.62
280.273	69.62
280.505	73.62
280.736	70.62
280.968	83.62
281.199	86.62
281.431	84.62
281.662	73.62
281.894	99.62
282.125	75.62
282.356	85.62
282.588	98.62
282.819	86.62
283.051	87.62
283.282	84.62
283.513	99.62
283.745	88.62
283.976	84.62
284.207	94.62
284.439	82.62
284.67	82.62
284.901	84.62
285.132	93.62
285.364	91.62
285.595	81.62
285.826	80.62
286.057	95.62
286.288	79.62
286.52	85.62
286.751	87.62
286.982	74.62
287.213	74.62
287.444	90.62
287.675	78.62
287.906	68.62
288.138	78.62
288.369	102.62
288.6	92.62
288.831	83.62
289.062	77.62
289.293	81.62
289.524	92.62
289.755	87.62
289.986	75.62
290.217	77.62
290.448	77.62
290.679	81.62
290.91	87.62
291.141	78.62
291.371	77.62
291.602	80.62
291.833	84.62
292.064	86.62
292.295	93.62
292.526	86.62
292.757	85.62
292.987	86.62
293.218	94.62
293.449	93.62
293.68	87.62
293.91	78.62
294.141	86.62
294.372	85.62
294.603	80.62
294.833	90.62
295.064	80.62
295.295	83.62
295.525	65.62
295.756	77.62
295.987	94.62
296.217	79.62
296.448	89.62
296.679	88.62
296.909	84.62
297.14	74.62
297.37	84.62
297.601	90.62
297.831	77.62
298.062	76.62
298.292	76.62
298.523	88.62
298.753	84.62
298.984	79.62
299.214	87.62
299.445	83.62
299.675	80.62
299.905	78.62
300.136	86.62
300.366	93.62
300.597	89.62
300.827	86.62
301.057	87.62
301.288	79.62
301.518	59.62
301.748	74.62
301.979	73.62
302.209	89.62
302.439	83.62
302.669	84.62
302.9	91.62
303.13	78.62
303.36	88.62
303.59	92.62
303.82	90.62
304.051	91.62
304.281	86.62
304.511	92.62
304.741	90.62
304.971	77.62
305.201	91.62
305.431	73.62
305.661	89.62
305.891	72.62
306.121	90.62
306.352	77.62
306.582	75.62
306.812	85.62
307.042	70.62
307.272	85.62
307.502	77.62
307.731	84.62
307.961	73.62
308.191	89.62
308.421	77.62
308.651	82.62
308.881	89.62
309.111	89.62
309.341	87.62
309.571	75.62
309.8	77.62
310.03	78.62
310.26	87.62
310.49	88.62
310.72	94.62
310.949	75.62
311.179	75.62
311.409	95.62
311.639	85.62
311.868	93.62
312.098	90.62
312.328	100.62
312.557	94.62
312.787	82.62
313.017	83.62
313.246	86.62
313.476	66.62
313.706	84.62
313.935	102.62
314.165	80.62
314.394	91.62
314.624	97.62
314.853	87.62
315.083	74.62
315.312	85.62
315.542	98.62
315.771	82.62
316.001	76.62
316.23	91.62
316.46	73.62
316.689	89.62
316.919	92.62
317.148	82.62
317.377	75.62
317.607	82.62
317.836	75.62
318.065	94.62
318.295	101.62
318.524	81.62
318.753	76.62
318.983	93.62
319.212	70.62
319.441	79.62
319.67	88.62
319.9	92.62
320.129	91.62
320.358	87.62
320.587	86.62
320.816	78.62
321.046	97.62
321.275	78.62
321.504	89.62
321.733	79.62
321.962	77.62
322.191	89.62
322.42	73.62
322.649	65.62
322.878	66.62
323.108	84.62
323.337	95.62
323.566	90.62
323.795	92.62
324.024	102.62
324.253	83.62
324.482	83.62
324.71	75.62
324.939	99.62
325.168	88.62
325.397	88.62
325.626	79.62
325.855	92.62
326.084	85.62
326.313	97.62
326.542	85.62
326.77	86.62
326.999	85.62
327.228	83.62
327.457	83.62
327.686	87.62
327.914	86.62
328.143	98.62
328.372	79.62
328.6	77.62
328.829	83.62
329.058	78.62
329.287	91.62
329.515	82.62
329.744	89.62
329.972	77.62
330.201	82.62
330.43	88.62
330.658	93.62
330.887	78.62
331.115	87.62
331.344	84.62
331.572	97.62
331.801	73.62
332.03	86.62
332.258	88.62
332.486	92.62
332.715	78.62
332.943	72.62
333.172	95.62
333.4	92.62
333.629	90.62
333.857	88.62
334.085	101.62
334.314	85.62
334.542	77.62
334.771	75.62
334.999	94.62
335.227	74.62
335.455	86.62
335.684	78.62
335.912	86.62
336.14	102.62
336.369	93.62
336.597	86.62
336.825	85.62
337.053	87.62
337.281	90.62
337.51	95.62
337.738	90.62
337.966	86.62
338.194	87.62
338.422	81.62
338.65	92.62
338.878	91.62
339.106	75.62
339.334	75.62
339.562	93.62
339.79	86.62
340.018	84.62
340.246	86.62
340.474	75.62
340.702	69.62
340.93	78.62
341.158	86.62
341.386	75.62
341.614	83.62
341.842	84.62
342.07	82.62
342.298	82.62
342.526	91.62
342.754	73.62
342.981	85.62
343.209	79.62
343.437	96.62
343.665	98.62
343.893	77.62
344.12	87.62
344.348	80.62
344.576	93.62
344.804	84.62
345.031	92.62
345.259	79.62
345.487	81.62
345.714	85.62
345.942	75.62
346.17	85.62
346.397	102.62
346.625	90.62
346.853	74.62
347.08	86.62
347.308	78.62
347.535	86.62
347.763	78.62
347.99	85.62
348.218	103.62
348.445	66.62
348.673	87.62
348.9	90.62
349.128	92.62
349.355	78.62
349.583	74.62
349.81	91.62
350.037	92.62
350.265	99.62
350.492	87.62
350.72	95.62
350.947	70.62
351.174	81.62
351.402	89.62
351.629	87.62
351.856	90.62
352.083	77.62
352.311	98.62
352.538	89.62
352.765	89.62
352.992	88.62
353.22	82.62
353.447	74.62
353.674	92.62
353.901	90.62
354.128	77.62
354.355	77.62
354.583	86.62
354.81	84.62
355.037	85.62
355.264	86.62
355.491	87.62
355.718	84.62
355.945	81.62
356.172	95.62
356.399	93.62
356.626	91.62
356.853	93.62
357.08	85.62
357.307	98.62
357.534	87.62
357.761	89.62
357.988	78.62
358.215	79.62
358.441	92.62
358.668	72.62
358.895	66.62
359.122	79.62
359.349	70.62
359.576	65.62
359.802	96.62
360.029	78.62
360.256	73.62
360.483	73.62
360.709	88.62
360.936	81.62
361.163	77.62
361.39	91.62
361.616	100.62
361.843	93.62
362.07	111.62
362.296	84.62
362.523	83.62
362.749	91.62
362.976	81.62
363.203	70.62
363.429	79.62
363.656	98.62
363.882	87.62
364.109	92.62
364.335	89.62
364.562	82.62
364.788	83.62
365.015	79.62
365.241	87.62
365.468	90.62
365.694	92.62
365.92	78.62
366.147	84.62
366.373	70.62
366.599	92.62
366.826	85.62
367.052	87.62
367.278	74.62
367.505	76.62
367.731	76.62
367.957	77.62
368.184	96.62
368.41	85.62
368.636	77.62
368.862	91.62
369.089	84.62
369.315	95.62
369.541	82.62
369.767	86.62
369.993	87.62
370.219	80.62
370.445	93.62
370.672	83.62
370.898	78.62
371.124	90.62
371.35	83.62
371.576	88.62
371.802	90.62
372.028	89.62
372.254	91.62
372.48	96.62
372.706	72.62
372.932	97.62
373.158	76.62
373.384	83.62
373.61	82.62
373.835	81.62
374.061	71.62
374.287	87.62
374.513	91.62
374.739	79.62
374.965	84.62
375.191	78.62
375.416	83.62
375.642	95.62
375.868	86.62
376.094	74.62
376.319	76.62
376.545	84.62
376.771	99.62
376.997	83.62
377.222	86.62
377.448	91.62
377.674	72.62
377.899	85.62
378.125	89.62
378.35	87.62
378.576	94.62
378.802	75.62
379.027	77.62
379.253	69.62
379.478	79.62
379.704	87.62
379.929	77.62
380.155	84.62
380.38	89.62
380.606	84.62
380.831	84.62
381.057	75.62
381.282	79.62
381.507	82.62
381.733	78.62
381.958	91.62
382.184	85.62
382.409	68.62
382.634	98.62
382.86	85.62
383.085	89.62
383.31	90.62
383.535	84.62
383.761	86.62
383.986	75.62
384.211	83.62
384.436	84.62
384.662	91.62
384.887	79.62
385.112	69.62
385.337	84.62
385.562	100.62
385.787	90.62
386.013	82.62
386.238	79.62
386.463	97.62
386.688	92.62
386.913	81.62
387.138	81.62
387.363	92.62
387.588	79.62
387.813	75.62
388.038	75.62
388.263	69.62
388.488	80.62
388.713	84.62
388.938	90.62
389.163	79.62
389.387	78.62
389.612	72.62
389.837	78.62
390.062	84.62
390.287	92.62
390.512	75.62
390.736	67.62
390.961	82.62
391.186	81.62
391.411	88.62
391.636	100.62
391.86	82.62
392.085	96.62
392.31	83.62
392.534	80.62
392.759	86.62
392.984	79.62
393.208	91.62
393.433	85.62
393.658	79.62
393.882	77.62
394.107	86.62
394.331	87.62
394.556	78.62
394.78	83.62
395.005	76.62
395.229	62.62
395.454	87.62
395.678	94.62
395.903	92.62
396.127	84.62
396.352	86.62
396.576	75.62
396.801	84.62
397.025	84.62
397.249	75.62
397.474	93.62
397.698	76.62
397.922	94.62
398.147	78.62
398.371	76.62
398.595	85.62
398.82	75.62
399.044	82.62
399.268	80.62
399.492	79.62
399.717	86.62
399.941	89.62
400.165	100.62
400.389	87.62
400.613	91.62
400.837	83.62
401.062	83.62
401.286	80.62
401.51	91.62
401.734	86.62
401.958	101.62
402.182	94.62
402.406	92.62
402.63	82.62
402.854	86.62
403.078	83.62
403.302	95.62
403.526	88.62
403.75	74.62
403.974	86.62
404.198	84.62
404.422	92.62
404.645	80.62
404.869	92.62
405.093	88.62
405.317	85.62
405.541	98.62
405.765	77.62
405.988	78.62
406.212	85.62
406.436	82.62
406.66	103.62
406.883	87.62
407.107	70.62
407.331	74.62
407.555	97.62
407.778	97.62
408.002	89.62
408.226	86.62
408.449	89.62
408.673	89.62
408.896	87.62
409.12	103.62
409.344	98.62
409.567	76.62
409.791	85.62
410.014	84.62
410.238	78.62
410.461	73.62
410.685	67.62
410.908	93.62
411.132	95.62
411.355	88.62
411.578	90.62
411.802	84.62
412.025	81.62
412.249	79.62
412.472	97.62
412.695	96.62
412.919	94.62
413.142	83.62
413.365	85.62
413.589	69.62
413.812	91.62
414.035	81.62
414.258	81.62
414.482	93.62
414.705	84.62
414.928	82.62
415.151	91.62
415.374	91.62
415.597	82.62
415.821	110.62
416.044	95.62
416.267	99.62
416.49	76.62
416.713	85.62
416.936	93.62
417.159	85.62
417.382	85.62
417.605	99.62
417.828	89.62
418.051	76.62
418.274	85.62
418.497	87.62
418.72	102.62
418.943	87.62
419.166	89.62
419.389	91.62
419.611	85.62
419.834	97.62
420.057	70.62
420.28	81.62
420.503	85.62
420.726	98.62
420.948	82.62
421.171	105.62
421.394	84.62
421.617	80.62
421.839	85.62
422.062	90.62
422.285	92.62
422.507	82.62
422.73	90.62
422.953	66.62
423.175	88.62
423.398	79.62
423.621	85.62
423.843	93.62
424.066	89.62
424.288	81.62
424.511	89.62
424.733	99.62
424.956	92.62
425.178	77.62
425.401	79.62
425.623	91.62
425.846	100.62
426.068	79.62
426.291	113.62
426.513	81.62
426.735	86.62
426.958	78.62
427.18	94.62
427.402	87.62
427.625	93.62
427.847	80.62
428.069	87.62
428.292	84.62
428.514	84.62
428.736	75.62
428.958	100.62
429.181	90.62
429.403	101.62
429.625	82.62
429.847	86.62
430.069	92.62
430.292	82.62
430.514	89.62
430.736	85.62
430.958	84.62
431.18	99.62
431.402	85.62
431.624	86.62
431.846	79.62
432.068	87.62
432.29	91.62
432.512	86.62
432.734	86.62
432.956	87.62
433.178	94.62
433.4	92.62
433.622	97.62
433.844	92.62
434.066	85.62
434.287	88.62
434.509	84.62
434.731	97.62
434.953	89.62
435.175	80.62
435.397	99.62
435.618	77.62
435.84	94.62
436.062	94.62
436.284	83.62
436.505	89.62
436.727	84.62
436.949	81.62
437.17	99.62
437.392	83.62
437.614	89.62
437.835	87.62
438.057	73.62
438.278	100.62
438.5	88.62
438.721	86.62
438.943	107.62
439.165	90.62
439.386	86.62
439.608	90.62
439.829	90.62
440.05	89.62
440.272	92.62
440.493	97.62
440.715	95.62
440.936	79.62
441.158	92.62
441.379	89.62
441.6	100.62
441.822	90.62
442.043	94.62
442.264	90.62
442.486	84.62
442.707	80.62
442.928	90.62
443.149	103.62
443.371	97.62
443.592	102.62
443.813	84.62
444.034	103.62
444.255	88.62
444.476	101.62
444.698	93.62
444.919	90.62
445.14	201.62
445.361	147.62
445.582	113.62
445.803	88.62
446.024	95.62
446.245	99.62
446.466	90.62
446.687	103.62
446.908	111.62
447.129	90.62
447.35	87.62
447.571	87.62
447.792	94.62
448.013	91.62
448.234	93.62
448.455	99.62
448.675	84.62
448.896	86.62
449.117	89.62
449.338	95.62
449.559	104.62
449.779	89.62
450	99.62
450.221	92.62
450.442	92.62
450.662	81.62
450.883	77.62
451.104	89.62
451.324	97.62
451.545	90.62
451.766	75.62
451.986	99.62
452.207	84.62
452.428	95.62
452.648	94.62
452.869	87.62
453.089	78.62
453.31	83.62
453.53	98.62
453.751	93.62
453.971	83.62
454.192	93.62
454.412	83.62
454.633	90.62
454.853	89.62
455.073	86.62
455.294	88.62
455.514	88.62
455.734	95.62
455.955	94.62
456.175	94.62
456.395	86.62
456.616	81.62
456.836	78.62
457.056	83.62
457.276	81.62
457.497	86.62
457.717	90.62
457.937	86.62
458.157	85.62
458.377	86.62
458.598	96.62
458.818	84.62
459.038	80.62
459.258	87.62
459.478	82.62
459.698	85.62
459.918	88.62
460.138	70.62
460.358	78.62
460.578	94.62
460.798	95.62
461.018	103.62
461.238	91.62
461.458	95.62
461.678	79.62
461.898	82.62
462.118	88.62
462.338	96.62
462.558	97.62
462.777	78.62
462.997	100.62
463.217	97.62
463.437	98.62
463.657	81.62
463.876	78.62
464.096	95.62
464.316	76.62
464.536	81.62
464.755	70.62
464.975	77.62
465.195	98.62
465.414	104.62
465.634	92.62
465.854	97.62
466.073	93.62
466.293	90.62
466.512	89.62
466.732	90.62
466.951	90.62
467.171	85.62
467.391	106.62
467.61	98.62
467.829	86.62
468.049	86.62
468.268	88.62
468.488	82.62
468.707	74.62
468.927	85.62
469.146	98.62
469.365	92.62
469.585	90.62
469.804	90.62
470.023	94.62
470.243	91.62
470.462	99.62
470.681	91.62
470.901	100.62
471.12	80.62
471.339	98.62
471.558	101.62
471.777	73.62
471.997	91.62
472.216	81.62
472.435	90.62
472.654	85.62
472.873	104.62
473.092	100.62
473.311	78.62
473.53	90.62
473.749	79.62
473.968	92.62
474.187	100.62
474.406	82.62
474.625	88.62
474.844	98.62
475.063	89.62
475.282	93.62
475.501	89.62
475.72	91.62
475.939	90.62
476.158	85.62
476.377	85.62
476.596	78.62
476.814	94.62
477.033	89.62
477.252	91.62
477.471	82.62
477.69	89.62
477.908	89.62
478.127	92.62
478.346	77.62
478.564	90.62
478.783	95.62
479.002	97.62
479.22	87.62
479.439	85.62
479.658	95.62
479.876	100.62
480.095	77.62
480.313	85.62
480.532	100.62
480.751	93.62
480.969	93.62
481.188	78.62
481.406	84.62
481.624	83.62
481.843	92.62
482.061	85.62
482.28	97.62
482.498	97.62
482.717	89.62
482.935	84.62
483.153	103.62
483.372	94.62
483.59	92.62
483.808	104.62
484.027	94.62
484.245	88.62
484.463	87.62
484.681	87.62
484.9	98.62
485.118	93.62
485.336	93.62
485.554	90.62
485.772	75.62
485.99	83.62
486.209	85.62
486.427	91.62
486.645	91.62
486.863	97.62
487.081	99.62
487.299	87.62
487.517	105.62
487.735	99.62
487.953	102.62
488.171	105.62
488.389	98.62
488.607	94.62
488.825	98.62
489.043	92.62
489.261	79.62
489.479	80.62
489.696	92.62
489.914	95.62
490.132	76.62
490.35	93.62
490.568	98.62
490.786	92.62
491.003	99.62
491.221	99.62
491.439	93.62
491.657	105.62
491.874	117.62
492.092	93.62
492.31	123.62
492.527	113.62
492.745	105.62
492.963	105.62
493.18	103.62
493.398	102.62
493.615	99.62
493.833	95.62
494.05	98.62
494.268	103.62
494.485	95.62
494.703	102.62
494.92	101.62
495.138	95.62
495.355	98.62
495.573	110.62
495.79	82.62
496.008	93.62
496.225	94.62
496.442	91.62
496.66	119.62
496.877	91.62
497.094	89.62
497.312	85.62
497.529	83.62
497.746	84.62
497.963	102.62
498.181	78.62
498.398	89.62
498.615	86.62
498.832	82.62
499.049	90.62
499.267	91.62
499.484	94.62
499.701	109.62
499.918	85.62
500.135	81.62
500.352	98.62
500.569	109.62
500.786	83.62
501.003	105.62
501.22	84.62
501.437	91.62
501.654	86.62
501.871	75.62
502.088	101.62
502.305	92.62
502.522	81.62
502.739	92.62
502.956	94.62
503.172	77.62
503.389	78.62
503.606	103.62
503.823	98.62
504.04	85.62
504.256	91.62
504.473	75.62
504.69	74.62
504.907	92.62
505.123	75.62
505.34	81.62
505.557	86.62
505.773	89.62
505.99	90.62
506.207	109.62
506.423	84.62
506.64	100.62
506.856	85.62
507.073	98.62
507.289	87.62
507.506	93.62
507.722	83.62
507.939	90.62
508.155	88.62
508.372	82.62
508.588	91.62
508.805	89.62
509.021	82.62
509.238	93.62
509.454	86.62
509.67	95.62
509.887	101.62
510.103	94.62
510.319	81.62
510.536	83.62
510.752	89.62
510.968	89.62
511.184	78.62
511.401	93.62
511.617	75.62
511.833	71.62
512.049	84.62
512.265	93.62
512.481	78.62
512.698	78.62
512.914	94.62
513.13	69.62
513.346	95.62
513.562	75.62
513.778	86.62
513.994	81.62
514.21	85.62
514.426	80.62
514.642	99.62
514.858	68.62
515.074	88.62
515.29	87.62
515.506	82.62
515.721	91.62
515.937	90.62
516.153	76.62
516.369	89.62
516.585	93.62
516.801	72.62
517.016	73.62
517.232	74.62
517.448	97.62
517.664	83.62
517.879	89.62
518.095	90.62
518.311	77.62
518.527	78.62
