Data from Zn(NO3)2Standard.Agarose3%.GreenCap.LampEnergy10E.O_HRD10591_15-07-15-944.txt Node
Date: Mon Jul 22 15:07:15 EDT 2019
User: cochatt
Spectrometer: HR+D1059
Trigger mode: 1
Integration Time (sec): 1.000000E-1
Scans to average: 1
Electric dark correction enabled: true
Nonlinearity correction enabled: false
Boxcar width: 0
XAxis mode: Wavelengths
Number of Pixels in Spectrum: 2048
>>>>>Begin Spectral Data<<<<<
223.165	-8.31
223.4	-8.31
223.635	-8.31
223.869	-18.31
224.104	-20.31
224.338	-11.31
224.573	-14.31
224.808	-6.31
225.042	-3.31
225.277	-13.31
225.511	0.69
225.746	8.69
225.98	-0.31
226.215	16.69
226.449	13.69
226.683	17.69
226.918	6.69
227.152	31.69
227.387	34.69
227.621	45.69
227.856	51.69
228.09	35.69
228.324	53.69
228.559	48.69
228.793	50.69
229.027	63.69
229.262	60.69
229.496	62.69
229.73	76.69
229.964	76.69
230.199	77.69
230.433	67.69
230.667	77.69
230.901	76.69
231.136	79.69
231.37	78.69
231.604	84.69
231.838	89.69
232.072	74.69
232.306	76.69
232.541	83.69
232.775	93.69
233.009	73.69
233.243	85.69
233.477	80.69
233.711	90.69
233.945	93.69
234.179	88.69
234.413	77.69
234.647	67.69
234.881	72.69
235.115	87.69
235.349	70.69
235.583	80.69
235.817	78.69
236.051	83.69
236.285	80.69
236.519	93.69
236.753	75.69
236.987	80.69
237.221	74.69
237.455	94.69
237.689	81.69
237.922	75.69
238.156	93.69
238.39	78.69
238.624	71.69
238.858	76.69
239.091	82.69
239.325	66.69
239.559	82.69
239.793	63.69
240.027	90.69
240.26	75.69
240.494	65.69
240.728	77.69
240.961	74.69
241.195	74.69
241.429	89.69
241.662	86.69
241.896	92.69
242.13	63.69
242.363	75.69
242.597	68.69
242.83	78.69
243.064	98.69
243.298	87.69
243.531	88.69
243.765	83.69
243.998	71.69
244.232	82.69
244.465	81.69
244.699	92.69
244.932	78.69
245.166	68.69
245.399	81.69
245.633	91.69
245.866	81.69
246.099	77.69
246.333	69.69
246.566	92.69
246.8	76.69
247.033	83.69
247.266	70.69
247.5	82.69
247.733	79.69
247.966	76.69
248.2	66.69
248.433	64.69
248.666	71.69
248.899	73.69
249.133	78.69
249.366	89.69
249.599	79.69
249.832	79.69
250.066	85.69
250.299	75.69
250.532	73.69
250.765	100.69
250.998	81.69
251.231	74.69
251.465	59.69
251.698	75.69
251.931	84.69
252.164	81.69
252.397	85.69
252.63	78.69
252.863	74.69
253.096	70.69
253.329	82.69
253.562	82.69
253.795	84.69
254.028	85.69
254.261	84.69
254.494	87.69
254.727	84.69
254.96	87.69
255.193	81.69
255.426	87.69
255.659	77.69
255.892	85.69
256.124	79.69
256.357	94.69
256.59	85.69
256.823	80.69
257.056	82.69
257.289	86.69
257.521	82.69
257.754	94.69
257.987	83.69
258.22	70.69
258.452	80.69
258.685	94.69
258.918	94.69
259.151	90.69
259.383	91.69
259.616	78.69
259.849	68.69
260.081	74.69
260.314	88.69
260.547	96.69
260.779	103.69
261.012	81.69
261.244	75.69
261.477	87.69
261.71	88.69
261.942	74.69
262.175	99.69
262.407	83.69
262.64	74.69
262.872	82.69
263.105	94.69
263.337	79.69
263.57	76.69
263.802	71.69
264.035	89.69
264.267	91.69
264.499	92.69
264.732	96.69
264.964	89.69
265.197	79.69
265.429	63.69
265.661	75.69
265.894	86.69
266.126	84.69
266.358	65.69
266.591	78.69
266.823	88.69
267.055	88.69
267.287	70.69
267.52	87.69
267.752	83.69
267.984	87.69
268.216	83.69
268.448	90.69
268.681	76.69
268.913	86.69
269.145	73.69
269.377	98.69
269.609	70.69
269.841	87.69
270.073	67.69
270.306	75.69
270.538	77.69
270.77	87.69
271.002	86.69
271.234	76.69
271.466	91.69
271.698	80.69
271.93	90.69
272.162	86.69
272.394	78.69
272.626	72.69
272.858	75.69
273.09	74.69
273.322	94.69
273.553	70.69
273.785	82.69
274.017	77.69
274.249	84.69
274.481	105.69
274.713	85.69
274.945	91.69
275.176	76.69
275.408	93.69
275.64	81.69
275.872	90.69
276.104	87.69
276.335	86.69
276.567	89.69
276.799	81.69
277.031	90.69
277.262	85.69
277.494	98.69
277.726	98.69
277.957	81.69
278.189	86.69
278.421	78.69
278.652	87.69
278.884	89.69
279.115	81.69
279.347	88.69
279.579	79.69
279.81	94.69
280.042	90.69
280.273	94.69
280.505	75.69
280.736	79.69
280.968	75.69
281.199	100.69
281.431	93.69
281.662	87.69
281.894	84.69
282.125	83.69
282.356	85.69
282.588	89.69
282.819	78.69
283.051	74.69
283.282	86.69
283.513	72.69
283.745	66.69
283.976	79.69
284.207	102.69
284.439	90.69
284.67	89.69
284.901	76.69
285.132	77.69
285.364	85.69
285.595	85.69
285.826	84.69
286.057	87.69
286.288	96.69
286.52	87.69
286.751	74.69
286.982	80.69
287.213	84.69
287.444	103.69
287.675	82.69
287.906	83.69
288.138	93.69
288.369	86.69
288.6	86.69
288.831	77.69
289.062	80.69
289.293	87.69
289.524	85.69
289.755	85.69
289.986	97.69
290.217	86.69
290.448	79.69
290.679	87.69
290.91	93.69
291.141	86.69
291.371	91.69
291.602	74.69
291.833	76.69
292.064	94.69
292.295	92.69
292.526	110.69
292.757	78.69
292.987	78.69
293.218	93.69
293.449	101.69
293.68	85.69
293.91	73.69
294.141	87.69
294.372	81.69
294.603	80.69
294.833	93.69
295.064	96.69
295.295	86.69
295.525	82.69
295.756	92.69
295.987	95.69
296.217	95.69
296.448	90.69
296.679	81.69
296.909	78.69
297.14	90.69
297.37	84.69
297.601	86.69
297.831	85.69
298.062	90.69
298.292	84.69
298.523	78.69
298.753	85.69
298.984	79.69
299.214	92.69
299.445	95.69
299.675	80.69
299.905	74.69
300.136	82.69
300.366	83.69
300.597	97.69
300.827	89.69
301.057	77.69
301.288	82.69
301.518	93.69
301.748	88.69
301.979	87.69
302.209	81.69
302.439	84.69
302.669	74.69
302.9	77.69
303.13	87.69
303.36	93.69
303.59	76.69
303.82	75.69
304.051	100.69
304.281	81.69
304.511	97.69
304.741	84.69
304.971	93.69
305.201	74.69
305.431	83.69
305.661	84.69
305.891	81.69
306.121	84.69
306.352	90.69
306.582	91.69
306.812	94.69
307.042	81.69
307.272	65.69
307.502	94.69
307.731	83.69
307.961	94.69
308.191	88.69
308.421	90.69
308.651	86.69
308.881	84.69
309.111	93.69
309.341	71.69
309.571	70.69
309.8	98.69
310.03	91.69
310.26	76.69
310.49	71.69
310.72	86.69
310.949	79.69
311.179	90.69
311.409	75.69
311.639	84.69
311.868	73.69
312.098	74.69
312.328	86.69
312.557	82.69
312.787	87.69
313.017	77.69
313.246	93.69
313.476	85.69
313.706	68.69
313.935	88.69
314.165	83.69
314.394	70.69
314.624	81.69
314.853	91.69
315.083	89.69
315.312	89.69
315.542	99.69
315.771	81.69
316.001	83.69
316.23	94.69
316.46	80.69
316.689	90.69
316.919	88.69
317.148	97.69
317.377	84.69
317.607	77.69
317.836	87.69
318.065	88.69
318.295	87.69
318.524	82.69
318.753	95.69
318.983	91.69
319.212	81.69
319.441	89.69
319.67	90.69
319.9	89.69
320.129	86.69
320.358	89.69
320.587	82.69
320.816	78.69
321.046	85.69
321.275	80.69
321.504	96.69
321.733	85.69
321.962	88.69
322.191	93.69
322.42	84.69
322.649	79.69
322.878	85.69
323.108	99.69
323.337	84.69
323.566	82.69
323.795	98.69
324.024	82.69
324.253	87.69
324.482	90.69
324.71	76.69
324.939	91.69
325.168	78.69
325.397	98.69
325.626	90.69
325.855	88.69
326.084	92.69
326.313	78.69
326.542	86.69
326.77	85.69
326.999	79.69
327.228	79.69
327.457	90.69
327.686	106.69
327.914	86.69
328.143	81.69
328.372	91.69
328.6	101.69
328.829	93.69
329.058	92.69
329.287	95.69
329.515	86.69
329.744	80.69
329.972	91.69
330.201	82.69
330.43	83.69
330.658	98.69
330.887	99.69
331.115	99.69
331.344	79.69
331.572	86.69
331.801	89.69
332.03	75.69
332.258	86.69
332.486	80.69
332.715	87.69
332.943	83.69
333.172	86.69
333.4	94.69
333.629	91.69
333.857	82.69
334.085	74.69
334.314	93.69
334.542	85.69
334.771	98.69
334.999	90.69
335.227	82.69
335.455	69.69
335.684	87.69
335.912	75.69
336.14	83.69
336.369	84.69
336.597	91.69
336.825	78.69
337.053	97.69
337.281	99.69
337.51	93.69
337.738	72.69
337.966	84.69
338.194	85.69
338.422	95.69
338.65	83.69
338.878	80.69
339.106	76.69
339.334	97.69
339.562	95.69
339.79	79.69
340.018	89.69
340.246	82.69
340.474	87.69
340.702	83.69
340.93	90.69
341.158	80.69
341.386	84.69
341.614	102.69
341.842	90.69
342.07	88.69
342.298	83.69
342.526	89.69
342.754	83.69
342.981	91.69
343.209	90.69
343.437	90.69
343.665	72.69
343.893	87.69
344.12	83.69
344.348	80.69
344.576	77.69
344.804	91.69
345.031	86.69
345.259	96.69
345.487	86.69
345.714	93.69
345.942	74.69
346.17	82.69
346.397	75.69
346.625	85.69
346.853	83.69
347.08	86.69
347.308	79.69
347.535	92.69
347.763	81.69
347.99	73.69
348.218	85.69
348.445	84.69
348.673	81.69
348.9	95.69
349.128	98.69
349.355	85.69
349.583	75.69
349.81	87.69
350.037	80.69
350.265	85.69
350.492	85.69
350.72	82.69
350.947	95.69
351.174	77.69
351.402	81.69
351.629	76.69
351.856	89.69
352.083	89.69
352.311	84.69
352.538	90.69
352.765	86.69
352.992	100.69
353.22	90.69
353.447	100.69
353.674	99.69
353.901	87.69
354.128	84.69
354.355	95.69
354.583	86.69
354.81	93.69
355.037	81.69
355.264	88.69
355.491	70.69
355.718	87.69
355.945	94.69
356.172	76.69
356.399	86.69
356.626	107.69
356.853	94.69
357.08	83.69
357.307	85.69
357.534	80.69
357.761	87.69
357.988	91.69
358.215	85.69
358.441	88.69
358.668	86.69
358.895	81.69
359.122	70.69
359.349	82.69
359.576	76.69
359.802	86.69
360.029	68.69
360.256	81.69
360.483	88.69
360.709	90.69
360.936	90.69
361.163	96.69
361.39	86.69
361.616	76.69
361.843	87.69
362.07	87.69
362.296	82.69
362.523	77.69
362.749	85.69
362.976	86.69
363.203	108.69
363.429	83.69
363.656	91.69
363.882	83.69
364.109	92.69
364.335	75.69
364.562	78.69
364.788	86.69
365.015	79.69
365.241	85.69
365.468	92.69
365.694	97.69
365.92	76.69
366.147	82.69
366.373	87.69
366.599	83.69
366.826	79.69
367.052	83.69
367.278	83.69
367.505	100.69
367.731	78.69
367.957	86.69
368.184	85.69
368.41	80.69
368.636	91.69
368.862	87.69
369.089	93.69
369.315	79.69
369.541	96.69
369.767	78.69
369.993	83.69
370.219	94.69
370.445	106.69
370.672	86.69
370.898	73.69
371.124	89.69
371.35	88.69
371.576	73.69
371.802	75.69
372.028	87.69
372.254	85.69
372.48	99.69
372.706	84.69
372.932	83.69
373.158	79.69
373.384	83.69
373.61	84.69
373.835	89.69
374.061	76.69
374.287	82.69
374.513	95.69
374.739	89.69
374.965	93.69
375.191	85.69
375.416	82.69
375.642	88.69
375.868	86.69
376.094	93.69
376.319	90.69
376.545	95.69
376.771	85.69
376.997	90.69
377.222	84.69
377.448	67.69
377.674	87.69
377.899	73.69
378.125	66.69
378.35	95.69
378.576	85.69
378.802	94.69
379.027	87.69
379.253	92.69
379.478	96.69
379.704	79.69
379.929	99.69
380.155	86.69
380.38	92.69
380.606	89.69
380.831	83.69
381.057	102.69
381.282	89.69
381.507	86.69
381.733	90.69
381.958	101.69
382.184	102.69
382.409	77.69
382.634	85.69
382.86	99.69
383.085	85.69
383.31	90.69
383.535	93.69
383.761	78.69
383.986	85.69
384.211	88.69
384.436	93.69
384.662	86.69
384.887	86.69
385.112	95.69
385.337	85.69
385.562	87.69
385.787	94.69
386.013	88.69
386.238	107.69
386.463	95.69
386.688	93.69
386.913	102.69
387.138	78.69
387.363	76.69
387.588	101.69
387.813	97.69
388.038	91.69
388.263	89.69
388.488	91.69
388.713	95.69
388.938	97.69
389.163	95.69
389.387	92.69
389.612	90.69
389.837	88.69
390.062	93.69
390.287	76.69
390.512	87.69
390.736	99.69
390.961	91.69
391.186	87.69
391.411	111.69
391.636	101.69
391.86	88.69
392.085	94.69
392.31	98.69
392.534	77.69
392.759	84.69
392.984	93.69
393.208	101.69
393.433	88.69
393.658	92.69
393.882	89.69
394.107	97.69
394.331	93.69
394.556	98.69
394.78	94.69
395.005	103.69
395.229	103.69
395.454	89.69
395.678	82.69
395.903	78.69
396.127	103.69
396.352	92.69
396.576	97.69
396.801	94.69
397.025	89.69
397.249	94.69
397.474	102.69
397.698	89.69
397.922	86.69
398.147	82.69
398.371	107.69
398.595	89.69
398.82	85.69
399.044	88.69
399.268	104.69
399.492	95.69
399.717	96.69
399.941	96.69
400.165	104.69
400.389	89.69
400.613	101.69
400.837	93.69
401.062	101.69
401.286	99.69
401.51	103.69
401.734	105.69
401.958	92.69
402.182	84.69
402.406	101.69
402.63	90.69
402.854	102.69
403.078	109.69
403.302	97.69
403.526	100.69
403.75	97.69
403.974	115.69
404.198	103.69
404.422	101.69
404.645	104.69
404.869	97.69
405.093	101.69
405.317	99.69
405.541	114.69
405.765	104.69
405.988	83.69
406.212	102.69
406.436	108.69
406.66	110.69
406.883	91.69
407.107	92.69
407.331	92.69
407.555	126.69
407.778	107.69
408.002	102.69
408.226	97.69
408.449	90.69
408.673	96.69
408.896	95.69
409.12	102.69
409.344	111.69
409.567	106.69
409.791	95.69
410.014	105.69
410.238	97.69
410.461	88.69
410.685	108.69
410.908	91.69
411.132	117.69
411.355	96.69
411.578	87.69
411.802	114.69
412.025	105.69
412.249	107.69
412.472	105.69
412.695	110.69
412.919	88.69
413.142	103.69
413.365	108.69
413.589	101.69
413.812	109.69
414.035	111.69
414.258	93.69
414.482	109.69
414.705	102.69
414.928	112.69
415.151	105.69
415.374	104.69
415.597	101.69
415.821	99.69
416.044	109.69
416.267	114.69
416.49	93.69
416.713	104.69
416.936	103.69
417.159	105.69
417.382	102.69
417.605	108.69
417.828	115.69
418.051	101.69
418.274	98.69
418.497	109.69
418.72	104.69
418.943	98.69
419.166	122.69
419.389	107.69
419.611	98.69
419.834	106.69
420.057	94.69
420.28	117.69
420.503	108.69
420.726	94.69
420.948	100.69
421.171	115.69
421.394	100.69
421.617	107.69
421.839	113.69
422.062	107.69
422.285	102.69
422.507	110.69
422.73	87.69
422.953	104.69
423.175	114.69
423.398	99.69
423.621	109.69
423.843	108.69
424.066	106.69
424.288	107.69
424.511	114.69
424.733	122.69
424.956	110.69
425.178	113.69
425.401	107.69
425.623	109.69
425.846	114.69
426.068	102.69
426.291	117.69
426.513	117.69
426.735	110.69
426.958	125.69
427.18	106.69
427.402	113.69
427.625	93.69
427.847	102.69
428.069	114.69
428.292	100.69
428.514	110.69
428.736	108.69
428.958	115.69
429.181	106.69
429.403	119.69
429.625	97.69
429.847	114.69
430.069	106.69
430.292	118.69
430.514	93.69
430.736	103.69
430.958	105.69
431.18	113.69
431.402	113.69
431.624	108.69
431.846	103.69
432.068	88.69
432.29	99.69
432.512	105.69
432.734	99.69
432.956	113.69
433.178	114.69
433.4	102.69
433.622	97.69
433.844	126.69
434.066	113.69
434.287	94.69
434.509	86.69
434.731	94.69
434.953	93.69
435.175	102.69
435.397	106.69
435.618	103.69
435.84	97.69
436.062	106.69
436.284	113.69
436.505	100.69
436.727	89.69
436.949	108.69
437.17	104.69
437.392	94.69
437.614	87.69
437.835	97.69
438.057	87.69
438.278	94.69
438.5	99.69
438.721	106.69
438.943	123.69
439.165	109.69
439.386	98.69
439.608	111.69
439.829	123.69
440.05	107.69
440.272	106.69
440.493	116.69
440.715	111.69
440.936	115.69
441.158	119.69
441.379	107.69
441.6	110.69
441.822	114.69
442.043	118.69
442.264	115.69
442.486	113.69
442.707	111.69
442.928	118.69
443.149	119.69
443.371	108.69
443.592	87.69
443.813	105.69
444.034	113.69
444.255	104.69
444.476	108.69
444.698	104.69
444.919	111.69
445.14	231.69
445.361	153.69
445.582	117.69
445.803	118.69
446.024	118.69
446.245	103.69
446.466	121.69
446.687	122.69
446.908	117.69
447.129	116.69
447.35	121.69
447.571	113.69
447.792	120.69
448.013	118.69
448.234	113.69
448.455	107.69
448.675	113.69
448.896	113.69
449.117	107.69
449.338	102.69
449.559	108.69
449.779	105.69
450	106.69
450.221	114.69
450.442	107.69
450.662	123.69
450.883	124.69
451.104	101.69
451.324	107.69
451.545	98.69
451.766	114.69
451.986	100.69
452.207	113.69
452.428	113.69
452.648	101.69
452.869	105.69
453.089	95.69
453.31	110.69
453.53	104.69
453.751	101.69
453.971	79.69
454.192	104.69
454.412	85.69
454.633	104.69
454.853	107.69
455.073	101.69
455.294	87.69
455.514	106.69
455.734	105.69
455.955	102.69
456.175	98.69
456.395	107.69
456.616	87.69
456.836	93.69
457.056	105.69
457.276	108.69
457.497	94.69
457.717	85.69
457.937	96.69
458.157	89.69
458.377	88.69
458.598	102.69
458.818	91.69
459.038	87.69
459.258	91.69
459.478	89.69
459.698	99.69
459.918	97.69
460.138	92.69
460.358	103.69
460.578	103.69
460.798	98.69
461.018	93.69
461.238	99.69
461.458	103.69
461.678	96.69
461.898	107.69
462.118	109.69
462.338	103.69
462.558	95.69
462.777	115.69
462.997	105.69
463.217	93.69
463.437	90.69
463.657	83.69
463.876	105.69
464.096	105.69
464.316	93.69
464.536	104.69
464.755	89.69
464.975	86.69
465.195	95.69
465.414	107.69
465.634	84.69
465.854	117.69
466.073	106.69
466.293	98.69
466.512	105.69
466.732	105.69
466.951	123.69
467.171	102.69
467.391	104.69
467.61	115.69
467.829	117.69
468.049	118.69
468.268	102.69
468.488	119.69
468.707	105.69
468.927	109.69
469.146	111.69
469.365	108.69
469.585	109.69
469.804	108.69
470.023	115.69
470.243	101.69
470.462	106.69
470.681	118.69
470.901	115.69
471.12	125.69
471.339	106.69
471.558	102.69
471.777	124.69
471.997	106.69
472.216	115.69
472.435	113.69
472.654	97.69
472.873	97.69
473.092	104.69
473.311	101.69
473.53	104.69
473.749	96.69
473.968	104.69
474.187	100.69
474.406	94.69
474.625	105.69
474.844	103.69
475.063	116.69
475.282	97.69
475.501	117.69
475.72	100.69
475.939	107.69
476.158	101.69
476.377	118.69
476.596	102.69
476.814	110.69
477.033	102.69
477.252	97.69
477.471	98.69
477.69	104.69
477.908	112.69
478.127	107.69
478.346	115.69
478.564	104.69
478.783	98.69
479.002	100.69
479.22	101.69
479.439	103.69
479.658	98.69
479.876	89.69
480.095	92.69
480.313	98.69
480.532	104.69
480.751	89.69
480.969	94.69
481.188	90.69
481.406	86.69
481.624	87.69
481.843	90.69
482.061	83.69
482.28	103.69
482.498	103.69
482.717	96.69
482.935	111.69
483.153	125.69
483.372	121.69
483.59	110.69
483.808	109.69
484.027	120.69
484.245	119.69
484.463	110.69
484.681	117.69
484.9	117.69
485.118	114.69
485.336	112.69
485.554	107.69
485.772	94.69
485.99	109.69
486.209	91.69
486.427	103.69
486.645	103.69
486.863	117.69
487.081	133.69
487.299	114.69
487.517	97.69
487.735	136.69
487.953	131.69
488.171	131.69
488.389	124.69
488.607	113.69
488.825	107.69
489.043	101.69
489.261	86.69
489.479	118.69
489.696	109.69
489.914	103.69
490.132	116.69
490.35	109.69
490.568	120.69
490.786	123.69
491.003	126.69
491.221	139.69
491.439	142.69
491.657	134.69
491.874	147.69
492.092	138.69
492.31	152.69
492.527	154.69
492.745	152.69
492.963	131.69
493.18	130.69
493.398	137.69
493.615	125.69
493.833	124.69
494.05	124.69
494.268	137.69
494.485	110.69
494.703	132.69
494.92	133.69
495.138	128.69
495.355	148.69
495.573	126.69
495.79	118.69
496.008	121.69
496.225	117.69
496.442	114.69
496.66	129.69
496.877	118.69
497.094	113.69
497.312	134.69
497.529	125.69
497.746	110.69
497.963	103.69
498.181	106.69
498.398	108.69
498.615	110.69
498.832	110.69
499.049	108.69
499.267	99.69
499.484	105.69
499.701	115.69
499.918	114.69
500.135	105.69
500.352	107.69
500.569	118.69
500.786	115.69
501.003	102.69
501.22	124.69
501.437	117.69
501.654	116.69
501.871	118.69
502.088	102.69
502.305	105.69
502.522	124.69
502.739	119.69
502.956	110.69
503.172	105.69
503.389	102.69
503.606	107.69
503.823	102.69
504.04	121.69
504.256	107.69
504.473	98.69
504.69	110.69
504.907	105.69
505.123	110.69
505.34	93.69
505.557	112.69
505.773	109.69
505.99	102.69
506.207	105.69
506.423	100.69
506.64	101.69
506.856	94.69
507.073	95.69
507.289	92.69
507.506	92.69
507.722	94.69
507.939	103.69
508.155	105.69
508.372	105.69
508.588	108.69
508.805	85.69
509.021	94.69
509.238	94.69
509.454	104.69
509.67	60.69
509.887	79.69
510.103	103.69
510.319	105.69
510.536	87.69
510.752	97.69
510.968	85.69
511.184	89.69
511.401	97.69
511.617	95.69
511.833	85.69
512.049	94.69
512.265	91.69
512.481	90.69
512.698	89.69
512.914	98.69
513.13	102.69
513.346	91.69
513.562	72.69
513.778	81.69
