Data from Zn(NO3)2Standard.Agarose3%.GreenCap.LampEnergy5.5.E.O_HRD10591_15-02-48-767.txt Node
Date: Mon Jul 22 15:02:48 EDT 2019
User: cochatt
Spectrometer: HR+D1059
Trigger mode: 1
Integration Time (sec): 1.000000E-1
Scans to average: 1
Electric dark correction enabled: true
Nonlinearity correction enabled: false
Boxcar width: 0
XAxis mode: Wavelengths
Number of Pixels in Spectrum: 2048
>>>>>Begin Spectral Data<<<<<
223.165	-30.38
223.4	-30.38
223.635	-30.38
223.869	-5.38
224.104	-24.38
224.338	-3.38
224.573	-30.38
224.808	-7.38
225.042	-17.38
225.277	-11.38
225.511	6.62
225.746	7.62
225.98	5.62
226.215	9.62
226.449	20.62
226.683	27.62
226.918	19.62
227.152	32.62
227.387	23.62
227.621	24.62
227.856	42.62
228.09	38.62
228.324	61.62
228.559	57.62
228.793	54.62
229.027	54.62
229.262	61.62
229.496	65.62
229.73	61.62
229.964	65.62
230.199	67.62
230.433	66.62
230.667	76.62
230.901	70.62
231.136	83.62
231.37	72.62
231.604	70.62
231.838	77.62
232.072	76.62
232.306	85.62
232.541	64.62
232.775	83.62
233.009	59.62
233.243	79.62
233.477	70.62
233.711	76.62
233.945	70.62
234.179	79.62
234.413	73.62
234.647	85.62
234.881	86.62
235.115	77.62
235.349	66.62
235.583	78.62
235.817	71.62
236.051	74.62
236.285	68.62
236.519	79.62
236.753	81.62
236.987	73.62
237.221	67.62
237.455	78.62
237.689	78.62
237.922	76.62
238.156	63.62
238.39	68.62
238.624	66.62
238.858	69.62
239.091	69.62
239.325	79.62
239.559	70.62
239.793	80.62
240.027	84.62
240.26	80.62
240.494	59.62
240.728	76.62
240.961	54.62
241.195	90.62
241.429	76.62
241.662	71.62
241.896	64.62
242.13	69.62
242.363	74.62
242.597	69.62
242.83	64.62
243.064	73.62
243.298	71.62
243.531	70.62
243.765	84.62
243.998	78.62
244.232	63.62
244.465	69.62
244.699	68.62
244.932	78.62
245.166	77.62
245.399	61.62
245.633	65.62
245.866	71.62
246.099	81.62
246.333	94.62
246.566	72.62
246.8	90.62
247.033	73.62
247.266	81.62
247.5	76.62
247.733	75.62
247.966	66.62
248.2	69.62
248.433	67.62
248.666	75.62
248.899	75.62
249.133	64.62
249.366	70.62
249.599	65.62
249.832	77.62
250.066	84.62
250.299	83.62
250.532	73.62
250.765	81.62
250.998	76.62
251.231	74.62
251.465	65.62
251.698	71.62
251.931	81.62
252.164	70.62
252.397	71.62
252.63	81.62
252.863	75.62
253.096	70.62
253.329	72.62
253.562	64.62
253.795	70.62
254.028	74.62
254.261	68.62
254.494	77.62
254.727	73.62
254.96	78.62
255.193	69.62
255.426	74.62
255.659	85.62
255.892	77.62
256.124	74.62
256.357	76.62
256.59	76.62
256.823	87.62
257.056	78.62
257.289	86.62
257.521	77.62
257.754	89.62
257.987	88.62
258.22	80.62
258.452	77.62
258.685	85.62
258.918	79.62
259.151	77.62
259.383	65.62
259.616	84.62
259.849	80.62
260.081	77.62
260.314	87.62
260.547	83.62
260.779	70.62
261.012	69.62
261.244	77.62
261.477	83.62
261.71	72.62
261.942	76.62
262.175	76.62
262.407	87.62
262.64	81.62
262.872	72.62
263.105	72.62
263.337	85.62
263.57	68.62
263.802	81.62
264.035	71.62
264.267	83.62
264.499	88.62
264.732	72.62
264.964	63.62
265.197	68.62
265.429	78.62
265.661	82.62
265.894	82.62
266.126	62.62
266.358	68.62
266.591	61.62
266.823	74.62
267.055	77.62
267.287	88.62
267.52	82.62
267.752	69.62
267.984	82.62
268.216	89.62
268.448	85.62
268.681	76.62
268.913	83.62
269.145	72.62
269.377	73.62
269.609	82.62
269.841	72.62
270.073	78.62
270.306	71.62
270.538	88.62
270.77	75.62
271.002	76.62
271.234	64.62
271.466	82.62
271.698	74.62
271.93	66.62
272.162	84.62
272.394	84.62
272.626	73.62
272.858	74.62
273.09	71.62
273.322	76.62
273.553	82.62
273.785	72.62
274.017	76.62
274.249	84.62
274.481	95.62
274.713	89.62
274.945	76.62
275.176	85.62
275.408	77.62
275.64	78.62
275.872	74.62
276.104	85.62
276.335	89.62
276.567	82.62
276.799	80.62
277.031	70.62
277.262	87.62
277.494	80.62
277.726	74.62
277.957	83.62
278.189	70.62
278.421	69.62
278.652	63.62
278.884	88.62
279.115	76.62
279.347	75.62
279.579	84.62
279.81	71.62
280.042	91.62
280.273	65.62
280.505	70.62
280.736	84.62
280.968	74.62
281.199	74.62
281.431	90.62
281.662	84.62
281.894	71.62
282.125	86.62
282.356	71.62
282.588	81.62
282.819	80.62
283.051	71.62
283.282	68.62
283.513	86.62
283.745	79.62
283.976	88.62
284.207	75.62
284.439	58.62
284.67	97.62
284.901	84.62
285.132	61.62
285.364	93.62
285.595	81.62
285.826	69.62
286.057	56.62
286.288	93.62
286.52	70.62
286.751	74.62
286.982	89.62
287.213	76.62
287.444	78.62
287.675	82.62
287.906	93.62
288.138	95.62
288.369	86.62
288.6	82.62
288.831	75.62
289.062	77.62
289.293	86.62
289.524	68.62
289.755	86.62
289.986	85.62
290.217	76.62
290.448	75.62
290.679	70.62
290.91	86.62
291.141	78.62
291.371	73.62
291.602	76.62
291.833	81.62
292.064	74.62
292.295	81.62
292.526	79.62
292.757	73.62
292.987	90.62
293.218	75.62
293.449	73.62
293.68	74.62
293.91	79.62
294.141	68.62
294.372	78.62
294.603	88.62
294.833	76.62
295.064	74.62
295.295	79.62
295.525	84.62
295.756	87.62
295.987	74.62
296.217	71.62
296.448	86.62
296.679	88.62
296.909	97.62
297.14	82.62
297.37	92.62
297.601	73.62
297.831	65.62
298.062	62.62
298.292	70.62
298.523	89.62
298.753	90.62
298.984	77.62
299.214	87.62
299.445	84.62
299.675	78.62
299.905	90.62
300.136	81.62
300.366	81.62
300.597	89.62
300.827	83.62
301.057	77.62
301.288	84.62
301.518	87.62
301.748	82.62
301.979	92.62
302.209	79.62
302.439	93.62
302.669	74.62
302.9	89.62
303.13	93.62
303.36	77.62
303.59	72.62
303.82	78.62
304.051	81.62
304.281	77.62
304.511	78.62
304.741	84.62
304.971	81.62
305.201	75.62
305.431	75.62
305.661	80.62
305.891	92.62
306.121	89.62
306.352	74.62
306.582	82.62
306.812	70.62
307.042	87.62
307.272	74.62
307.502	84.62
307.731	97.62
307.961	80.62
308.191	67.62
308.421	71.62
308.651	76.62
308.881	84.62
309.111	92.62
309.341	91.62
309.571	83.62
309.8	95.62
310.03	71.62
310.26	69.62
310.49	70.62
310.72	80.62
310.949	75.62
311.179	84.62
311.409	85.62
311.639	83.62
311.868	100.62
312.098	92.62
312.328	75.62
312.557	81.62
312.787	88.62
313.017	86.62
313.246	67.62
313.476	84.62
313.706	80.62
313.935	64.62
314.165	93.62
314.394	89.62
314.624	75.62
314.853	82.62
315.083	95.62
315.312	89.62
315.542	77.62
315.771	67.62
316.001	72.62
316.23	66.62
316.46	68.62
316.689	76.62
316.919	69.62
317.148	84.62
317.377	82.62
317.607	79.62
317.836	78.62
318.065	72.62
318.295	74.62
318.524	71.62
318.753	74.62
318.983	86.62
319.212	93.62
319.441	77.62
319.67	81.62
319.9	84.62
320.129	80.62
320.358	75.62
320.587	96.62
320.816	80.62
321.046	80.62
321.275	81.62
321.504	93.62
321.733	77.62
321.962	80.62
322.191	94.62
322.42	90.62
322.649	80.62
322.878	66.62
323.108	105.62
323.337	79.62
323.566	71.62
323.795	77.62
324.024	84.62
324.253	100.62
324.482	84.62
324.71	75.62
324.939	87.62
325.168	87.62
325.397	75.62
325.626	72.62
325.855	66.62
326.084	74.62
326.313	80.62
326.542	80.62
326.77	78.62
326.999	89.62
327.228	83.62
327.457	89.62
327.686	81.62
327.914	82.62
328.143	92.62
328.372	87.62
328.6	90.62
328.829	76.62
329.058	93.62
329.287	72.62
329.515	88.62
329.744	68.62
329.972	84.62
330.201	100.62
330.43	87.62
330.658	70.62
330.887	82.62
331.115	78.62
331.344	84.62
331.572	86.62
331.801	72.62
332.03	89.62
332.258	80.62
332.486	77.62
332.715	81.62
332.943	82.62
333.172	81.62
333.4	74.62
333.629	74.62
333.857	80.62
334.085	74.62
334.314	74.62
334.542	75.62
334.771	77.62
334.999	96.62
335.227	73.62
335.455	80.62
335.684	94.62
335.912	75.62
336.14	87.62
336.369	78.62
336.597	86.62
336.825	82.62
337.053	88.62
337.281	81.62
337.51	78.62
337.738	86.62
337.966	77.62
338.194	87.62
338.422	80.62
338.65	70.62
338.878	85.62
339.106	82.62
339.334	85.62
339.562	83.62
339.79	76.62
340.018	78.62
340.246	87.62
340.474	85.62
340.702	79.62
340.93	76.62
341.158	93.62
341.386	78.62
341.614	87.62
341.842	97.62
342.07	92.62
342.298	87.62
342.526	88.62
342.754	68.62
342.981	92.62
343.209	81.62
343.437	70.62
343.665	87.62
343.893	82.62
344.12	80.62
344.348	80.62
344.576	97.62
344.804	73.62
345.031	89.62
345.259	76.62
345.487	77.62
345.714	76.62
345.942	75.62
346.17	72.62
346.397	77.62
346.625	83.62
346.853	99.62
347.08	91.62
347.308	92.62
347.535	83.62
347.763	77.62
347.99	84.62
348.218	79.62
348.445	80.62
348.673	71.62
348.9	71.62
349.128	79.62
349.355	76.62
349.583	73.62
349.81	73.62
350.037	85.62
350.265	81.62
350.492	81.62
350.72	92.62
350.947	77.62
351.174	82.62
351.402	82.62
351.629	73.62
351.856	80.62
352.083	87.62
352.311	69.62
352.538	78.62
352.765	73.62
352.992	75.62
353.22	75.62
353.447	72.62
353.674	85.62
353.901	86.62
354.128	82.62
354.355	84.62
354.583	83.62
354.81	85.62
355.037	80.62
355.264	81.62
355.491	83.62
355.718	66.62
355.945	77.62
356.172	82.62
356.399	88.62
356.626	71.62
356.853	81.62
357.08	70.62
357.307	72.62
357.534	73.62
357.761	81.62
357.988	80.62
358.215	85.62
358.441	85.62
358.668	77.62
358.895	74.62
359.122	75.62
359.349	66.62
359.576	92.62
359.802	69.62
360.029	76.62
360.256	83.62
360.483	81.62
360.709	83.62
360.936	90.62
361.163	74.62
361.39	76.62
361.616	84.62
361.843	80.62
362.07	72.62
362.296	84.62
362.523	80.62
362.749	89.62
362.976	76.62
363.203	85.62
363.429	78.62
363.656	94.62
363.882	82.62
364.109	72.62
364.335	83.62
364.562	84.62
364.788	80.62
365.015	95.62
365.241	82.62
365.468	90.62
365.694	79.62
365.92	79.62
366.147	75.62
366.373	77.62
366.599	80.62
366.826	86.62
367.052	85.62
367.278	77.62
367.505	63.62
367.731	83.62
367.957	74.62
368.184	63.62
368.41	85.62
368.636	81.62
368.862	87.62
369.089	89.62
369.315	58.62
369.541	85.62
369.767	78.62
369.993	84.62
370.219	80.62
370.445	72.62
370.672	84.62
370.898	75.62
371.124	78.62
371.35	64.62
371.576	81.62
371.802	70.62
372.028	86.62
372.254	81.62
372.48	77.62
372.706	73.62
372.932	77.62
373.158	79.62
373.384	84.62
373.61	73.62
373.835	84.62
374.061	89.62
374.287	85.62
374.513	85.62
374.739	79.62
374.965	69.62
375.191	83.62
375.416	92.62
375.642	77.62
375.868	77.62
376.094	78.62
376.319	93.62
376.545	70.62
376.771	84.62
376.997	87.62
377.222	76.62
377.448	67.62
377.674	73.62
377.899	89.62
378.125	77.62
378.35	86.62
378.576	72.62
378.802	79.62
379.027	70.62
379.253	90.62
379.478	71.62
379.704	78.62
379.929	83.62
380.155	76.62
380.38	94.62
380.606	73.62
380.831	79.62
381.057	79.62
381.282	82.62
381.507	82.62
381.733	76.62
381.958	72.62
382.184	80.62
382.409	87.62
382.634	84.62
382.86	74.62
383.085	71.62
383.31	79.62
383.535	79.62
383.761	93.62
383.986	87.62
384.211	78.62
384.436	77.62
384.662	82.62
384.887	67.62
385.112	75.62
385.337	78.62
385.562	80.62
385.787	78.62
386.013	80.62
386.238	79.62
386.463	74.62
386.688	95.62
386.913	89.62
387.138	84.62
387.363	82.62
387.588	85.62
387.813	58.62
388.038	69.62
388.263	79.62
388.488	79.62
388.713	80.62
388.938	83.62
389.163	70.62
389.387	76.62
389.612	81.62
389.837	73.62
390.062	75.62
390.287	93.62
390.512	84.62
390.736	73.62
390.961	70.62
391.186	87.62
391.411	75.62
391.636	95.62
391.86	80.62
392.085	78.62
392.31	67.62
392.534	83.62
392.759	81.62
392.984	76.62
393.208	83.62
393.433	72.62
393.658	80.62
393.882	76.62
394.107	79.62
394.331	83.62
394.556	65.62
394.78	78.62
395.005	86.62
395.229	74.62
395.454	89.62
395.678	73.62
395.903	74.62
396.127	78.62
396.352	77.62
396.576	87.62
396.801	77.62
397.025	74.62
397.249	80.62
397.474	80.62
397.698	71.62
397.922	101.62
398.147	77.62
398.371	74.62
398.595	96.62
398.82	74.62
399.044	85.62
399.268	78.62
399.492	94.62
399.717	84.62
399.941	79.62
400.165	73.62
400.389	97.62
400.613	85.62
400.837	75.62
401.062	72.62
401.286	78.62
401.51	79.62
401.734	74.62
401.958	76.62
402.182	78.62
402.406	77.62
402.63	69.62
402.854	72.62
403.078	77.62
403.302	79.62
403.526	83.62
403.75	79.62
403.974	70.62
404.198	84.62
404.422	88.62
404.645	79.62
404.869	79.62
405.093	85.62
405.317	81.62
405.541	79.62
405.765	72.62
405.988	69.62
406.212	82.62
406.436	94.62
406.66	80.62
406.883	83.62
407.107	76.62
407.331	69.62
407.555	74.62
407.778	97.62
408.002	72.62
408.226	81.62
408.449	73.62
408.673	69.62
408.896	74.62
409.12	68.62
409.344	90.62
409.567	73.62
409.791	74.62
410.014	69.62
410.238	94.62
410.461	103.62
410.685	77.62
410.908	80.62
411.132	79.62
411.355	78.62
411.578	74.62
411.802	88.62
412.025	90.62
412.249	91.62
412.472	86.62
412.695	94.62
412.919	88.62
413.142	87.62
413.365	78.62
413.589	89.62
413.812	80.62
414.035	85.62
414.258	84.62
414.482	76.62
414.705	77.62
414.928	72.62
415.151	96.62
415.374	93.62
415.597	82.62
415.821	83.62
416.044	87.62
416.267	89.62
416.49	84.62
416.713	79.62
416.936	80.62
417.159	77.62
417.382	82.62
417.605	83.62
417.828	81.62
418.051	78.62
418.274	90.62
418.497	80.62
418.72	91.62
418.943	85.62
419.166	77.62
419.389	94.62
419.611	71.62
419.834	70.62
420.057	78.62
420.28	73.62
420.503	80.62
420.726	95.62
420.948	92.62
421.171	80.62
421.394	92.62
421.617	88.62
421.839	93.62
422.062	91.62
422.285	84.62
422.507	105.62
422.73	95.62
422.953	79.62
423.175	79.62
423.398	78.62
423.621	78.62
423.843	86.62
424.066	82.62
424.288	88.62
424.511	77.62
424.733	83.62
424.956	80.62
425.178	74.62
425.401	77.62
425.623	95.62
425.846	74.62
426.068	84.62
426.291	77.62
426.513	88.62
426.735	95.62
426.958	73.62
427.18	74.62
427.402	101.62
427.625	86.62
427.847	87.62
428.069	95.62
428.292	82.62
428.514	78.62
428.736	83.62
428.958	86.62
429.181	90.62
429.403	78.62
429.625	86.62
429.847	82.62
430.069	86.62
430.292	109.62
430.514	83.62
430.736	92.62
430.958	89.62
431.18	74.62
431.402	87.62
431.624	84.62
431.846	94.62
432.068	86.62
432.29	79.62
432.512	67.62
432.734	86.62
432.956	74.62
433.178	85.62
433.4	93.62
433.622	82.62
433.844	84.62
434.066	88.62
434.287	88.62
434.509	76.62
434.731	74.62
434.953	73.62
435.175	76.62
435.397	92.62
435.618	83.62
435.84	77.62
436.062	75.62
436.284	93.62
436.505	80.62
436.727	85.62
436.949	69.62
437.17	82.62
437.392	83.62
437.614	86.62
437.835	81.62
438.057	89.62
438.278	78.62
438.5	89.62
438.721	68.62
438.943	80.62
439.165	82.62
439.386	92.62
439.608	93.62
439.829	83.62
440.05	94.62
440.272	92.62
440.493	94.62
440.715	88.62
440.936	78.62
441.158	94.62
441.379	82.62
441.6	65.62
441.822	77.62
442.043	82.62
442.264	94.62
442.486	82.62
442.707	80.62
442.928	86.62
443.149	72.62
443.371	93.62
443.592	60.62
443.813	100.62
444.034	93.62
444.255	84.62
444.476	70.62
444.698	101.62
444.919	84.62
445.14	205.62
445.361	135.62
445.582	92.62
445.803	83.62
446.024	84.62
446.245	84.62
446.466	80.62
446.687	85.62
446.908	79.62
447.129	95.62
447.35	91.62
447.571	89.62
447.792	98.62
448.013	82.62
448.234	87.62
448.455	79.62
448.675	86.62
448.896	92.62
449.117	86.62
449.338	85.62
449.559	87.62
449.779	91.62
450	78.62
450.221	86.62
450.442	102.62
450.662	95.62
450.883	84.62
451.104	84.62
451.324	88.62
451.545	80.62
451.766	88.62
451.986	85.62
452.207	79.62
452.428	84.62
452.648	91.62
452.869	91.62
453.089	77.62
453.31	84.62
453.53	77.62
453.751	81.62
453.971	69.62
454.192	82.62
454.412	92.62
454.633	82.62
454.853	68.62
455.073	82.62
455.294	82.62
455.514	87.62
455.734	83.62
455.955	81.62
456.175	86.62
456.395	84.62
456.616	73.62
456.836	95.62
457.056	81.62
457.276	94.62
457.497	81.62
457.717	81.62
457.937	91.62
458.157	80.62
458.377	80.62
458.598	98.62
458.818	77.62
459.038	73.62
459.258	64.62
459.478	76.62
459.698	79.62
459.918	89.62
460.138	82.62
460.358	91.62
460.578	87.62
460.798	74.62
461.018	85.62
461.238	90.62
461.458	68.62
461.678	73.62
461.898	96.62
462.118	77.62
462.338	67.62
462.558	72.62
462.777	104.62
462.997	84.62
463.217	81.62
463.437	80.62
463.657	72.62
463.876	85.62
464.096	69.62
464.316	71.62
464.536	80.62
464.755	91.62
464.975	84.62
465.195	85.62
465.414	84.62
465.634	92.62
465.854	87.62
466.073	98.62
466.293	75.62
466.512	86.62
466.732	78.62
466.951	89.62
467.171	80.62
467.391	97.62
467.61	76.62
467.829	82.62
468.049	91.62
468.268	96.62
468.488	80.62
468.707	83.62
468.927	93.62
469.146	90.62
469.365	88.62
469.585	84.62
469.804	92.62
470.023	70.62
470.243	90.62
470.462	92.62
470.681	87.62
470.901	80.62
471.12	77.62
471.339	81.62
471.558	84.62
471.777	81.62
471.997	77.62
472.216	80.62
472.435	68.62
472.654	74.62
472.873	95.62
473.092	82.62
473.311	85.62
473.53	82.62
473.749	102.62
473.968	95.62
474.187	84.62
474.406	68.62
474.625	89.62
474.844	78.62
475.063	81.62
475.282	70.62
475.501	80.62
475.72	86.62
475.939	78.62
476.158	86.62
476.377	88.62
476.596	88.62
476.814	89.62
477.033	92.62
477.252	88.62
477.471	97.62
477.69	78.62
477.908	92.62
478.127	88.62
478.346	73.62
478.564	73.62
478.783	82.62
479.002	82.62
479.22	84.62
479.439	92.62
479.658	81.62
479.876	80.62
480.095	80.62
480.313	83.62
480.532	73.62
480.751	76.62
480.969	86.62
481.188	92.62
481.406	79.62
481.624	91.62
481.843	74.62
482.061	87.62
482.28	76.62
482.498	89.62
482.717	72.62
482.935	95.62
483.153	74.62
483.372	103.62
483.59	87.62
483.808	85.62
484.027	73.62
484.245	88.62
484.463	88.62
484.681	97.62
484.9	102.62
485.118	105.62
485.336	86.62
485.554	82.62
485.772	74.62
485.99	83.62
486.209	79.62
486.427	87.62
486.645	90.62
486.863	98.62
487.081	65.62
487.299	93.62
487.517	78.62
487.735	85.62
487.953	90.62
488.171	89.62
488.389	93.62
488.607	73.62
488.825	97.62
489.043	85.62
489.261	87.62
489.479	89.62
489.696	89.62
489.914	93.62
490.132	80.62
490.35	103.62
490.568	95.62
490.786	72.62
491.003	80.62
491.221	107.62
491.439	104.62
491.657	92.62
491.874	108.62
492.092	95.62
492.31	106.62
492.527	98.62
492.745	81.62
492.963	109.62
493.18	93.62
493.398	97.62
493.615	92.62
493.833	84.62
494.05	82.62
494.268	116.62
494.485	110.62
494.703	83.62
494.92	109.62
495.138	110.62
495.355	89.62
495.573	84.62
495.79	88.62
496.008	97.62
496.225	90.62
496.442	93.62
496.66	102.62
496.877	90.62
497.094	96.62
497.312	91.62
497.529	88.62
497.746	104.62
497.963	81.62
498.181	84.62
498.398	94.62
498.615	91.62
498.832	81.62
499.049	74.62
499.267	93.62
499.484	82.62
499.701	87.62
499.918	87.62
500.135	84.62
500.352	102.62
500.569	108.62
500.786	92.62
501.003	88.62
501.22	79.62
501.437	85.62
501.654	76.62
501.871	86.62
502.088	96.62
502.305	91.62
502.522	97.62
502.739	79.62
502.956	71.62
503.172	85.62
503.389	97.62
503.606	84.62
503.823	78.62
504.04	77.62
504.256	71.62
504.473	85.62
504.69	86.62
504.907	82.62
505.123	76.62
505.34	82.62
505.557	71.62
505.773	79.62
505.99	84.62
506.207	97.62
506.423	86.62
506.64	97.62
506.856	82.62
507.073	82.62
507.289	83.62
507.506	76.62
507.722	99.62
507.939	93.62
508.155	71.62
508.372	85.62
508.588	73.62
508.805	79.62
509.021	84.62
509.238	95.62
509.454	86.62
509.67	76.62
509.887	74.62
510.103	95.62
510.319	93.62
510.536	80.62
510.752	72.62
510.968	83.62
511.184	72.62
511.401	88.62
511.617	80.62
511.833	87.62
512.049	82.62
512.265	75.62
512.481	78.62
512.698	90.62
512.914	63.62
513.13	89.62
513.346	63.62
513.562	74.62
513.778	79.62
513.994	91.62
514.21	75.62
514.426	86.62
514.642	74.62
514.858	71.62
515.074	70.62
515.29	69.62
515.506	92.62
515.721	80.62
515.937	84.62
516.153	90.62
516.369	87.62
516.585	75.62
516.801	92.62
517.016	82.62
517.232	79.62
517.448	64.62
517.664	78.62
517.879	84.62
518.095	78.62
518.311	85.62
518.527	74.62
518.742	88.62
518.958	76.62
