Data from Zn(NO3)2Standard.Agarose3%.GreenCap.LampEnergy5.5.E.O_HRD10591_15-01-48-768.txt Node
Date: Mon Jul 22 15:01:48 EDT 2019
User: cochatt
Spectrometer: HR+D1059
Trigger mode: 1
Integration Time (sec): 1.000000E-1
Scans to average: 1
Electric dark correction enabled: true
Nonlinearity correction enabled: false
Boxcar width: 0
XAxis mode: Wavelengths
Number of Pixels in Spectrum: 2048
>>>>>Begin Spectral Data<<<<<
223.165	-22.69
223.4	-22.69
223.635	-22.69
223.869	-22.69
224.104	-23.69
224.338	-17.69
224.573	-8.69
224.808	-12.69
225.042	-13.69
225.277	1.31
225.511	-5.69
225.746	2.31
225.98	3.31
226.215	15.31
226.449	23.31
226.683	10.31
226.918	29.31
227.152	42.31
227.387	34.31
227.621	25.31
227.856	48.31
228.09	41.31
228.324	53.31
228.559	50.31
228.793	63.31
229.027	59.31
229.262	51.31
229.496	75.31
229.73	74.31
229.964	78.31
230.199	70.31
230.433	69.31
230.667	74.31
230.901	70.31
231.136	88.31
231.37	75.31
231.604	71.31
231.838	69.31
232.072	63.31
232.306	75.31
232.541	75.31
232.775	93.31
233.009	105.31
233.243	80.31
233.477	75.31
233.711	91.31
233.945	78.31
234.179	71.31
234.413	90.31
234.647	76.31
234.881	69.31
235.115	81.31
235.349	92.31
235.583	73.31
235.817	82.31
236.051	78.31
236.285	86.31
236.519	78.31
236.753	80.31
236.987	79.31
237.221	70.31
237.455	75.31
237.689	83.31
237.922	65.31
238.156	78.31
238.39	67.31
238.624	67.31
238.858	85.31
239.091	84.31
239.325	79.31
239.559	78.31
239.793	79.31
240.027	84.31
240.26	74.31
240.494	63.31
240.728	74.31
240.961	82.31
241.195	71.31
241.429	69.31
241.662	80.31
241.896	73.31
242.13	75.31
242.363	59.31
242.597	80.31
242.83	84.31
243.064	72.31
243.298	75.31
243.531	78.31
243.765	83.31
243.998	62.31
244.232	83.31
244.465	79.31
244.699	86.31
244.932	76.31
245.166	83.31
245.399	91.31
245.633	75.31
245.866	72.31
246.099	80.31
246.333	83.31
246.566	69.31
246.8	63.31
247.033	86.31
247.266	86.31
247.5	82.31
247.733	74.31
247.966	83.31
248.2	70.31
248.433	91.31
248.666	69.31
248.899	77.31
249.133	73.31
249.366	83.31
249.599	86.31
249.832	84.31
250.066	72.31
250.299	63.31
250.532	76.31
250.765	73.31
250.998	80.31
251.231	76.31
251.465	78.31
251.698	63.31
251.931	74.31
252.164	80.31
252.397	85.31
252.63	73.31
252.863	84.31
253.096	71.31
253.329	81.31
253.562	82.31
253.795	82.31
254.028	100.31
254.261	92.31
254.494	76.31
254.727	88.31
254.96	79.31
255.193	81.31
255.426	91.31
255.659	63.31
255.892	90.31
256.124	82.31
256.357	68.31
256.59	92.31
256.823	86.31
257.056	86.31
257.289	79.31
257.521	79.31
257.754	65.31
257.987	66.31
258.22	83.31
258.452	73.31
258.685	77.31
258.918	71.31
259.151	91.31
259.383	91.31
259.616	85.31
259.849	62.31
260.081	82.31
260.314	73.31
260.547	77.31
260.779	82.31
261.012	89.31
261.244	84.31
261.477	90.31
261.71	75.31
261.942	71.31
262.175	76.31
262.407	81.31
262.64	84.31
262.872	82.31
263.105	83.31
263.337	84.31
263.57	76.31
263.802	87.31
264.035	88.31
264.267	88.31
264.499	72.31
264.732	76.31
264.964	79.31
265.197	71.31
265.429	82.31
265.661	65.31
265.894	79.31
266.126	76.31
266.358	72.31
266.591	67.31
266.823	90.31
267.055	94.31
267.287	78.31
267.52	75.31
267.752	74.31
267.984	84.31
268.216	86.31
268.448	88.31
268.681	87.31
268.913	70.31
269.145	91.31
269.377	72.31
269.609	80.31
269.841	82.31
270.073	80.31
270.306	88.31
270.538	84.31
270.77	79.31
271.002	82.31
271.234	82.31
271.466	70.31
271.698	83.31
271.93	76.31
272.162	89.31
272.394	90.31
272.626	68.31
272.858	59.31
273.09	72.31
273.322	82.31
273.553	86.31
273.785	85.31
274.017	73.31
274.249	73.31
274.481	82.31
274.713	76.31
274.945	81.31
275.176	86.31
275.408	72.31
275.64	85.31
275.872	88.31
276.104	84.31
276.335	89.31
276.567	79.31
276.799	75.31
277.031	78.31
277.262	84.31
277.494	77.31
277.726	79.31
277.957	72.31
278.189	78.31
278.421	91.31
278.652	92.31
278.884	88.31
279.115	75.31
279.347	78.31
279.579	74.31
279.81	71.31
280.042	93.31
280.273	74.31
280.505	82.31
280.736	90.31
280.968	81.31
281.199	70.31
281.431	65.31
281.662	70.31
281.894	84.31
282.125	76.31
282.356	80.31
282.588	87.31
282.819	98.31
283.051	79.31
283.282	84.31
283.513	90.31
283.745	83.31
283.976	78.31
284.207	81.31
284.439	80.31
284.67	74.31
284.901	73.31
285.132	86.31
285.364	70.31
285.595	73.31
285.826	79.31
286.057	88.31
286.288	86.31
286.52	82.31
286.751	81.31
286.982	76.31
287.213	73.31
287.444	83.31
287.675	83.31
287.906	79.31
288.138	80.31
288.369	91.31
288.6	88.31
288.831	79.31
289.062	98.31
289.293	85.31
289.524	80.31
289.755	87.31
289.986	87.31
290.217	79.31
290.448	81.31
290.679	81.31
290.91	79.31
291.141	79.31
291.371	83.31
291.602	73.31
291.833	77.31
292.064	79.31
292.295	89.31
292.526	71.31
292.757	86.31
292.987	81.31
293.218	87.31
293.449	83.31
293.68	79.31
293.91	82.31
294.141	100.31
294.372	83.31
294.603	87.31
294.833	84.31
295.064	73.31
295.295	95.31
295.525	82.31
295.756	71.31
295.987	82.31
296.217	77.31
296.448	75.31
296.679	76.31
296.909	89.31
297.14	95.31
297.37	94.31
297.601	80.31
297.831	91.31
298.062	66.31
298.292	86.31
298.523	76.31
298.753	85.31
298.984	80.31
299.214	87.31
299.445	68.31
299.675	69.31
299.905	81.31
300.136	84.31
300.366	77.31
300.597	74.31
300.827	87.31
301.057	91.31
301.288	100.31
301.518	75.31
301.748	87.31
301.979	89.31
302.209	81.31
302.439	72.31
302.669	79.31
302.9	78.31
303.13	85.31
303.36	76.31
303.59	73.31
303.82	84.31
304.051	76.31
304.281	90.31
304.511	97.31
304.741	84.31
304.971	71.31
305.201	86.31
305.431	82.31
305.661	74.31
305.891	81.31
306.121	88.31
306.352	83.31
306.582	94.31
306.812	86.31
307.042	82.31
307.272	83.31
307.502	87.31
307.731	92.31
307.961	87.31
308.191	81.31
308.421	82.31
308.651	88.31
308.881	72.31
309.111	78.31
309.341	86.31
309.571	90.31
309.8	89.31
310.03	90.31
310.26	75.31
310.49	86.31
310.72	95.31
310.949	101.31
311.179	74.31
311.409	74.31
311.639	87.31
311.868	63.31
312.098	79.31
312.328	86.31
312.557	84.31
312.787	87.31
313.017	81.31
313.246	83.31
313.476	90.31
313.706	79.31
313.935	80.31
314.165	86.31
314.394	85.31
314.624	90.31
314.853	90.31
315.083	94.31
315.312	84.31
315.542	94.31
315.771	83.31
316.001	81.31
316.23	77.31
316.46	67.31
316.689	87.31
316.919	91.31
317.148	87.31
317.377	98.31
317.607	87.31
317.836	85.31
318.065	86.31
318.295	81.31
318.524	86.31
318.753	87.31
318.983	80.31
319.212	86.31
319.441	78.31
319.67	88.31
319.9	83.31
320.129	73.31
320.358	81.31
320.587	74.31
320.816	76.31
321.046	84.31
321.275	82.31
321.504	99.31
321.733	77.31
321.962	93.31
322.191	76.31
322.42	75.31
322.649	78.31
322.878	80.31
323.108	98.31
323.337	90.31
323.566	82.31
323.795	82.31
324.024	81.31
324.253	91.31
324.482	89.31
324.71	94.31
324.939	101.31
325.168	89.31
325.397	78.31
325.626	81.31
325.855	79.31
326.084	76.31
326.313	80.31
326.542	88.31
326.77	92.31
326.999	76.31
327.228	94.31
327.457	96.31
327.686	87.31
327.914	76.31
328.143	103.31
328.372	82.31
328.6	76.31
328.829	75.31
329.058	97.31
329.287	80.31
329.515	81.31
329.744	92.31
329.972	80.31
330.201	80.31
330.43	87.31
330.658	78.31
330.887	78.31
331.115	87.31
331.344	83.31
331.572	83.31
331.801	85.31
332.03	74.31
332.258	83.31
332.486	82.31
332.715	80.31
332.943	84.31
333.172	79.31
333.4	82.31
333.629	72.31
333.857	74.31
334.085	88.31
334.314	78.31
334.542	86.31
334.771	77.31
334.999	90.31
335.227	88.31
335.455	87.31
335.684	84.31
335.912	90.31
336.14	92.31
336.369	96.31
336.597	79.31
336.825	88.31
337.053	94.31
337.281	82.31
337.51	91.31
337.738	95.31
337.966	81.31
338.194	78.31
338.422	86.31
338.65	66.31
338.878	69.31
339.106	89.31
339.334	81.31
339.562	84.31
339.79	95.31
340.018	80.31
340.246	82.31
340.474	82.31
340.702	83.31
340.93	88.31
341.158	79.31
341.386	87.31
341.614	70.31
341.842	92.31
342.07	89.31
342.298	83.31
342.526	79.31
342.754	86.31
342.981	84.31
343.209	85.31
343.437	59.31
343.665	69.31
343.893	84.31
344.12	86.31
344.348	88.31
344.576	72.31
344.804	97.31
345.031	87.31
345.259	94.31
345.487	94.31
345.714	81.31
345.942	76.31
346.17	83.31
346.397	82.31
346.625	73.31
346.853	82.31
347.08	85.31
347.308	79.31
347.535	83.31
347.763	84.31
347.99	88.31
348.218	82.31
348.445	83.31
348.673	67.31
348.9	94.31
349.128	74.31
349.355	87.31
349.583	80.31
349.81	68.31
350.037	87.31
350.265	91.31
350.492	86.31
350.72	86.31
350.947	94.31
351.174	76.31
351.402	66.31
351.629	80.31
351.856	81.31
352.083	74.31
352.311	84.31
352.538	83.31
352.765	84.31
352.992	87.31
353.22	87.31
353.447	72.31
353.674	86.31
353.901	75.31
354.128	76.31
354.355	81.31
354.583	89.31
354.81	77.31
355.037	85.31
355.264	93.31
355.491	82.31
355.718	87.31
355.945	97.31
356.172	88.31
356.399	85.31
356.626	79.31
356.853	80.31
357.08	90.31
357.307	88.31
357.534	67.31
357.761	89.31
357.988	91.31
358.215	88.31
358.441	75.31
358.668	74.31
358.895	83.31
359.122	78.31
359.349	77.31
359.576	87.31
359.802	95.31
360.029	86.31
360.256	83.31
360.483	70.31
360.709	84.31
360.936	96.31
361.163	73.31
361.39	63.31
361.616	85.31
361.843	81.31
362.07	97.31
362.296	81.31
362.523	87.31
362.749	75.31
362.976	79.31
363.203	93.31
363.429	79.31
363.656	81.31
363.882	82.31
364.109	84.31
364.335	79.31
364.562	74.31
364.788	90.31
365.015	75.31
365.241	84.31
365.468	75.31
365.694	65.31
365.92	75.31
366.147	85.31
366.373	82.31
366.599	78.31
366.826	83.31
367.052	76.31
367.278	76.31
367.505	73.31
367.731	89.31
367.957	74.31
368.184	69.31
368.41	78.31
368.636	89.31
368.862	73.31
369.089	78.31
369.315	82.31
369.541	83.31
369.767	81.31
369.993	77.31
370.219	80.31
370.445	89.31
370.672	80.31
370.898	86.31
371.124	88.31
371.35	79.31
371.576	89.31
371.802	82.31
372.028	76.31
372.254	80.31
372.48	83.31
372.706	76.31
372.932	83.31
373.158	65.31
373.384	77.31
373.61	90.31
373.835	87.31
374.061	100.31
374.287	76.31
374.513	85.31
374.739	84.31
374.965	84.31
375.191	81.31
375.416	77.31
375.642	90.31
375.868	74.31
376.094	88.31
376.319	80.31
376.545	67.31
376.771	80.31
376.997	92.31
377.222	83.31
377.448	86.31
377.674	86.31
377.899	69.31
378.125	82.31
378.35	85.31
378.576	71.31
378.802	68.31
379.027	75.31
379.253	87.31
379.478	78.31
379.704	76.31
379.929	81.31
380.155	94.31
380.38	82.31
380.606	87.31
380.831	76.31
381.057	91.31
381.282	71.31
381.507	91.31
381.733	91.31
381.958	86.31
382.184	75.31
382.409	69.31
382.634	71.31
382.86	73.31
383.085	91.31
383.31	84.31
383.535	95.31
383.761	73.31
383.986	78.31
384.211	67.31
384.436	80.31
384.662	91.31
384.887	79.31
385.112	68.31
385.337	67.31
385.562	87.31
385.787	82.31
386.013	90.31
386.238	79.31
386.463	83.31
386.688	82.31
386.913	78.31
387.138	84.31
387.363	89.31
387.588	90.31
387.813	65.31
388.038	88.31
388.263	74.31
388.488	85.31
388.713	81.31
388.938	80.31
389.163	88.31
389.387	70.31
389.612	95.31
389.837	74.31
390.062	89.31
390.287	81.31
390.512	89.31
390.736	78.31
390.961	83.31
391.186	88.31
391.411	82.31
391.636	83.31
391.86	88.31
392.085	88.31
392.31	90.31
392.534	76.31
392.759	87.31
392.984	79.31
393.208	86.31
393.433	78.31
393.658	85.31
393.882	78.31
394.107	80.31
394.331	82.31
394.556	80.31
394.78	73.31
395.005	82.31
395.229	74.31
395.454	82.31
395.678	89.31
395.903	78.31
396.127	88.31
396.352	84.31
396.576	89.31
396.801	77.31
397.025	83.31
397.249	82.31
397.474	76.31
397.698	82.31
397.922	97.31
398.147	88.31
398.371	84.31
398.595	89.31
398.82	86.31
399.044	85.31
399.268	90.31
399.492	76.31
399.717	82.31
399.941	65.31
400.165	75.31
400.389	92.31
400.613	76.31
400.837	83.31
401.062	76.31
401.286	77.31
401.51	84.31
401.734	75.31
401.958	74.31
402.182	84.31
402.406	93.31
402.63	94.31
402.854	70.31
403.078	76.31
403.302	91.31
403.526	79.31
403.75	81.31
403.974	75.31
404.198	94.31
404.422	89.31
404.645	90.31
404.869	72.31
405.093	82.31
405.317	84.31
405.541	75.31
405.765	96.31
405.988	91.31
406.212	75.31
406.436	88.31
406.66	95.31
406.883	77.31
407.107	84.31
407.331	84.31
407.555	80.31
407.778	88.31
408.002	87.31
408.226	92.31
408.449	93.31
408.673	80.31
408.896	82.31
409.12	88.31
409.344	83.31
409.567	99.31
409.791	85.31
410.014	76.31
410.238	83.31
410.461	71.31
410.685	84.31
410.908	88.31
411.132	83.31
411.355	79.31
411.578	72.31
411.802	78.31
412.025	82.31
412.249	66.31
412.472	67.31
412.695	83.31
412.919	79.31
413.142	81.31
413.365	80.31
413.589	96.31
413.812	81.31
414.035	88.31
414.258	91.31
414.482	80.31
414.705	87.31
414.928	87.31
415.151	77.31
415.374	83.31
415.597	66.31
415.821	84.31
416.044	82.31
416.267	89.31
416.49	84.31
416.713	79.31
416.936	95.31
417.159	64.31
417.382	93.31
417.605	84.31
417.828	104.31
418.051	84.31
418.274	92.31
418.497	83.31
418.72	89.31
418.943	84.31
419.166	91.31
419.389	79.31
419.611	79.31
419.834	94.31
420.057	98.31
420.28	92.31
420.503	74.31
420.726	77.31
420.948	87.31
421.171	83.31
421.394	80.31
421.617	95.31
421.839	92.31
422.062	79.31
422.285	91.31
422.507	83.31
422.73	78.31
422.953	90.31
423.175	81.31
423.398	78.31
423.621	71.31
423.843	70.31
424.066	72.31
424.288	83.31
424.511	105.31
424.733	100.31
424.956	92.31
425.178	87.31
425.401	82.31
425.623	94.31
425.846	90.31
426.068	73.31
426.291	88.31
426.513	84.31
426.735	90.31
426.958	89.31
427.18	106.31
427.402	87.31
427.625	91.31
427.847	83.31
428.069	90.31
428.292	83.31
428.514	90.31
428.736	70.31
428.958	90.31
429.181	89.31
429.403	94.31
429.625	92.31
429.847	93.31
430.069	102.31
430.292	90.31
430.514	79.31
430.736	93.31
430.958	66.31
431.18	83.31
431.402	76.31
431.624	92.31
431.846	81.31
432.068	89.31
432.29	76.31
432.512	80.31
432.734	88.31
432.956	94.31
433.178	93.31
433.4	85.31
433.622	80.31
433.844	90.31
434.066	81.31
434.287	83.31
434.509	101.31
434.731	87.31
434.953	95.31
435.175	90.31
435.397	94.31
435.618	90.31
435.84	85.31
436.062	77.31
436.284	83.31
436.505	80.31
436.727	88.31
436.949	95.31
437.17	97.31
437.392	88.31
437.614	89.31
437.835	68.31
438.057	68.31
438.278	67.31
438.5	82.31
438.721	78.31
438.943	81.31
439.165	89.31
439.386	87.31
439.608	88.31
439.829	84.31
440.05	103.31
440.272	104.31
440.493	82.31
440.715	80.31
440.936	83.31
441.158	96.31
441.379	89.31
441.6	85.31
441.822	81.31
442.043	88.31
442.264	82.31
442.486	82.31
442.707	83.31
442.928	93.31
443.149	79.31
443.371	97.31
443.592	92.31
443.813	95.31
444.034	81.31
444.255	77.31
444.476	87.31
444.698	96.31
444.919	74.31
445.14	184.31
445.361	136.31
445.582	75.31
445.803	88.31
446.024	82.31
446.245	94.31
446.466	94.31
446.687	76.31
446.908	98.31
447.129	97.31
447.35	86.31
447.571	95.31
447.792	89.31
448.013	76.31
448.234	79.31
448.455	97.31
448.675	87.31
448.896	89.31
449.117	98.31
449.338	88.31
449.559	81.31
449.779	95.31
450	85.31
450.221	88.31
450.442	87.31
450.662	84.31
450.883	84.31
451.104	84.31
451.324	91.31
451.545	86.31
451.766	92.31
451.986	86.31
452.207	91.31
452.428	92.31
452.648	94.31
452.869	92.31
453.089	98.31
453.31	80.31
453.53	79.31
453.751	80.31
453.971	75.31
454.192	74.31
454.412	87.31
454.633	92.31
454.853	90.31
455.073	99.31
455.294	91.31
455.514	95.31
455.734	78.31
455.955	82.31
456.175	88.31
456.395	99.31
456.616	80.31
456.836	84.31
457.056	79.31
457.276	88.31
457.497	74.31
457.717	80.31
457.937	91.31
458.157	79.31
458.377	71.31
458.598	82.31
458.818	85.31
459.038	73.31
459.258	70.31
459.478	76.31
459.698	84.31
459.918	91.31
460.138	83.31
460.358	83.31
460.578	97.31
460.798	86.31
461.018	87.31
461.238	83.31
461.458	68.31
461.678	88.31
461.898	91.31
462.118	90.31
462.338	83.31
462.558	87.31
462.777	84.31
462.997	87.31
463.217	83.31
463.437	84.31
463.657	77.31
463.876	74.31
464.096	93.31
464.316	84.31
464.536	67.31
464.755	83.31
464.975	74.31
465.195	99.31
465.414	85.31
465.634	88.31
465.854	77.31
466.073	83.31
466.293	79.31
466.512	87.31
466.732	81.31
466.951	76.31
467.171	82.31
467.391	79.31
467.61	89.31
467.829	91.31
468.049	86.31
468.268	83.31
468.488	85.31
468.707	107.31
468.927	97.31
469.146	90.31
469.365	90.31
469.585	81.31
469.804	99.31
470.023	85.31
470.243	94.31
470.462	84.31
470.681	85.31
470.901	94.31
471.12	94.31
471.339	79.31
471.558	77.31
471.777	90.31
471.997	100.31
472.216	82.31
472.435	73.31
472.654	85.31
472.873	83.31
473.092	86.31
473.311	90.31
473.53	75.31
473.749	94.31
473.968	91.31
474.187	95.31
474.406	95.31
474.625	83.31
474.844	97.31
475.063	84.31
475.282	86.31
475.501	90.31
475.72	101.31
475.939	96.31
476.158	79.31
476.377	90.31
476.596	87.31
476.814	82.31
477.033	90.31
477.252	79.31
477.471	94.31
477.69	82.31
477.908	92.31
478.127	86.31
478.346	90.31
478.564	99.31
478.783	91.31
479.002	98.31
479.22	94.31
479.439	80.31
479.658	91.31
479.876	90.31
480.095	75.31
480.313	90.31
480.532	84.31
480.751	91.31
480.969	83.31
481.188	71.31
481.406	88.31
481.624	64.31
481.843	96.31
482.061	91.31
482.28	105.31
482.498	83.31
482.717	80.31
482.935	74.31
483.153	90.31
483.372	89.31
483.59	93.31
483.808	86.31
484.027	81.31
484.245	83.31
484.463	80.31
484.681	98.31
484.9	79.31
485.118	83.31
485.336	93.31
485.554	102.31
485.772	100.31
485.99	83.31
486.209	96.31
486.427	90.31
486.645	81.31
486.863	91.31
487.081	82.31
487.299	80.31
487.517	88.31
487.735	96.31
487.953	87.31
488.171	96.31
488.389	89.31
488.607	88.31
488.825	82.31
489.043	87.31
489.261	90.31
489.479	85.31
489.696	83.31
489.914	87.31
490.132	90.31
490.35	80.31
490.568	86.31
490.786	91.31
491.003	95.31
491.221	113.31
491.439	100.31
491.657	101.31
491.874	110.31
492.092	112.31
492.31	102.31
492.527	120.31
492.745	91.31
492.963	93.31
493.18	111.31
493.398	92.31
493.615	107.31
493.833	105.31
494.05	103.31
494.268	90.31
494.485	88.31
494.703	76.31
494.92	89.31
495.138	97.31
495.355	94.31
495.573	98.31
495.79	65.31
496.008	91.31
496.225	91.31
496.442	99.31
496.66	99.31
496.877	98.31
497.094	102.31
497.312	81.31
497.529	80.31
497.746	83.31
497.963	93.31
498.181	89.31
498.398	80.31
498.615	92.31
498.832	83.31
499.049	83.31
499.267	90.31
499.484	80.31
499.701	86.31
499.918	83.31
500.135	96.31
500.352	90.31
500.569	94.31
500.786	104.31
501.003	88.31
501.22	92.31
501.437	105.31
501.654	99.31
501.871	88.31
502.088	80.31
502.305	83.31
502.522	88.31
502.739	98.31
502.956	77.31
503.172	94.31
503.389	85.31
503.606	89.31
503.823	77.31
504.04	90.31
504.256	87.31
504.473	92.31
504.69	84.31
504.907	80.31
505.123	86.31
505.34	96.31
505.557	82.31
505.773	88.31
505.99	108.31
506.207	80.31
506.423	75.31
506.64	74.31
506.856	82.31
507.073	90.31
507.289	84.31
507.506	87.31
507.722	76.31
507.939	82.31
508.155	91.31
508.372	84.31
508.588	84.31
508.805	92.31
509.021	82.31
509.238	78.31
509.454	82.31
509.67	88.31
509.887	89.31
510.103	91.31
510.319	83.31
510.536	79.31
510.752	84.31
510.968	81.31
511.184	88.31
511.401	82.31
511.617	101.31
511.833	83.31
512.049	81.31
512.265	97.31
512.481	91.31
512.698	81.31
512.914	78.31
513.13	90.31
513.346	79.31
513.562	75.31
513.778	74.31
513.994	70.31
514.21	91.31
514.426	89.31
514.642	76.31
514.858	88.31
515.074	81.31
515.29	81.31
515.506	84.31
515.721	99.31
515.937	88.31
516.153	80.31
516.369	84.31
516.585	90.31
516.801	70.31
517.016	81.31
517.232	74.31
517.448	89.31
517.664	80.31
517.879	86.31
518.095	85.31
518.311	76.31
518.527	94.31
518.742	81.31
518.958	86.31
