Data from Zn(NO3)2Standard.Agarose3%.GreenCap.LampEnergy10E.O_HRD10591_15-08-47-951.txt Node
Date: Mon Jul 22 15:08:47 EDT 2019
User: cochatt
Spectrometer: HR+D1059
Trigger mode: 1
Integration Time (sec): 1.000000E-1
Scans to average: 1
Electric dark correction enabled: true
Nonlinearity correction enabled: false
Boxcar width: 0
XAxis mode: Wavelengths
Number of Pixels in Spectrum: 2048
>>>>>Begin Spectral Data<<<<<
223.165	-21.44
223.4	-21.44
223.635	-21.44
223.869	-16.44
224.104	-10.44
224.338	-13.44
224.573	-5.44
224.808	-13.44
225.042	-4.44
225.277	-4.44
225.511	0.56
225.746	10.56
225.98	-3.44
226.215	12.56
226.449	7.56
226.683	16.56
226.918	23.56
227.152	21.56
227.387	22.56
227.621	35.56
227.856	33.56
228.09	35.56
228.324	48.56
228.559	48.56
228.793	70.56
229.027	71.56
229.262	72.56
229.496	77.56
229.73	87.56
229.964	65.56
230.199	76.56
230.433	69.56
230.667	80.56
230.901	71.56
231.136	83.56
231.37	76.56
231.604	84.56
231.838	72.56
232.072	75.56
232.306	90.56
232.541	64.56
232.775	79.56
233.009	77.56
233.243	74.56
233.477	76.56
233.711	94.56
233.945	87.56
234.179	80.56
234.413	90.56
234.647	82.56
234.881	72.56
235.115	68.56
235.349	73.56
235.583	78.56
235.817	76.56
236.051	80.56
236.285	77.56
236.519	86.56
236.753	67.56
236.987	73.56
237.221	68.56
237.455	80.56
237.689	85.56
237.922	73.56
238.156	82.56
238.39	73.56
238.624	83.56
238.858	67.56
239.091	75.56
239.325	82.56
239.559	69.56
239.793	95.56
240.027	80.56
240.26	88.56
240.494	101.56
240.728	73.56
240.961	72.56
241.195	70.56
241.429	66.56
241.662	84.56
241.896	83.56
242.13	78.56
242.363	75.56
242.597	84.56
242.83	83.56
243.064	71.56
243.298	74.56
243.531	83.56
243.765	80.56
243.998	73.56
244.232	60.56
244.465	75.56
244.699	95.56
244.932	71.56
245.166	84.56
245.399	83.56
245.633	77.56
245.866	84.56
246.099	103.56
246.333	75.56
246.566	63.56
246.8	68.56
247.033	81.56
247.266	77.56
247.5	73.56
247.733	72.56
247.966	71.56
248.2	80.56
248.433	69.56
248.666	79.56
248.899	82.56
249.133	78.56
249.366	90.56
249.599	84.56
249.832	76.56
250.066	78.56
250.299	81.56
250.532	79.56
250.765	80.56
250.998	86.56
251.231	73.56
251.465	72.56
251.698	59.56
251.931	75.56
252.164	69.56
252.397	76.56
252.63	81.56
252.863	79.56
253.096	81.56
253.329	80.56
253.562	90.56
253.795	70.56
254.028	65.56
254.261	82.56
254.494	74.56
254.727	83.56
254.96	76.56
255.193	89.56
255.426	76.56
255.659	81.56
255.892	90.56
256.124	75.56
256.357	94.56
256.59	80.56
256.823	90.56
257.056	91.56
257.289	87.56
257.521	78.56
257.754	88.56
257.987	81.56
258.22	87.56
258.452	87.56
258.685	81.56
258.918	84.56
259.151	69.56
259.383	83.56
259.616	88.56
259.849	74.56
260.081	80.56
260.314	73.56
260.547	85.56
260.779	90.56
261.012	79.56
261.244	89.56
261.477	86.56
261.71	81.56
261.942	86.56
262.175	93.56
262.407	70.56
262.64	69.56
262.872	88.56
263.105	82.56
263.337	90.56
263.57	84.56
263.802	90.56
264.035	77.56
264.267	74.56
264.499	82.56
264.732	81.56
264.964	79.56
265.197	75.56
265.429	83.56
265.661	82.56
265.894	92.56
266.126	83.56
266.358	79.56
266.591	91.56
266.823	88.56
267.055	74.56
267.287	80.56
267.52	68.56
267.752	81.56
267.984	81.56
268.216	83.56
268.448	91.56
268.681	76.56
268.913	88.56
269.145	90.56
269.377	83.56
269.609	76.56
269.841	87.56
270.073	82.56
270.306	66.56
270.538	89.56
270.77	76.56
271.002	86.56
271.234	95.56
271.466	81.56
271.698	80.56
271.93	96.56
272.162	87.56
272.394	84.56
272.626	66.56
272.858	80.56
273.09	72.56
273.322	95.56
273.553	82.56
273.785	81.56
274.017	96.56
274.249	83.56
274.481	82.56
274.713	80.56
274.945	74.56
275.176	77.56
275.408	98.56
275.64	81.56
275.872	77.56
276.104	91.56
276.335	87.56
276.567	83.56
276.799	99.56
277.031	96.56
277.262	79.56
277.494	83.56
277.726	92.56
277.957	67.56
278.189	78.56
278.421	68.56
278.652	82.56
278.884	91.56
279.115	91.56
279.347	82.56
279.579	95.56
279.81	74.56
280.042	74.56
280.273	78.56
280.505	86.56
280.736	75.56
280.968	92.56
281.199	86.56
281.431	80.56
281.662	89.56
281.894	90.56
282.125	71.56
282.356	87.56
282.588	70.56
282.819	78.56
283.051	69.56
283.282	75.56
283.513	84.56
283.745	90.56
283.976	83.56
284.207	89.56
284.439	60.56
284.67	77.56
284.901	83.56
285.132	80.56
285.364	92.56
285.595	92.56
285.826	81.56
286.057	85.56
286.288	72.56
286.52	81.56
286.751	84.56
286.982	86.56
287.213	79.56
287.444	85.56
287.675	80.56
287.906	95.56
288.138	96.56
288.369	76.56
288.6	76.56
288.831	89.56
289.062	92.56
289.293	80.56
289.524	76.56
289.755	86.56
289.986	86.56
290.217	84.56
290.448	64.56
290.679	78.56
290.91	89.56
291.141	81.56
291.371	92.56
291.602	104.56
291.833	79.56
292.064	86.56
292.295	85.56
292.526	83.56
292.757	87.56
292.987	83.56
293.218	92.56
293.449	77.56
293.68	92.56
293.91	83.56
294.141	86.56
294.372	82.56
294.603	87.56
294.833	84.56
295.064	89.56
295.295	88.56
295.525	90.56
295.756	67.56
295.987	85.56
296.217	74.56
296.448	85.56
296.679	81.56
296.909	81.56
297.14	80.56
297.37	86.56
297.601	82.56
297.831	96.56
298.062	84.56
298.292	87.56
298.523	84.56
298.753	89.56
298.984	72.56
299.214	95.56
299.445	76.56
299.675	83.56
299.905	79.56
300.136	84.56
300.366	85.56
300.597	82.56
300.827	88.56
301.057	89.56
301.288	92.56
301.518	94.56
301.748	95.56
301.979	82.56
302.209	92.56
302.439	84.56
302.669	93.56
302.9	85.56
303.13	78.56
303.36	89.56
303.59	102.56
303.82	87.56
304.051	87.56
304.281	89.56
304.511	95.56
304.741	83.56
304.971	84.56
305.201	78.56
305.431	80.56
305.661	75.56
305.891	85.56
306.121	97.56
306.352	87.56
306.582	84.56
306.812	95.56
307.042	69.56
307.272	85.56
307.502	83.56
307.731	84.56
307.961	86.56
308.191	90.56
308.421	81.56
308.651	92.56
308.881	95.56
309.111	97.56
309.341	87.56
309.571	91.56
309.8	82.56
310.03	80.56
310.26	76.56
310.49	84.56
310.72	84.56
310.949	96.56
311.179	91.56
311.409	90.56
311.639	83.56
311.868	91.56
312.098	97.56
312.328	89.56
312.557	95.56
312.787	63.56
313.017	74.56
313.246	93.56
313.476	86.56
313.706	89.56
313.935	88.56
314.165	86.56
314.394	95.56
314.624	92.56
314.853	92.56
315.083	70.56
315.312	79.56
315.542	78.56
315.771	85.56
316.001	88.56
316.23	74.56
316.46	88.56
316.689	83.56
316.919	100.56
317.148	87.56
317.377	76.56
317.607	92.56
317.836	72.56
318.065	80.56
318.295	81.56
318.524	98.56
318.753	79.56
318.983	70.56
319.212	81.56
319.441	78.56
319.67	84.56
319.9	82.56
320.129	80.56
320.358	91.56
320.587	83.56
320.816	74.56
321.046	90.56
321.275	98.56
321.504	83.56
321.733	74.56
321.962	73.56
322.191	78.56
322.42	76.56
322.649	82.56
322.878	83.56
323.108	86.56
323.337	89.56
323.566	76.56
323.795	82.56
324.024	93.56
324.253	81.56
324.482	78.56
324.71	81.56
324.939	103.56
325.168	77.56
325.397	84.56
325.626	88.56
325.855	87.56
326.084	83.56
326.313	88.56
326.542	86.56
326.77	78.56
326.999	96.56
327.228	81.56
327.457	75.56
327.686	81.56
327.914	80.56
328.143	85.56
328.372	92.56
328.6	89.56
328.829	92.56
329.058	88.56
329.287	90.56
329.515	82.56
329.744	84.56
329.972	85.56
330.201	66.56
330.43	71.56
330.658	76.56
330.887	93.56
331.115	96.56
331.344	76.56
331.572	89.56
331.801	83.56
332.03	75.56
332.258	92.56
332.486	75.56
332.715	87.56
332.943	96.56
333.172	96.56
333.4	87.56
333.629	79.56
333.857	87.56
334.085	75.56
334.314	77.56
334.542	82.56
334.771	75.56
334.999	85.56
335.227	68.56
335.455	75.56
335.684	84.56
335.912	83.56
336.14	91.56
336.369	69.56
336.597	82.56
336.825	92.56
337.053	95.56
337.281	79.56
337.51	85.56
337.738	91.56
337.966	74.56
338.194	83.56
338.422	75.56
338.65	84.56
338.878	101.56
339.106	77.56
339.334	69.56
339.562	75.56
339.79	72.56
340.018	88.56
340.246	81.56
340.474	81.56
340.702	100.56
340.93	86.56
341.158	80.56
341.386	82.56
341.614	78.56
341.842	69.56
342.07	90.56
342.298	76.56
342.526	83.56
342.754	107.56
342.981	90.56
343.209	78.56
343.437	84.56
343.665	91.56
343.893	75.56
344.12	84.56
344.348	75.56
344.576	72.56
344.804	78.56
345.031	73.56
345.259	88.56
345.487	97.56
345.714	71.56
345.942	89.56
346.17	92.56
346.397	97.56
346.625	89.56
346.853	87.56
347.08	85.56
347.308	94.56
347.535	81.56
347.763	88.56
347.99	71.56
348.218	99.56
348.445	80.56
348.673	87.56
348.9	86.56
349.128	96.56
349.355	86.56
349.583	68.56
349.81	83.56
350.037	78.56
350.265	82.56
350.492	88.56
350.72	82.56
350.947	81.56
351.174	78.56
351.402	75.56
351.629	74.56
351.856	74.56
352.083	83.56
352.311	93.56
352.538	82.56
352.765	86.56
352.992	77.56
353.22	82.56
353.447	90.56
353.674	80.56
353.901	71.56
354.128	78.56
354.355	79.56
354.583	83.56
354.81	84.56
355.037	85.56
355.264	87.56
355.491	83.56
355.718	90.56
355.945	89.56
356.172	82.56
356.399	81.56
356.626	86.56
356.853	83.56
357.08	83.56
357.307	89.56
357.534	86.56
357.761	75.56
357.988	87.56
358.215	72.56
358.441	77.56
358.668	88.56
358.895	67.56
359.122	81.56
359.349	79.56
359.576	95.56
359.802	79.56
360.029	81.56
360.256	82.56
360.483	80.56
360.709	89.56
360.936	81.56
361.163	77.56
361.39	92.56
361.616	83.56
361.843	92.56
362.07	92.56
362.296	83.56
362.523	84.56
362.749	79.56
362.976	87.56
363.203	82.56
363.429	86.56
363.656	91.56
363.882	73.56
364.109	83.56
364.335	90.56
364.562	90.56
364.788	84.56
365.015	85.56
365.241	98.56
365.468	84.56
365.694	92.56
365.92	84.56
366.147	75.56
366.373	92.56
366.599	90.56
366.826	92.56
367.052	71.56
367.278	87.56
367.505	94.56
367.731	99.56
367.957	94.56
368.184	84.56
368.41	92.56
368.636	90.56
368.862	83.56
369.089	86.56
369.315	83.56
369.541	86.56
369.767	80.56
369.993	86.56
370.219	74.56
370.445	87.56
370.672	75.56
370.898	74.56
371.124	77.56
371.35	82.56
371.576	90.56
371.802	86.56
372.028	79.56
372.254	76.56
372.48	92.56
372.706	72.56
372.932	85.56
373.158	80.56
373.384	81.56
373.61	95.56
373.835	84.56
374.061	84.56
374.287	89.56
374.513	97.56
374.739	91.56
374.965	86.56
375.191	68.56
375.416	72.56
375.642	95.56
375.868	87.56
376.094	87.56
376.319	89.56
376.545	81.56
376.771	82.56
376.997	83.56
377.222	84.56
377.448	74.56
377.674	81.56
377.899	81.56
378.125	83.56
378.35	83.56
378.576	84.56
378.802	77.56
379.027	92.56
379.253	82.56
379.478	80.56
379.704	76.56
379.929	90.56
380.155	89.56
380.38	83.56
380.606	92.56
380.831	74.56
381.057	100.56
381.282	84.56
381.507	79.56
381.733	88.56
381.958	90.56
382.184	89.56
382.409	90.56
382.634	80.56
382.86	89.56
383.085	84.56
383.31	93.56
383.535	95.56
383.761	88.56
383.986	87.56
384.211	67.56
384.436	79.56
384.662	93.56
384.887	88.56
385.112	89.56
385.337	85.56
385.562	85.56
385.787	72.56
386.013	90.56
386.238	78.56
386.463	88.56
386.688	106.56
386.913	83.56
387.138	84.56
387.363	95.56
387.588	96.56
387.813	91.56
388.038	90.56
388.263	101.56
388.488	77.56
388.713	97.56
388.938	98.56
389.163	93.56
389.387	73.56
389.612	97.56
389.837	104.56
390.062	93.56
390.287	85.56
390.512	93.56
390.736	82.56
390.961	90.56
391.186	91.56
391.411	93.56
391.636	75.56
391.86	71.56
392.085	90.56
392.31	84.56
392.534	79.56
392.759	104.56
392.984	106.56
393.208	100.56
393.433	90.56
393.658	79.56
393.882	87.56
394.107	101.56
394.331	94.56
394.556	92.56
394.78	85.56
395.005	83.56
395.229	85.56
395.454	97.56
395.678	106.56
395.903	108.56
396.127	90.56
396.352	91.56
396.576	93.56
396.801	87.56
397.025	88.56
397.249	86.56
397.474	103.56
397.698	89.56
397.922	103.56
398.147	86.56
398.371	91.56
398.595	105.56
398.82	88.56
399.044	92.56
399.268	90.56
399.492	97.56
399.717	88.56
399.941	100.56
400.165	104.56
400.389	93.56
400.613	97.56
400.837	101.56
401.062	96.56
401.286	85.56
401.51	97.56
401.734	104.56
401.958	104.56
402.182	112.56
402.406	99.56
402.63	103.56
402.854	93.56
403.078	88.56
403.302	95.56
403.526	90.56
403.75	94.56
403.974	97.56
404.198	98.56
404.422	114.56
404.645	95.56
404.869	101.56
405.093	101.56
405.317	87.56
405.541	91.56
405.765	97.56
405.988	92.56
406.212	86.56
406.436	100.56
406.66	88.56
406.883	99.56
407.107	93.56
407.331	100.56
407.555	103.56
407.778	108.56
408.002	113.56
408.226	92.56
408.449	88.56
408.673	95.56
408.896	103.56
409.12	107.56
409.344	94.56
409.567	108.56
409.791	98.56
410.014	93.56
410.238	93.56
410.461	98.56
410.685	100.56
410.908	111.56
411.132	111.56
411.355	91.56
411.578	111.56
411.802	96.56
412.025	92.56
412.249	106.56
412.472	98.56
412.695	98.56
412.919	98.56
413.142	91.56
413.365	108.56
413.589	92.56
413.812	88.56
414.035	99.56
414.258	108.56
414.482	109.56
414.705	101.56
414.928	93.56
415.151	108.56
415.374	89.56
415.597	118.56
415.821	102.56
416.044	116.56
416.267	98.56
416.49	103.56
416.713	106.56
416.936	113.56
417.159	106.56
417.382	92.56
417.605	104.56
417.828	100.56
418.051	103.56
418.274	87.56
418.497	96.56
418.72	108.56
418.943	114.56
419.166	103.56
419.389	88.56
419.611	90.56
419.834	112.56
420.057	101.56
420.28	100.56
420.503	103.56
420.726	101.56
420.948	120.56
421.171	103.56
421.394	106.56
421.617	107.56
421.839	107.56
422.062	108.56
422.285	97.56
422.507	111.56
422.73	117.56
422.953	106.56
423.175	119.56
423.398	105.56
423.621	104.56
423.843	100.56
424.066	110.56
424.288	108.56
424.511	119.56
424.733	100.56
424.956	117.56
425.178	111.56
425.401	96.56
425.623	111.56
425.846	117.56
426.068	103.56
426.291	105.56
426.513	104.56
426.735	108.56
426.958	87.56
427.18	101.56
427.402	106.56
427.625	108.56
427.847	104.56
428.069	102.56
428.292	121.56
428.514	118.56
428.736	100.56
428.958	101.56
429.181	112.56
429.403	95.56
429.625	91.56
429.847	104.56
430.069	110.56
430.292	103.56
430.514	98.56
430.736	113.56
430.958	102.56
431.18	96.56
431.402	92.56
431.624	86.56
431.846	97.56
432.068	91.56
432.29	77.56
432.512	103.56
432.734	119.56
432.956	95.56
433.178	110.56
433.4	102.56
433.622	115.56
433.844	102.56
434.066	95.56
434.287	69.56
434.509	109.56
434.731	93.56
434.953	89.56
435.175	89.56
435.397	97.56
435.618	99.56
435.84	99.56
436.062	94.56
436.284	93.56
436.505	90.56
436.727	101.56
436.949	100.56
437.17	101.56
437.392	99.56
437.614	98.56
437.835	89.56
438.057	98.56
438.278	97.56
438.5	93.56
438.721	114.56
438.943	93.56
439.165	99.56
439.386	110.56
439.608	116.56
439.829	115.56
440.05	102.56
440.272	104.56
440.493	122.56
440.715	107.56
440.936	107.56
441.158	109.56
441.379	98.56
441.6	106.56
441.822	128.56
442.043	110.56
442.264	108.56
442.486	117.56
442.707	108.56
442.928	104.56
443.149	109.56
443.371	108.56
443.592	100.56
443.813	108.56
444.034	119.56
444.255	115.56
444.476	113.56
444.698	107.56
444.919	123.56
445.14	232.56
445.361	180.56
445.582	107.56
445.803	111.56
446.024	127.56
446.245	118.56
446.466	103.56
446.687	102.56
446.908	102.56
447.129	120.56
447.35	111.56
447.571	120.56
447.792	123.56
448.013	114.56
448.234	107.56
448.455	104.56
448.675	98.56
448.896	96.56
449.117	111.56
449.338	120.56
449.559	100.56
449.779	107.56
450	99.56
450.221	93.56
450.442	114.56
450.662	109.56
450.883	92.56
451.104	108.56
451.324	115.56
451.545	109.56
451.766	114.56
451.986	107.56
452.207	95.56
452.428	111.56
452.648	86.56
452.869	99.56
453.089	97.56
453.31	98.56
453.53	98.56
453.751	85.56
453.971	95.56
454.192	87.56
454.412	103.56
454.633	98.56
454.853	88.56
455.073	97.56
455.294	93.56
455.514	102.56
455.734	101.56
455.955	120.56
456.175	92.56
456.395	89.56
456.616	92.56
456.836	83.56
457.056	102.56
457.276	86.56
457.497	75.56
457.717	88.56
457.937	92.56
458.157	97.56
458.377	96.56
458.598	83.56
458.818	89.56
459.038	84.56
459.258	81.56
459.478	84.56
459.698	85.56
459.918	84.56
460.138	92.56
460.358	97.56
460.578	104.56
460.798	89.56
461.018	101.56
461.238	94.56
461.458	107.56
461.678	92.56
461.898	95.56
462.118	95.56
462.338	97.56
462.558	92.56
462.777	81.56
462.997	100.56
463.217	98.56
463.437	85.56
463.657	92.56
463.876	110.56
464.096	91.56
464.316	90.56
464.536	105.56
464.755	113.56
464.975	111.56
465.195	106.56
465.414	84.56
465.634	88.56
465.854	88.56
466.073	113.56
466.293	103.56
466.512	103.56
466.732	89.56
466.951	111.56
467.171	116.56
467.391	114.56
467.61	111.56
467.829	87.56
468.049	105.56
468.268	113.56
468.488	92.56
468.707	114.56
468.927	114.56
469.146	102.56
469.365	114.56
469.585	104.56
469.804	107.56
470.023	109.56
470.243	117.56
470.462	108.56
470.681	125.56
470.901	127.56
471.12	101.56
471.339	117.56
471.558	110.56
471.777	117.56
471.997	105.56
472.216	115.56
472.435	100.56
472.654	101.56
472.873	111.56
473.092	96.56
473.311	95.56
473.53	94.56
473.749	112.56
473.968	117.56
474.187	101.56
474.406	107.56
474.625	119.56
474.844	114.56
475.063	109.56
475.282	99.56
475.501	101.56
475.72	107.56
475.939	86.56
476.158	99.56
476.377	113.56
476.596	99.56
476.814	96.56
477.033	75.56
477.252	98.56
477.471	101.56
477.69	117.56
477.908	108.56
478.127	106.56
478.346	101.56
478.564	104.56
478.783	96.56
479.002	98.56
479.22	111.56
479.439	129.56
479.658	113.56
479.876	91.56
480.095	100.56
480.313	93.56
480.532	107.56
480.751	112.56
480.969	98.56
481.188	79.56
481.406	78.56
481.624	85.56
481.843	97.56
482.061	89.56
482.28	102.56
482.498	95.56
482.717	95.56
482.935	112.56
483.153	103.56
483.372	119.56
483.59	124.56
483.808	121.56
484.027	115.56
484.245	107.56
484.463	104.56
484.681	111.56
484.9	111.56
485.118	128.56
485.336	83.56
485.554	106.56
485.772	93.56
485.99	95.56
486.209	91.56
486.427	87.56
486.645	104.56
486.863	112.56
487.081	117.56
487.299	120.56
487.517	123.56
487.735	106.56
487.953	127.56
488.171	125.56
488.389	122.56
488.607	122.56
488.825	121.56
489.043	116.56
489.261	109.56
489.479	113.56
489.696	113.56
489.914	107.56
490.132	120.56
490.35	105.56
490.568	104.56
490.786	141.56
491.003	137.56
491.221	140.56
491.439	132.56
491.657	127.56
491.874	140.56
492.092	152.56
492.31	163.56
492.527	147.56
492.745	154.56
492.963	149.56
493.18	142.56
493.398	129.56
493.615	130.56
493.833	126.56
494.05	120.56
494.268	128.56
494.485	132.56
494.703	136.56
494.92	135.56
495.138	129.56
495.355	129.56
495.573	131.56
495.79	127.56
496.008	130.56
496.225	115.56
496.442	114.56
496.66	114.56
496.877	118.56
497.094	128.56
497.312	127.56
497.529	121.56
497.746	111.56
497.963	118.56
498.181	113.56
498.398	115.56
498.615	105.56
498.832	92.56
499.049	90.56
499.267	110.56
499.484	105.56
499.701	105.56
499.918	95.56
500.135	101.56
500.352	115.56
500.569	126.56
500.786	113.56
501.003	104.56
501.22	90.56
501.437	101.56
501.654	109.56
501.871	112.56
502.088	107.56
502.305	92.56
502.522	109.56
502.739	112.56
502.956	125.56
503.172	98.56
503.389	88.56
503.606	99.56
503.823	100.56
504.04	104.56
504.256	95.56
504.473	91.56
504.69	108.56
504.907	116.56
505.123	111.56
505.34	112.56
505.557	119.56
505.773	113.56
505.99	106.56
506.207	97.56
506.423	111.56
506.64	98.56
506.856	101.56
507.073	87.56
507.289	96.56
507.506	104.56
507.722	98.56
507.939	84.56
508.155	93.56
508.372	97.56
508.588	91.56
508.805	89.56
509.021	96.56
509.238	103.56
509.454	83.56
509.67	94.56
509.887	107.56
510.103	80.56
510.319	82.56
510.536	83.56
510.752	87.56
510.968	76.56
511.184	84.56
511.401	79.56
511.617	95.56
511.833	88.56
512.049	84.56
512.265	88.56
512.481	92.56
512.698	87.56
512.914	84.56
513.13	91.56
513.346	75.56
513.562	88.56
513.778	75.56
513.994	91.56
514.21	74.56
514.426	75.56
514.642	84.56
