Data from Zn(NO3)2Standard.Agarose3%.GreenCap.LampEnergy10E.O_HRD10591_15-06-15-942.txt Node
Date: Mon Jul 22 15:06:15 EDT 2019
User: cochatt
Spectrometer: HR+D1059
Trigger mode: 1
Integration Time (sec): 1.000000E-1
Scans to average: 1
Electric dark correction enabled: true
Nonlinearity correction enabled: false
Boxcar width: 0
XAxis mode: Wavelengths
Number of Pixels in Spectrum: 2048
>>>>>Begin Spectral Data<<<<<
223.165	-5.62
223.4	-5.62
223.635	-5.62
223.869	-12.62
224.104	-9.62
224.338	-22.62
224.573	3.38
224.808	-13.62
225.042	-13.62
225.277	-18.62
225.511	-1.62
225.746	7.38
225.98	-5.62
226.215	3.38
226.449	7.38
226.683	24.38
226.918	21.38
227.152	36.38
227.387	22.38
227.621	34.38
227.856	51.38
228.09	55.38
228.324	59.38
228.559	56.38
228.793	54.38
229.027	53.38
229.262	64.38
229.496	67.38
229.73	62.38
229.964	74.38
230.199	71.38
230.433	89.38
230.667	77.38
230.901	70.38
231.136	85.38
231.37	74.38
231.604	92.38
231.838	76.38
232.072	81.38
232.306	87.38
232.541	77.38
232.775	72.38
233.009	80.38
233.243	83.38
233.477	87.38
233.711	85.38
233.945	74.38
234.179	85.38
234.413	87.38
234.647	86.38
234.881	89.38
235.115	83.38
235.349	79.38
235.583	67.38
235.817	80.38
236.051	90.38
236.285	86.38
236.519	80.38
236.753	71.38
236.987	83.38
237.221	65.38
237.455	93.38
237.689	79.38
237.922	79.38
238.156	74.38
238.39	72.38
238.624	64.38
238.858	66.38
239.091	73.38
239.325	74.38
239.559	93.38
239.793	92.38
240.027	73.38
240.26	77.38
240.494	86.38
240.728	71.38
240.961	77.38
241.195	83.38
241.429	79.38
241.662	84.38
241.896	88.38
242.13	70.38
242.363	74.38
242.597	76.38
242.83	68.38
243.064	77.38
243.298	74.38
243.531	68.38
243.765	65.38
243.998	83.38
244.232	83.38
244.465	68.38
244.699	70.38
244.932	85.38
245.166	75.38
245.399	87.38
245.633	85.38
245.866	87.38
246.099	74.38
246.333	82.38
246.566	79.38
246.8	79.38
247.033	67.38
247.266	94.38
247.5	80.38
247.733	88.38
247.966	82.38
248.2	72.38
248.433	87.38
248.666	80.38
248.899	90.38
249.133	86.38
249.366	89.38
249.599	81.38
249.832	83.38
250.066	72.38
250.299	76.38
250.532	81.38
250.765	83.38
250.998	72.38
251.231	79.38
251.465	79.38
251.698	77.38
251.931	99.38
252.164	83.38
252.397	78.38
252.63	66.38
252.863	80.38
253.096	80.38
253.329	83.38
253.562	78.38
253.795	78.38
254.028	81.38
254.261	76.38
254.494	80.38
254.727	83.38
254.96	73.38
255.193	80.38
255.426	77.38
255.659	76.38
255.892	89.38
256.124	90.38
256.357	74.38
256.59	85.38
256.823	78.38
257.056	77.38
257.289	86.38
257.521	81.38
257.754	75.38
257.987	92.38
258.22	83.38
258.452	92.38
258.685	83.38
258.918	68.38
259.151	79.38
259.383	74.38
259.616	71.38
259.849	79.38
260.081	83.38
260.314	78.38
260.547	88.38
260.779	87.38
261.012	91.38
261.244	74.38
261.477	91.38
261.71	72.38
261.942	97.38
262.175	90.38
262.407	90.38
262.64	93.38
262.872	76.38
263.105	71.38
263.337	74.38
263.57	80.38
263.802	83.38
264.035	74.38
264.267	79.38
264.499	90.38
264.732	94.38
264.964	87.38
265.197	89.38
265.429	91.38
265.661	90.38
265.894	87.38
266.126	98.38
266.358	85.38
266.591	80.38
266.823	78.38
267.055	81.38
267.287	79.38
267.52	88.38
267.752	96.38
267.984	83.38
268.216	80.38
268.448	90.38
268.681	79.38
268.913	81.38
269.145	80.38
269.377	72.38
269.609	83.38
269.841	89.38
270.073	88.38
270.306	90.38
270.538	92.38
270.77	76.38
271.002	85.38
271.234	77.38
271.466	90.38
271.698	85.38
271.93	85.38
272.162	83.38
272.394	89.38
272.626	83.38
272.858	99.38
273.09	87.38
273.322	83.38
273.553	79.38
273.785	82.38
274.017	98.38
274.249	75.38
274.481	96.38
274.713	86.38
274.945	70.38
275.176	72.38
275.408	91.38
275.64	78.38
275.872	80.38
276.104	94.38
276.335	90.38
276.567	89.38
276.799	92.38
277.031	88.38
277.262	90.38
277.494	88.38
277.726	91.38
277.957	84.38
278.189	81.38
278.421	86.38
278.652	85.38
278.884	73.38
279.115	85.38
279.347	85.38
279.579	79.38
279.81	82.38
280.042	81.38
280.273	82.38
280.505	94.38
280.736	91.38
280.968	88.38
281.199	92.38
281.431	74.38
281.662	79.38
281.894	91.38
282.125	84.38
282.356	74.38
282.588	77.38
282.819	82.38
283.051	83.38
283.282	79.38
283.513	93.38
283.745	87.38
283.976	89.38
284.207	90.38
284.439	96.38
284.67	88.38
284.901	90.38
285.132	93.38
285.364	87.38
285.595	87.38
285.826	83.38
286.057	80.38
286.288	84.38
286.52	85.38
286.751	80.38
286.982	87.38
287.213	72.38
287.444	87.38
287.675	81.38
287.906	95.38
288.138	86.38
288.369	91.38
288.6	98.38
288.831	89.38
289.062	89.38
289.293	91.38
289.524	93.38
289.755	102.38
289.986	89.38
290.217	93.38
290.448	92.38
290.679	69.38
290.91	95.38
291.141	87.38
291.371	88.38
291.602	83.38
291.833	98.38
292.064	89.38
292.295	89.38
292.526	89.38
292.757	92.38
292.987	82.38
293.218	83.38
293.449	87.38
293.68	98.38
293.91	91.38
294.141	88.38
294.372	82.38
294.603	89.38
294.833	92.38
295.064	90.38
295.295	99.38
295.525	89.38
295.756	101.38
295.987	85.38
296.217	88.38
296.448	73.38
296.679	87.38
296.909	89.38
297.14	86.38
297.37	84.38
297.601	75.38
297.831	80.38
298.062	79.38
298.292	94.38
298.523	87.38
298.753	74.38
298.984	85.38
299.214	84.38
299.445	94.38
299.675	93.38
299.905	87.38
300.136	80.38
300.366	84.38
300.597	95.38
300.827	92.38
301.057	90.38
301.288	89.38
301.518	94.38
301.748	87.38
301.979	83.38
302.209	94.38
302.439	84.38
302.669	77.38
302.9	72.38
303.13	96.38
303.36	87.38
303.59	85.38
303.82	85.38
304.051	98.38
304.281	93.38
304.511	78.38
304.741	92.38
304.971	86.38
305.201	75.38
305.431	80.38
305.661	93.38
305.891	85.38
306.121	87.38
306.352	92.38
306.582	85.38
306.812	95.38
307.042	81.38
307.272	102.38
307.502	83.38
307.731	90.38
307.961	98.38
308.191	101.38
308.421	81.38
308.651	95.38
308.881	90.38
309.111	94.38
309.341	91.38
309.571	97.38
309.8	82.38
310.03	91.38
310.26	87.38
310.49	89.38
310.72	90.38
310.949	83.38
311.179	91.38
311.409	85.38
311.639	86.38
311.868	92.38
312.098	88.38
312.328	86.38
312.557	78.38
312.787	74.38
313.017	89.38
313.246	92.38
313.476	86.38
313.706	81.38
313.935	77.38
314.165	95.38
314.394	87.38
314.624	91.38
314.853	88.38
315.083	89.38
315.312	82.38
315.542	92.38
315.771	80.38
316.001	89.38
316.23	95.38
316.46	89.38
316.689	95.38
316.919	79.38
317.148	101.38
317.377	88.38
317.607	99.38
317.836	84.38
318.065	83.38
318.295	84.38
318.524	85.38
318.753	90.38
318.983	86.38
319.212	93.38
319.441	96.38
319.67	81.38
319.9	87.38
320.129	102.38
320.358	88.38
320.587	85.38
320.816	88.38
321.046	76.38
321.275	96.38
321.504	91.38
321.733	76.38
321.962	74.38
322.191	86.38
322.42	79.38
322.649	79.38
322.878	93.38
323.108	82.38
323.337	88.38
323.566	91.38
323.795	82.38
324.024	79.38
324.253	94.38
324.482	88.38
324.71	87.38
324.939	76.38
325.168	76.38
325.397	85.38
325.626	90.38
325.855	81.38
326.084	103.38
326.313	97.38
326.542	94.38
326.77	78.38
326.999	88.38
327.228	99.38
327.457	87.38
327.686	94.38
327.914	80.38
328.143	92.38
328.372	86.38
328.6	84.38
328.829	94.38
329.058	98.38
329.287	79.38
329.515	77.38
329.744	88.38
329.972	95.38
330.201	108.38
330.43	83.38
330.658	76.38
330.887	78.38
331.115	87.38
331.344	79.38
331.572	77.38
331.801	83.38
332.03	83.38
332.258	91.38
332.486	84.38
332.715	81.38
332.943	80.38
333.172	82.38
333.4	82.38
333.629	84.38
333.857	79.38
334.085	92.38
334.314	99.38
334.542	108.38
334.771	86.38
334.999	94.38
335.227	96.38
335.455	73.38
335.684	92.38
335.912	88.38
336.14	86.38
336.369	75.38
336.597	83.38
336.825	84.38
337.053	87.38
337.281	83.38
337.51	88.38
337.738	94.38
337.966	94.38
338.194	86.38
338.422	83.38
338.65	90.38
338.878	91.38
339.106	76.38
339.334	84.38
339.562	96.38
339.79	94.38
340.018	94.38
340.246	83.38
340.474	92.38
340.702	101.38
340.93	71.38
341.158	76.38
341.386	94.38
341.614	88.38
341.842	80.38
342.07	73.38
342.298	81.38
342.526	100.38
342.754	82.38
342.981	91.38
343.209	78.38
343.437	86.38
343.665	77.38
343.893	81.38
344.12	76.38
344.348	93.38
344.576	94.38
344.804	96.38
345.031	73.38
345.259	79.38
345.487	88.38
345.714	87.38
345.942	98.38
346.17	88.38
346.397	89.38
346.625	80.38
346.853	99.38
347.08	70.38
347.308	91.38
347.535	78.38
347.763	87.38
347.99	80.38
348.218	89.38
348.445	96.38
348.673	103.38
348.9	107.38
349.128	97.38
349.355	88.38
349.583	100.38
349.81	83.38
350.037	78.38
350.265	88.38
350.492	79.38
350.72	82.38
350.947	83.38
351.174	83.38
351.402	91.38
351.629	78.38
351.856	91.38
352.083	84.38
352.311	91.38
352.538	81.38
352.765	80.38
352.992	83.38
353.22	88.38
353.447	82.38
353.674	90.38
353.901	82.38
354.128	87.38
354.355	90.38
354.583	92.38
354.81	95.38
355.037	92.38
355.264	79.38
355.491	86.38
355.718	89.38
355.945	89.38
356.172	102.38
356.399	80.38
356.626	84.38
356.853	95.38
357.08	92.38
357.307	96.38
357.534	69.38
357.761	92.38
357.988	88.38
358.215	98.38
358.441	93.38
358.668	87.38
358.895	85.38
359.122	87.38
359.349	90.38
359.576	75.38
359.802	68.38
360.029	86.38
360.256	95.38
360.483	96.38
360.709	93.38
360.936	73.38
361.163	84.38
361.39	86.38
361.616	71.38
361.843	95.38
362.07	88.38
362.296	78.38
362.523	100.38
362.749	100.38
362.976	93.38
363.203	89.38
363.429	87.38
363.656	87.38
363.882	90.38
364.109	85.38
364.335	72.38
364.562	89.38
364.788	78.38
365.015	103.38
365.241	88.38
365.468	88.38
365.694	83.38
365.92	97.38
366.147	77.38
366.373	92.38
366.599	85.38
366.826	101.38
367.052	89.38
367.278	98.38
367.505	78.38
367.731	73.38
367.957	92.38
368.184	83.38
368.41	90.38
368.636	75.38
368.862	95.38
369.089	89.38
369.315	92.38
369.541	96.38
369.767	95.38
369.993	90.38
370.219	100.38
370.445	83.38
370.672	89.38
370.898	95.38
371.124	93.38
371.35	90.38
371.576	79.38
371.802	100.38
372.028	95.38
372.254	92.38
372.48	101.38
372.706	95.38
372.932	88.38
373.158	95.38
373.384	103.38
373.61	93.38
373.835	85.38
374.061	94.38
374.287	92.38
374.513	98.38
374.739	84.38
374.965	95.38
375.191	103.38
375.416	86.38
375.642	91.38
375.868	81.38
376.094	99.38
376.319	82.38
376.545	105.38
376.771	88.38
376.997	103.38
377.222	89.38
377.448	85.38
377.674	98.38
377.899	86.38
378.125	82.38
378.35	95.38
378.576	96.38
378.802	101.38
379.027	81.38
379.253	93.38
379.478	93.38
379.704	97.38
379.929	88.38
380.155	95.38
380.38	92.38
380.606	93.38
380.831	103.38
381.057	100.38
381.282	96.38
381.507	84.38
381.733	86.38
381.958	86.38
382.184	99.38
382.409	87.38
382.634	86.38
382.86	98.38
383.085	92.38
383.31	96.38
383.535	92.38
383.761	89.38
383.986	89.38
384.211	88.38
384.436	87.38
384.662	98.38
384.887	89.38
385.112	84.38
385.337	93.38
385.562	76.38
385.787	97.38
386.013	104.38
386.238	103.38
386.463	91.38
386.688	101.38
386.913	85.38
387.138	74.38
387.363	96.38
387.588	97.38
387.813	93.38
388.038	96.38
388.263	106.38
388.488	92.38
388.713	102.38
388.938	86.38
389.163	90.38
389.387	87.38
389.612	93.38
389.837	97.38
390.062	82.38
390.287	95.38
390.512	85.38
390.736	93.38
390.961	87.38
391.186	107.38
391.411	93.38
391.636	89.38
391.86	89.38
392.085	87.38
392.31	87.38
392.534	92.38
392.759	106.38
392.984	97.38
393.208	97.38
393.433	88.38
393.658	80.38
393.882	102.38
394.107	67.38
394.331	83.38
394.556	100.38
394.78	92.38
395.005	89.38
395.229	90.38
395.454	103.38
395.678	79.38
395.903	98.38
396.127	102.38
396.352	85.38
396.576	112.38
396.801	101.38
397.025	105.38
397.249	101.38
397.474	104.38
397.698	82.38
397.922	83.38
398.147	92.38
398.371	88.38
398.595	92.38
398.82	96.38
399.044	99.38
399.268	98.38
399.492	93.38
399.717	89.38
399.941	115.38
400.165	108.38
400.389	102.38
400.613	102.38
400.837	95.38
401.062	98.38
401.286	99.38
401.51	85.38
401.734	89.38
401.958	110.38
402.182	98.38
402.406	102.38
402.63	115.38
402.854	91.38
403.078	93.38
403.302	92.38
403.526	98.38
403.75	80.38
403.974	108.38
404.198	108.38
404.422	96.38
404.645	105.38
404.869	97.38
405.093	86.38
405.317	103.38
405.541	96.38
405.765	105.38
405.988	93.38
406.212	105.38
406.436	102.38
406.66	104.38
406.883	89.38
407.107	98.38
407.331	114.38
407.555	89.38
407.778	108.38
408.002	106.38
408.226	96.38
408.449	101.38
408.673	119.38
408.896	95.38
409.12	89.38
409.344	96.38
409.567	109.38
409.791	104.38
410.014	88.38
410.238	112.38
410.461	99.38
410.685	99.38
410.908	115.38
411.132	91.38
411.355	99.38
411.578	94.38
411.802	109.38
412.025	90.38
412.249	99.38
412.472	95.38
412.695	77.38
412.919	113.38
413.142	114.38
413.365	100.38
413.589	106.38
413.812	100.38
414.035	97.38
414.258	97.38
414.482	87.38
414.705	111.38
414.928	102.38
415.151	95.38
415.374	90.38
415.597	109.38
415.821	87.38
416.044	106.38
416.267	108.38
416.49	94.38
416.713	109.38
416.936	98.38
417.159	111.38
417.382	108.38
417.605	107.38
417.828	83.38
418.051	103.38
418.274	108.38
418.497	111.38
418.72	115.38
418.943	99.38
419.166	102.38
419.389	109.38
419.611	109.38
419.834	101.38
420.057	104.38
420.28	99.38
420.503	106.38
420.726	101.38
420.948	105.38
421.171	115.38
421.394	109.38
421.617	110.38
421.839	104.38
422.062	109.38
422.285	90.38
422.507	111.38
422.73	101.38
422.953	114.38
423.175	108.38
423.398	110.38
423.621	108.38
423.843	106.38
424.066	89.38
424.288	112.38
424.511	106.38
424.733	100.38
424.956	107.38
425.178	113.38
425.401	102.38
425.623	94.38
425.846	101.38
426.068	113.38
426.291	112.38
426.513	105.38
426.735	87.38
426.958	108.38
427.18	120.38
427.402	82.38
427.625	122.38
427.847	106.38
428.069	105.38
428.292	110.38
428.514	114.38
428.736	101.38
428.958	103.38
429.181	107.38
429.403	103.38
429.625	108.38
429.847	111.38
430.069	107.38
430.292	124.38
430.514	111.38
430.736	94.38
430.958	101.38
431.18	118.38
431.402	98.38
431.624	97.38
431.846	84.38
432.068	87.38
432.29	93.38
432.512	112.38
432.734	102.38
432.956	122.38
433.178	106.38
433.4	109.38
433.622	110.38
433.844	107.38
434.066	82.38
434.287	102.38
434.509	92.38
434.731	91.38
434.953	104.38
435.175	106.38
435.397	101.38
435.618	114.38
435.84	100.38
436.062	111.38
436.284	107.38
436.505	120.38
436.727	103.38
436.949	101.38
437.17	88.38
437.392	96.38
437.614	90.38
437.835	99.38
438.057	99.38
438.278	104.38
438.5	103.38
438.721	119.38
438.943	111.38
439.165	105.38
439.386	95.38
439.608	119.38
439.829	114.38
440.05	107.38
440.272	105.38
440.493	94.38
440.715	119.38
440.936	117.38
441.158	121.38
441.379	115.38
441.6	110.38
441.822	118.38
442.043	125.38
442.264	102.38
442.486	118.38
442.707	110.38
442.928	108.38
443.149	106.38
443.371	106.38
443.592	112.38
443.813	115.38
444.034	97.38
444.255	104.38
444.476	121.38
444.698	107.38
444.919	112.38
445.14	226.38
445.361	157.38
445.582	124.38
445.803	111.38
446.024	107.38
446.245	105.38
446.466	123.38
446.687	109.38
446.908	111.38
447.129	123.38
447.35	110.38
447.571	109.38
447.792	120.38
448.013	126.38
448.234	106.38
448.455	128.38
448.675	116.38
448.896	95.38
449.117	98.38
449.338	103.38
449.559	120.38
449.779	109.38
450	120.38
450.221	120.38
450.442	107.38
450.662	100.38
450.883	107.38
451.104	104.38
451.324	100.38
451.545	125.38
451.766	114.38
451.986	104.38
452.207	117.38
452.428	99.38
452.648	107.38
452.869	97.38
453.089	101.38
453.31	98.38
453.53	103.38
453.751	90.38
453.971	104.38
454.192	76.38
454.412	110.38
454.633	101.38
454.853	111.38
455.073	107.38
455.294	111.38
455.514	103.38
455.734	102.38
455.955	104.38
456.175	99.38
456.395	119.38
456.616	111.38
456.836	105.38
457.056	111.38
457.276	80.38
457.497	91.38
457.717	98.38
457.937	105.38
458.157	92.38
458.377	106.38
458.598	98.38
458.818	83.38
459.038	84.38
459.258	74.38
459.478	93.38
459.698	102.38
459.918	104.38
460.138	104.38
460.358	93.38
460.578	101.38
460.798	90.38
461.018	94.38
461.238	104.38
461.458	92.38
461.678	108.38
461.898	95.38
462.118	103.38
462.338	104.38
462.558	103.38
462.777	105.38
462.997	99.38
463.217	89.38
463.437	87.38
463.657	106.38
463.876	94.38
464.096	94.38
464.316	89.38
464.536	95.38
464.755	93.38
464.975	114.38
465.195	105.38
465.414	109.38
465.634	111.38
465.854	86.38
466.073	92.38
466.293	93.38
466.512	102.38
466.732	106.38
466.951	110.38
467.171	104.38
467.391	102.38
467.61	118.38
467.829	98.38
468.049	106.38
468.268	100.38
468.488	102.38
468.707	93.38
468.927	97.38
469.146	87.38
469.365	99.38
469.585	105.38
469.804	114.38
470.023	99.38
470.243	124.38
470.462	116.38
470.681	118.38
470.901	115.38
471.12	111.38
471.339	107.38
471.558	103.38
471.777	122.38
471.997	114.38
472.216	111.38
472.435	107.38
472.654	80.38
472.873	100.38
473.092	87.38
473.311	109.38
473.53	85.38
473.749	104.38
473.968	108.38
474.187	119.38
474.406	108.38
474.625	106.38
474.844	99.38
475.063	108.38
475.282	110.38
475.501	114.38
475.72	100.38
475.939	114.38
476.158	96.38
476.377	110.38
476.596	95.38
476.814	116.38
477.033	91.38
477.252	93.38
477.471	110.38
477.69	105.38
477.908	88.38
478.127	112.38
478.346	101.38
478.564	108.38
478.783	117.38
479.002	117.38
479.22	103.38
479.439	110.38
479.658	99.38
479.876	98.38
480.095	102.38
480.313	93.38
480.532	91.38
480.751	114.38
480.969	93.38
481.188	88.38
481.406	90.38
481.624	87.38
481.843	85.38
482.061	95.38
482.28	99.38
482.498	102.38
482.717	106.38
482.935	102.38
483.153	113.38
483.372	129.38
483.59	127.38
483.808	108.38
484.027	110.38
484.245	121.38
484.463	107.38
484.681	130.38
484.9	130.38
485.118	114.38
485.336	111.38
485.554	105.38
485.772	92.38
485.99	98.38
486.209	100.38
486.427	94.38
486.645	111.38
486.863	106.38
487.081	103.38
487.299	115.38
487.517	119.38
487.735	141.38
487.953	122.38
488.171	130.38
488.389	130.38
488.607	122.38
488.825	120.38
489.043	110.38
489.261	114.38
489.479	108.38
489.696	130.38
489.914	110.38
490.132	115.38
490.35	112.38
490.568	121.38
490.786	124.38
491.003	125.38
491.221	146.38
491.439	122.38
491.657	132.38
491.874	154.38
492.092	173.38
492.31	158.38
492.527	155.38
492.745	132.38
492.963	133.38
493.18	129.38
493.398	149.38
493.615	127.38
493.833	136.38
494.05	135.38
494.268	123.38
494.485	130.38
494.703	124.38
494.92	135.38
495.138	132.38
495.355	125.38
495.573	129.38
495.79	134.38
496.008	131.38
496.225	125.38
496.442	119.38
496.66	113.38
496.877	116.38
497.094	120.38
497.312	124.38
497.529	115.38
497.746	125.38
497.963	101.38
498.181	103.38
498.398	116.38
498.615	98.38
498.832	96.38
499.049	88.38
499.267	101.38
499.484	102.38
499.701	114.38
499.918	118.38
500.135	105.38
500.352	108.38
500.569	118.38
500.786	124.38
501.003	114.38
501.22	109.38
501.437	117.38
501.654	107.38
501.871	104.38
502.088	100.38
502.305	95.38
502.522	112.38
502.739	107.38
502.956	107.38
503.172	96.38
503.389	108.38
503.606	106.38
503.823	98.38
504.04	109.38
504.256	107.38
504.473	114.38
504.69	116.38
504.907	108.38
505.123	110.38
505.34	98.38
505.557	112.38
505.773	101.38
505.99	95.38
506.207	106.38
506.423	97.38
506.64	109.38
506.856	106.38
507.073	102.38
507.289	109.38
507.506	96.38
507.722	107.38
507.939	103.38
508.155	108.38
508.372	100.38
508.588	103.38
508.805	112.38
509.021	101.38
509.238	93.38
509.454	99.38
509.67	93.38
509.887	99.38
510.103	109.38
510.319	107.38
510.536	91.38
510.752	85.38
510.968	85.38
511.184	97.38
511.401	73.38
511.617	75.38
511.833	99.38
512.049	95.38
512.265	94.38
512.481	94.38
512.698	93.38
512.914	94.38
513.13	98.38
513.346	76.38
513.562	78.38
513.778	79.38
