Data from Zn(NO3)2Standard.Agarose3%.GreenCap.LampEnergy10E.O_HRD10591_15-08-00-947.txt Node
Date: Mon Jul 22 15:08:00 EDT 2019
User: cochatt
Spectrometer: HR+D1059
Trigger mode: 1
Integration Time (sec): 1.000000E-1
Scans to average: 1
Electric dark correction enabled: true
Nonlinearity correction enabled: false
Boxcar width: 0
XAxis mode: Wavelengths
Number of Pixels in Spectrum: 2048
>>>>>Begin Spectral Data<<<<<
223.165	-8.38
223.4	-8.38
223.635	-8.38
223.869	-19.38
224.104	-16.38
224.338	-15.38
224.573	-13.38
224.808	-11.38
225.042	-10.38
225.277	-0.38
225.511	1.62
225.746	1.62
225.98	4.62
226.215	11.62
226.449	25.62
226.683	25.62
226.918	15.62
227.152	8.62
227.387	26.62
227.621	38.62
227.856	38.62
228.09	41.62
228.324	54.62
228.559	59.62
228.793	54.62
229.027	66.62
229.262	69.62
229.496	67.62
229.73	64.62
229.964	71.62
230.199	66.62
230.433	81.62
230.667	75.62
230.901	83.62
231.136	76.62
231.37	87.62
231.604	86.62
231.838	78.62
232.072	82.62
232.306	95.62
232.541	96.62
232.775	89.62
233.009	72.62
233.243	82.62
233.477	82.62
233.711	77.62
233.945	98.62
234.179	74.62
234.413	78.62
234.647	64.62
234.881	73.62
235.115	75.62
235.349	66.62
235.583	84.62
235.817	67.62
236.051	71.62
236.285	78.62
236.519	70.62
236.753	73.62
236.987	78.62
237.221	74.62
237.455	66.62
237.689	79.62
237.922	78.62
238.156	74.62
238.39	71.62
238.624	74.62
238.858	83.62
239.091	87.62
239.325	53.62
239.559	68.62
239.793	79.62
240.027	74.62
240.26	75.62
240.494	72.62
240.728	67.62
240.961	67.62
241.195	80.62
241.429	83.62
241.662	79.62
241.896	61.62
242.13	79.62
242.363	89.62
242.597	81.62
242.83	65.62
243.064	78.62
243.298	81.62
243.531	70.62
243.765	61.62
243.998	70.62
244.232	79.62
244.465	66.62
244.699	74.62
244.932	73.62
245.166	80.62
245.399	80.62
245.633	72.62
245.866	71.62
246.099	74.62
246.333	70.62
246.566	86.62
246.8	77.62
247.033	75.62
247.266	71.62
247.5	80.62
247.733	72.62
247.966	85.62
248.2	78.62
248.433	90.62
248.666	75.62
248.899	78.62
249.133	68.62
249.366	90.62
249.599	72.62
249.832	77.62
250.066	87.62
250.299	70.62
250.532	81.62
250.765	84.62
250.998	82.62
251.231	73.62
251.465	85.62
251.698	87.62
251.931	78.62
252.164	86.62
252.397	72.62
252.63	69.62
252.863	70.62
253.096	61.62
253.329	83.62
253.562	82.62
253.795	72.62
254.028	80.62
254.261	66.62
254.494	85.62
254.727	81.62
254.96	89.62
255.193	86.62
255.426	78.62
255.659	68.62
255.892	70.62
256.124	89.62
256.357	80.62
256.59	77.62
256.823	83.62
257.056	53.62
257.289	71.62
257.521	81.62
257.754	90.62
257.987	68.62
258.22	78.62
258.452	90.62
258.685	68.62
258.918	86.62
259.151	84.62
259.383	71.62
259.616	80.62
259.849	83.62
260.081	79.62
260.314	75.62
260.547	66.62
260.779	73.62
261.012	90.62
261.244	74.62
261.477	91.62
261.71	71.62
261.942	68.62
262.175	70.62
262.407	67.62
262.64	67.62
262.872	90.62
263.105	71.62
263.337	96.62
263.57	85.62
263.802	68.62
264.035	72.62
264.267	78.62
264.499	73.62
264.732	88.62
264.964	89.62
265.197	84.62
265.429	87.62
265.661	77.62
265.894	66.62
266.126	82.62
266.358	95.62
266.591	79.62
266.823	82.62
267.055	74.62
267.287	80.62
267.52	77.62
267.752	90.62
267.984	73.62
268.216	66.62
268.448	73.62
268.681	83.62
268.913	69.62
269.145	65.62
269.377	61.62
269.609	77.62
269.841	86.62
270.073	74.62
270.306	77.62
270.538	81.62
270.77	80.62
271.002	78.62
271.234	70.62
271.466	87.62
271.698	90.62
271.93	83.62
272.162	75.62
272.394	68.62
272.626	94.62
272.858	78.62
273.09	81.62
273.322	82.62
273.553	73.62
273.785	78.62
274.017	81.62
274.249	84.62
274.481	77.62
274.713	89.62
274.945	81.62
275.176	73.62
275.408	85.62
275.64	86.62
275.872	82.62
276.104	88.62
276.335	93.62
276.567	79.62
276.799	80.62
277.031	83.62
277.262	82.62
277.494	76.62
277.726	88.62
277.957	82.62
278.189	93.62
278.421	85.62
278.652	79.62
278.884	75.62
279.115	81.62
279.347	82.62
279.579	86.62
279.81	81.62
280.042	73.62
280.273	83.62
280.505	83.62
280.736	81.62
280.968	86.62
281.199	98.62
281.431	80.62
281.662	77.62
281.894	81.62
282.125	75.62
282.356	80.62
282.588	81.62
282.819	74.62
283.051	94.62
283.282	89.62
283.513	75.62
283.745	90.62
283.976	78.62
284.207	80.62
284.439	76.62
284.67	75.62
284.901	89.62
285.132	91.62
285.364	79.62
285.595	83.62
285.826	93.62
286.057	75.62
286.288	78.62
286.52	62.62
286.751	78.62
286.982	78.62
287.213	75.62
287.444	85.62
287.675	73.62
287.906	78.62
288.138	77.62
288.369	83.62
288.6	88.62
288.831	86.62
289.062	82.62
289.293	89.62
289.524	89.62
289.755	70.62
289.986	91.62
290.217	79.62
290.448	78.62
290.679	74.62
290.91	99.62
291.141	73.62
291.371	82.62
291.602	69.62
291.833	87.62
292.064	75.62
292.295	84.62
292.526	89.62
292.757	80.62
292.987	80.62
293.218	90.62
293.449	89.62
293.68	88.62
293.91	87.62
294.141	89.62
294.372	82.62
294.603	80.62
294.833	90.62
295.064	76.62
295.295	73.62
295.525	80.62
295.756	81.62
295.987	83.62
296.217	85.62
296.448	81.62
296.679	79.62
296.909	78.62
297.14	72.62
297.37	92.62
297.601	73.62
297.831	87.62
298.062	82.62
298.292	79.62
298.523	74.62
298.753	91.62
298.984	82.62
299.214	83.62
299.445	82.62
299.675	85.62
299.905	81.62
300.136	89.62
300.366	80.62
300.597	95.62
300.827	83.62
301.057	83.62
301.288	78.62
301.518	87.62
301.748	80.62
301.979	88.62
302.209	94.62
302.439	86.62
302.669	96.62
302.9	81.62
303.13	77.62
303.36	72.62
303.59	65.62
303.82	88.62
304.051	78.62
304.281	81.62
304.511	83.62
304.741	90.62
304.971	72.62
305.201	67.62
305.431	76.62
305.661	83.62
305.891	67.62
306.121	80.62
306.352	93.62
306.582	85.62
306.812	79.62
307.042	86.62
307.272	73.62
307.502	95.62
307.731	89.62
307.961	89.62
308.191	84.62
308.421	79.62
308.651	89.62
308.881	91.62
309.111	90.62
309.341	81.62
309.571	84.62
309.8	81.62
310.03	93.62
310.26	82.62
310.49	82.62
310.72	94.62
310.949	72.62
311.179	74.62
311.409	83.62
311.639	85.62
311.868	85.62
312.098	80.62
312.328	91.62
312.557	82.62
312.787	74.62
313.017	77.62
313.246	86.62
313.476	83.62
313.706	79.62
313.935	78.62
314.165	79.62
314.394	91.62
314.624	87.62
314.853	94.62
315.083	89.62
315.312	87.62
315.542	74.62
315.771	82.62
316.001	88.62
316.23	72.62
316.46	85.62
316.689	76.62
316.919	88.62
317.148	79.62
317.377	85.62
317.607	80.62
317.836	77.62
318.065	86.62
318.295	86.62
318.524	82.62
318.753	93.62
318.983	91.62
319.212	82.62
319.441	80.62
319.67	76.62
319.9	83.62
320.129	90.62
320.358	79.62
320.587	82.62
320.816	95.62
321.046	81.62
321.275	83.62
321.504	75.62
321.733	79.62
321.962	77.62
322.191	97.62
322.42	94.62
322.649	81.62
322.878	70.62
323.108	83.62
323.337	98.62
323.566	85.62
323.795	63.62
324.024	91.62
324.253	86.62
324.482	85.62
324.71	71.62
324.939	80.62
325.168	66.62
325.397	78.62
325.626	89.62
325.855	86.62
326.084	76.62
326.313	84.62
326.542	88.62
326.77	73.62
326.999	84.62
327.228	91.62
327.457	81.62
327.686	78.62
327.914	101.62
328.143	81.62
328.372	101.62
328.6	91.62
328.829	81.62
329.058	79.62
329.287	87.62
329.515	77.62
329.744	77.62
329.972	91.62
330.201	78.62
330.43	85.62
330.658	86.62
330.887	79.62
331.115	82.62
331.344	88.62
331.572	81.62
331.801	67.62
332.03	83.62
332.258	68.62
332.486	73.62
332.715	67.62
332.943	97.62
333.172	94.62
333.4	65.62
333.629	82.62
333.857	76.62
334.085	80.62
334.314	80.62
334.542	68.62
334.771	78.62
334.999	98.62
335.227	83.62
335.455	90.62
335.684	99.62
335.912	81.62
336.14	69.62
336.369	88.62
336.597	88.62
336.825	94.62
337.053	85.62
337.281	75.62
337.51	83.62
337.738	85.62
337.966	87.62
338.194	89.62
338.422	77.62
338.65	82.62
338.878	82.62
339.106	74.62
339.334	86.62
339.562	86.62
339.79	84.62
340.018	95.62
340.246	89.62
340.474	77.62
340.702	70.62
340.93	65.62
341.158	73.62
341.386	79.62
341.614	75.62
341.842	70.62
342.07	77.62
342.298	78.62
342.526	77.62
342.754	80.62
342.981	100.62
343.209	86.62
343.437	87.62
343.665	62.62
343.893	82.62
344.12	83.62
344.348	66.62
344.576	80.62
344.804	74.62
345.031	77.62
345.259	83.62
345.487	87.62
345.714	74.62
345.942	69.62
346.17	72.62
346.397	81.62
346.625	72.62
346.853	56.62
347.08	67.62
347.308	84.62
347.535	74.62
347.763	80.62
347.99	81.62
348.218	82.62
348.445	82.62
348.673	94.62
348.9	90.62
349.128	91.62
349.355	86.62
349.583	67.62
349.81	86.62
350.037	71.62
350.265	82.62
350.492	80.62
350.72	90.62
350.947	76.62
351.174	80.62
351.402	72.62
351.629	88.62
351.856	81.62
352.083	69.62
352.311	75.62
352.538	89.62
352.765	91.62
352.992	84.62
353.22	79.62
353.447	74.62
353.674	84.62
353.901	80.62
354.128	76.62
354.355	85.62
354.583	76.62
354.81	89.62
355.037	71.62
355.264	89.62
355.491	68.62
355.718	78.62
355.945	71.62
356.172	85.62
356.399	77.62
356.626	81.62
356.853	83.62
357.08	71.62
357.307	86.62
357.534	78.62
357.761	81.62
357.988	83.62
358.215	75.62
358.441	65.62
358.668	72.62
358.895	83.62
359.122	82.62
359.349	89.62
359.576	81.62
359.802	82.62
360.029	79.62
360.256	77.62
360.483	74.62
360.709	88.62
360.936	92.62
361.163	79.62
361.39	75.62
361.616	78.62
361.843	72.62
362.07	84.62
362.296	78.62
362.523	76.62
362.749	83.62
362.976	80.62
363.203	81.62
363.429	77.62
363.656	90.62
363.882	79.62
364.109	83.62
364.335	77.62
364.562	77.62
364.788	83.62
365.015	91.62
365.241	68.62
365.468	79.62
365.694	78.62
365.92	86.62
366.147	77.62
366.373	83.62
366.599	75.62
366.826	81.62
367.052	97.62
367.278	93.62
367.505	91.62
367.731	83.62
367.957	65.62
368.184	83.62
368.41	87.62
368.636	87.62
368.862	82.62
369.089	89.62
369.315	77.62
369.541	95.62
369.767	68.62
369.993	86.62
370.219	85.62
370.445	85.62
370.672	76.62
370.898	81.62
371.124	81.62
371.35	79.62
371.576	80.62
371.802	86.62
372.028	74.62
372.254	82.62
372.48	86.62
372.706	89.62
372.932	75.62
373.158	93.62
373.384	83.62
373.61	90.62
373.835	87.62
374.061	85.62
374.287	79.62
374.513	82.62
374.739	73.62
374.965	88.62
375.191	84.62
375.416	81.62
375.642	85.62
375.868	95.62
376.094	70.62
376.319	83.62
376.545	85.62
376.771	73.62
376.997	84.62
377.222	88.62
377.448	84.62
377.674	73.62
377.899	80.62
378.125	91.62
378.35	82.62
378.576	89.62
378.802	90.62
379.027	81.62
379.253	92.62
379.478	98.62
379.704	96.62
379.929	94.62
380.155	77.62
380.38	88.62
380.606	81.62
380.831	93.62
381.057	90.62
381.282	86.62
381.507	85.62
381.733	99.62
381.958	86.62
382.184	86.62
382.409	86.62
382.634	84.62
382.86	86.62
383.085	79.62
383.31	74.62
383.535	83.62
383.761	89.62
383.986	77.62
384.211	97.62
384.436	102.62
384.662	86.62
384.887	86.62
385.112	67.62
385.337	81.62
385.562	89.62
385.787	96.62
386.013	95.62
386.238	80.62
386.463	75.62
386.688	83.62
386.913	91.62
387.138	81.62
387.363	78.62
387.588	82.62
387.813	86.62
388.038	81.62
388.263	82.62
388.488	81.62
388.713	93.62
388.938	78.62
389.163	84.62
389.387	80.62
389.612	76.62
389.837	79.62
390.062	83.62
390.287	77.62
390.512	81.62
390.736	93.62
390.961	94.62
391.186	109.62
391.411	97.62
391.636	74.62
391.86	92.62
392.085	87.62
392.31	85.62
392.534	103.62
392.759	75.62
392.984	99.62
393.208	89.62
393.433	101.62
393.658	106.62
393.882	84.62
394.107	95.62
394.331	91.62
394.556	88.62
394.78	90.62
395.005	86.62
395.229	89.62
395.454	91.62
395.678	91.62
395.903	95.62
396.127	98.62
396.352	78.62
396.576	95.62
396.801	79.62
397.025	87.62
397.249	85.62
397.474	84.62
397.698	101.62
397.922	88.62
398.147	89.62
398.371	85.62
398.595	105.62
398.82	98.62
399.044	81.62
399.268	86.62
399.492	104.62
399.717	99.62
399.941	93.62
400.165	103.62
400.389	98.62
400.613	89.62
400.837	81.62
401.062	95.62
401.286	86.62
401.51	96.62
401.734	103.62
401.958	83.62
402.182	97.62
402.406	83.62
402.63	92.62
402.854	98.62
403.078	83.62
403.302	97.62
403.526	89.62
403.75	99.62
403.974	97.62
404.198	107.62
404.422	94.62
404.645	88.62
404.869	102.62
405.093	79.62
405.317	83.62
405.541	88.62
405.765	99.62
405.988	103.62
406.212	97.62
406.436	83.62
406.66	84.62
406.883	97.62
407.107	110.62
407.331	99.62
407.555	89.62
407.778	94.62
408.002	84.62
408.226	102.62
408.449	89.62
408.673	72.62
408.896	92.62
409.12	88.62
409.344	94.62
409.567	105.62
409.791	100.62
410.014	98.62
410.238	90.62
410.461	96.62
410.685	86.62
410.908	107.62
411.132	106.62
411.355	98.62
411.578	94.62
411.802	91.62
412.025	104.62
412.249	102.62
412.472	100.62
412.695	98.62
412.919	103.62
413.142	109.62
413.365	85.62
413.589	101.62
413.812	98.62
414.035	95.62
414.258	94.62
414.482	94.62
414.705	101.62
414.928	89.62
415.151	101.62
415.374	94.62
415.597	99.62
415.821	87.62
416.044	100.62
416.267	90.62
416.49	102.62
416.713	95.62
416.936	102.62
417.159	102.62
417.382	95.62
417.605	97.62
417.828	101.62
418.051	95.62
418.274	105.62
418.497	106.62
418.72	90.62
418.943	106.62
419.166	109.62
419.389	120.62
419.611	100.62
419.834	87.62
420.057	113.62
420.28	97.62
420.503	93.62
420.726	103.62
420.948	95.62
421.171	102.62
421.394	101.62
421.617	97.62
421.839	106.62
422.062	101.62
422.285	100.62
422.507	104.62
422.73	101.62
422.953	84.62
423.175	95.62
423.398	111.62
423.621	95.62
423.843	93.62
424.066	81.62
424.288	102.62
424.511	107.62
424.733	101.62
424.956	109.62
425.178	105.62
425.401	104.62
425.623	93.62
425.846	92.62
426.068	101.62
426.291	98.62
426.513	101.62
426.735	109.62
426.958	109.62
427.18	105.62
427.402	103.62
427.625	104.62
427.847	108.62
428.069	111.62
428.292	109.62
428.514	111.62
428.736	98.62
428.958	109.62
429.181	109.62
429.403	89.62
429.625	103.62
429.847	107.62
430.069	99.62
430.292	101.62
430.514	92.62
430.736	93.62
430.958	88.62
431.18	100.62
431.402	97.62
431.624	110.62
431.846	93.62
432.068	86.62
432.29	81.62
432.512	90.62
432.734	98.62
432.956	130.62
433.178	115.62
433.4	105.62
433.622	113.62
433.844	105.62
434.066	104.62
434.287	81.62
434.509	95.62
434.731	78.62
434.953	94.62
435.175	91.62
435.397	91.62
435.618	90.62
435.84	91.62
436.062	102.62
436.284	101.62
436.505	103.62
436.727	96.62
436.949	102.62
437.17	91.62
437.392	99.62
437.614	84.62
437.835	78.62
438.057	83.62
438.278	90.62
438.5	95.62
438.721	125.62
438.943	108.62
439.165	108.62
439.386	109.62
439.608	118.62
439.829	111.62
440.05	101.62
440.272	109.62
440.493	106.62
440.715	105.62
440.936	105.62
441.158	109.62
441.379	114.62
441.6	102.62
441.822	119.62
442.043	107.62
442.264	92.62
442.486	123.62
442.707	102.62
442.928	113.62
443.149	106.62
443.371	105.62
443.592	98.62
443.813	95.62
444.034	116.62
444.255	119.62
444.476	108.62
444.698	106.62
444.919	98.62
445.14	212.62
445.361	175.62
445.582	126.62
445.803	109.62
446.024	108.62
446.245	119.62
446.466	115.62
446.687	109.62
446.908	109.62
447.129	121.62
447.35	111.62
447.571	99.62
447.792	117.62
448.013	99.62
448.234	118.62
448.455	113.62
448.675	96.62
448.896	86.62
449.117	100.62
449.338	105.62
449.559	108.62
449.779	95.62
450	114.62
450.221	102.62
450.442	111.62
450.662	93.62
450.883	104.62
451.104	101.62
451.324	104.62
451.545	94.62
451.766	98.62
451.986	103.62
452.207	99.62
452.428	91.62
452.648	109.62
452.869	99.62
453.089	104.62
453.31	91.62
453.53	88.62
453.751	82.62
453.971	101.62
454.192	91.62
454.412	113.62
454.633	117.62
454.853	113.62
455.073	89.62
455.294	106.62
455.514	106.62
455.734	89.62
455.955	94.62
456.175	84.62
456.395	86.62
456.616	88.62
456.836	96.62
457.056	102.62
457.276	81.62
457.497	103.62
457.717	96.62
457.937	94.62
458.157	92.62
458.377	98.62
458.598	87.62
458.818	108.62
459.038	74.62
459.258	86.62
459.478	71.62
459.698	84.62
459.918	98.62
460.138	98.62
460.358	98.62
460.578	102.62
460.798	90.62
461.018	98.62
461.238	90.62
461.458	98.62
461.678	112.62
461.898	109.62
462.118	89.62
462.338	94.62
462.558	110.62
462.777	82.62
462.997	99.62
463.217	81.62
463.437	91.62
463.657	92.62
463.876	101.62
464.096	96.62
464.316	96.62
464.536	93.62
464.755	97.62
464.975	111.62
465.195	103.62
465.414	93.62
465.634	91.62
465.854	112.62
466.073	92.62
466.293	88.62
466.512	93.62
466.732	93.62
466.951	104.62
467.171	103.62
467.391	107.62
467.61	99.62
467.829	101.62
468.049	95.62
468.268	98.62
468.488	111.62
468.707	110.62
468.927	104.62
469.146	105.62
469.365	119.62
469.585	113.62
469.804	126.62
470.023	113.62
470.243	104.62
470.462	109.62
470.681	109.62
470.901	103.62
471.12	113.62
471.339	109.62
471.558	115.62
471.777	110.62
471.997	114.62
472.216	114.62
472.435	104.62
472.654	83.62
472.873	82.62
473.092	80.62
473.311	89.62
473.53	105.62
473.749	110.62
473.968	109.62
474.187	89.62
474.406	100.62
474.625	110.62
474.844	102.62
475.063	102.62
475.282	94.62
475.501	91.62
475.72	89.62
475.939	87.62
476.158	102.62
476.377	113.62
476.596	82.62
476.814	79.62
477.033	98.62
477.252	82.62
477.471	100.62
477.69	112.62
477.908	104.62
478.127	106.62
478.346	134.62
478.564	100.62
478.783	102.62
479.002	113.62
479.22	105.62
479.439	119.62
479.658	106.62
479.876	106.62
480.095	89.62
480.313	99.62
480.532	98.62
480.751	76.62
480.969	101.62
481.188	90.62
481.406	82.62
481.624	89.62
481.843	91.62
482.061	81.62
482.28	92.62
482.498	89.62
482.717	95.62
482.935	115.62
483.153	119.62
483.372	97.62
483.59	113.62
483.808	104.62
484.027	109.62
484.245	117.62
484.463	123.62
484.681	113.62
484.9	114.62
485.118	95.62
485.336	91.62
485.554	90.62
485.772	90.62
485.99	85.62
486.209	90.62
486.427	90.62
486.645	96.62
486.863	106.62
487.081	101.62
487.299	104.62
487.517	98.62
487.735	112.62
487.953	119.62
488.171	131.62
488.389	131.62
488.607	102.62
488.825	115.62
489.043	115.62
489.261	115.62
489.479	110.62
489.696	105.62
489.914	100.62
490.132	116.62
490.35	122.62
490.568	131.62
490.786	133.62
491.003	127.62
491.221	131.62
491.439	125.62
491.657	134.62
491.874	150.62
492.092	139.62
492.31	153.62
492.527	157.62
492.745	123.62
492.963	132.62
493.18	123.62
493.398	139.62
493.615	136.62
493.833	122.62
494.05	115.62
494.268	128.62
494.485	129.62
494.703	118.62
494.92	128.62
495.138	116.62
495.355	118.62
495.573	119.62
495.79	122.62
496.008	109.62
496.225	115.62
496.442	129.62
496.66	122.62
496.877	113.62
497.094	123.62
497.312	117.62
497.529	126.62
497.746	97.62
497.963	104.62
498.181	90.62
498.398	98.62
498.615	100.62
498.832	90.62
499.049	110.62
499.267	111.62
499.484	106.62
499.701	116.62
499.918	110.62
500.135	112.62
500.352	103.62
500.569	104.62
500.786	111.62
501.003	112.62
501.22	115.62
501.437	107.62
501.654	102.62
501.871	102.62
502.088	98.62
502.305	101.62
502.522	102.62
502.739	103.62
502.956	117.62
503.172	102.62
503.389	89.62
503.606	88.62
503.823	99.62
504.04	96.62
504.256	119.62
504.473	86.62
504.69	107.62
504.907	99.62
505.123	100.62
505.34	102.62
505.557	98.62
505.773	106.62
505.99	94.62
506.207	99.62
506.423	89.62
506.64	98.62
506.856	98.62
507.073	102.62
507.289	90.62
507.506	100.62
507.722	100.62
507.939	111.62
508.155	101.62
508.372	90.62
508.588	99.62
508.805	101.62
509.021	94.62
509.238	99.62
509.454	82.62
509.67	84.62
509.887	85.62
510.103	94.62
510.319	82.62
510.536	89.62
510.752	85.62
510.968	70.62
511.184	80.62
511.401	81.62
511.617	83.62
511.833	90.62
512.049	87.62
512.265	89.62
512.481	93.62
512.698	86.62
512.914	90.62
513.13	90.62
513.346	92.62
513.562	84.62
513.778	72.62
513.994	88.62
514.21	76.62
514.426	80.62
514.642	79.62
514.858	94.62
515.074	87.62
515.29	94.62
515.506	77.62
