Data from Zn(NO3)2Standard.Agarose3%.GreenCap.LampEnergy10E.O_HRD10591_15-09-01-951.txt Node
Date: Mon Jul 22 15:09:01 EDT 2019
User: cochatt
Spectrometer: HR+D1059
Trigger mode: 1
Integration Time (sec): 1.000000E-1
Scans to average: 1
Electric dark correction enabled: true
Nonlinearity correction enabled: false
Boxcar width: 0
XAxis mode: Wavelengths
Number of Pixels in Spectrum: 2048
>>>>>Begin Spectral Data<<<<<
223.165	-14.19
223.4	-14.19
223.635	-14.19
223.869	-1.19
224.104	-28.19
224.338	-14.19
224.573	-20.19
224.808	-13.19
225.042	-8.19
225.277	-10.19
225.511	-20.19
225.746	11.81
225.98	-2.19
226.215	17.81
226.449	14.81
226.683	25.81
226.918	34.81
227.152	26.81
227.387	48.81
227.621	43.81
227.856	36.81
228.09	53.81
228.324	51.81
228.559	56.81
228.793	67.81
229.027	58.81
229.262	64.81
229.496	76.81
229.73	68.81
229.964	80.81
230.199	80.81
230.433	75.81
230.667	78.81
230.901	75.81
231.136	82.81
231.37	75.81
231.604	90.81
231.838	61.81
232.072	65.81
232.306	77.81
232.541	75.81
232.775	77.81
233.009	74.81
233.243	76.81
233.477	81.81
233.711	83.81
233.945	81.81
234.179	81.81
234.413	77.81
234.647	91.81
234.881	89.81
235.115	83.81
235.349	76.81
235.583	76.81
235.817	82.81
236.051	80.81
236.285	83.81
236.519	87.81
236.753	91.81
236.987	75.81
237.221	83.81
237.455	68.81
237.689	92.81
237.922	75.81
238.156	90.81
238.39	73.81
238.624	58.81
238.858	73.81
239.091	80.81
239.325	94.81
239.559	78.81
239.793	81.81
240.027	72.81
240.26	71.81
240.494	79.81
240.728	77.81
240.961	81.81
241.195	54.81
241.429	67.81
241.662	79.81
241.896	74.81
242.13	75.81
242.363	79.81
242.597	78.81
242.83	56.81
243.064	64.81
243.298	67.81
243.531	70.81
243.765	74.81
243.998	78.81
244.232	78.81
244.465	67.81
244.699	70.81
244.932	101.81
245.166	72.81
245.399	73.81
245.633	72.81
245.866	78.81
246.099	77.81
246.333	68.81
246.566	73.81
246.8	73.81
247.033	78.81
247.266	77.81
247.5	71.81
247.733	77.81
247.966	86.81
248.2	74.81
248.433	96.81
248.666	84.81
248.899	91.81
249.133	87.81
249.366	92.81
249.599	73.81
249.832	78.81
250.066	91.81
250.299	73.81
250.532	93.81
250.765	66.81
250.998	88.81
251.231	77.81
251.465	80.81
251.698	81.81
251.931	70.81
252.164	77.81
252.397	77.81
252.63	92.81
252.863	92.81
253.096	74.81
253.329	88.81
253.562	64.81
253.795	69.81
254.028	82.81
254.261	86.81
254.494	87.81
254.727	80.81
254.96	65.81
255.193	83.81
255.426	89.81
255.659	83.81
255.892	92.81
256.124	83.81
256.357	83.81
256.59	85.81
256.823	56.81
257.056	90.81
257.289	76.81
257.521	72.81
257.754	77.81
257.987	68.81
258.22	68.81
258.452	76.81
258.685	89.81
258.918	82.81
259.151	82.81
259.383	92.81
259.616	76.81
259.849	87.81
260.081	84.81
260.314	81.81
260.547	74.81
260.779	77.81
261.012	88.81
261.244	98.81
261.477	100.81
261.71	74.81
261.942	82.81
262.175	76.81
262.407	72.81
262.64	75.81
262.872	84.81
263.105	78.81
263.337	83.81
263.57	92.81
263.802	82.81
264.035	75.81
264.267	70.81
264.499	72.81
264.732	81.81
264.964	84.81
265.197	81.81
265.429	77.81
265.661	82.81
265.894	77.81
266.126	78.81
266.358	68.81
266.591	84.81
266.823	87.81
267.055	80.81
267.287	80.81
267.52	73.81
267.752	77.81
267.984	70.81
268.216	84.81
268.448	88.81
268.681	86.81
268.913	78.81
269.145	79.81
269.377	84.81
269.609	83.81
269.841	82.81
270.073	83.81
270.306	84.81
270.538	92.81
270.77	70.81
271.002	74.81
271.234	75.81
271.466	90.81
271.698	71.81
271.93	78.81
272.162	84.81
272.394	91.81
272.626	73.81
272.858	78.81
273.09	82.81
273.322	71.81
273.553	78.81
273.785	78.81
274.017	82.81
274.249	82.81
274.481	83.81
274.713	71.81
274.945	63.81
275.176	81.81
275.408	80.81
275.64	81.81
275.872	92.81
276.104	79.81
276.335	66.81
276.567	74.81
276.799	71.81
277.031	80.81
277.262	83.81
277.494	87.81
277.726	77.81
277.957	80.81
278.189	90.81
278.421	87.81
278.652	86.81
278.884	68.81
279.115	73.81
279.347	74.81
279.579	85.81
279.81	78.81
280.042	76.81
280.273	80.81
280.505	83.81
280.736	74.81
280.968	83.81
281.199	86.81
281.431	91.81
281.662	87.81
281.894	95.81
282.125	87.81
282.356	88.81
282.588	84.81
282.819	74.81
283.051	79.81
283.282	79.81
283.513	90.81
283.745	77.81
283.976	91.81
284.207	96.81
284.439	78.81
284.67	94.81
284.901	84.81
285.132	91.81
285.364	93.81
285.595	91.81
285.826	101.81
286.057	92.81
286.288	87.81
286.52	81.81
286.751	82.81
286.982	84.81
287.213	68.81
287.444	90.81
287.675	101.81
287.906	92.81
288.138	86.81
288.369	90.81
288.6	90.81
288.831	84.81
289.062	84.81
289.293	79.81
289.524	78.81
289.755	90.81
289.986	78.81
290.217	88.81
290.448	78.81
290.679	89.81
290.91	100.81
291.141	81.81
291.371	95.81
291.602	83.81
291.833	86.81
292.064	89.81
292.295	88.81
292.526	82.81
292.757	75.81
292.987	73.81
293.218	83.81
293.449	84.81
293.68	93.81
293.91	92.81
294.141	90.81
294.372	91.81
294.603	90.81
294.833	79.81
295.064	76.81
295.295	91.81
295.525	89.81
295.756	82.81
295.987	72.81
296.217	85.81
296.448	72.81
296.679	98.81
296.909	90.81
297.14	88.81
297.37	90.81
297.601	91.81
297.831	84.81
298.062	88.81
298.292	84.81
298.523	87.81
298.753	82.81
298.984	87.81
299.214	84.81
299.445	86.81
299.675	78.81
299.905	80.81
300.136	85.81
300.366	80.81
300.597	86.81
300.827	78.81
301.057	81.81
301.288	69.81
301.518	74.81
301.748	87.81
301.979	94.81
302.209	87.81
302.439	87.81
302.669	70.81
302.9	74.81
303.13	85.81
303.36	80.81
303.59	80.81
303.82	93.81
304.051	88.81
304.281	85.81
304.511	85.81
304.741	75.81
304.971	86.81
305.201	106.81
305.431	93.81
305.661	82.81
305.891	79.81
306.121	84.81
306.352	74.81
306.582	94.81
306.812	90.81
307.042	78.81
307.272	75.81
307.502	97.81
307.731	90.81
307.961	100.81
308.191	94.81
308.421	85.81
308.651	80.81
308.881	73.81
309.111	73.81
309.341	96.81
309.571	77.81
309.8	86.81
310.03	88.81
310.26	88.81
310.49	81.81
310.72	75.81
310.949	79.81
311.179	95.81
311.409	85.81
311.639	83.81
311.868	87.81
312.098	73.81
312.328	96.81
312.557	90.81
312.787	94.81
313.017	91.81
313.246	79.81
313.476	80.81
313.706	91.81
313.935	82.81
314.165	86.81
314.394	85.81
314.624	86.81
314.853	73.81
315.083	88.81
315.312	74.81
315.542	89.81
315.771	81.81
316.001	87.81
316.23	84.81
316.46	87.81
316.689	80.81
316.919	72.81
317.148	86.81
317.377	90.81
317.607	98.81
317.836	85.81
318.065	78.81
318.295	91.81
318.524	93.81
318.753	75.81
318.983	76.81
319.212	92.81
319.441	93.81
319.67	76.81
319.9	83.81
320.129	87.81
320.358	75.81
320.587	85.81
320.816	69.81
321.046	76.81
321.275	86.81
321.504	82.81
321.733	70.81
321.962	91.81
322.191	77.81
322.42	92.81
322.649	87.81
322.878	81.81
323.108	106.81
323.337	88.81
323.566	76.81
323.795	83.81
324.024	83.81
324.253	91.81
324.482	83.81
324.71	81.81
324.939	75.81
325.168	90.81
325.397	74.81
325.626	82.81
325.855	88.81
326.084	80.81
326.313	85.81
326.542	82.81
326.77	90.81
326.999	90.81
327.228	84.81
327.457	77.81
327.686	85.81
327.914	81.81
328.143	82.81
328.372	91.81
328.6	81.81
328.829	87.81
329.058	78.81
329.287	90.81
329.515	79.81
329.744	79.81
329.972	86.81
330.201	91.81
330.43	91.81
330.658	89.81
330.887	78.81
331.115	88.81
331.344	87.81
331.572	89.81
331.801	76.81
332.03	85.81
332.258	83.81
332.486	96.81
332.715	78.81
332.943	96.81
333.172	87.81
333.4	86.81
333.629	87.81
333.857	85.81
334.085	92.81
334.314	100.81
334.542	73.81
334.771	82.81
334.999	83.81
335.227	79.81
335.455	96.81
335.684	84.81
335.912	76.81
336.14	90.81
336.369	76.81
336.597	72.81
336.825	91.81
337.053	89.81
337.281	97.81
337.51	91.81
337.738	92.81
337.966	81.81
338.194	107.81
338.422	87.81
338.65	86.81
338.878	82.81
339.106	78.81
339.334	86.81
339.562	82.81
339.79	79.81
340.018	89.81
340.246	93.81
340.474	86.81
340.702	76.81
340.93	83.81
341.158	87.81
341.386	77.81
341.614	80.81
341.842	68.81
342.07	81.81
342.298	78.81
342.526	73.81
342.754	81.81
342.981	84.81
343.209	88.81
343.437	86.81
343.665	86.81
343.893	78.81
344.12	87.81
344.348	89.81
344.576	100.81
344.804	88.81
345.031	75.81
345.259	89.81
345.487	68.81
345.714	75.81
345.942	68.81
346.17	94.81
346.397	84.81
346.625	88.81
346.853	75.81
347.08	65.81
347.308	78.81
347.535	82.81
347.763	75.81
347.99	97.81
348.218	70.81
348.445	81.81
348.673	92.81
348.9	83.81
349.128	81.81
349.355	93.81
349.583	70.81
349.81	78.81
350.037	81.81
350.265	98.81
350.492	82.81
350.72	85.81
350.947	83.81
351.174	87.81
351.402	78.81
351.629	88.81
351.856	92.81
352.083	89.81
352.311	99.81
352.538	74.81
352.765	86.81
352.992	87.81
353.22	77.81
353.447	83.81
353.674	97.81
353.901	73.81
354.128	88.81
354.355	76.81
354.583	83.81
354.81	79.81
355.037	77.81
355.264	94.81
355.491	78.81
355.718	90.81
355.945	78.81
356.172	86.81
356.399	96.81
356.626	90.81
356.853	91.81
357.08	76.81
357.307	83.81
357.534	81.81
357.761	87.81
357.988	74.81
358.215	70.81
358.441	80.81
358.668	86.81
358.895	80.81
359.122	86.81
359.349	92.81
359.576	75.81
359.802	70.81
360.029	78.81
360.256	86.81
360.483	83.81
360.709	80.81
360.936	80.81
361.163	96.81
361.39	68.81
361.616	71.81
361.843	88.81
362.07	74.81
362.296	73.81
362.523	82.81
362.749	80.81
362.976	86.81
363.203	89.81
363.429	84.81
363.656	88.81
363.882	92.81
364.109	70.81
364.335	76.81
364.562	103.81
364.788	76.81
365.015	87.81
365.241	78.81
365.468	84.81
365.694	72.81
365.92	75.81
366.147	81.81
366.373	65.81
366.599	88.81
366.826	85.81
367.052	80.81
367.278	90.81
367.505	74.81
367.731	88.81
367.957	91.81
368.184	78.81
368.41	93.81
368.636	80.81
368.862	94.81
369.089	78.81
369.315	68.81
369.541	84.81
369.767	95.81
369.993	79.81
370.219	92.81
370.445	85.81
370.672	90.81
370.898	77.81
371.124	79.81
371.35	95.81
371.576	94.81
371.802	87.81
372.028	84.81
372.254	75.81
372.48	77.81
372.706	84.81
372.932	84.81
373.158	83.81
373.384	88.81
373.61	73.81
373.835	82.81
374.061	92.81
374.287	100.81
374.513	83.81
374.739	89.81
374.965	87.81
375.191	85.81
375.416	97.81
375.642	98.81
375.868	86.81
376.094	88.81
376.319	84.81
376.545	87.81
376.771	90.81
376.997	92.81
377.222	87.81
377.448	97.81
377.674	84.81
377.899	92.81
378.125	90.81
378.35	77.81
378.576	93.81
378.802	86.81
379.027	98.81
379.253	84.81
379.478	95.81
379.704	78.81
379.929	85.81
380.155	77.81
380.38	83.81
380.606	95.81
380.831	105.81
381.057	84.81
381.282	94.81
381.507	79.81
381.733	80.81
381.958	85.81
382.184	88.81
382.409	86.81
382.634	93.81
382.86	89.81
383.085	102.81
383.31	88.81
383.535	85.81
383.761	94.81
383.986	86.81
384.211	102.81
384.436	85.81
384.662	92.81
384.887	102.81
385.112	84.81
385.337	91.81
385.562	88.81
385.787	88.81
386.013	100.81
386.238	82.81
386.463	95.81
386.688	88.81
386.913	86.81
387.138	92.81
387.363	102.81
387.588	86.81
387.813	86.81
388.038	77.81
388.263	96.81
388.488	88.81
388.713	84.81
388.938	90.81
389.163	87.81
389.387	83.81
389.612	84.81
389.837	76.81
390.062	90.81
390.287	96.81
390.512	98.81
390.736	78.81
390.961	102.81
391.186	90.81
391.411	86.81
391.636	91.81
391.86	88.81
392.085	87.81
392.31	82.81
392.534	84.81
392.759	91.81
392.984	101.81
393.208	92.81
393.433	73.81
393.658	98.81
393.882	92.81
394.107	96.81
394.331	108.81
394.556	85.81
394.78	100.81
395.005	92.81
395.229	91.81
395.454	103.81
395.678	78.81
395.903	101.81
396.127	80.81
396.352	79.81
396.576	82.81
396.801	85.81
397.025	87.81
397.249	112.81
397.474	99.81
397.698	91.81
397.922	101.81
398.147	89.81
398.371	98.81
398.595	96.81
398.82	99.81
399.044	88.81
399.268	98.81
399.492	100.81
399.717	87.81
399.941	106.81
400.165	90.81
400.389	74.81
400.613	104.81
400.837	88.81
401.062	93.81
401.286	100.81
401.51	84.81
401.734	87.81
401.958	97.81
402.182	88.81
402.406	79.81
402.63	90.81
402.854	75.81
403.078	88.81
403.302	98.81
403.526	106.81
403.75	98.81
403.974	92.81
404.198	100.81
404.422	86.81
404.645	107.81
404.869	94.81
405.093	89.81
405.317	92.81
405.541	91.81
405.765	88.81
405.988	83.81
406.212	97.81
406.436	96.81
406.66	93.81
406.883	98.81
407.107	99.81
407.331	99.81
407.555	107.81
407.778	86.81
408.002	101.81
408.226	94.81
408.449	105.81
408.673	99.81
408.896	102.81
409.12	100.81
409.344	93.81
409.567	96.81
409.791	102.81
410.014	98.81
410.238	97.81
410.461	97.81
410.685	103.81
410.908	112.81
411.132	107.81
411.355	103.81
411.578	90.81
411.802	99.81
412.025	88.81
412.249	104.81
412.472	84.81
412.695	83.81
412.919	93.81
413.142	105.81
413.365	99.81
413.589	101.81
413.812	94.81
414.035	104.81
414.258	94.81
414.482	109.81
414.705	104.81
414.928	97.81
415.151	98.81
415.374	119.81
415.597	105.81
415.821	88.81
416.044	87.81
416.267	113.81
416.49	98.81
416.713	87.81
416.936	95.81
417.159	108.81
417.382	112.81
417.605	112.81
417.828	91.81
418.051	99.81
418.274	103.81
418.497	108.81
418.72	106.81
418.943	105.81
419.166	120.81
419.389	96.81
419.611	108.81
419.834	119.81
420.057	102.81
420.28	105.81
420.503	104.81
420.726	106.81
420.948	102.81
421.171	105.81
421.394	95.81
421.617	99.81
421.839	109.81
422.062	123.81
422.285	114.81
422.507	102.81
422.73	114.81
422.953	104.81
423.175	91.81
423.398	91.81
423.621	99.81
423.843	97.81
424.066	99.81
424.288	108.81
424.511	110.81
424.733	113.81
424.956	114.81
425.178	107.81
425.401	112.81
425.623	84.81
425.846	84.81
426.068	105.81
426.291	108.81
426.513	102.81
426.735	96.81
426.958	108.81
427.18	106.81
427.402	107.81
427.625	115.81
427.847	113.81
428.069	118.81
428.292	117.81
428.514	99.81
428.736	103.81
428.958	107.81
429.181	106.81
429.403	99.81
429.625	84.81
429.847	102.81
430.069	112.81
430.292	96.81
430.514	107.81
430.736	118.81
430.958	89.81
431.18	100.81
431.402	104.81
431.624	104.81
431.846	105.81
432.068	90.81
432.29	98.81
432.512	82.81
432.734	104.81
432.956	103.81
433.178	109.81
433.4	111.81
433.622	122.81
433.844	105.81
434.066	98.81
434.287	91.81
434.509	83.81
434.731	90.81
434.953	84.81
435.175	91.81
435.397	106.81
435.618	116.81
435.84	98.81
436.062	105.81
436.284	90.81
436.505	106.81
436.727	112.81
436.949	101.81
437.17	110.81
437.392	95.81
437.614	96.81
437.835	99.81
438.057	92.81
438.278	97.81
438.5	109.81
438.721	118.81
438.943	120.81
439.165	108.81
439.386	105.81
439.608	95.81
439.829	105.81
440.05	106.81
440.272	119.81
440.493	114.81
440.715	103.81
440.936	111.81
441.158	96.81
441.379	116.81
441.6	110.81
441.822	93.81
442.043	103.81
442.264	98.81
442.486	110.81
442.707	114.81
442.928	112.81
443.149	99.81
443.371	103.81
443.592	104.81
443.813	103.81
444.034	118.81
444.255	111.81
444.476	100.81
444.698	105.81
444.919	104.81
445.14	241.81
445.361	161.81
445.582	123.81
445.803	106.81
446.024	112.81
446.245	108.81
446.466	104.81
446.687	112.81
446.908	127.81
447.129	111.81
447.35	109.81
447.571	125.81
447.792	104.81
448.013	114.81
448.234	103.81
448.455	97.81
448.675	108.81
448.896	118.81
449.117	93.81
449.338	111.81
449.559	102.81
449.779	118.81
450	108.81
450.221	100.81
450.442	109.81
450.662	112.81
450.883	112.81
451.104	108.81
451.324	91.81
451.545	96.81
451.766	115.81
451.986	96.81
452.207	104.81
452.428	100.81
452.648	105.81
452.869	106.81
453.089	104.81
453.31	109.81
453.53	108.81
453.751	91.81
453.971	98.81
454.192	97.81
454.412	109.81
454.633	107.81
454.853	114.81
455.073	102.81
455.294	75.81
455.514	105.81
455.734	105.81
455.955	101.81
456.175	86.81
456.395	86.81
456.616	112.81
456.836	86.81
457.056	100.81
457.276	98.81
457.497	94.81
457.717	84.81
457.937	82.81
458.157	95.81
458.377	105.81
458.598	88.81
458.818	85.81
459.038	96.81
459.258	73.81
459.478	77.81
459.698	90.81
459.918	99.81
460.138	94.81
460.358	101.81
460.578	90.81
460.798	105.81
461.018	92.81
461.238	97.81
461.458	110.81
461.678	91.81
461.898	104.81
462.118	98.81
462.338	97.81
462.558	94.81
462.777	102.81
462.997	91.81
463.217	82.81
463.437	110.81
463.657	96.81
463.876	93.81
464.096	100.81
464.316	92.81
464.536	95.81
464.755	96.81
464.975	94.81
465.195	108.81
465.414	103.81
465.634	97.81
465.854	117.81
466.073	105.81
466.293	113.81
466.512	113.81
466.732	108.81
466.951	116.81
467.171	114.81
467.391	112.81
467.61	99.81
467.829	108.81
468.049	91.81
468.268	98.81
468.488	82.81
468.707	118.81
468.927	120.81
469.146	103.81
469.365	113.81
469.585	122.81
469.804	118.81
470.023	113.81
470.243	122.81
470.462	103.81
470.681	125.81
470.901	109.81
471.12	116.81
471.339	112.81
471.558	105.81
471.777	100.81
471.997	119.81
472.216	110.81
472.435	86.81
472.654	88.81
472.873	109.81
473.092	107.81
473.311	100.81
473.53	99.81
473.749	113.81
473.968	104.81
474.187	99.81
474.406	101.81
474.625	100.81
474.844	115.81
475.063	104.81
475.282	104.81
475.501	112.81
475.72	104.81
475.939	115.81
476.158	100.81
476.377	96.81
476.596	89.81
476.814	91.81
477.033	105.81
477.252	94.81
477.471	106.81
477.69	97.81
477.908	84.81
478.127	108.81
478.346	112.81
478.564	92.81
478.783	110.81
479.002	121.81
479.22	122.81
479.439	105.81
479.658	115.81
479.876	106.81
480.095	102.81
480.313	97.81
480.532	99.81
480.751	92.81
480.969	83.81
481.188	76.81
481.406	79.81
481.624	86.81
481.843	78.81
482.061	94.81
482.28	98.81
482.498	97.81
482.717	81.81
482.935	92.81
483.153	116.81
483.372	120.81
483.59	121.81
483.808	120.81
484.027	113.81
484.245	108.81
484.463	109.81
484.681	134.81
484.9	102.81
485.118	104.81
485.336	114.81
485.554	103.81
485.772	89.81
485.99	107.81
486.209	85.81
486.427	84.81
486.645	103.81
486.863	108.81
487.081	113.81
487.299	122.81
487.517	104.81
487.735	123.81
487.953	120.81
488.171	134.81
488.389	123.81
488.607	119.81
488.825	106.81
489.043	104.81
489.261	113.81
489.479	107.81
489.696	108.81
489.914	131.81
490.132	105.81
490.35	120.81
490.568	115.81
490.786	118.81
491.003	122.81
491.221	132.81
491.439	132.81
491.657	143.81
491.874	158.81
492.092	156.81
492.31	146.81
492.527	156.81
492.745	131.81
492.963	134.81
493.18	138.81
493.398	117.81
493.615	124.81
493.833	133.81
494.05	129.81
494.268	125.81
494.485	132.81
494.703	131.81
494.92	133.81
495.138	131.81
495.355	121.81
495.573	126.81
495.79	130.81
496.008	142.81
496.225	126.81
496.442	139.81
496.66	120.81
496.877	123.81
497.094	124.81
497.312	134.81
497.529	116.81
497.746	115.81
497.963	106.81
498.181	114.81
498.398	114.81
498.615	88.81
498.832	98.81
499.049	87.81
499.267	98.81
499.484	107.81
499.701	118.81
499.918	104.81
500.135	102.81
500.352	114.81
500.569	106.81
500.786	90.81
501.003	112.81
501.22	114.81
501.437	110.81
501.654	116.81
501.871	108.81
502.088	108.81
502.305	117.81
502.522	107.81
502.739	119.81
502.956	102.81
503.172	96.81
503.389	111.81
503.606	109.81
503.823	116.81
504.04	109.81
504.256	100.81
504.473	108.81
504.69	112.81
504.907	93.81
505.123	112.81
505.34	103.81
505.557	92.81
505.773	93.81
505.99	92.81
506.207	91.81
506.423	105.81
506.64	105.81
506.856	101.81
507.073	107.81
507.289	97.81
507.506	85.81
507.722	96.81
507.939	106.81
508.155	105.81
508.372	85.81
508.588	93.81
508.805	102.81
509.021	96.81
509.238	99.81
509.454	83.81
509.67	89.81
509.887	77.81
510.103	88.81
510.319	90.81
510.536	92.81
510.752	84.81
510.968	89.81
511.184	76.81
511.401	76.81
511.617	85.81
511.833	78.81
512.049	86.81
512.265	77.81
512.481	74.81
512.698	82.81
512.914	100.81
513.13	96.81
513.346	100.81
513.562	97.81
513.778	77.81
513.994	84.81
514.21	86.81
514.426	99.81
