Data from Zn(NO3)2Standard.Agarose3%.GreenCap.LampEnergy5.5.E.O_HRD10591_15-01-39-767.txt Node
Date: Mon Jul 22 15:01:39 EDT 2019
User: cochatt
Spectrometer: HR+D1059
Trigger mode: 1
Integration Time (sec): 1.000000E-1
Scans to average: 1
Electric dark correction enabled: true
Nonlinearity correction enabled: false
Boxcar width: 0
XAxis mode: Wavelengths
Number of Pixels in Spectrum: 2048
>>>>>Begin Spectral Data<<<<<
223.165	-27.19
223.4	-27.19
223.635	-27.19
223.869	-20.19
224.104	-17.19
224.338	2.81
224.573	-14.19
224.808	-18.19
225.042	2.81
225.277	-12.19
225.511	-17.19
225.746	1.81
225.98	-3.19
226.215	21.81
226.449	25.81
226.683	13.81
226.918	28.81
227.152	31.81
227.387	40.81
227.621	32.81
227.856	35.81
228.09	38.81
228.324	66.81
228.559	58.81
228.793	61.81
229.027	64.81
229.262	61.81
229.496	71.81
229.73	68.81
229.964	73.81
230.199	73.81
230.433	79.81
230.667	88.81
230.901	79.81
231.136	80.81
231.37	99.81
231.604	102.81
231.838	90.81
232.072	71.81
232.306	80.81
232.541	88.81
232.775	90.81
233.009	87.81
233.243	85.81
233.477	88.81
233.711	80.81
233.945	83.81
234.179	96.81
234.413	83.81
234.647	91.81
234.881	78.81
235.115	71.81
235.349	71.81
235.583	98.81
235.817	66.81
236.051	86.81
236.285	83.81
236.519	82.81
236.753	74.81
236.987	71.81
237.221	68.81
237.455	89.81
237.689	75.81
237.922	78.81
238.156	72.81
238.39	76.81
238.624	80.81
238.858	83.81
239.091	81.81
239.325	71.81
239.559	83.81
239.793	84.81
240.027	77.81
240.26	62.81
240.494	71.81
240.728	73.81
240.961	76.81
241.195	95.81
241.429	75.81
241.662	72.81
241.896	87.81
242.13	81.81
242.363	94.81
242.597	89.81
242.83	76.81
243.064	85.81
243.298	85.81
243.531	89.81
243.765	79.81
243.998	88.81
244.232	78.81
244.465	74.81
244.699	80.81
244.932	73.81
245.166	85.81
245.399	73.81
245.633	81.81
245.866	71.81
246.099	87.81
246.333	80.81
246.566	82.81
246.8	74.81
247.033	71.81
247.266	84.81
247.5	91.81
247.733	68.81
247.966	92.81
248.2	66.81
248.433	73.81
248.666	75.81
248.899	88.81
249.133	77.81
249.366	89.81
249.599	94.81
249.832	76.81
250.066	90.81
250.299	86.81
250.532	77.81
250.765	69.81
250.998	79.81
251.231	86.81
251.465	93.81
251.698	94.81
251.931	99.81
252.164	80.81
252.397	84.81
252.63	88.81
252.863	81.81
253.096	97.81
253.329	97.81
253.562	81.81
253.795	90.81
254.028	85.81
254.261	86.81
254.494	84.81
254.727	82.81
254.96	81.81
255.193	83.81
255.426	69.81
255.659	90.81
255.892	96.81
256.124	88.81
256.357	85.81
256.59	79.81
256.823	70.81
257.056	81.81
257.289	91.81
257.521	90.81
257.754	72.81
257.987	79.81
258.22	83.81
258.452	96.81
258.685	88.81
258.918	74.81
259.151	61.81
259.383	87.81
259.616	88.81
259.849	100.81
260.081	82.81
260.314	80.81
260.547	85.81
260.779	84.81
261.012	90.81
261.244	70.81
261.477	88.81
261.71	92.81
261.942	93.81
262.175	96.81
262.407	87.81
262.64	78.81
262.872	72.81
263.105	79.81
263.337	75.81
263.57	85.81
263.802	102.81
264.035	92.81
264.267	89.81
264.499	83.81
264.732	91.81
264.964	85.81
265.197	95.81
265.429	84.81
265.661	73.81
265.894	79.81
266.126	95.81
266.358	89.81
266.591	85.81
266.823	88.81
267.055	84.81
267.287	68.81
267.52	78.81
267.752	71.81
267.984	82.81
268.216	79.81
268.448	95.81
268.681	79.81
268.913	99.81
269.145	80.81
269.377	80.81
269.609	75.81
269.841	89.81
270.073	89.81
270.306	88.81
270.538	83.81
270.77	82.81
271.002	92.81
271.234	76.81
271.466	89.81
271.698	82.81
271.93	91.81
272.162	70.81
272.394	85.81
272.626	93.81
272.858	86.81
273.09	74.81
273.322	86.81
273.553	88.81
273.785	86.81
274.017	84.81
274.249	84.81
274.481	84.81
274.713	77.81
274.945	79.81
275.176	97.81
275.408	80.81
275.64	90.81
275.872	75.81
276.104	79.81
276.335	97.81
276.567	89.81
276.799	100.81
277.031	90.81
277.262	85.81
277.494	85.81
277.726	94.81
277.957	82.81
278.189	78.81
278.421	89.81
278.652	88.81
278.884	78.81
279.115	99.81
279.347	79.81
279.579	75.81
279.81	95.81
280.042	89.81
280.273	85.81
280.505	95.81
280.736	109.81
280.968	87.81
281.199	88.81
281.431	85.81
281.662	89.81
281.894	78.81
282.125	94.81
282.356	97.81
282.588	86.81
282.819	79.81
283.051	67.81
283.282	75.81
283.513	96.81
283.745	91.81
283.976	84.81
284.207	103.81
284.439	90.81
284.67	101.81
284.901	92.81
285.132	88.81
285.364	89.81
285.595	88.81
285.826	78.81
286.057	98.81
286.288	77.81
286.52	79.81
286.751	94.81
286.982	89.81
287.213	92.81
287.444	94.81
287.675	92.81
287.906	93.81
288.138	104.81
288.369	93.81
288.6	87.81
288.831	86.81
289.062	90.81
289.293	95.81
289.524	76.81
289.755	92.81
289.986	80.81
290.217	86.81
290.448	81.81
290.679	83.81
290.91	85.81
291.141	80.81
291.371	69.81
291.602	92.81
291.833	91.81
292.064	89.81
292.295	92.81
292.526	93.81
292.757	98.81
292.987	104.81
293.218	95.81
293.449	72.81
293.68	100.81
293.91	87.81
294.141	79.81
294.372	79.81
294.603	80.81
294.833	92.81
295.064	83.81
295.295	89.81
295.525	89.81
295.756	92.81
295.987	95.81
296.217	106.81
296.448	76.81
296.679	87.81
296.909	93.81
297.14	92.81
297.37	86.81
297.601	93.81
297.831	86.81
298.062	83.81
298.292	91.81
298.523	85.81
298.753	99.81
298.984	84.81
299.214	81.81
299.445	89.81
299.675	92.81
299.905	78.81
300.136	79.81
300.366	82.81
300.597	85.81
300.827	91.81
301.057	81.81
301.288	88.81
301.518	80.81
301.748	71.81
301.979	89.81
302.209	88.81
302.439	75.81
302.669	88.81
302.9	99.81
303.13	93.81
303.36	91.81
303.59	89.81
303.82	97.81
304.051	83.81
304.281	94.81
304.511	94.81
304.741	78.81
304.971	87.81
305.201	102.81
305.431	97.81
305.661	101.81
305.891	88.81
306.121	98.81
306.352	94.81
306.582	75.81
306.812	84.81
307.042	87.81
307.272	94.81
307.502	71.81
307.731	98.81
307.961	97.81
308.191	85.81
308.421	87.81
308.651	80.81
308.881	96.81
309.111	93.81
309.341	89.81
309.571	86.81
309.8	80.81
310.03	87.81
310.26	83.81
310.49	97.81
310.72	91.81
310.949	92.81
311.179	93.81
311.409	88.81
311.639	76.81
311.868	91.81
312.098	91.81
312.328	82.81
312.557	78.81
312.787	86.81
313.017	86.81
313.246	87.81
313.476	97.81
313.706	94.81
313.935	86.81
314.165	90.81
314.394	81.81
314.624	78.81
314.853	105.81
315.083	91.81
315.312	94.81
315.542	74.81
315.771	79.81
316.001	97.81
316.23	80.81
316.46	92.81
316.689	92.81
316.919	79.81
317.148	90.81
317.377	89.81
317.607	80.81
317.836	91.81
318.065	84.81
318.295	88.81
318.524	93.81
318.753	88.81
318.983	91.81
319.212	96.81
319.441	88.81
319.67	95.81
319.9	97.81
320.129	91.81
320.358	100.81
320.587	78.81
320.816	95.81
321.046	81.81
321.275	101.81
321.504	83.81
321.733	78.81
321.962	85.81
322.191	81.81
322.42	86.81
322.649	95.81
322.878	107.81
323.108	88.81
323.337	85.81
323.566	77.81
323.795	92.81
324.024	92.81
324.253	87.81
324.482	93.81
324.71	78.81
324.939	79.81
325.168	78.81
325.397	93.81
325.626	91.81
325.855	85.81
326.084	88.81
326.313	84.81
326.542	101.81
326.77	103.81
326.999	78.81
327.228	88.81
327.457	85.81
327.686	85.81
327.914	98.81
328.143	110.81
328.372	105.81
328.6	91.81
328.829	79.81
329.058	91.81
329.287	69.81
329.515	74.81
329.744	104.81
329.972	93.81
330.201	87.81
330.43	82.81
330.658	93.81
330.887	85.81
331.115	91.81
331.344	74.81
331.572	88.81
331.801	93.81
332.03	89.81
332.258	73.81
332.486	84.81
332.715	88.81
332.943	91.81
333.172	86.81
333.4	81.81
333.629	87.81
333.857	93.81
334.085	76.81
334.314	78.81
334.542	87.81
334.771	89.81
334.999	78.81
335.227	83.81
335.455	87.81
335.684	102.81
335.912	87.81
336.14	89.81
336.369	84.81
336.597	82.81
336.825	89.81
337.053	105.81
337.281	79.81
337.51	91.81
337.738	100.81
337.966	90.81
338.194	106.81
338.422	103.81
338.65	87.81
338.878	80.81
339.106	87.81
339.334	97.81
339.562	104.81
339.79	93.81
340.018	83.81
340.246	95.81
340.474	90.81
340.702	84.81
340.93	88.81
341.158	102.81
341.386	95.81
341.614	80.81
341.842	81.81
342.07	107.81
342.298	100.81
342.526	82.81
342.754	99.81
342.981	92.81
343.209	86.81
343.437	74.81
343.665	79.81
343.893	92.81
344.12	89.81
344.348	92.81
344.576	74.81
344.804	97.81
345.031	71.81
345.259	100.81
345.487	85.81
345.714	76.81
345.942	84.81
346.17	90.81
346.397	89.81
346.625	98.81
346.853	86.81
347.08	84.81
347.308	81.81
347.535	94.81
347.763	90.81
347.99	85.81
348.218	89.81
348.445	80.81
348.673	98.81
348.9	98.81
349.128	93.81
349.355	77.81
349.583	76.81
349.81	95.81
350.037	87.81
350.265	91.81
350.492	91.81
350.72	84.81
350.947	80.81
351.174	85.81
351.402	89.81
351.629	94.81
351.856	98.81
352.083	80.81
352.311	94.81
352.538	91.81
352.765	102.81
352.992	99.81
353.22	81.81
353.447	96.81
353.674	82.81
353.901	100.81
354.128	87.81
354.355	83.81
354.583	89.81
354.81	93.81
355.037	95.81
355.264	97.81
355.491	95.81
355.718	88.81
355.945	94.81
356.172	95.81
356.399	96.81
356.626	104.81
356.853	94.81
357.08	80.81
357.307	98.81
357.534	84.81
357.761	82.81
357.988	85.81
358.215	74.81
358.441	80.81
358.668	87.81
358.895	98.81
359.122	73.81
359.349	81.81
359.576	75.81
359.802	92.81
360.029	95.81
360.256	94.81
360.483	88.81
360.709	91.81
360.936	90.81
361.163	88.81
361.39	100.81
361.616	90.81
361.843	96.81
362.07	87.81
362.296	88.81
362.523	94.81
362.749	88.81
362.976	79.81
363.203	75.81
363.429	95.81
363.656	98.81
363.882	89.81
364.109	102.81
364.335	100.81
364.562	82.81
364.788	93.81
365.015	82.81
365.241	81.81
365.468	77.81
365.694	85.81
365.92	92.81
366.147	85.81
366.373	92.81
366.599	80.81
366.826	93.81
367.052	93.81
367.278	90.81
367.505	84.81
367.731	70.81
367.957	78.81
368.184	87.81
368.41	84.81
368.636	104.81
368.862	93.81
369.089	83.81
369.315	81.81
369.541	80.81
369.767	88.81
369.993	90.81
370.219	82.81
370.445	89.81
370.672	88.81
370.898	78.81
371.124	92.81
371.35	84.81
371.576	87.81
371.802	81.81
372.028	104.81
372.254	77.81
372.48	81.81
372.706	91.81
372.932	82.81
373.158	80.81
373.384	86.81
373.61	100.81
373.835	103.81
374.061	86.81
374.287	86.81
374.513	91.81
374.739	96.81
374.965	73.81
375.191	88.81
375.416	83.81
375.642	82.81
375.868	93.81
376.094	103.81
376.319	99.81
376.545	109.81
376.771	73.81
376.997	73.81
377.222	91.81
377.448	83.81
377.674	93.81
377.899	86.81
378.125	88.81
378.35	91.81
378.576	87.81
378.802	79.81
379.027	84.81
379.253	90.81
379.478	80.81
379.704	100.81
379.929	83.81
380.155	89.81
380.38	94.81
380.606	82.81
380.831	93.81
381.057	90.81
381.282	90.81
381.507	89.81
381.733	91.81
381.958	75.81
382.184	85.81
382.409	90.81
382.634	95.81
382.86	89.81
383.085	82.81
383.31	73.81
383.535	79.81
383.761	83.81
383.986	104.81
384.211	81.81
384.436	79.81
384.662	99.81
384.887	95.81
385.112	70.81
385.337	86.81
385.562	94.81
385.787	77.81
386.013	91.81
386.238	91.81
386.463	84.81
386.688	81.81
386.913	83.81
387.138	84.81
387.363	79.81
387.588	87.81
387.813	95.81
388.038	91.81
388.263	92.81
388.488	88.81
388.713	75.81
388.938	104.81
389.163	71.81
389.387	80.81
389.612	92.81
389.837	94.81
390.062	84.81
390.287	73.81
390.512	104.81
390.736	81.81
390.961	75.81
391.186	91.81
391.411	80.81
391.636	83.81
391.86	91.81
392.085	86.81
392.31	90.81
392.534	74.81
392.759	80.81
392.984	91.81
393.208	90.81
393.433	92.81
393.658	95.81
393.882	95.81
394.107	104.81
394.331	90.81
394.556	69.81
394.78	77.81
395.005	94.81
395.229	79.81
395.454	92.81
395.678	97.81
395.903	92.81
396.127	99.81
396.352	95.81
396.576	91.81
396.801	90.81
397.025	79.81
397.249	90.81
397.474	97.81
397.698	106.81
397.922	81.81
398.147	86.81
398.371	103.81
398.595	84.81
398.82	87.81
399.044	87.81
399.268	104.81
399.492	101.81
399.717	90.81
399.941	80.81
400.165	92.81
400.389	94.81
400.613	98.81
400.837	100.81
401.062	91.81
401.286	81.81
401.51	101.81
401.734	89.81
401.958	86.81
402.182	95.81
402.406	93.81
402.63	78.81
402.854	80.81
403.078	87.81
403.302	91.81
403.526	84.81
403.75	77.81
403.974	102.81
404.198	76.81
404.422	93.81
404.645	86.81
404.869	106.81
405.093	95.81
405.317	87.81
405.541	94.81
405.765	87.81
405.988	89.81
406.212	87.81
406.436	91.81
406.66	100.81
406.883	85.81
407.107	95.81
407.331	85.81
407.555	93.81
407.778	86.81
408.002	97.81
408.226	91.81
408.449	98.81
408.673	89.81
408.896	87.81
409.12	109.81
409.344	98.81
409.567	82.81
409.791	93.81
410.014	75.81
410.238	91.81
410.461	82.81
410.685	80.81
410.908	96.81
411.132	79.81
411.355	104.81
411.578	85.81
411.802	93.81
412.025	70.81
412.249	101.81
412.472	87.81
412.695	86.81
412.919	93.81
413.142	92.81
413.365	91.81
413.589	80.81
413.812	88.81
414.035	94.81
414.258	94.81
414.482	77.81
414.705	71.81
414.928	87.81
415.151	88.81
415.374	80.81
415.597	105.81
415.821	85.81
416.044	79.81
416.267	79.81
416.49	92.81
416.713	87.81
416.936	87.81
417.159	92.81
417.382	97.81
417.605	85.81
417.828	104.81
418.051	93.81
418.274	106.81
418.497	107.81
418.72	77.81
418.943	66.81
419.166	90.81
419.389	95.81
419.611	97.81
419.834	97.81
420.057	81.81
420.28	96.81
420.503	81.81
420.726	87.81
420.948	95.81
421.171	95.81
421.394	87.81
421.617	105.81
421.839	87.81
422.062	92.81
422.285	90.81
422.507	110.81
422.73	99.81
422.953	93.81
423.175	96.81
423.398	85.81
423.621	103.81
423.843	83.81
424.066	83.81
424.288	99.81
424.511	92.81
424.733	92.81
424.956	71.81
425.178	85.81
425.401	96.81
425.623	73.81
425.846	85.81
426.068	95.81
426.291	102.81
426.513	91.81
426.735	93.81
426.958	91.81
427.18	89.81
427.402	96.81
427.625	86.81
427.847	92.81
428.069	98.81
428.292	91.81
428.514	103.81
428.736	78.81
428.958	87.81
429.181	95.81
429.403	105.81
429.625	98.81
429.847	84.81
430.069	110.81
430.292	98.81
430.514	80.81
430.736	97.81
430.958	86.81
431.18	90.81
431.402	90.81
431.624	96.81
431.846	95.81
432.068	92.81
432.29	84.81
432.512	89.81
432.734	97.81
432.956	93.81
433.178	93.81
433.4	116.81
433.622	96.81
433.844	102.81
434.066	102.81
434.287	87.81
434.509	83.81
434.731	87.81
434.953	87.81
435.175	92.81
435.397	110.81
435.618	84.81
435.84	88.81
436.062	94.81
436.284	88.81
436.505	97.81
436.727	91.81
436.949	94.81
437.17	87.81
437.392	95.81
437.614	92.81
437.835	88.81
438.057	103.81
438.278	92.81
438.5	95.81
438.721	95.81
438.943	111.81
439.165	93.81
439.386	94.81
439.608	110.81
439.829	91.81
440.05	93.81
440.272	99.81
440.493	92.81
440.715	94.81
440.936	92.81
441.158	102.81
441.379	96.81
441.6	96.81
441.822	79.81
442.043	96.81
442.264	96.81
442.486	88.81
442.707	87.81
442.928	96.81
443.149	95.81
443.371	93.81
443.592	91.81
443.813	92.81
444.034	92.81
444.255	88.81
444.476	91.81
444.698	105.81
444.919	104.81
445.14	201.81
445.361	141.81
445.582	84.81
445.803	99.81
446.024	111.81
446.245	86.81
446.466	100.81
446.687	87.81
446.908	99.81
447.129	95.81
447.35	110.81
447.571	106.81
447.792	103.81
448.013	97.81
448.234	99.81
448.455	98.81
448.675	93.81
448.896	108.81
449.117	108.81
449.338	89.81
449.559	96.81
449.779	94.81
450	80.81
450.221	84.81
450.442	88.81
450.662	101.81
450.883	86.81
451.104	95.81
451.324	107.81
451.545	104.81
451.766	91.81
451.986	90.81
452.207	87.81
452.428	99.81
452.648	99.81
452.869	97.81
453.089	81.81
453.31	95.81
453.53	87.81
453.751	89.81
453.971	88.81
454.192	89.81
454.412	93.81
454.633	84.81
454.853	84.81
455.073	99.81
455.294	85.81
455.514	103.81
455.734	113.81
455.955	89.81
456.175	91.81
456.395	72.81
456.616	83.81
456.836	90.81
457.056	87.81
457.276	100.81
457.497	86.81
457.717	87.81
457.937	81.81
458.157	93.81
458.377	89.81
458.598	91.81
458.818	86.81
459.038	80.81
459.258	70.81
459.478	94.81
459.698	96.81
459.918	82.81
460.138	80.81
460.358	88.81
460.578	89.81
460.798	76.81
461.018	101.81
461.238	102.81
461.458	89.81
461.678	102.81
461.898	91.81
462.118	100.81
462.338	91.81
462.558	95.81
462.777	99.81
462.997	92.81
463.217	85.81
463.437	87.81
463.657	82.81
463.876	82.81
464.096	91.81
464.316	98.81
464.536	92.81
464.755	81.81
464.975	87.81
465.195	83.81
465.414	96.81
465.634	96.81
465.854	98.81
466.073	94.81
466.293	89.81
466.512	105.81
466.732	102.81
466.951	87.81
467.171	89.81
467.391	91.81
467.61	88.81
467.829	90.81
468.049	101.81
468.268	95.81
468.488	98.81
468.707	99.81
468.927	94.81
469.146	100.81
469.365	99.81
469.585	94.81
469.804	89.81
470.023	99.81
470.243	100.81
470.462	94.81
470.681	95.81
470.901	91.81
471.12	87.81
471.339	102.81
471.558	93.81
471.777	102.81
471.997	91.81
472.216	89.81
472.435	101.81
472.654	85.81
472.873	96.81
473.092	101.81
473.311	92.81
473.53	83.81
473.749	96.81
473.968	81.81
474.187	88.81
474.406	79.81
474.625	94.81
474.844	97.81
475.063	86.81
475.282	99.81
475.501	97.81
475.72	94.81
475.939	97.81
476.158	81.81
476.377	92.81
476.596	106.81
476.814	101.81
477.033	99.81
477.252	85.81
477.471	81.81
477.69	91.81
477.908	85.81
478.127	95.81
478.346	92.81
478.564	87.81
478.783	92.81
479.002	82.81
479.22	96.81
479.439	93.81
479.658	101.81
479.876	88.81
480.095	87.81
480.313	98.81
480.532	102.81
480.751	85.81
480.969	79.81
481.188	101.81
481.406	93.81
481.624	77.81
481.843	78.81
482.061	81.81
482.28	83.81
482.498	74.81
482.717	90.81
482.935	87.81
483.153	90.81
483.372	103.81
483.59	104.81
483.808	90.81
484.027	88.81
484.245	80.81
484.463	91.81
484.681	97.81
484.9	95.81
485.118	82.81
485.336	93.81
485.554	69.81
485.772	85.81
485.99	92.81
486.209	99.81
486.427	98.81
486.645	82.81
486.863	84.81
487.081	90.81
487.299	101.81
487.517	90.81
487.735	86.81
487.953	102.81
488.171	95.81
488.389	84.81
488.607	100.81
488.825	94.81
489.043	107.81
489.261	91.81
489.479	97.81
489.696	93.81
489.914	80.81
490.132	87.81
490.35	96.81
490.568	104.81
490.786	113.81
491.003	110.81
491.221	110.81
491.439	94.81
491.657	109.81
491.874	104.81
492.092	109.81
492.31	110.81
492.527	123.81
492.745	122.81
492.963	102.81
493.18	95.81
493.398	107.81
493.615	88.81
493.833	84.81
494.05	116.81
494.268	104.81
494.485	96.81
494.703	104.81
494.92	112.81
495.138	99.81
495.355	99.81
495.573	95.81
495.79	97.81
496.008	98.81
496.225	94.81
496.442	106.81
496.66	104.81
496.877	106.81
497.094	110.81
497.312	93.81
497.529	102.81
497.746	101.81
497.963	94.81
498.181	101.81
498.398	103.81
498.615	111.81
498.832	88.81
499.049	95.81
499.267	77.81
499.484	110.81
499.701	99.81
499.918	93.81
500.135	74.81
500.352	78.81
500.569	100.81
500.786	97.81
501.003	97.81
501.22	90.81
501.437	94.81
501.654	88.81
501.871	101.81
502.088	107.81
502.305	80.81
502.522	98.81
502.739	81.81
502.956	92.81
503.172	92.81
503.389	94.81
503.606	99.81
503.823	91.81
504.04	90.81
504.256	96.81
504.473	95.81
504.69	91.81
504.907	91.81
505.123	101.81
505.34	89.81
505.557	101.81
505.773	95.81
505.99	99.81
506.207	82.81
506.423	83.81
506.64	92.81
506.856	82.81
507.073	89.81
507.289	88.81
507.506	90.81
507.722	101.81
507.939	80.81
508.155	90.81
508.372	98.81
508.588	107.81
508.805	101.81
509.021	84.81
509.238	94.81
509.454	102.81
509.67	90.81
509.887	76.81
510.103	79.81
510.319	85.81
510.536	94.81
510.752	85.81
510.968	84.81
511.184	79.81
511.401	104.81
511.617	100.81
511.833	82.81
512.049	84.81
512.265	97.81
512.481	83.81
512.698	94.81
512.914	84.81
513.13	94.81
513.346	90.81
513.562	86.81
513.778	73.81
513.994	84.81
514.21	86.81
514.426	84.81
514.642	86.81
514.858	95.81
515.074	83.81
515.29	95.81
515.506	93.81
515.721	86.81
515.937	91.81
516.153	74.81
516.369	86.81
516.585	76.81
516.801	93.81
517.016	88.81
517.232	89.81
