Data from Zn(NO3)2Standard.Agarose3%.GreenCap.LampEnergy10E.O_HRD10591_15-06-28-942.txt Node
Date: Mon Jul 22 15:06:28 EDT 2019
User: cochatt
Spectrometer: HR+D1059
Trigger mode: 1
Integration Time (sec): 1.000000E-1
Scans to average: 1
Electric dark correction enabled: true
Nonlinearity correction enabled: false
Boxcar width: 0
XAxis mode: Wavelengths
Number of Pixels in Spectrum: 2048
>>>>>Begin Spectral Data<<<<<
223.165	-21.25
223.4	-21.25
223.635	-21.25
223.869	-11.25
224.104	-22.25
224.338	-22.25
224.573	-12.25
224.808	3.75
225.042	-14.25
225.277	-5.25
225.511	-15.25
225.746	8.75
225.98	13.75
226.215	12.75
226.449	21.75
226.683	17.75
226.918	29.75
227.152	15.75
227.387	39.75
227.621	43.75
227.856	53.75
228.09	47.75
228.324	57.75
228.559	64.75
228.793	59.75
229.027	58.75
229.262	77.75
229.496	70.75
229.73	68.75
229.964	63.75
230.199	83.75
230.433	63.75
230.667	76.75
230.901	85.75
231.136	88.75
231.37	89.75
231.604	71.75
231.838	86.75
232.072	93.75
232.306	93.75
232.541	87.75
232.775	96.75
233.009	95.75
233.243	86.75
233.477	71.75
233.711	105.75
233.945	95.75
234.179	78.75
234.413	83.75
234.647	66.75
234.881	61.75
235.115	77.75
235.349	92.75
235.583	99.75
235.817	90.75
236.051	88.75
236.285	72.75
236.519	74.75
236.753	85.75
236.987	76.75
237.221	91.75
237.455	81.75
237.689	75.75
237.922	95.75
238.156	74.75
238.39	69.75
238.624	76.75
238.858	74.75
239.091	74.75
239.325	84.75
239.559	68.75
239.793	70.75
240.027	77.75
240.26	87.75
240.494	63.75
240.728	91.75
240.961	84.75
241.195	87.75
241.429	79.75
241.662	76.75
241.896	79.75
242.13	90.75
242.363	82.75
242.597	86.75
242.83	82.75
243.064	72.75
243.298	85.75
243.531	79.75
243.765	78.75
243.998	72.75
244.232	78.75
244.465	81.75
244.699	82.75
244.932	82.75
245.166	75.75
245.399	87.75
245.633	97.75
245.866	77.75
246.099	83.75
246.333	91.75
246.566	79.75
246.8	60.75
247.033	92.75
247.266	78.75
247.5	87.75
247.733	84.75
247.966	87.75
248.2	75.75
248.433	83.75
248.666	71.75
248.899	71.75
249.133	76.75
249.366	79.75
249.599	88.75
249.832	72.75
250.066	80.75
250.299	77.75
250.532	90.75
250.765	79.75
250.998	83.75
251.231	71.75
251.465	87.75
251.698	85.75
251.931	76.75
252.164	82.75
252.397	72.75
252.63	79.75
252.863	101.75
253.096	85.75
253.329	77.75
253.562	84.75
253.795	85.75
254.028	83.75
254.261	93.75
254.494	74.75
254.727	75.75
254.96	65.75
255.193	65.75
255.426	74.75
255.659	88.75
255.892	85.75
256.124	82.75
256.357	75.75
256.59	85.75
256.823	79.75
257.056	81.75
257.289	74.75
257.521	93.75
257.754	84.75
257.987	89.75
258.22	77.75
258.452	87.75
258.685	62.75
258.918	68.75
259.151	78.75
259.383	76.75
259.616	86.75
259.849	70.75
260.081	74.75
260.314	86.75
260.547	88.75
260.779	95.75
261.012	88.75
261.244	79.75
261.477	90.75
261.71	89.75
261.942	91.75
262.175	81.75
262.407	86.75
262.64	69.75
262.872	87.75
263.105	87.75
263.337	104.75
263.57	86.75
263.802	86.75
264.035	83.75
264.267	85.75
264.499	72.75
264.732	85.75
264.964	87.75
265.197	83.75
265.429	83.75
265.661	89.75
265.894	81.75
266.126	98.75
266.358	93.75
266.591	81.75
266.823	81.75
267.055	78.75
267.287	72.75
267.52	74.75
267.752	76.75
267.984	99.75
268.216	80.75
268.448	74.75
268.681	76.75
268.913	85.75
269.145	96.75
269.377	73.75
269.609	83.75
269.841	81.75
270.073	86.75
270.306	91.75
270.538	91.75
270.77	71.75
271.002	93.75
271.234	85.75
271.466	75.75
271.698	87.75
271.93	88.75
272.162	97.75
272.394	90.75
272.626	86.75
272.858	82.75
273.09	77.75
273.322	102.75
273.553	70.75
273.785	85.75
274.017	87.75
274.249	92.75
274.481	76.75
274.713	102.75
274.945	90.75
275.176	75.75
275.408	78.75
275.64	83.75
275.872	88.75
276.104	99.75
276.335	93.75
276.567	97.75
276.799	78.75
277.031	87.75
277.262	78.75
277.494	93.75
277.726	83.75
277.957	83.75
278.189	81.75
278.421	89.75
278.652	81.75
278.884	86.75
279.115	72.75
279.347	81.75
279.579	85.75
279.81	85.75
280.042	82.75
280.273	85.75
280.505	86.75
280.736	76.75
280.968	93.75
281.199	89.75
281.431	91.75
281.662	84.75
281.894	94.75
282.125	82.75
282.356	87.75
282.588	81.75
282.819	82.75
283.051	85.75
283.282	92.75
283.513	79.75
283.745	85.75
283.976	77.75
284.207	92.75
284.439	87.75
284.67	94.75
284.901	85.75
285.132	99.75
285.364	86.75
285.595	96.75
285.826	93.75
286.057	77.75
286.288	87.75
286.52	86.75
286.751	83.75
286.982	78.75
287.213	87.75
287.444	73.75
287.675	90.75
287.906	93.75
288.138	89.75
288.369	90.75
288.6	89.75
288.831	72.75
289.062	98.75
289.293	81.75
289.524	89.75
289.755	85.75
289.986	93.75
290.217	81.75
290.448	100.75
290.679	87.75
290.91	91.75
291.141	84.75
291.371	90.75
291.602	89.75
291.833	77.75
292.064	77.75
292.295	88.75
292.526	78.75
292.757	83.75
292.987	76.75
293.218	97.75
293.449	71.75
293.68	75.75
293.91	88.75
294.141	94.75
294.372	75.75
294.603	94.75
294.833	86.75
295.064	83.75
295.295	89.75
295.525	94.75
295.756	95.75
295.987	86.75
296.217	99.75
296.448	74.75
296.679	84.75
296.909	101.75
297.14	96.75
297.37	92.75
297.601	93.75
297.831	89.75
298.062	74.75
298.292	83.75
298.523	87.75
298.753	96.75
298.984	74.75
299.214	95.75
299.445	84.75
299.675	87.75
299.905	84.75
300.136	90.75
300.366	75.75
300.597	85.75
300.827	86.75
301.057	98.75
301.288	84.75
301.518	78.75
301.748	96.75
301.979	91.75
302.209	84.75
302.439	89.75
302.669	76.75
302.9	84.75
303.13	87.75
303.36	75.75
303.59	78.75
303.82	89.75
304.051	98.75
304.281	89.75
304.511	77.75
304.741	104.75
304.971	82.75
305.201	80.75
305.431	83.75
305.661	93.75
305.891	91.75
306.121	92.75
306.352	84.75
306.582	85.75
306.812	80.75
307.042	86.75
307.272	85.75
307.502	80.75
307.731	70.75
307.961	75.75
308.191	75.75
308.421	92.75
308.651	87.75
308.881	87.75
309.111	87.75
309.341	91.75
309.571	85.75
309.8	86.75
310.03	80.75
310.26	88.75
310.49	72.75
310.72	75.75
310.949	85.75
311.179	71.75
311.409	86.75
311.639	86.75
311.868	81.75
312.098	88.75
312.328	85.75
312.557	83.75
312.787	73.75
313.017	89.75
313.246	83.75
313.476	73.75
313.706	67.75
313.935	82.75
314.165	90.75
314.394	87.75
314.624	88.75
314.853	104.75
315.083	91.75
315.312	87.75
315.542	86.75
315.771	90.75
316.001	82.75
316.23	69.75
316.46	78.75
316.689	82.75
316.919	98.75
317.148	94.75
317.377	87.75
317.607	73.75
317.836	87.75
318.065	85.75
318.295	86.75
318.524	94.75
318.753	87.75
318.983	102.75
319.212	82.75
319.441	74.75
319.67	83.75
319.9	98.75
320.129	84.75
320.358	91.75
320.587	96.75
320.816	83.75
321.046	85.75
321.275	86.75
321.504	98.75
321.733	92.75
321.962	92.75
322.191	82.75
322.42	82.75
322.649	96.75
322.878	85.75
323.108	86.75
323.337	79.75
323.566	85.75
323.795	87.75
324.024	84.75
324.253	78.75
324.482	89.75
324.71	93.75
324.939	81.75
325.168	88.75
325.397	85.75
325.626	98.75
325.855	74.75
326.084	79.75
326.313	93.75
326.542	87.75
326.77	69.75
326.999	68.75
327.228	81.75
327.457	102.75
327.686	92.75
327.914	92.75
328.143	84.75
328.372	83.75
328.6	94.75
328.829	88.75
329.058	87.75
329.287	81.75
329.515	82.75
329.744	86.75
329.972	75.75
330.201	95.75
330.43	84.75
330.658	92.75
330.887	93.75
331.115	83.75
331.344	71.75
331.572	73.75
331.801	99.75
332.03	83.75
332.258	93.75
332.486	94.75
332.715	91.75
332.943	85.75
333.172	93.75
333.4	82.75
333.629	88.75
333.857	82.75
334.085	78.75
334.314	84.75
334.542	85.75
334.771	90.75
334.999	86.75
335.227	80.75
335.455	77.75
335.684	85.75
335.912	91.75
336.14	79.75
336.369	93.75
336.597	88.75
336.825	75.75
337.053	71.75
337.281	87.75
337.51	79.75
337.738	86.75
337.966	79.75
338.194	73.75
338.422	80.75
338.65	92.75
338.878	92.75
339.106	66.75
339.334	87.75
339.562	77.75
339.79	87.75
340.018	90.75
340.246	85.75
340.474	96.75
340.702	89.75
340.93	77.75
341.158	85.75
341.386	82.75
341.614	94.75
341.842	100.75
342.07	87.75
342.298	99.75
342.526	74.75
342.754	82.75
342.981	85.75
343.209	86.75
343.437	83.75
343.665	95.75
343.893	105.75
344.12	90.75
344.348	82.75
344.576	88.75
344.804	71.75
345.031	71.75
345.259	91.75
345.487	93.75
345.714	98.75
345.942	84.75
346.17	85.75
346.397	79.75
346.625	76.75
346.853	77.75
347.08	74.75
347.308	93.75
347.535	76.75
347.763	69.75
347.99	94.75
348.218	87.75
348.445	84.75
348.673	75.75
348.9	87.75
349.128	73.75
349.355	83.75
349.583	65.75
349.81	82.75
350.037	94.75
350.265	84.75
350.492	86.75
350.72	90.75
350.947	93.75
351.174	74.75
351.402	82.75
351.629	81.75
351.856	93.75
352.083	81.75
352.311	84.75
352.538	84.75
352.765	88.75
352.992	79.75
353.22	81.75
353.447	79.75
353.674	86.75
353.901	101.75
354.128	74.75
354.355	85.75
354.583	90.75
354.81	89.75
355.037	98.75
355.264	97.75
355.491	81.75
355.718	79.75
355.945	66.75
356.172	74.75
356.399	86.75
356.626	87.75
356.853	76.75
357.08	91.75
357.307	80.75
357.534	83.75
357.761	76.75
357.988	87.75
358.215	93.75
358.441	81.75
358.668	87.75
358.895	81.75
359.122	90.75
359.349	79.75
359.576	88.75
359.802	82.75
360.029	92.75
360.256	77.75
360.483	86.75
360.709	81.75
360.936	83.75
361.163	92.75
361.39	88.75
361.616	83.75
361.843	85.75
362.07	97.75
362.296	93.75
362.523	81.75
362.749	88.75
362.976	89.75
363.203	89.75
363.429	66.75
363.656	69.75
363.882	90.75
364.109	97.75
364.335	88.75
364.562	93.75
364.788	93.75
365.015	78.75
365.241	92.75
365.468	81.75
365.694	82.75
365.92	83.75
366.147	86.75
366.373	97.75
366.599	90.75
366.826	87.75
367.052	84.75
367.278	90.75
367.505	90.75
367.731	83.75
367.957	81.75
368.184	86.75
368.41	82.75
368.636	81.75
368.862	85.75
369.089	84.75
369.315	85.75
369.541	92.75
369.767	90.75
369.993	90.75
370.219	74.75
370.445	95.75
370.672	97.75
370.898	80.75
371.124	98.75
371.35	85.75
371.576	93.75
371.802	90.75
372.028	76.75
372.254	95.75
372.48	81.75
372.706	86.75
372.932	101.75
373.158	83.75
373.384	99.75
373.61	88.75
373.835	88.75
374.061	98.75
374.287	93.75
374.513	83.75
374.739	82.75
374.965	86.75
375.191	78.75
375.416	79.75
375.642	85.75
375.868	100.75
376.094	77.75
376.319	78.75
376.545	81.75
376.771	85.75
376.997	100.75
377.222	93.75
377.448	83.75
377.674	81.75
377.899	86.75
378.125	87.75
378.35	93.75
378.576	77.75
378.802	78.75
379.027	92.75
379.253	76.75
379.478	90.75
379.704	81.75
379.929	95.75
380.155	82.75
380.38	94.75
380.606	82.75
380.831	87.75
381.057	99.75
381.282	95.75
381.507	81.75
381.733	85.75
381.958	92.75
382.184	92.75
382.409	92.75
382.634	101.75
382.86	82.75
383.085	88.75
383.31	83.75
383.535	105.75
383.761	91.75
383.986	92.75
384.211	95.75
384.436	101.75
384.662	86.75
384.887	102.75
385.112	109.75
385.337	91.75
385.562	95.75
385.787	94.75
386.013	98.75
386.238	85.75
386.463	99.75
386.688	92.75
386.913	92.75
387.138	88.75
387.363	63.75
387.588	80.75
387.813	97.75
388.038	86.75
388.263	83.75
388.488	99.75
388.713	85.75
388.938	95.75
389.163	97.75
389.387	83.75
389.612	98.75
389.837	96.75
390.062	87.75
390.287	88.75
390.512	98.75
390.736	85.75
390.961	97.75
391.186	107.75
391.411	87.75
391.636	82.75
391.86	92.75
392.085	78.75
392.31	88.75
392.534	82.75
392.759	91.75
392.984	92.75
393.208	94.75
393.433	83.75
393.658	78.75
393.882	98.75
394.107	92.75
394.331	91.75
394.556	80.75
394.78	82.75
395.005	85.75
395.229	89.75
395.454	97.75
395.678	103.75
395.903	103.75
396.127	89.75
396.352	89.75
396.576	93.75
396.801	92.75
397.025	91.75
397.249	109.75
397.474	85.75
397.698	109.75
397.922	100.75
398.147	94.75
398.371	102.75
398.595	92.75
398.82	93.75
399.044	86.75
399.268	101.75
399.492	98.75
399.717	93.75
399.941	87.75
400.165	103.75
400.389	101.75
400.613	104.75
400.837	105.75
401.062	79.75
401.286	100.75
401.51	115.75
401.734	106.75
401.958	97.75
402.182	91.75
402.406	106.75
402.63	93.75
402.854	95.75
403.078	96.75
403.302	90.75
403.526	95.75
403.75	89.75
403.974	93.75
404.198	93.75
404.422	88.75
404.645	96.75
404.869	73.75
405.093	103.75
405.317	108.75
405.541	94.75
405.765	100.75
405.988	89.75
406.212	93.75
406.436	98.75
406.66	95.75
406.883	99.75
407.107	83.75
407.331	107.75
407.555	95.75
407.778	103.75
408.002	97.75
408.226	96.75
408.449	96.75
408.673	103.75
408.896	90.75
409.12	99.75
409.344	105.75
409.567	91.75
409.791	101.75
410.014	100.75
410.238	99.75
410.461	108.75
410.685	106.75
410.908	107.75
411.132	92.75
411.355	99.75
411.578	99.75
411.802	91.75
412.025	114.75
412.249	102.75
412.472	101.75
412.695	97.75
412.919	106.75
413.142	95.75
413.365	99.75
413.589	107.75
413.812	109.75
414.035	110.75
414.258	97.75
414.482	108.75
414.705	104.75
414.928	103.75
415.151	95.75
415.374	108.75
415.597	97.75
415.821	103.75
416.044	102.75
416.267	102.75
416.49	97.75
416.713	88.75
416.936	108.75
417.159	105.75
417.382	101.75
417.605	102.75
417.828	97.75
418.051	117.75
418.274	89.75
418.497	111.75
418.72	118.75
418.943	115.75
419.166	125.75
419.389	109.75
419.611	125.75
419.834	106.75
420.057	110.75
420.28	116.75
420.503	104.75
420.726	94.75
420.948	92.75
421.171	109.75
421.394	99.75
421.617	114.75
421.839	112.75
422.062	116.75
422.285	123.75
422.507	108.75
422.73	100.75
422.953	92.75
423.175	114.75
423.398	113.75
423.621	99.75
423.843	103.75
424.066	97.75
424.288	116.75
424.511	99.75
424.733	110.75
424.956	114.75
425.178	100.75
425.401	107.75
425.623	116.75
425.846	95.75
426.068	126.75
426.291	101.75
426.513	105.75
426.735	104.75
426.958	105.75
427.18	106.75
427.402	110.75
427.625	108.75
427.847	107.75
428.069	113.75
428.292	104.75
428.514	96.75
428.736	116.75
428.958	111.75
429.181	109.75
429.403	101.75
429.625	114.75
429.847	116.75
430.069	119.75
430.292	116.75
430.514	105.75
430.736	108.75
430.958	103.75
431.18	108.75
431.402	97.75
431.624	107.75
431.846	93.75
432.068	100.75
432.29	87.75
432.512	89.75
432.734	98.75
432.956	98.75
433.178	107.75
433.4	123.75
433.622	115.75
433.844	119.75
434.066	103.75
434.287	90.75
434.509	99.75
434.731	85.75
434.953	88.75
435.175	108.75
435.397	98.75
435.618	94.75
435.84	99.75
436.062	90.75
436.284	94.75
436.505	111.75
436.727	103.75
436.949	106.75
437.17	115.75
437.392	119.75
437.614	104.75
437.835	106.75
438.057	110.75
438.278	109.75
438.5	119.75
438.721	102.75
438.943	101.75
439.165	97.75
439.386	105.75
439.608	114.75
439.829	108.75
440.05	121.75
440.272	116.75
440.493	109.75
440.715	107.75
440.936	124.75
441.158	106.75
441.379	99.75
441.6	108.75
441.822	102.75
442.043	127.75
442.264	106.75
442.486	108.75
442.707	107.75
442.928	106.75
443.149	105.75
443.371	105.75
443.592	102.75
443.813	121.75
444.034	117.75
444.255	119.75
444.476	110.75
444.698	129.75
444.919	112.75
445.14	243.75
445.361	161.75
445.582	119.75
445.803	97.75
446.024	117.75
446.245	105.75
446.466	114.75
446.687	120.75
446.908	120.75
447.129	111.75
447.35	117.75
447.571	114.75
447.792	104.75
448.013	101.75
448.234	117.75
448.455	115.75
448.675	115.75
448.896	107.75
449.117	115.75
449.338	102.75
449.559	115.75
449.779	105.75
450	114.75
450.221	115.75
450.442	105.75
450.662	99.75
450.883	122.75
451.104	113.75
451.324	109.75
451.545	111.75
451.766	106.75
451.986	89.75
452.207	99.75
452.428	106.75
452.648	102.75
452.869	109.75
453.089	102.75
453.31	92.75
453.53	91.75
453.751	105.75
453.971	93.75
454.192	102.75
454.412	90.75
454.633	95.75
454.853	102.75
455.073	101.75
455.294	93.75
455.514	104.75
455.734	99.75
455.955	106.75
456.175	93.75
456.395	96.75
456.616	93.75
456.836	103.75
457.056	90.75
457.276	97.75
457.497	102.75
457.717	108.75
457.937	93.75
458.157	91.75
458.377	92.75
458.598	84.75
458.818	84.75
459.038	89.75
459.258	91.75
459.478	79.75
459.698	91.75
459.918	93.75
460.138	97.75
460.358	100.75
460.578	107.75
460.798	94.75
461.018	94.75
461.238	102.75
461.458	106.75
461.678	103.75
461.898	101.75
462.118	114.75
462.338	79.75
462.558	104.75
462.777	96.75
462.997	102.75
463.217	97.75
463.437	94.75
463.657	100.75
463.876	83.75
464.096	107.75
464.316	100.75
464.536	99.75
464.755	105.75
464.975	107.75
465.195	101.75
465.414	109.75
465.634	108.75
465.854	102.75
466.073	97.75
466.293	118.75
466.512	101.75
466.732	94.75
466.951	115.75
467.171	123.75
467.391	117.75
467.61	106.75
467.829	110.75
468.049	112.75
468.268	117.75
468.488	101.75
468.707	100.75
468.927	111.75
469.146	102.75
469.365	101.75
469.585	118.75
469.804	94.75
470.023	109.75
470.243	96.75
470.462	102.75
470.681	120.75
470.901	107.75
471.12	116.75
471.339	113.75
471.558	121.75
471.777	108.75
471.997	97.75
472.216	104.75
472.435	100.75
472.654	93.75
472.873	100.75
473.092	113.75
473.311	101.75
473.53	102.75
473.749	108.75
473.968	105.75
474.187	111.75
474.406	100.75
474.625	104.75
474.844	100.75
475.063	115.75
475.282	85.75
475.501	115.75
475.72	97.75
475.939	89.75
476.158	107.75
476.377	106.75
476.596	96.75
476.814	111.75
477.033	99.75
477.252	106.75
477.471	112.75
477.69	113.75
477.908	104.75
478.127	115.75
478.346	115.75
478.564	109.75
478.783	105.75
479.002	108.75
479.22	106.75
479.439	94.75
479.658	103.75
479.876	82.75
480.095	87.75
480.313	98.75
480.532	102.75
480.751	103.75
480.969	95.75
481.188	87.75
481.406	87.75
481.624	92.75
481.843	89.75
482.061	92.75
482.28	95.75
482.498	95.75
482.717	106.75
482.935	105.75
483.153	120.75
483.372	121.75
483.59	122.75
483.808	101.75
484.027	118.75
484.245	108.75
484.463	110.75
484.681	125.75
484.9	121.75
485.118	122.75
485.336	103.75
485.554	99.75
485.772	101.75
485.99	102.75
486.209	102.75
486.427	98.75
486.645	102.75
486.863	113.75
487.081	118.75
487.299	94.75
487.517	118.75
487.735	108.75
487.953	127.75
488.171	130.75
488.389	128.75
488.607	108.75
488.825	105.75
489.043	115.75
489.261	109.75
489.479	117.75
489.696	105.75
489.914	120.75
490.132	117.75
490.35	129.75
490.568	129.75
490.786	133.75
491.003	146.75
491.221	139.75
491.439	137.75
491.657	130.75
491.874	149.75
492.092	142.75
492.31	162.75
492.527	143.75
492.745	137.75
492.963	147.75
493.18	125.75
493.398	125.75
493.615	146.75
493.833	126.75
494.05	126.75
494.268	125.75
494.485	119.75
494.703	125.75
494.92	123.75
495.138	130.75
495.355	139.75
495.573	117.75
495.79	125.75
496.008	129.75
496.225	133.75
496.442	114.75
496.66	113.75
496.877	117.75
497.094	128.75
497.312	122.75
497.529	129.75
497.746	117.75
497.963	123.75
498.181	106.75
498.398	92.75
498.615	108.75
498.832	106.75
499.049	100.75
499.267	109.75
499.484	107.75
499.701	130.75
499.918	102.75
500.135	123.75
500.352	118.75
500.569	119.75
500.786	109.75
501.003	114.75
501.22	107.75
501.437	107.75
501.654	117.75
501.871	118.75
502.088	111.75
502.305	97.75
502.522	97.75
502.739	95.75
502.956	91.75
503.172	99.75
503.389	97.75
503.606	107.75
503.823	104.75
504.04	113.75
504.256	112.75
504.473	106.75
504.69	106.75
504.907	104.75
505.123	110.75
505.34	120.75
505.557	114.75
505.773	104.75
505.99	103.75
506.207	105.75
506.423	99.75
506.64	108.75
506.856	103.75
507.073	106.75
507.289	109.75
507.506	100.75
507.722	98.75
507.939	95.75
508.155	109.75
508.372	88.75
508.588	89.75
508.805	102.75
509.021	102.75
509.238	95.75
509.454	99.75
509.67	102.75
509.887	94.75
510.103	79.75
510.319	96.75
510.536	97.75
510.752	88.75
510.968	96.75
511.184	101.75
511.401	90.75
511.617	78.75
511.833	86.75
512.049	87.75
512.265	98.75
512.481	92.75
512.698	82.75
512.914	102.75
513.13	78.75
513.346	99.75
513.562	84.75
513.778	75.75
513.994	82.75
