Data from Zn(NO3)2Standard.Agarose3%.GreenCap.LampEnergy10E.O_HRD10591_15-07-31-945.txt Node
Date: Mon Jul 22 15:07:31 EDT 2019
User: cochatt
Spectrometer: HR+D1059
Trigger mode: 1
Integration Time (sec): 1.000000E-1
Scans to average: 1
Electric dark correction enabled: true
Nonlinearity correction enabled: false
Boxcar width: 0
XAxis mode: Wavelengths
Number of Pixels in Spectrum: 2048
>>>>>Begin Spectral Data<<<<<
223.165	-13.44
223.4	-13.44
223.635	-13.44
223.869	-26.44
224.104	-11.44
224.338	-27.44
224.573	-8.44
224.808	-22.44
225.042	-12.44
225.277	-1.44
225.511	5.56
225.746	11.56
225.98	1.56
226.215	12.56
226.449	18.56
226.683	22.56
226.918	20.56
227.152	30.56
227.387	37.56
227.621	37.56
227.856	37.56
228.09	48.56
228.324	52.56
228.559	62.56
228.793	70.56
229.027	53.56
229.262	60.56
229.496	60.56
229.73	65.56
229.964	60.56
230.199	63.56
230.433	76.56
230.667	76.56
230.901	80.56
231.136	73.56
231.37	86.56
231.604	76.56
231.838	77.56
232.072	79.56
232.306	73.56
232.541	79.56
232.775	87.56
233.009	88.56
233.243	68.56
233.477	82.56
233.711	84.56
233.945	74.56
234.179	93.56
234.413	90.56
234.647	96.56
234.881	75.56
235.115	93.56
235.349	65.56
235.583	76.56
235.817	88.56
236.051	70.56
236.285	80.56
236.519	78.56
236.753	84.56
236.987	83.56
237.221	80.56
237.455	79.56
237.689	78.56
237.922	67.56
238.156	79.56
238.39	80.56
238.624	75.56
238.858	80.56
239.091	70.56
239.325	74.56
239.559	74.56
239.793	66.56
240.027	67.56
240.26	69.56
240.494	82.56
240.728	76.56
240.961	75.56
241.195	82.56
241.429	84.56
241.662	83.56
241.896	75.56
242.13	68.56
242.363	75.56
242.597	71.56
242.83	72.56
243.064	80.56
243.298	82.56
243.531	81.56
243.765	70.56
243.998	82.56
244.232	98.56
244.465	62.56
244.699	89.56
244.932	74.56
245.166	66.56
245.399	75.56
245.633	77.56
245.866	89.56
246.099	76.56
246.333	82.56
246.566	79.56
246.8	85.56
247.033	81.56
247.266	72.56
247.5	87.56
247.733	81.56
247.966	87.56
248.2	72.56
248.433	99.56
248.666	84.56
248.899	74.56
249.133	73.56
249.366	85.56
249.599	66.56
249.832	79.56
250.066	95.56
250.299	75.56
250.532	77.56
250.765	86.56
250.998	81.56
251.231	75.56
251.465	91.56
251.698	67.56
251.931	80.56
252.164	74.56
252.397	70.56
252.63	81.56
252.863	88.56
253.096	80.56
253.329	93.56
253.562	79.56
253.795	78.56
254.028	80.56
254.261	88.56
254.494	90.56
254.727	81.56
254.96	98.56
255.193	77.56
255.426	88.56
255.659	91.56
255.892	89.56
256.124	78.56
256.357	84.56
256.59	91.56
256.823	79.56
257.056	81.56
257.289	70.56
257.521	73.56
257.754	88.56
257.987	79.56
258.22	76.56
258.452	75.56
258.685	75.56
258.918	79.56
259.151	85.56
259.383	88.56
259.616	87.56
259.849	79.56
260.081	83.56
260.314	84.56
260.547	83.56
260.779	80.56
261.012	86.56
261.244	82.56
261.477	89.56
261.71	72.56
261.942	87.56
262.175	93.56
262.407	82.56
262.64	76.56
262.872	93.56
263.105	91.56
263.337	87.56
263.57	92.56
263.802	92.56
264.035	91.56
264.267	84.56
264.499	85.56
264.732	74.56
264.964	78.56
265.197	72.56
265.429	89.56
265.661	75.56
265.894	91.56
266.126	87.56
266.358	91.56
266.591	91.56
266.823	90.56
267.055	76.56
267.287	77.56
267.52	80.56
267.752	68.56
267.984	80.56
268.216	83.56
268.448	87.56
268.681	89.56
268.913	95.56
269.145	74.56
269.377	84.56
269.609	90.56
269.841	81.56
270.073	87.56
270.306	92.56
270.538	86.56
270.77	77.56
271.002	87.56
271.234	83.56
271.466	77.56
271.698	72.56
271.93	83.56
272.162	82.56
272.394	98.56
272.626	82.56
272.858	94.56
273.09	85.56
273.322	62.56
273.553	87.56
273.785	87.56
274.017	91.56
274.249	100.56
274.481	84.56
274.713	95.56
274.945	95.56
275.176	87.56
275.408	84.56
275.64	88.56
275.872	75.56
276.104	84.56
276.335	74.56
276.567	85.56
276.799	86.56
277.031	95.56
277.262	91.56
277.494	83.56
277.726	85.56
277.957	93.56
278.189	101.56
278.421	85.56
278.652	85.56
278.884	67.56
279.115	74.56
279.347	84.56
279.579	89.56
279.81	79.56
280.042	87.56
280.273	78.56
280.505	94.56
280.736	78.56
280.968	93.56
281.199	94.56
281.431	97.56
281.662	90.56
281.894	101.56
282.125	95.56
282.356	85.56
282.588	88.56
282.819	76.56
283.051	91.56
283.282	83.56
283.513	98.56
283.745	82.56
283.976	83.56
284.207	86.56
284.439	88.56
284.67	78.56
284.901	82.56
285.132	80.56
285.364	91.56
285.595	87.56
285.826	94.56
286.057	89.56
286.288	92.56
286.52	87.56
286.751	93.56
286.982	72.56
287.213	85.56
287.444	94.56
287.675	94.56
287.906	88.56
288.138	79.56
288.369	83.56
288.6	89.56
288.831	85.56
289.062	84.56
289.293	77.56
289.524	83.56
289.755	86.56
289.986	79.56
290.217	86.56
290.448	85.56
290.679	89.56
290.91	99.56
291.141	96.56
291.371	99.56
291.602	81.56
291.833	87.56
292.064	88.56
292.295	81.56
292.526	87.56
292.757	85.56
292.987	80.56
293.218	87.56
293.449	94.56
293.68	86.56
293.91	87.56
294.141	83.56
294.372	96.56
294.603	102.56
294.833	85.56
295.064	86.56
295.295	90.56
295.525	72.56
295.756	90.56
295.987	86.56
296.217	76.56
296.448	77.56
296.679	87.56
296.909	90.56
297.14	91.56
297.37	90.56
297.601	79.56
297.831	80.56
298.062	91.56
298.292	81.56
298.523	93.56
298.753	96.56
298.984	94.56
299.214	85.56
299.445	101.56
299.675	82.56
299.905	83.56
300.136	83.56
300.366	86.56
300.597	90.56
300.827	85.56
301.057	75.56
301.288	77.56
301.518	87.56
301.748	88.56
301.979	98.56
302.209	86.56
302.439	94.56
302.669	89.56
302.9	85.56
303.13	85.56
303.36	102.56
303.59	81.56
303.82	90.56
304.051	84.56
304.281	82.56
304.511	97.56
304.741	75.56
304.971	90.56
305.201	85.56
305.431	94.56
305.661	82.56
305.891	82.56
306.121	80.56
306.352	98.56
306.582	88.56
306.812	83.56
307.042	83.56
307.272	95.56
307.502	86.56
307.731	85.56
307.961	83.56
308.191	66.56
308.421	80.56
308.651	89.56
308.881	70.56
309.111	76.56
309.341	86.56
309.571	79.56
309.8	90.56
310.03	94.56
310.26	75.56
310.49	84.56
310.72	99.56
310.949	94.56
311.179	91.56
311.409	79.56
311.639	103.56
311.868	82.56
312.098	79.56
312.328	70.56
312.557	90.56
312.787	94.56
313.017	92.56
313.246	82.56
313.476	73.56
313.706	82.56
313.935	85.56
314.165	82.56
314.394	90.56
314.624	89.56
314.853	98.56
315.083	80.56
315.312	96.56
315.542	80.56
315.771	87.56
316.001	90.56
316.23	83.56
316.46	79.56
316.689	80.56
316.919	86.56
317.148	96.56
317.377	86.56
317.607	96.56
317.836	91.56
318.065	79.56
318.295	79.56
318.524	76.56
318.753	86.56
318.983	84.56
319.212	98.56
319.441	82.56
319.67	82.56
319.9	91.56
320.129	98.56
320.358	81.56
320.587	81.56
320.816	90.56
321.046	89.56
321.275	96.56
321.504	90.56
321.733	91.56
321.962	98.56
322.191	94.56
322.42	86.56
322.649	91.56
322.878	83.56
323.108	85.56
323.337	83.56
323.566	84.56
323.795	105.56
324.024	88.56
324.253	83.56
324.482	84.56
324.71	98.56
324.939	86.56
325.168	77.56
325.397	94.56
325.626	88.56
325.855	88.56
326.084	91.56
326.313	77.56
326.542	88.56
326.77	91.56
326.999	80.56
327.228	93.56
327.457	88.56
327.686	94.56
327.914	93.56
328.143	80.56
328.372	80.56
328.6	80.56
328.829	92.56
329.058	82.56
329.287	80.56
329.515	92.56
329.744	90.56
329.972	95.56
330.201	80.56
330.43	84.56
330.658	91.56
330.887	81.56
331.115	86.56
331.344	85.56
331.572	100.56
331.801	70.56
332.03	86.56
332.258	87.56
332.486	96.56
332.715	92.56
332.943	91.56
333.172	94.56
333.4	73.56
333.629	83.56
333.857	84.56
334.085	102.56
334.314	85.56
334.542	96.56
334.771	100.56
334.999	88.56
335.227	84.56
335.455	89.56
335.684	109.56
335.912	85.56
336.14	91.56
336.369	100.56
336.597	79.56
336.825	97.56
337.053	93.56
337.281	86.56
337.51	84.56
337.738	76.56
337.966	97.56
338.194	79.56
338.422	79.56
338.65	101.56
338.878	97.56
339.106	77.56
339.334	98.56
339.562	97.56
339.79	93.56
340.018	88.56
340.246	93.56
340.474	77.56
340.702	84.56
340.93	85.56
341.158	83.56
341.386	101.56
341.614	87.56
341.842	82.56
342.07	94.56
342.298	92.56
342.526	95.56
342.754	77.56
342.981	90.56
343.209	86.56
343.437	86.56
343.665	83.56
343.893	100.56
344.12	80.56
344.348	82.56
344.576	84.56
344.804	84.56
345.031	78.56
345.259	84.56
345.487	79.56
345.714	84.56
345.942	91.56
346.17	73.56
346.397	91.56
346.625	81.56
346.853	85.56
347.08	76.56
347.308	89.56
347.535	77.56
347.763	79.56
347.99	88.56
348.218	85.56
348.445	101.56
348.673	84.56
348.9	78.56
349.128	84.56
349.355	92.56
349.583	68.56
349.81	89.56
350.037	87.56
350.265	77.56
350.492	95.56
350.72	94.56
350.947	84.56
351.174	88.56
351.402	62.56
351.629	106.56
351.856	92.56
352.083	80.56
352.311	90.56
352.538	93.56
352.765	90.56
352.992	87.56
353.22	80.56
353.447	81.56
353.674	105.56
353.901	88.56
354.128	81.56
354.355	99.56
354.583	76.56
354.81	87.56
355.037	86.56
355.264	87.56
355.491	77.56
355.718	86.56
355.945	85.56
356.172	86.56
356.399	99.56
356.626	92.56
356.853	88.56
357.08	80.56
357.307	95.56
357.534	91.56
357.761	104.56
357.988	91.56
358.215	87.56
358.441	88.56
358.668	72.56
358.895	92.56
359.122	80.56
359.349	87.56
359.576	95.56
359.802	81.56
360.029	100.56
360.256	95.56
360.483	89.56
360.709	90.56
360.936	100.56
361.163	83.56
361.39	79.56
361.616	91.56
361.843	96.56
362.07	88.56
362.296	84.56
362.523	92.56
362.749	95.56
362.976	87.56
363.203	80.56
363.429	81.56
363.656	88.56
363.882	70.56
364.109	91.56
364.335	90.56
364.562	84.56
364.788	83.56
365.015	88.56
365.241	80.56
365.468	89.56
365.694	78.56
365.92	81.56
366.147	92.56
366.373	90.56
366.599	83.56
366.826	78.56
367.052	84.56
367.278	85.56
367.505	88.56
367.731	80.56
367.957	88.56
368.184	98.56
368.41	86.56
368.636	87.56
368.862	76.56
369.089	85.56
369.315	82.56
369.541	102.56
369.767	82.56
369.993	86.56
370.219	90.56
370.445	93.56
370.672	87.56
370.898	79.56
371.124	92.56
371.35	82.56
371.576	90.56
371.802	99.56
372.028	86.56
372.254	80.56
372.48	83.56
372.706	76.56
372.932	93.56
373.158	79.56
373.384	84.56
373.61	90.56
373.835	94.56
374.061	103.56
374.287	82.56
374.513	76.56
374.739	91.56
374.965	100.56
375.191	93.56
375.416	90.56
375.642	84.56
375.868	86.56
376.094	107.56
376.319	107.56
376.545	97.56
376.771	95.56
376.997	99.56
377.222	77.56
377.448	87.56
377.674	89.56
377.899	92.56
378.125	92.56
378.35	85.56
378.576	85.56
378.802	94.56
379.027	95.56
379.253	109.56
379.478	106.56
379.704	100.56
379.929	90.56
380.155	99.56
380.38	97.56
380.606	86.56
380.831	93.56
381.057	81.56
381.282	87.56
381.507	95.56
381.733	95.56
381.958	83.56
382.184	81.56
382.409	85.56
382.634	100.56
382.86	86.56
383.085	91.56
383.31	103.56
383.535	82.56
383.761	96.56
383.986	89.56
384.211	90.56
384.436	98.56
384.662	87.56
384.887	96.56
385.112	72.56
385.337	92.56
385.562	105.56
385.787	93.56
386.013	107.56
386.238	91.56
386.463	100.56
386.688	83.56
386.913	91.56
387.138	88.56
387.363	92.56
387.588	90.56
387.813	92.56
388.038	87.56
388.263	97.56
388.488	92.56
388.713	99.56
388.938	85.56
389.163	97.56
389.387	96.56
389.612	100.56
389.837	98.56
390.062	92.56
390.287	101.56
390.512	86.56
390.736	94.56
390.961	90.56
391.186	80.56
391.411	87.56
391.636	82.56
391.86	86.56
392.085	88.56
392.31	98.56
392.534	103.56
392.759	90.56
392.984	86.56
393.208	94.56
393.433	95.56
393.658	93.56
393.882	102.56
394.107	112.56
394.331	103.56
394.556	84.56
394.78	84.56
395.005	103.56
395.229	96.56
395.454	80.56
395.678	86.56
395.903	95.56
396.127	92.56
396.352	105.56
396.576	77.56
396.801	94.56
397.025	90.56
397.249	102.56
397.474	111.56
397.698	80.56
397.922	91.56
398.147	97.56
398.371	90.56
398.595	93.56
398.82	102.56
399.044	105.56
399.268	94.56
399.492	95.56
399.717	95.56
399.941	106.56
400.165	99.56
400.389	103.56
400.613	101.56
400.837	101.56
401.062	86.56
401.286	108.56
401.51	101.56
401.734	105.56
401.958	90.56
402.182	103.56
402.406	94.56
402.63	90.56
402.854	89.56
403.078	109.56
403.302	106.56
403.526	94.56
403.75	109.56
403.974	101.56
404.198	101.56
404.422	104.56
404.645	101.56
404.869	95.56
405.093	106.56
405.317	96.56
405.541	110.56
405.765	88.56
405.988	91.56
406.212	86.56
406.436	101.56
406.66	99.56
406.883	94.56
407.107	104.56
407.331	99.56
407.555	103.56
407.778	104.56
408.002	105.56
408.226	91.56
408.449	114.56
408.673	94.56
408.896	114.56
409.12	92.56
409.344	99.56
409.567	108.56
409.791	92.56
410.014	102.56
410.238	95.56
410.461	95.56
410.685	99.56
410.908	88.56
411.132	106.56
411.355	100.56
411.578	107.56
411.802	119.56
412.025	100.56
412.249	118.56
412.472	118.56
412.695	103.56
412.919	123.56
413.142	100.56
413.365	111.56
413.589	107.56
413.812	103.56
414.035	110.56
414.258	111.56
414.482	104.56
414.705	119.56
414.928	108.56
415.151	108.56
415.374	90.56
415.597	93.56
415.821	111.56
416.044	95.56
416.267	114.56
416.49	113.56
416.713	112.56
416.936	96.56
417.159	111.56
417.382	119.56
417.605	110.56
417.828	121.56
418.051	122.56
418.274	102.56
418.497	114.56
418.72	108.56
418.943	107.56
419.166	120.56
419.389	120.56
419.611	119.56
419.834	128.56
420.057	107.56
420.28	100.56
420.503	103.56
420.726	103.56
420.948	104.56
421.171	109.56
421.394	111.56
421.617	111.56
421.839	107.56
422.062	124.56
422.285	103.56
422.507	104.56
422.73	117.56
422.953	96.56
423.175	90.56
423.398	110.56
423.621	108.56
423.843	107.56
424.066	93.56
424.288	96.56
424.511	111.56
424.733	109.56
424.956	99.56
425.178	94.56
425.401	110.56
425.623	118.56
425.846	121.56
426.068	113.56
426.291	104.56
426.513	106.56
426.735	105.56
426.958	104.56
427.18	104.56
427.402	101.56
427.625	109.56
427.847	106.56
428.069	110.56
428.292	114.56
428.514	106.56
428.736	107.56
428.958	107.56
429.181	99.56
429.403	94.56
429.625	103.56
429.847	107.56
430.069	96.56
430.292	95.56
430.514	98.56
430.736	106.56
430.958	106.56
431.18	105.56
431.402	112.56
431.624	111.56
431.846	107.56
432.068	92.56
432.29	93.56
432.512	102.56
432.734	117.56
432.956	117.56
433.178	108.56
433.4	108.56
433.622	116.56
433.844	110.56
434.066	104.56
434.287	96.56
434.509	103.56
434.731	107.56
434.953	87.56
435.175	99.56
435.397	108.56
435.618	107.56
435.84	96.56
436.062	106.56
436.284	103.56
436.505	123.56
436.727	92.56
436.949	107.56
437.17	114.56
437.392	104.56
437.614	87.56
437.835	95.56
438.057	94.56
438.278	107.56
438.5	105.56
438.721	120.56
438.943	118.56
439.165	104.56
439.386	120.56
439.608	118.56
439.829	114.56
440.05	111.56
440.272	125.56
440.493	108.56
440.715	122.56
440.936	116.56
441.158	117.56
441.379	119.56
441.6	117.56
441.822	111.56
442.043	112.56
442.264	118.56
442.486	114.56
442.707	105.56
442.928	111.56
443.149	110.56
443.371	114.56
443.592	107.56
443.813	115.56
444.034	116.56
444.255	101.56
444.476	116.56
444.698	107.56
444.919	91.56
445.14	241.56
445.361	153.56
445.582	131.56
445.803	112.56
446.024	115.56
446.245	126.56
446.466	111.56
446.687	119.56
446.908	126.56
447.129	126.56
447.35	119.56
447.571	119.56
447.792	92.56
448.013	111.56
448.234	115.56
448.455	99.56
448.675	117.56
448.896	109.56
449.117	113.56
449.338	107.56
449.559	111.56
449.779	106.56
450	100.56
450.221	108.56
450.442	107.56
450.662	109.56
450.883	103.56
451.104	90.56
451.324	105.56
451.545	106.56
451.766	102.56
451.986	87.56
452.207	100.56
452.428	106.56
452.648	88.56
452.869	101.56
453.089	92.56
453.31	102.56
453.53	81.56
453.751	102.56
453.971	87.56
454.192	93.56
454.412	105.56
454.633	98.56
454.853	100.56
455.073	102.56
455.294	100.56
455.514	106.56
455.734	103.56
455.955	96.56
456.175	115.56
456.395	97.56
456.616	109.56
456.836	100.56
457.056	103.56
457.276	102.56
457.497	108.56
457.717	98.56
457.937	105.56
458.157	100.56
458.377	95.56
458.598	86.56
458.818	93.56
459.038	84.56
459.258	88.56
459.478	86.56
459.698	93.56
459.918	95.56
460.138	92.56
460.358	86.56
460.578	92.56
460.798	102.56
461.018	98.56
461.238	102.56
461.458	103.56
461.678	108.56
461.898	109.56
462.118	101.56
462.338	95.56
462.558	111.56
462.777	97.56
462.997	92.56
463.217	102.56
463.437	90.56
463.657	94.56
463.876	90.56
464.096	94.56
464.316	103.56
464.536	86.56
464.755	95.56
464.975	90.56
465.195	113.56
465.414	94.56
465.634	98.56
465.854	112.56
466.073	105.56
466.293	101.56
466.512	109.56
466.732	102.56
466.951	112.56
467.171	106.56
467.391	109.56
467.61	110.56
467.829	110.56
468.049	108.56
468.268	104.56
468.488	101.56
468.707	108.56
468.927	117.56
469.146	116.56
469.365	111.56
469.585	100.56
469.804	116.56
470.023	92.56
470.243	111.56
470.462	108.56
470.681	115.56
470.901	115.56
471.12	97.56
471.339	124.56
471.558	108.56
471.777	101.56
471.997	104.56
472.216	106.56
472.435	95.56
472.654	101.56
472.873	101.56
473.092	88.56
473.311	114.56
473.53	106.56
473.749	104.56
473.968	106.56
474.187	92.56
474.406	110.56
474.625	97.56
474.844	114.56
475.063	102.56
475.282	118.56
475.501	108.56
475.72	105.56
475.939	109.56
476.158	109.56
476.377	97.56
476.596	114.56
476.814	118.56
477.033	101.56
477.252	99.56
477.471	97.56
477.69	113.56
477.908	119.56
478.127	94.56
478.346	117.56
478.564	108.56
478.783	101.56
479.002	90.56
479.22	110.56
479.439	112.56
479.658	99.56
479.876	107.56
480.095	86.56
480.313	103.56
480.532	110.56
480.751	110.56
480.969	91.56
481.188	92.56
481.406	88.56
481.624	83.56
481.843	82.56
482.061	74.56
482.28	99.56
482.498	110.56
482.717	113.56
482.935	105.56
483.153	117.56
483.372	103.56
483.59	117.56
483.808	110.56
484.027	107.56
484.245	102.56
484.463	122.56
484.681	128.56
484.9	113.56
485.118	90.56
485.336	117.56
485.554	113.56
485.772	105.56
485.99	92.56
486.209	101.56
486.427	97.56
486.645	99.56
486.863	114.56
487.081	123.56
487.299	109.56
487.517	108.56
487.735	126.56
487.953	128.56
488.171	128.56
488.389	120.56
488.607	120.56
488.825	112.56
489.043	110.56
489.261	95.56
489.479	103.56
489.696	112.56
489.914	119.56
490.132	124.56
490.35	131.56
490.568	132.56
490.786	130.56
491.003	143.56
491.221	138.56
491.439	135.56
491.657	122.56
491.874	136.56
492.092	150.56
492.31	154.56
492.527	139.56
492.745	141.56
492.963	135.56
493.18	138.56
493.398	134.56
493.615	127.56
493.833	130.56
494.05	141.56
494.268	115.56
494.485	126.56
494.703	140.56
494.92	129.56
495.138	121.56
495.355	127.56
495.573	138.56
495.79	130.56
496.008	138.56
496.225	130.56
496.442	118.56
496.66	130.56
496.877	112.56
497.094	123.56
497.312	111.56
497.529	112.56
497.746	118.56
497.963	121.56
498.181	118.56
498.398	109.56
498.615	104.56
498.832	114.56
499.049	89.56
499.267	104.56
499.484	100.56
499.701	110.56
499.918	116.56
500.135	112.56
500.352	116.56
500.569	102.56
500.786	124.56
501.003	109.56
501.22	112.56
501.437	101.56
501.654	102.56
501.871	105.56
502.088	106.56
502.305	105.56
502.522	101.56
502.739	103.56
502.956	104.56
503.172	93.56
503.389	92.56
503.606	106.56
503.823	101.56
504.04	106.56
504.256	92.56
504.473	99.56
504.69	101.56
504.907	107.56
505.123	108.56
505.34	104.56
505.557	129.56
505.773	118.56
505.99	103.56
506.207	96.56
506.423	100.56
506.64	100.56
506.856	94.56
507.073	104.56
507.289	98.56
507.506	107.56
507.722	104.56
507.939	100.56
508.155	115.56
508.372	109.56
508.588	104.56
508.805	118.56
509.021	91.56
509.238	95.56
509.454	106.56
509.67	81.56
509.887	95.56
510.103	90.56
510.319	100.56
510.536	77.56
510.752	87.56
510.968	81.56
511.184	85.56
511.401	95.56
511.617	92.56
511.833	105.56
512.049	100.56
512.265	94.56
512.481	96.56
512.698	89.56
512.914	91.56
513.13	85.56
513.346	80.56
