Data from Zn(NO3)2Standard.Agarose3%.GreenCap.LampEnergy10E.O_HRD10591_15-07-23-944.txt Node
Date: Mon Jul 22 15:07:23 EDT 2019
User: cochatt
Spectrometer: HR+D1059
Trigger mode: 1
Integration Time (sec): 1.000000E-1
Scans to average: 1
Electric dark correction enabled: true
Nonlinearity correction enabled: false
Boxcar width: 0
XAxis mode: Wavelengths
Number of Pixels in Spectrum: 2048
>>>>>Begin Spectral Data<<<<<
223.165	-15.81
223.4	-15.81
223.635	-15.81
223.869	-15.81
224.104	-11.81
224.338	-17.81
224.573	-26.81
224.808	-16.81
225.042	-3.81
225.277	-5.81
225.511	7.19
225.746	3.19
225.98	16.19
226.215	5.19
226.449	18.19
226.683	15.19
226.918	25.19
227.152	24.19
227.387	35.19
227.621	41.19
227.856	33.19
228.09	28.19
228.324	45.19
228.559	53.19
228.793	57.19
229.027	59.19
229.262	72.19
229.496	81.19
229.73	70.19
229.964	72.19
230.199	74.19
230.433	66.19
230.667	66.19
230.901	82.19
231.136	76.19
231.37	65.19
231.604	73.19
231.838	76.19
232.072	75.19
232.306	72.19
232.541	86.19
232.775	65.19
233.009	72.19
233.243	81.19
233.477	88.19
233.711	79.19
233.945	90.19
234.179	84.19
234.413	90.19
234.647	78.19
234.881	97.19
235.115	87.19
235.349	76.19
235.583	90.19
235.817	73.19
236.051	70.19
236.285	75.19
236.519	76.19
236.753	73.19
236.987	71.19
237.221	91.19
237.455	68.19
237.689	64.19
237.922	80.19
238.156	91.19
238.39	68.19
238.624	75.19
238.858	78.19
239.091	67.19
239.325	72.19
239.559	78.19
239.793	74.19
240.027	74.19
240.26	87.19
240.494	64.19
240.728	73.19
240.961	74.19
241.195	87.19
241.429	79.19
241.662	74.19
241.896	67.19
242.13	86.19
242.363	86.19
242.597	89.19
242.83	80.19
243.064	80.19
243.298	74.19
243.531	79.19
243.765	66.19
243.998	85.19
244.232	79.19
244.465	81.19
244.699	72.19
244.932	72.19
245.166	78.19
245.399	74.19
245.633	67.19
245.866	75.19
246.099	77.19
246.333	78.19
246.566	74.19
246.8	73.19
247.033	82.19
247.266	80.19
247.5	56.19
247.733	80.19
247.966	79.19
248.2	82.19
248.433	91.19
248.666	79.19
248.899	80.19
249.133	81.19
249.366	87.19
249.599	85.19
249.832	70.19
250.066	68.19
250.299	78.19
250.532	92.19
250.765	84.19
250.998	80.19
251.231	91.19
251.465	77.19
251.698	73.19
251.931	87.19
252.164	85.19
252.397	78.19
252.63	85.19
252.863	73.19
253.096	60.19
253.329	76.19
253.562	85.19
253.795	97.19
254.028	82.19
254.261	91.19
254.494	82.19
254.727	91.19
254.96	79.19
255.193	89.19
255.426	70.19
255.659	88.19
255.892	85.19
256.124	75.19
256.357	73.19
256.59	97.19
256.823	78.19
257.056	78.19
257.289	82.19
257.521	86.19
257.754	85.19
257.987	79.19
258.22	81.19
258.452	82.19
258.685	83.19
258.918	82.19
259.151	85.19
259.383	86.19
259.616	76.19
259.849	90.19
260.081	96.19
260.314	68.19
260.547	81.19
260.779	89.19
261.012	89.19
261.244	69.19
261.477	97.19
261.71	81.19
261.942	70.19
262.175	88.19
262.407	75.19
262.64	77.19
262.872	84.19
263.105	77.19
263.337	70.19
263.57	92.19
263.802	83.19
264.035	85.19
264.267	63.19
264.499	98.19
264.732	91.19
264.964	94.19
265.197	86.19
265.429	78.19
265.661	81.19
265.894	85.19
266.126	76.19
266.358	78.19
266.591	81.19
266.823	78.19
267.055	81.19
267.287	71.19
267.52	68.19
267.752	74.19
267.984	95.19
268.216	90.19
268.448	78.19
268.681	78.19
268.913	78.19
269.145	89.19
269.377	87.19
269.609	84.19
269.841	82.19
270.073	75.19
270.306	70.19
270.538	84.19
270.77	106.19
271.002	92.19
271.234	94.19
271.466	70.19
271.698	82.19
271.93	82.19
272.162	75.19
272.394	88.19
272.626	77.19
272.858	68.19
273.09	82.19
273.322	79.19
273.553	89.19
273.785	105.19
274.017	82.19
274.249	86.19
274.481	89.19
274.713	69.19
274.945	85.19
275.176	98.19
275.408	74.19
275.64	69.19
275.872	85.19
276.104	96.19
276.335	94.19
276.567	98.19
276.799	72.19
277.031	77.19
277.262	77.19
277.494	77.19
277.726	94.19
277.957	85.19
278.189	75.19
278.421	77.19
278.652	87.19
278.884	69.19
279.115	91.19
279.347	77.19
279.579	90.19
279.81	85.19
280.042	94.19
280.273	79.19
280.505	88.19
280.736	89.19
280.968	78.19
281.199	78.19
281.431	87.19
281.662	94.19
281.894	84.19
282.125	83.19
282.356	85.19
282.588	78.19
282.819	76.19
283.051	89.19
283.282	89.19
283.513	93.19
283.745	77.19
283.976	82.19
284.207	84.19
284.439	80.19
284.67	71.19
284.901	77.19
285.132	95.19
285.364	74.19
285.595	90.19
285.826	78.19
286.057	75.19
286.288	86.19
286.52	84.19
286.751	87.19
286.982	84.19
287.213	68.19
287.444	82.19
287.675	87.19
287.906	85.19
288.138	74.19
288.369	80.19
288.6	85.19
288.831	89.19
289.062	86.19
289.293	81.19
289.524	82.19
289.755	85.19
289.986	90.19
290.217	80.19
290.448	80.19
290.679	90.19
290.91	83.19
291.141	83.19
291.371	100.19
291.602	78.19
291.833	78.19
292.064	89.19
292.295	80.19
292.526	87.19
292.757	95.19
292.987	89.19
293.218	84.19
293.449	81.19
293.68	99.19
293.91	70.19
294.141	82.19
294.372	92.19
294.603	84.19
294.833	71.19
295.064	78.19
295.295	88.19
295.525	85.19
295.756	85.19
295.987	94.19
296.217	81.19
296.448	80.19
296.679	92.19
296.909	91.19
297.14	90.19
297.37	88.19
297.601	70.19
297.831	78.19
298.062	89.19
298.292	81.19
298.523	87.19
298.753	85.19
298.984	77.19
299.214	80.19
299.445	81.19
299.675	82.19
299.905	84.19
300.136	81.19
300.366	74.19
300.597	67.19
300.827	86.19
301.057	84.19
301.288	76.19
301.518	97.19
301.748	92.19
301.979	95.19
302.209	85.19
302.439	99.19
302.669	95.19
302.9	85.19
303.13	90.19
303.36	80.19
303.59	87.19
303.82	85.19
304.051	90.19
304.281	92.19
304.511	91.19
304.741	88.19
304.971	90.19
305.201	94.19
305.431	88.19
305.661	72.19
305.891	95.19
306.121	80.19
306.352	89.19
306.582	83.19
306.812	77.19
307.042	82.19
307.272	103.19
307.502	76.19
307.731	84.19
307.961	78.19
308.191	76.19
308.421	82.19
308.651	78.19
308.881	83.19
309.111	94.19
309.341	83.19
309.571	89.19
309.8	87.19
310.03	92.19
310.26	94.19
310.49	86.19
310.72	88.19
310.949	91.19
311.179	97.19
311.409	95.19
311.639	73.19
311.868	83.19
312.098	86.19
312.328	81.19
312.557	88.19
312.787	94.19
313.017	81.19
313.246	108.19
313.476	78.19
313.706	80.19
313.935	86.19
314.165	89.19
314.394	87.19
314.624	92.19
314.853	111.19
315.083	98.19
315.312	99.19
315.542	90.19
315.771	85.19
316.001	74.19
316.23	81.19
316.46	94.19
316.689	95.19
316.919	71.19
317.148	87.19
317.377	94.19
317.607	78.19
317.836	90.19
318.065	80.19
318.295	88.19
318.524	88.19
318.753	85.19
318.983	93.19
319.212	85.19
319.441	85.19
319.67	78.19
319.9	80.19
320.129	97.19
320.358	96.19
320.587	90.19
320.816	91.19
321.046	77.19
321.275	83.19
321.504	87.19
321.733	88.19
321.962	90.19
322.191	87.19
322.42	77.19
322.649	85.19
322.878	81.19
323.108	93.19
323.337	97.19
323.566	87.19
323.795	84.19
324.024	90.19
324.253	74.19
324.482	79.19
324.71	87.19
324.939	88.19
325.168	79.19
325.397	65.19
325.626	89.19
325.855	83.19
326.084	88.19
326.313	83.19
326.542	89.19
326.77	85.19
326.999	79.19
327.228	79.19
327.457	79.19
327.686	75.19
327.914	83.19
328.143	105.19
328.372	82.19
328.6	87.19
328.829	84.19
329.058	100.19
329.287	93.19
329.515	80.19
329.744	62.19
329.972	76.19
330.201	88.19
330.43	79.19
330.658	80.19
330.887	79.19
331.115	76.19
331.344	80.19
331.572	89.19
331.801	77.19
332.03	81.19
332.258	80.19
332.486	85.19
332.715	69.19
332.943	97.19
333.172	86.19
333.4	79.19
333.629	85.19
333.857	83.19
334.085	86.19
334.314	91.19
334.542	98.19
334.771	93.19
334.999	80.19
335.227	98.19
335.455	84.19
335.684	104.19
335.912	84.19
336.14	94.19
336.369	91.19
336.597	89.19
336.825	104.19
337.053	91.19
337.281	83.19
337.51	74.19
337.738	93.19
337.966	90.19
338.194	87.19
338.422	85.19
338.65	90.19
338.878	83.19
339.106	90.19
339.334	91.19
339.562	94.19
339.79	80.19
340.018	82.19
340.246	77.19
340.474	82.19
340.702	78.19
340.93	86.19
341.158	87.19
341.386	88.19
341.614	74.19
341.842	75.19
342.07	78.19
342.298	92.19
342.526	88.19
342.754	71.19
342.981	102.19
343.209	98.19
343.437	80.19
343.665	90.19
343.893	79.19
344.12	85.19
344.348	89.19
344.576	91.19
344.804	72.19
345.031	84.19
345.259	85.19
345.487	86.19
345.714	91.19
345.942	71.19
346.17	64.19
346.397	86.19
346.625	80.19
346.853	87.19
347.08	86.19
347.308	89.19
347.535	91.19
347.763	99.19
347.99	89.19
348.218	91.19
348.445	76.19
348.673	96.19
348.9	80.19
349.128	86.19
349.355	76.19
349.583	89.19
349.81	83.19
350.037	82.19
350.265	86.19
350.492	92.19
350.72	90.19
350.947	79.19
351.174	85.19
351.402	83.19
351.629	89.19
351.856	83.19
352.083	82.19
352.311	90.19
352.538	90.19
352.765	93.19
352.992	87.19
353.22	85.19
353.447	79.19
353.674	90.19
353.901	74.19
354.128	85.19
354.355	80.19
354.583	96.19
354.81	90.19
355.037	83.19
355.264	94.19
355.491	88.19
355.718	74.19
355.945	81.19
356.172	85.19
356.399	99.19
356.626	82.19
356.853	94.19
357.08	71.19
357.307	84.19
357.534	89.19
357.761	94.19
357.988	90.19
358.215	90.19
358.441	79.19
358.668	82.19
358.895	101.19
359.122	102.19
359.349	87.19
359.576	94.19
359.802	85.19
360.029	75.19
360.256	84.19
360.483	84.19
360.709	71.19
360.936	91.19
361.163	88.19
361.39	94.19
361.616	77.19
361.843	78.19
362.07	73.19
362.296	96.19
362.523	77.19
362.749	80.19
362.976	88.19
363.203	92.19
363.429	77.19
363.656	97.19
363.882	86.19
364.109	83.19
364.335	83.19
364.562	77.19
364.788	87.19
365.015	97.19
365.241	85.19
365.468	95.19
365.694	82.19
365.92	95.19
366.147	97.19
366.373	82.19
366.599	72.19
366.826	85.19
367.052	89.19
367.278	87.19
367.505	79.19
367.731	91.19
367.957	72.19
368.184	78.19
368.41	79.19
368.636	87.19
368.862	85.19
369.089	89.19
369.315	82.19
369.541	85.19
369.767	75.19
369.993	98.19
370.219	83.19
370.445	95.19
370.672	84.19
370.898	82.19
371.124	82.19
371.35	89.19
371.576	89.19
371.802	100.19
372.028	90.19
372.254	72.19
372.48	85.19
372.706	71.19
372.932	87.19
373.158	88.19
373.384	85.19
373.61	92.19
373.835	84.19
374.061	83.19
374.287	89.19
374.513	81.19
374.739	103.19
374.965	89.19
375.191	97.19
375.416	100.19
375.642	81.19
375.868	99.19
376.094	93.19
376.319	73.19
376.545	77.19
376.771	97.19
376.997	87.19
377.222	77.19
377.448	85.19
377.674	98.19
377.899	94.19
378.125	92.19
378.35	92.19
378.576	98.19
378.802	95.19
379.027	102.19
379.253	92.19
379.478	97.19
379.704	95.19
379.929	80.19
380.155	86.19
380.38	86.19
380.606	96.19
380.831	92.19
381.057	102.19
381.282	95.19
381.507	84.19
381.733	88.19
381.958	98.19
382.184	84.19
382.409	80.19
382.634	97.19
382.86	89.19
383.085	87.19
383.31	90.19
383.535	85.19
383.761	89.19
383.986	105.19
384.211	97.19
384.436	87.19
384.662	77.19
384.887	90.19
385.112	89.19
385.337	101.19
385.562	97.19
385.787	89.19
386.013	91.19
386.238	105.19
386.463	97.19
386.688	92.19
386.913	90.19
387.138	92.19
387.363	80.19
387.588	102.19
387.813	82.19
388.038	84.19
388.263	91.19
388.488	101.19
388.713	84.19
388.938	85.19
389.163	88.19
389.387	93.19
389.612	95.19
389.837	93.19
390.062	105.19
390.287	115.19
390.512	91.19
390.736	91.19
390.961	92.19
391.186	96.19
391.411	87.19
391.636	97.19
391.86	94.19
392.085	89.19
392.31	88.19
392.534	90.19
392.759	87.19
392.984	99.19
393.208	88.19
393.433	99.19
393.658	90.19
393.882	91.19
394.107	95.19
394.331	92.19
394.556	94.19
394.78	97.19
395.005	102.19
395.229	91.19
395.454	95.19
395.678	94.19
395.903	83.19
396.127	81.19
396.352	104.19
396.576	107.19
396.801	90.19
397.025	72.19
397.249	97.19
397.474	103.19
397.698	97.19
397.922	79.19
398.147	98.19
398.371	94.19
398.595	91.19
398.82	86.19
399.044	101.19
399.268	93.19
399.492	100.19
399.717	93.19
399.941	95.19
400.165	94.19
400.389	81.19
400.613	87.19
400.837	96.19
401.062	93.19
401.286	88.19
401.51	103.19
401.734	95.19
401.958	88.19
402.182	89.19
402.406	94.19
402.63	96.19
402.854	97.19
403.078	107.19
403.302	101.19
403.526	87.19
403.75	82.19
403.974	96.19
404.198	103.19
404.422	81.19
404.645	101.19
404.869	101.19
405.093	102.19
405.317	103.19
405.541	97.19
405.765	89.19
405.988	111.19
406.212	94.19
406.436	103.19
406.66	97.19
406.883	103.19
407.107	104.19
407.331	100.19
407.555	94.19
407.778	116.19
408.002	90.19
408.226	101.19
408.449	107.19
408.673	94.19
408.896	103.19
409.12	103.19
409.344	86.19
409.567	105.19
409.791	110.19
410.014	97.19
410.238	89.19
410.461	99.19
410.685	100.19
410.908	100.19
411.132	109.19
411.355	109.19
411.578	98.19
411.802	96.19
412.025	110.19
412.249	83.19
412.472	111.19
412.695	105.19
412.919	97.19
413.142	98.19
413.365	97.19
413.589	98.19
413.812	82.19
414.035	100.19
414.258	104.19
414.482	103.19
414.705	106.19
414.928	111.19
415.151	104.19
415.374	98.19
415.597	107.19
415.821	90.19
416.044	103.19
416.267	92.19
416.49	105.19
416.713	98.19
416.936	113.19
417.159	99.19
417.382	109.19
417.605	102.19
417.828	93.19
418.051	105.19
418.274	95.19
418.497	112.19
418.72	99.19
418.943	113.19
419.166	118.19
419.389	102.19
419.611	102.19
419.834	103.19
420.057	108.19
420.28	113.19
420.503	99.19
420.726	105.19
420.948	107.19
421.171	99.19
421.394	92.19
421.617	108.19
421.839	117.19
422.062	106.19
422.285	107.19
422.507	104.19
422.73	105.19
422.953	106.19
423.175	108.19
423.398	119.19
423.621	99.19
423.843	99.19
424.066	104.19
424.288	108.19
424.511	116.19
424.733	104.19
424.956	100.19
425.178	83.19
425.401	109.19
425.623	97.19
425.846	100.19
426.068	102.19
426.291	114.19
426.513	100.19
426.735	102.19
426.958	108.19
427.18	115.19
427.402	119.19
427.625	100.19
427.847	107.19
428.069	101.19
428.292	116.19
428.514	112.19
428.736	117.19
428.958	98.19
429.181	103.19
429.403	111.19
429.625	105.19
429.847	117.19
430.069	103.19
430.292	97.19
430.514	100.19
430.736	115.19
430.958	93.19
431.18	112.19
431.402	113.19
431.624	90.19
431.846	82.19
432.068	87.19
432.29	86.19
432.512	106.19
432.734	107.19
432.956	113.19
433.178	95.19
433.4	105.19
433.622	102.19
433.844	110.19
434.066	100.19
434.287	90.19
434.509	88.19
434.731	104.19
434.953	106.19
435.175	87.19
435.397	100.19
435.618	95.19
435.84	94.19
436.062	87.19
436.284	97.19
436.505	106.19
436.727	109.19
436.949	111.19
437.17	110.19
437.392	104.19
437.614	86.19
437.835	89.19
438.057	90.19
438.278	93.19
438.5	118.19
438.721	107.19
438.943	92.19
439.165	128.19
439.386	113.19
439.608	125.19
439.829	92.19
440.05	92.19
440.272	111.19
440.493	118.19
440.715	110.19
440.936	106.19
441.158	121.19
441.379	115.19
441.6	110.19
441.822	108.19
442.043	119.19
442.264	122.19
442.486	108.19
442.707	107.19
442.928	127.19
443.149	91.19
443.371	110.19
443.592	103.19
443.813	90.19
444.034	114.19
444.255	103.19
444.476	107.19
444.698	104.19
444.919	114.19
445.14	229.19
445.361	175.19
445.582	95.19
445.803	102.19
446.024	114.19
446.245	125.19
446.466	111.19
446.687	120.19
446.908	125.19
447.129	130.19
447.35	113.19
447.571	108.19
447.792	98.19
448.013	102.19
448.234	95.19
448.455	114.19
448.675	114.19
448.896	93.19
449.117	104.19
449.338	100.19
449.559	94.19
449.779	100.19
450	121.19
450.221	116.19
450.442	89.19
450.662	103.19
450.883	106.19
451.104	107.19
451.324	101.19
451.545	108.19
451.766	119.19
451.986	96.19
452.207	108.19
452.428	91.19
452.648	106.19
452.869	110.19
453.089	90.19
453.31	90.19
453.53	102.19
453.751	87.19
453.971	94.19
454.192	100.19
454.412	89.19
454.633	101.19
454.853	93.19
455.073	110.19
455.294	95.19
455.514	117.19
455.734	102.19
455.955	99.19
456.175	89.19
456.395	98.19
456.616	93.19
456.836	116.19
457.056	91.19
457.276	92.19
457.497	101.19
457.717	87.19
457.937	101.19
458.157	101.19
458.377	87.19
458.598	90.19
458.818	78.19
459.038	86.19
459.258	80.19
459.478	86.19
459.698	87.19
459.918	86.19
460.138	99.19
460.358	95.19
460.578	100.19
460.798	96.19
461.018	97.19
461.238	117.19
461.458	97.19
461.678	99.19
461.898	111.19
462.118	91.19
462.338	99.19
462.558	103.19
462.777	108.19
462.997	92.19
463.217	88.19
463.437	91.19
463.657	86.19
463.876	100.19
464.096	100.19
464.316	94.19
464.536	94.19
464.755	90.19
464.975	92.19
465.195	107.19
465.414	89.19
465.634	100.19
465.854	119.19
466.073	103.19
466.293	121.19
466.512	103.19
466.732	117.19
466.951	113.19
467.171	102.19
467.391	117.19
467.61	106.19
467.829	115.19
468.049	107.19
468.268	113.19
468.488	108.19
468.707	118.19
468.927	100.19
469.146	90.19
469.365	111.19
469.585	103.19
469.804	113.19
470.023	107.19
470.243	118.19
470.462	117.19
470.681	111.19
470.901	124.19
471.12	110.19
471.339	121.19
471.558	116.19
471.777	116.19
471.997	105.19
472.216	113.19
472.435	92.19
472.654	109.19
472.873	93.19
473.092	91.19
473.311	108.19
473.53	103.19
473.749	93.19
473.968	101.19
474.187	106.19
474.406	103.19
474.625	105.19
474.844	100.19
475.063	103.19
475.282	101.19
475.501	104.19
475.72	101.19
475.939	107.19
476.158	99.19
476.377	98.19
476.596	100.19
476.814	114.19
477.033	95.19
477.252	101.19
477.471	104.19
477.69	117.19
477.908	115.19
478.127	127.19
478.346	121.19
478.564	116.19
478.783	94.19
479.002	111.19
479.22	126.19
479.439	107.19
479.658	107.19
479.876	104.19
480.095	102.19
480.313	89.19
480.532	117.19
480.751	100.19
480.969	79.19
481.188	86.19
481.406	88.19
481.624	94.19
481.843	96.19
482.061	100.19
482.28	81.19
482.498	101.19
482.717	88.19
482.935	99.19
483.153	105.19
483.372	136.19
483.59	103.19
483.808	93.19
484.027	121.19
484.245	110.19
484.463	108.19
484.681	119.19
484.9	104.19
485.118	117.19
485.336	105.19
485.554	86.19
485.772	98.19
485.99	97.19
486.209	101.19
486.427	96.19
486.645	99.19
486.863	105.19
487.081	118.19
487.299	102.19
487.517	113.19
487.735	103.19
487.953	128.19
488.171	139.19
488.389	128.19
488.607	117.19
488.825	103.19
489.043	107.19
489.261	108.19
489.479	104.19
489.696	107.19
489.914	115.19
490.132	117.19
490.35	124.19
490.568	113.19
490.786	121.19
491.003	130.19
491.221	121.19
491.439	133.19
491.657	134.19
491.874	152.19
492.092	151.19
492.31	150.19
492.527	154.19
492.745	140.19
492.963	152.19
493.18	145.19
493.398	128.19
493.615	135.19
493.833	135.19
494.05	128.19
494.268	127.19
494.485	127.19
494.703	131.19
494.92	127.19
495.138	119.19
495.355	119.19
495.573	133.19
495.79	122.19
496.008	122.19
496.225	114.19
496.442	126.19
496.66	124.19
496.877	114.19
497.094	123.19
497.312	131.19
497.529	130.19
497.746	110.19
497.963	108.19
498.181	106.19
498.398	109.19
498.615	98.19
498.832	103.19
499.049	94.19
499.267	115.19
499.484	117.19
499.701	108.19
499.918	113.19
500.135	99.19
500.352	123.19
500.569	119.19
500.786	128.19
501.003	100.19
501.22	117.19
501.437	117.19
501.654	97.19
501.871	110.19
502.088	108.19
502.305	110.19
502.522	107.19
502.739	94.19
502.956	109.19
503.172	104.19
503.389	90.19
503.606	94.19
503.823	110.19
504.04	98.19
504.256	107.19
504.473	97.19
504.69	99.19
504.907	120.19
505.123	92.19
505.34	99.19
505.557	111.19
505.773	100.19
505.99	101.19
506.207	105.19
506.423	110.19
506.64	112.19
506.856	114.19
507.073	98.19
507.289	96.19
507.506	107.19
507.722	115.19
507.939	111.19
508.155	97.19
508.372	107.19
508.588	104.19
508.805	123.19
509.021	107.19
509.238	88.19
509.454	96.19
509.67	95.19
509.887	101.19
510.103	90.19
510.319	89.19
510.536	92.19
510.752	87.19
510.968	78.19
511.184	74.19
511.401	74.19
511.617	100.19
511.833	88.19
512.049	88.19
512.265	78.19
512.481	102.19
512.698	114.19
512.914	99.19
513.13	92.19
513.346	90.19
513.562	88.19
513.778	92.19
513.994	93.19
514.21	75.19
