Data from Zn(NO3)2Standard.Agarose3%.GreenCap.LampEnergy5.5.E.O_HRD10591_15-03-34-768.txt Node
Date: Mon Jul 22 15:03:34 EDT 2019
User: cochatt
Spectrometer: HR+D1059
Trigger mode: 1
Integration Time (sec): 1.000000E-1
Scans to average: 1
Electric dark correction enabled: true
Nonlinearity correction enabled: false
Boxcar width: 0
XAxis mode: Wavelengths
Number of Pixels in Spectrum: 2048
>>>>>Begin Spectral Data<<<<<
223.165	-14.5
223.4	-14.5
223.635	-14.5
223.869	-12.5
224.104	-15.5
224.338	-10.5
224.573	-20.5
224.808	-7.5
225.042	-9.5
225.277	-5.5
225.511	5.5
225.746	6.5
225.98	-5.5
226.215	6.5
226.449	16.5
226.683	20.5
226.918	25.5
227.152	20.5
227.387	31.5
227.621	36.5
227.856	49.5
228.09	42.5
228.324	55.5
228.559	66.5
228.793	44.5
229.027	58.5
229.262	57.5
229.496	64.5
229.73	72.5
229.964	75.5
230.199	62.5
230.433	87.5
230.667	72.5
230.901	79.5
231.136	78.5
231.37	86.5
231.604	85.5
231.838	85.5
232.072	86.5
232.306	80.5
232.541	72.5
232.775	72.5
233.009	56.5
233.243	83.5
233.477	86.5
233.711	81.5
233.945	76.5
234.179	92.5
234.413	66.5
234.647	76.5
234.881	87.5
235.115	82.5
235.349	86.5
235.583	71.5
235.817	66.5
236.051	75.5
236.285	72.5
236.519	72.5
236.753	86.5
236.987	65.5
237.221	71.5
237.455	80.5
237.689	77.5
237.922	87.5
238.156	72.5
238.39	77.5
238.624	76.5
238.858	75.5
239.091	78.5
239.325	85.5
239.559	89.5
239.793	78.5
240.027	84.5
240.26	87.5
240.494	77.5
240.728	74.5
240.961	69.5
241.195	75.5
241.429	70.5
241.662	68.5
241.896	70.5
242.13	66.5
242.363	64.5
242.597	68.5
242.83	96.5
243.064	83.5
243.298	84.5
243.531	79.5
243.765	74.5
243.998	82.5
244.232	66.5
244.465	75.5
244.699	76.5
244.932	73.5
245.166	79.5
245.399	68.5
245.633	75.5
245.866	83.5
246.099	75.5
246.333	86.5
246.566	69.5
246.8	74.5
247.033	76.5
247.266	77.5
247.5	73.5
247.733	60.5
247.966	72.5
248.2	82.5
248.433	76.5
248.666	82.5
248.899	82.5
249.133	87.5
249.366	83.5
249.599	79.5
249.832	80.5
250.066	89.5
250.299	88.5
250.532	74.5
250.765	85.5
250.998	76.5
251.231	86.5
251.465	71.5
251.698	86.5
251.931	79.5
252.164	80.5
252.397	78.5
252.63	87.5
252.863	76.5
253.096	81.5
253.329	68.5
253.562	78.5
253.795	71.5
254.028	83.5
254.261	70.5
254.494	71.5
254.727	86.5
254.96	76.5
255.193	71.5
255.426	70.5
255.659	66.5
255.892	82.5
256.124	81.5
256.357	85.5
256.59	72.5
256.823	79.5
257.056	74.5
257.289	75.5
257.521	78.5
257.754	83.5
257.987	68.5
258.22	90.5
258.452	83.5
258.685	84.5
258.918	80.5
259.151	83.5
259.383	83.5
259.616	73.5
259.849	71.5
260.081	83.5
260.314	76.5
260.547	70.5
260.779	73.5
261.012	80.5
261.244	81.5
261.477	86.5
261.71	82.5
261.942	74.5
262.175	75.5
262.407	72.5
262.64	84.5
262.872	74.5
263.105	91.5
263.337	86.5
263.57	89.5
263.802	73.5
264.035	73.5
264.267	77.5
264.499	84.5
264.732	71.5
264.964	82.5
265.197	94.5
265.429	71.5
265.661	76.5
265.894	78.5
266.126	81.5
266.358	81.5
266.591	77.5
266.823	82.5
267.055	85.5
267.287	87.5
267.52	81.5
267.752	92.5
267.984	92.5
268.216	69.5
268.448	90.5
268.681	83.5
268.913	86.5
269.145	88.5
269.377	83.5
269.609	81.5
269.841	79.5
270.073	84.5
270.306	71.5
270.538	68.5
270.77	85.5
271.002	87.5
271.234	80.5
271.466	86.5
271.698	77.5
271.93	91.5
272.162	79.5
272.394	69.5
272.626	78.5
272.858	77.5
273.09	73.5
273.322	81.5
273.553	69.5
273.785	82.5
274.017	74.5
274.249	81.5
274.481	89.5
274.713	83.5
274.945	86.5
275.176	65.5
275.408	78.5
275.64	80.5
275.872	84.5
276.104	87.5
276.335	77.5
276.567	63.5
276.799	69.5
277.031	71.5
277.262	81.5
277.494	95.5
277.726	81.5
277.957	68.5
278.189	93.5
278.421	95.5
278.652	76.5
278.884	76.5
279.115	80.5
279.347	76.5
279.579	98.5
279.81	83.5
280.042	80.5
280.273	83.5
280.505	90.5
280.736	78.5
280.968	81.5
281.199	75.5
281.431	85.5
281.662	79.5
281.894	77.5
282.125	88.5
282.356	85.5
282.588	85.5
282.819	82.5
283.051	84.5
283.282	83.5
283.513	84.5
283.745	77.5
283.976	95.5
284.207	82.5
284.439	79.5
284.67	90.5
284.901	85.5
285.132	74.5
285.364	80.5
285.595	88.5
285.826	88.5
286.057	86.5
286.288	85.5
286.52	87.5
286.751	82.5
286.982	72.5
287.213	79.5
287.444	79.5
287.675	89.5
287.906	88.5
288.138	84.5
288.369	79.5
288.6	83.5
288.831	95.5
289.062	75.5
289.293	72.5
289.524	87.5
289.755	87.5
289.986	85.5
290.217	73.5
290.448	80.5
290.679	91.5
290.91	82.5
291.141	81.5
291.371	82.5
291.602	82.5
291.833	85.5
292.064	100.5
292.295	99.5
292.526	75.5
292.757	72.5
292.987	86.5
293.218	86.5
293.449	88.5
293.68	81.5
293.91	89.5
294.141	88.5
294.372	79.5
294.603	91.5
294.833	86.5
295.064	87.5
295.295	92.5
295.525	89.5
295.756	79.5
295.987	77.5
296.217	81.5
296.448	83.5
296.679	91.5
296.909	78.5
297.14	91.5
297.37	83.5
297.601	74.5
297.831	80.5
298.062	95.5
298.292	83.5
298.523	88.5
298.753	69.5
298.984	82.5
299.214	102.5
299.445	90.5
299.675	75.5
299.905	85.5
300.136	81.5
300.366	76.5
300.597	88.5
300.827	76.5
301.057	84.5
301.288	95.5
301.518	83.5
301.748	88.5
301.979	89.5
302.209	76.5
302.439	70.5
302.669	80.5
302.9	93.5
303.13	83.5
303.36	88.5
303.59	75.5
303.82	83.5
304.051	89.5
304.281	90.5
304.511	81.5
304.741	91.5
304.971	71.5
305.201	92.5
305.431	76.5
305.661	83.5
305.891	74.5
306.121	82.5
306.352	89.5
306.582	73.5
306.812	79.5
307.042	74.5
307.272	69.5
307.502	79.5
307.731	79.5
307.961	87.5
308.191	92.5
308.421	93.5
308.651	85.5
308.881	90.5
309.111	73.5
309.341	74.5
309.571	98.5
309.8	67.5
310.03	80.5
310.26	88.5
310.49	96.5
310.72	94.5
310.949	82.5
311.179	75.5
311.409	84.5
311.639	80.5
311.868	79.5
312.098	93.5
312.328	92.5
312.557	81.5
312.787	72.5
313.017	78.5
313.246	79.5
313.476	84.5
313.706	83.5
313.935	71.5
314.165	84.5
314.394	72.5
314.624	88.5
314.853	79.5
315.083	80.5
315.312	82.5
315.542	66.5
315.771	72.5
316.001	76.5
316.23	82.5
316.46	83.5
316.689	79.5
316.919	91.5
317.148	80.5
317.377	93.5
317.607	81.5
317.836	96.5
318.065	90.5
318.295	75.5
318.524	84.5
318.753	90.5
318.983	89.5
319.212	74.5
319.441	89.5
319.67	61.5
319.9	88.5
320.129	91.5
320.358	94.5
320.587	74.5
320.816	85.5
321.046	81.5
321.275	95.5
321.504	82.5
321.733	89.5
321.962	85.5
322.191	96.5
322.42	86.5
322.649	72.5
322.878	73.5
323.108	86.5
323.337	78.5
323.566	87.5
323.795	87.5
324.024	83.5
324.253	91.5
324.482	90.5
324.71	81.5
324.939	87.5
325.168	86.5
325.397	74.5
325.626	88.5
325.855	77.5
326.084	68.5
326.313	88.5
326.542	83.5
326.77	84.5
326.999	73.5
327.228	82.5
327.457	99.5
327.686	99.5
327.914	89.5
328.143	79.5
328.372	85.5
328.6	82.5
328.829	78.5
329.058	92.5
329.287	89.5
329.515	100.5
329.744	71.5
329.972	87.5
330.201	90.5
330.43	88.5
330.658	81.5
330.887	97.5
331.115	93.5
331.344	94.5
331.572	91.5
331.801	75.5
332.03	90.5
332.258	81.5
332.486	88.5
332.715	84.5
332.943	93.5
333.172	88.5
333.4	80.5
333.629	75.5
333.857	91.5
334.085	77.5
334.314	63.5
334.542	89.5
334.771	79.5
334.999	83.5
335.227	92.5
335.455	83.5
335.684	92.5
335.912	88.5
336.14	95.5
336.369	92.5
336.597	68.5
336.825	80.5
337.053	83.5
337.281	90.5
337.51	81.5
337.738	91.5
337.966	91.5
338.194	79.5
338.422	78.5
338.65	91.5
338.878	82.5
339.106	76.5
339.334	87.5
339.562	79.5
339.79	80.5
340.018	101.5
340.246	71.5
340.474	79.5
340.702	82.5
340.93	87.5
341.158	89.5
341.386	93.5
341.614	80.5
341.842	90.5
342.07	92.5
342.298	91.5
342.526	79.5
342.754	94.5
342.981	81.5
343.209	92.5
343.437	88.5
343.665	81.5
343.893	91.5
344.12	83.5
344.348	92.5
344.576	81.5
344.804	92.5
345.031	95.5
345.259	80.5
345.487	87.5
345.714	89.5
345.942	88.5
346.17	66.5
346.397	87.5
346.625	72.5
346.853	81.5
347.08	77.5
347.308	85.5
347.535	79.5
347.763	67.5
347.99	82.5
348.218	91.5
348.445	72.5
348.673	76.5
348.9	102.5
349.128	82.5
349.355	86.5
349.583	85.5
349.81	79.5
350.037	83.5
350.265	75.5
350.492	104.5
350.72	83.5
350.947	74.5
351.174	78.5
351.402	77.5
351.629	84.5
351.856	90.5
352.083	84.5
352.311	88.5
352.538	85.5
352.765	72.5
352.992	77.5
353.22	74.5
353.447	83.5
353.674	83.5
353.901	87.5
354.128	78.5
354.355	101.5
354.583	69.5
354.81	76.5
355.037	88.5
355.264	81.5
355.491	90.5
355.718	84.5
355.945	73.5
356.172	69.5
356.399	92.5
356.626	71.5
356.853	90.5
357.08	76.5
357.307	92.5
357.534	93.5
357.761	84.5
357.988	75.5
358.215	75.5
358.441	82.5
358.668	86.5
358.895	84.5
359.122	77.5
359.349	77.5
359.576	79.5
359.802	77.5
360.029	85.5
360.256	84.5
360.483	82.5
360.709	87.5
360.936	88.5
361.163	78.5
361.39	91.5
361.616	77.5
361.843	75.5
362.07	88.5
362.296	85.5
362.523	73.5
362.749	77.5
362.976	84.5
363.203	73.5
363.429	74.5
363.656	89.5
363.882	88.5
364.109	67.5
364.335	75.5
364.562	80.5
364.788	82.5
365.015	89.5
365.241	89.5
365.468	83.5
365.694	85.5
365.92	88.5
366.147	85.5
366.373	70.5
366.599	89.5
366.826	91.5
367.052	92.5
367.278	68.5
367.505	100.5
367.731	72.5
367.957	103.5
368.184	79.5
368.41	84.5
368.636	77.5
368.862	81.5
369.089	77.5
369.315	77.5
369.541	93.5
369.767	89.5
369.993	81.5
370.219	90.5
370.445	71.5
370.672	75.5
370.898	72.5
371.124	87.5
371.35	88.5
371.576	76.5
371.802	81.5
372.028	76.5
372.254	82.5
372.48	64.5
372.706	96.5
372.932	90.5
373.158	88.5
373.384	92.5
373.61	77.5
373.835	88.5
374.061	82.5
374.287	75.5
374.513	76.5
374.739	81.5
374.965	77.5
375.191	92.5
375.416	80.5
375.642	87.5
375.868	76.5
376.094	60.5
376.319	85.5
376.545	76.5
376.771	83.5
376.997	75.5
377.222	73.5
377.448	83.5
377.674	80.5
377.899	80.5
378.125	92.5
378.35	77.5
378.576	62.5
378.802	77.5
379.027	94.5
379.253	81.5
379.478	90.5
379.704	92.5
379.929	89.5
380.155	78.5
380.38	85.5
380.606	81.5
380.831	85.5
381.057	96.5
381.282	90.5
381.507	81.5
381.733	80.5
381.958	80.5
382.184	74.5
382.409	87.5
382.634	79.5
382.86	83.5
383.085	74.5
383.31	67.5
383.535	82.5
383.761	78.5
383.986	81.5
384.211	60.5
384.436	91.5
384.662	67.5
384.887	87.5
385.112	98.5
385.337	72.5
385.562	75.5
385.787	81.5
386.013	80.5
386.238	84.5
386.463	76.5
386.688	83.5
386.913	70.5
387.138	89.5
387.363	83.5
387.588	74.5
387.813	70.5
388.038	82.5
388.263	74.5
388.488	84.5
388.713	74.5
388.938	82.5
389.163	84.5
389.387	70.5
389.612	76.5
389.837	91.5
390.062	76.5
390.287	71.5
390.512	74.5
390.736	78.5
390.961	90.5
391.186	82.5
391.411	77.5
391.636	75.5
391.86	80.5
392.085	82.5
392.31	89.5
392.534	78.5
392.759	92.5
392.984	87.5
393.208	86.5
393.433	93.5
393.658	80.5
393.882	74.5
394.107	87.5
394.331	90.5
394.556	85.5
394.78	73.5
395.005	79.5
395.229	88.5
395.454	83.5
395.678	94.5
395.903	76.5
396.127	86.5
396.352	76.5
396.576	78.5
396.801	95.5
397.025	88.5
397.249	90.5
397.474	90.5
397.698	77.5
397.922	76.5
398.147	68.5
398.371	84.5
398.595	87.5
398.82	91.5
399.044	75.5
399.268	83.5
399.492	86.5
399.717	71.5
399.941	72.5
400.165	96.5
400.389	91.5
400.613	79.5
400.837	69.5
401.062	85.5
401.286	70.5
401.51	83.5
401.734	79.5
401.958	82.5
402.182	84.5
402.406	90.5
402.63	79.5
402.854	73.5
403.078	83.5
403.302	78.5
403.526	88.5
403.75	68.5
403.974	82.5
404.198	85.5
404.422	77.5
404.645	91.5
404.869	93.5
405.093	88.5
405.317	79.5
405.541	80.5
405.765	88.5
405.988	81.5
406.212	78.5
406.436	89.5
406.66	76.5
406.883	85.5
407.107	78.5
407.331	95.5
407.555	96.5
407.778	77.5
408.002	82.5
408.226	70.5
408.449	71.5
408.673	91.5
408.896	81.5
409.12	99.5
409.344	94.5
409.567	95.5
409.791	88.5
410.014	84.5
410.238	77.5
410.461	83.5
410.685	83.5
410.908	83.5
411.132	85.5
411.355	77.5
411.578	80.5
411.802	80.5
412.025	77.5
412.249	89.5
412.472	83.5
412.695	88.5
412.919	79.5
413.142	85.5
413.365	89.5
413.589	88.5
413.812	86.5
414.035	65.5
414.258	89.5
414.482	80.5
414.705	85.5
414.928	87.5
415.151	88.5
415.374	84.5
415.597	84.5
415.821	94.5
416.044	92.5
416.267	73.5
416.49	84.5
416.713	95.5
416.936	90.5
417.159	92.5
417.382	91.5
417.605	86.5
417.828	99.5
418.051	81.5
418.274	99.5
418.497	81.5
418.72	94.5
418.943	88.5
419.166	98.5
419.389	95.5
419.611	94.5
419.834	83.5
420.057	74.5
420.28	72.5
420.503	81.5
420.726	82.5
420.948	81.5
421.171	80.5
421.394	105.5
421.617	86.5
421.839	86.5
422.062	82.5
422.285	92.5
422.507	89.5
422.73	83.5
422.953	87.5
423.175	91.5
423.398	91.5
423.621	99.5
423.843	81.5
424.066	82.5
424.288	78.5
424.511	82.5
424.733	92.5
424.956	81.5
425.178	93.5
425.401	84.5
425.623	90.5
425.846	84.5
426.068	82.5
426.291	98.5
426.513	84.5
426.735	107.5
426.958	106.5
427.18	82.5
427.402	77.5
427.625	92.5
427.847	71.5
428.069	82.5
428.292	82.5
428.514	96.5
428.736	95.5
428.958	85.5
429.181	76.5
429.403	82.5
429.625	79.5
429.847	89.5
430.069	85.5
430.292	96.5
430.514	87.5
430.736	77.5
430.958	98.5
431.18	98.5
431.402	96.5
431.624	76.5
431.846	77.5
432.068	94.5
432.29	72.5
432.512	95.5
432.734	76.5
432.956	91.5
433.178	90.5
433.4	76.5
433.622	93.5
433.844	84.5
434.066	81.5
434.287	85.5
434.509	92.5
434.731	80.5
434.953	87.5
435.175	93.5
435.397	87.5
435.618	91.5
435.84	88.5
436.062	81.5
436.284	81.5
436.505	84.5
436.727	89.5
436.949	86.5
437.17	96.5
437.392	82.5
437.614	78.5
437.835	77.5
438.057	79.5
438.278	85.5
438.5	78.5
438.721	85.5
438.943	83.5
439.165	111.5
439.386	96.5
439.608	84.5
439.829	84.5
440.05	77.5
440.272	87.5
440.493	103.5
440.715	97.5
440.936	90.5
441.158	83.5
441.379	89.5
441.6	95.5
441.822	86.5
442.043	96.5
442.264	101.5
442.486	90.5
442.707	87.5
442.928	95.5
443.149	87.5
443.371	89.5
443.592	95.5
443.813	91.5
444.034	99.5
444.255	94.5
444.476	96.5
444.698	84.5
444.919	103.5
445.14	230.5
445.361	140.5
445.582	100.5
445.803	84.5
446.024	79.5
446.245	87.5
446.466	83.5
446.687	97.5
446.908	89.5
447.129	95.5
447.35	92.5
447.571	100.5
447.792	89.5
448.013	90.5
448.234	92.5
448.455	90.5
448.675	84.5
448.896	85.5
449.117	102.5
449.338	85.5
449.559	95.5
449.779	81.5
450	84.5
450.221	95.5
450.442	83.5
450.662	106.5
450.883	82.5
451.104	97.5
451.324	94.5
451.545	90.5
451.766	84.5
451.986	85.5
452.207	85.5
452.428	93.5
452.648	90.5
452.869	86.5
453.089	88.5
453.31	78.5
453.53	95.5
453.751	71.5
453.971	71.5
454.192	90.5
454.412	80.5
454.633	97.5
454.853	100.5
455.073	81.5
455.294	87.5
455.514	74.5
455.734	77.5
455.955	83.5
456.175	87.5
456.395	76.5
456.616	86.5
456.836	77.5
457.056	95.5
457.276	91.5
457.497	88.5
457.717	70.5
457.937	77.5
458.157	82.5
458.377	97.5
458.598	90.5
458.818	100.5
459.038	73.5
459.258	89.5
459.478	83.5
459.698	77.5
459.918	92.5
460.138	82.5
460.358	83.5
460.578	89.5
460.798	79.5
461.018	87.5
461.238	87.5
461.458	91.5
461.678	90.5
461.898	83.5
462.118	92.5
462.338	82.5
462.558	102.5
462.777	78.5
462.997	83.5
463.217	88.5
463.437	74.5
463.657	89.5
463.876	84.5
464.096	77.5
464.316	88.5
464.536	83.5
464.755	81.5
464.975	93.5
465.195	95.5
465.414	67.5
465.634	93.5
465.854	86.5
466.073	97.5
466.293	89.5
466.512	95.5
466.732	90.5
466.951	83.5
467.171	84.5
467.391	93.5
467.61	86.5
467.829	79.5
468.049	81.5
468.268	81.5
468.488	93.5
468.707	78.5
468.927	84.5
469.146	84.5
469.365	90.5
469.585	102.5
469.804	103.5
470.023	88.5
470.243	86.5
470.462	94.5
470.681	80.5
470.901	80.5
471.12	92.5
471.339	92.5
471.558	78.5
471.777	90.5
471.997	88.5
472.216	95.5
472.435	92.5
472.654	83.5
472.873	80.5
473.092	86.5
473.311	93.5
473.53	85.5
473.749	84.5
473.968	90.5
474.187	81.5
474.406	89.5
474.625	84.5
474.844	81.5
475.063	76.5
475.282	83.5
475.501	71.5
475.72	88.5
475.939	82.5
476.158	89.5
476.377	105.5
476.596	90.5
476.814	83.5
477.033	99.5
477.252	88.5
477.471	86.5
477.69	95.5
477.908	91.5
478.127	97.5
478.346	92.5
478.564	90.5
478.783	84.5
479.002	107.5
479.22	95.5
479.439	82.5
479.658	82.5
479.876	85.5
480.095	79.5
480.313	85.5
480.532	82.5
480.751	91.5
480.969	84.5
481.188	61.5
481.406	94.5
481.624	76.5
481.843	71.5
482.061	81.5
482.28	89.5
482.498	87.5
482.717	74.5
482.935	92.5
483.153	89.5
483.372	77.5
483.59	77.5
483.808	93.5
484.027	92.5
484.245	97.5
484.463	97.5
484.681	92.5
484.9	85.5
485.118	101.5
485.336	87.5
485.554	84.5
485.772	74.5
485.99	68.5
486.209	95.5
486.427	98.5
486.645	91.5
486.863	101.5
487.081	101.5
487.299	99.5
487.517	92.5
487.735	102.5
487.953	102.5
488.171	80.5
488.389	85.5
488.607	100.5
488.825	89.5
489.043	84.5
489.261	95.5
489.479	93.5
489.696	77.5
489.914	90.5
490.132	100.5
490.35	88.5
490.568	73.5
490.786	92.5
491.003	110.5
491.221	89.5
491.439	95.5
491.657	108.5
491.874	112.5
492.092	113.5
492.31	112.5
492.527	96.5
492.745	105.5
492.963	105.5
493.18	95.5
493.398	88.5
493.615	97.5
493.833	91.5
494.05	104.5
494.268	102.5
494.485	96.5
494.703	87.5
494.92	86.5
495.138	83.5
495.355	98.5
495.573	105.5
495.79	93.5
496.008	95.5
496.225	105.5
496.442	84.5
496.66	89.5
496.877	89.5
497.094	108.5
497.312	94.5
497.529	95.5
497.746	81.5
497.963	84.5
498.181	79.5
498.398	82.5
498.615	92.5
498.832	98.5
499.049	89.5
499.267	89.5
499.484	84.5
499.701	101.5
499.918	94.5
500.135	84.5
500.352	90.5
500.569	76.5
500.786	97.5
501.003	104.5
501.22	96.5
501.437	82.5
501.654	86.5
501.871	81.5
502.088	81.5
502.305	100.5
502.522	93.5
502.739	87.5
502.956	78.5
503.172	92.5
503.389	99.5
503.606	95.5
503.823	92.5
504.04	93.5
504.256	92.5
504.473	86.5
504.69	83.5
504.907	96.5
505.123	88.5
505.34	107.5
505.557	91.5
505.773	91.5
505.99	82.5
506.207	71.5
506.423	107.5
506.64	86.5
506.856	77.5
507.073	84.5
507.289	78.5
507.506	72.5
507.722	81.5
507.939	86.5
508.155	77.5
508.372	86.5
508.588	88.5
508.805	87.5
509.021	89.5
509.238	70.5
509.454	84.5
509.67	85.5
509.887	82.5
510.103	78.5
510.319	88.5
510.536	85.5
510.752	77.5
510.968	85.5
511.184	97.5
511.401	92.5
511.617	84.5
511.833	79.5
512.049	76.5
512.265	85.5
512.481	80.5
512.698	75.5
512.914	95.5
513.13	96.5
513.346	81.5
513.562	88.5
513.778	86.5
513.994	74.5
514.21	71.5
514.426	76.5
514.642	74.5
514.858	88.5
515.074	79.5
515.29	80.5
515.506	72.5
515.721	91.5
515.937	77.5
516.153	80.5
516.369	84.5
516.585	87.5
516.801	84.5
517.016	85.5
517.232	83.5
517.448	82.5
517.664	87.5
517.879	91.5
518.095	99.5
518.311	74.5
518.527	90.5
518.742	77.5
518.958	86.5
519.173	87.5
519.389	82.5
519.605	101.5
519.82	87.5
520.036	76.5
520.251	96.5
520.467	106.5
520.682	77.5
520.898	85.5
521.113	82.5
521.329	84.5
521.544	71.5
521.76	77.5
521.975	80.5
522.19	96.5
522.406	83.5
522.621	89.5
522.836	74.5
523.052	97.5
523.267	87.5
523.482	78.5
523.698	86.5
523.913	89.5
524.128	82.5
524.343	80.5
524.559	85.5
524.774	85.5
524.989	92.5
525.204	88.5
525.419	95.5
525.634	91.5
525.849	96.5
526.064	77.5
526.28	87.5
526.495	72.5
526.71	91.5
526.925	73.5
527.14	64.5
527.355	83.5
527.57	88.5
527.785	87.5
527.999	89.5
528.214	89.5
528.429	99.5
528.644	86.5
528.859	89.5
529.074	97.5
529.289	92.5
529.503	75.5
529.718	97.5
529.933	77.5
530.148	85.5
530.363	84.5
530.577	91.5
530.792	74.5
531.007	83.5
531.221	72.5
531.436	66.5
531.651	86.5
531.865	76.5
532.08	85.5
532.295	80.5
532.509	88.5
532.724	85.5
532.938	87.5
533.153	94.5
533.367	91.5
533.582	89.5
533.796	84.5
534.011	90.5
534.225	81.5
534.44	76.5
534.654	90.5
534.868	76.5
535.083	75.5
535.297	77.5
535.511	75.5
535.726	91.5
535.94	100.5
536.154	73.5
536.369	75.5
536.583	82.5
536.797	79.5
537.011	87.5
537.225	75.5
537.44	86.5
537.654	83.5
537.868	83.5
538.082	86.5
538.296	89.5
538.51	81.5
538.724	81.5
538.938	86.5
