Data from Zn(NO3)2Standard.Agarose3%.GreenCap.LampEnergy10E.O_HRD10591_15-07-49-946.txt Node
Date: Mon Jul 22 15:07:49 EDT 2019
User: cochatt
Spectrometer: HR+D1059
Trigger mode: 1
Integration Time (sec): 1.000000E-1
Scans to average: 1
Electric dark correction enabled: true
Nonlinearity correction enabled: false
Boxcar width: 0
XAxis mode: Wavelengths
Number of Pixels in Spectrum: 2048
>>>>>Begin Spectral Data<<<<<
223.165	-18.56
223.4	-18.56
223.635	-18.56
223.869	-31.56
224.104	-10.56
224.338	-12.56
224.573	-29.56
224.808	-17.56
225.042	-9.56
225.277	-9.56
225.511	2.44
225.746	11.44
225.98	12.44
226.215	12.44
226.449	-0.56
226.683	18.44
226.918	44.44
227.152	38.44
227.387	35.44
227.621	41.44
227.856	33.44
228.09	37.44
228.324	50.44
228.559	58.44
228.793	78.44
229.027	72.44
229.262	69.44
229.496	64.44
229.73	67.44
229.964	74.44
230.199	83.44
230.433	87.44
230.667	74.44
230.901	75.44
231.136	79.44
231.37	84.44
231.604	92.44
231.838	83.44
232.072	92.44
232.306	87.44
232.541	99.44
232.775	77.44
233.009	89.44
233.243	73.44
233.477	72.44
233.711	86.44
233.945	77.44
234.179	73.44
234.413	88.44
234.647	72.44
234.881	78.44
235.115	77.44
235.349	83.44
235.583	84.44
235.817	85.44
236.051	91.44
236.285	74.44
236.519	75.44
236.753	87.44
236.987	71.44
237.221	81.44
237.455	84.44
237.689	69.44
237.922	82.44
238.156	74.44
238.39	76.44
238.624	85.44
238.858	71.44
239.091	70.44
239.325	84.44
239.559	74.44
239.793	72.44
240.027	101.44
240.26	78.44
240.494	67.44
240.728	84.44
240.961	76.44
241.195	82.44
241.429	100.44
241.662	83.44
241.896	87.44
242.13	85.44
242.363	74.44
242.597	82.44
242.83	89.44
243.064	87.44
243.298	71.44
243.531	83.44
243.765	85.44
243.998	93.44
244.232	91.44
244.465	74.44
244.699	73.44
244.932	67.44
245.166	77.44
245.399	85.44
245.633	77.44
245.866	83.44
246.099	90.44
246.333	89.44
246.566	74.44
246.8	65.44
247.033	86.44
247.266	83.44
247.5	78.44
247.733	79.44
247.966	87.44
248.2	95.44
248.433	79.44
248.666	78.44
248.899	66.44
249.133	80.44
249.366	85.44
249.599	105.44
249.832	78.44
250.066	84.44
250.299	71.44
250.532	91.44
250.765	85.44
250.998	88.44
251.231	75.44
251.465	85.44
251.698	77.44
251.931	78.44
252.164	86.44
252.397	87.44
252.63	78.44
252.863	77.44
253.096	75.44
253.329	79.44
253.562	83.44
253.795	66.44
254.028	82.44
254.261	90.44
254.494	90.44
254.727	99.44
254.96	79.44
255.193	74.44
255.426	74.44
255.659	73.44
255.892	93.44
256.124	102.44
256.357	90.44
256.59	90.44
256.823	86.44
257.056	78.44
257.289	66.44
257.521	74.44
257.754	74.44
257.987	80.44
258.22	88.44
258.452	100.44
258.685	78.44
258.918	73.44
259.151	78.44
259.383	74.44
259.616	84.44
259.849	91.44
260.081	86.44
260.314	96.44
260.547	86.44
260.779	89.44
261.012	86.44
261.244	96.44
261.477	81.44
261.71	96.44
261.942	86.44
262.175	79.44
262.407	91.44
262.64	80.44
262.872	79.44
263.105	81.44
263.337	93.44
263.57	75.44
263.802	93.44
264.035	70.44
264.267	83.44
264.499	79.44
264.732	84.44
264.964	100.44
265.197	99.44
265.429	99.44
265.661	84.44
265.894	84.44
266.126	80.44
266.358	82.44
266.591	77.44
266.823	86.44
267.055	72.44
267.287	76.44
267.52	75.44
267.752	90.44
267.984	77.44
268.216	72.44
268.448	87.44
268.681	77.44
268.913	74.44
269.145	80.44
269.377	79.44
269.609	76.44
269.841	78.44
270.073	81.44
270.306	83.44
270.538	84.44
270.77	73.44
271.002	78.44
271.234	79.44
271.466	90.44
271.698	77.44
271.93	85.44
272.162	81.44
272.394	92.44
272.626	88.44
272.858	90.44
273.09	74.44
273.322	95.44
273.553	86.44
273.785	94.44
274.017	78.44
274.249	80.44
274.481	78.44
274.713	77.44
274.945	81.44
275.176	84.44
275.408	76.44
275.64	68.44
275.872	71.44
276.104	101.44
276.335	80.44
276.567	95.44
276.799	73.44
277.031	86.44
277.262	83.44
277.494	100.44
277.726	92.44
277.957	94.44
278.189	62.44
278.421	81.44
278.652	89.44
278.884	74.44
279.115	85.44
279.347	83.44
279.579	87.44
279.81	75.44
280.042	85.44
280.273	88.44
280.505	87.44
280.736	95.44
280.968	88.44
281.199	77.44
281.431	78.44
281.662	95.44
281.894	81.44
282.125	79.44
282.356	85.44
282.588	100.44
282.819	87.44
283.051	77.44
283.282	86.44
283.513	85.44
283.745	97.44
283.976	65.44
284.207	83.44
284.439	82.44
284.67	80.44
284.901	77.44
285.132	87.44
285.364	80.44
285.595	90.44
285.826	78.44
286.057	84.44
286.288	74.44
286.52	80.44
286.751	69.44
286.982	94.44
287.213	91.44
287.444	83.44
287.675	73.44
287.906	81.44
288.138	79.44
288.369	75.44
288.6	98.44
288.831	98.44
289.062	99.44
289.293	76.44
289.524	96.44
289.755	87.44
289.986	95.44
290.217	91.44
290.448	87.44
290.679	82.44
290.91	80.44
291.141	84.44
291.371	82.44
291.602	85.44
291.833	81.44
292.064	83.44
292.295	84.44
292.526	73.44
292.757	90.44
292.987	91.44
293.218	101.44
293.449	83.44
293.68	76.44
293.91	79.44
294.141	88.44
294.372	71.44
294.603	98.44
294.833	79.44
295.064	92.44
295.295	91.44
295.525	89.44
295.756	85.44
295.987	95.44
296.217	82.44
296.448	77.44
296.679	89.44
296.909	92.44
297.14	76.44
297.37	84.44
297.601	74.44
297.831	60.44
298.062	99.44
298.292	85.44
298.523	82.44
298.753	89.44
298.984	93.44
299.214	90.44
299.445	92.44
299.675	87.44
299.905	79.44
300.136	88.44
300.366	79.44
300.597	79.44
300.827	89.44
301.057	76.44
301.288	98.44
301.518	87.44
301.748	86.44
301.979	85.44
302.209	84.44
302.439	77.44
302.669	76.44
302.9	76.44
303.13	84.44
303.36	88.44
303.59	80.44
303.82	95.44
304.051	98.44
304.281	90.44
304.511	92.44
304.741	82.44
304.971	85.44
305.201	84.44
305.431	89.44
305.661	77.44
305.891	77.44
306.121	92.44
306.352	78.44
306.582	89.44
306.812	93.44
307.042	90.44
307.272	86.44
307.502	94.44
307.731	81.44
307.961	76.44
308.191	71.44
308.421	89.44
308.651	89.44
308.881	94.44
309.111	88.44
309.341	92.44
309.571	87.44
309.8	94.44
310.03	89.44
310.26	87.44
310.49	91.44
310.72	72.44
310.949	80.44
311.179	89.44
311.409	81.44
311.639	85.44
311.868	82.44
312.098	88.44
312.328	85.44
312.557	75.44
312.787	90.44
313.017	87.44
313.246	78.44
313.476	106.44
313.706	93.44
313.935	102.44
314.165	78.44
314.394	82.44
314.624	84.44
314.853	93.44
315.083	84.44
315.312	85.44
315.542	85.44
315.771	73.44
316.001	73.44
316.23	81.44
316.46	86.44
316.689	70.44
316.919	99.44
317.148	82.44
317.377	95.44
317.607	86.44
317.836	76.44
318.065	77.44
318.295	88.44
318.524	87.44
318.753	79.44
318.983	96.44
319.212	87.44
319.441	77.44
319.67	83.44
319.9	99.44
320.129	87.44
320.358	87.44
320.587	106.44
320.816	85.44
321.046	91.44
321.275	81.44
321.504	92.44
321.733	89.44
321.962	91.44
322.191	78.44
322.42	92.44
322.649	84.44
322.878	82.44
323.108	72.44
323.337	84.44
323.566	86.44
323.795	97.44
324.024	95.44
324.253	81.44
324.482	84.44
324.71	90.44
324.939	88.44
325.168	85.44
325.397	97.44
325.626	83.44
325.855	87.44
326.084	76.44
326.313	79.44
326.542	75.44
326.77	75.44
326.999	77.44
327.228	85.44
327.457	92.44
327.686	80.44
327.914	89.44
328.143	100.44
328.372	81.44
328.6	81.44
328.829	92.44
329.058	95.44
329.287	93.44
329.515	75.44
329.744	89.44
329.972	85.44
330.201	92.44
330.43	82.44
330.658	97.44
330.887	97.44
331.115	86.44
331.344	84.44
331.572	85.44
331.801	74.44
332.03	87.44
332.258	89.44
332.486	84.44
332.715	87.44
332.943	85.44
333.172	80.44
333.4	78.44
333.629	68.44
333.857	80.44
334.085	83.44
334.314	90.44
334.542	86.44
334.771	92.44
334.999	86.44
335.227	79.44
335.455	89.44
335.684	79.44
335.912	76.44
336.14	92.44
336.369	79.44
336.597	78.44
336.825	86.44
337.053	80.44
337.281	74.44
337.51	82.44
337.738	87.44
337.966	84.44
338.194	74.44
338.422	82.44
338.65	85.44
338.878	98.44
339.106	96.44
339.334	85.44
339.562	83.44
339.79	85.44
340.018	92.44
340.246	87.44
340.474	91.44
340.702	92.44
340.93	77.44
341.158	85.44
341.386	95.44
341.614	87.44
341.842	94.44
342.07	91.44
342.298	91.44
342.526	95.44
342.754	81.44
342.981	71.44
343.209	81.44
343.437	94.44
343.665	81.44
343.893	84.44
344.12	98.44
344.348	77.44
344.576	83.44
344.804	91.44
345.031	76.44
345.259	81.44
345.487	86.44
345.714	85.44
345.942	97.44
346.17	91.44
346.397	73.44
346.625	98.44
346.853	84.44
347.08	79.44
347.308	92.44
347.535	90.44
347.763	90.44
347.99	99.44
348.218	99.44
348.445	101.44
348.673	70.44
348.9	90.44
349.128	88.44
349.355	104.44
349.583	90.44
349.81	98.44
350.037	85.44
350.265	97.44
350.492	80.44
350.72	90.44
350.947	88.44
351.174	94.44
351.402	81.44
351.629	66.44
351.856	83.44
352.083	82.44
352.311	84.44
352.538	90.44
352.765	89.44
352.992	90.44
353.22	86.44
353.447	85.44
353.674	76.44
353.901	90.44
354.128	90.44
354.355	89.44
354.583	88.44
354.81	82.44
355.037	88.44
355.264	70.44
355.491	90.44
355.718	91.44
355.945	80.44
356.172	83.44
356.399	82.44
356.626	93.44
356.853	98.44
357.08	75.44
357.307	91.44
357.534	80.44
357.761	78.44
357.988	82.44
358.215	85.44
358.441	89.44
358.668	84.44
358.895	75.44
359.122	89.44
359.349	92.44
359.576	90.44
359.802	89.44
360.029	80.44
360.256	90.44
360.483	89.44
360.709	74.44
360.936	96.44
361.163	84.44
361.39	87.44
361.616	82.44
361.843	87.44
362.07	86.44
362.296	87.44
362.523	91.44
362.749	94.44
362.976	86.44
363.203	89.44
363.429	86.44
363.656	80.44
363.882	82.44
364.109	89.44
364.335	78.44
364.562	72.44
364.788	77.44
365.015	90.44
365.241	94.44
365.468	90.44
365.694	77.44
365.92	81.44
366.147	91.44
366.373	74.44
366.599	82.44
366.826	80.44
367.052	93.44
367.278	80.44
367.505	95.44
367.731	83.44
367.957	88.44
368.184	90.44
368.41	97.44
368.636	88.44
368.862	89.44
369.089	88.44
369.315	96.44
369.541	89.44
369.767	87.44
369.993	82.44
370.219	78.44
370.445	89.44
370.672	91.44
370.898	79.44
371.124	84.44
371.35	84.44
371.576	81.44
371.802	78.44
372.028	86.44
372.254	86.44
372.48	86.44
372.706	104.44
372.932	80.44
373.158	73.44
373.384	77.44
373.61	99.44
373.835	79.44
374.061	87.44
374.287	91.44
374.513	86.44
374.739	76.44
374.965	83.44
375.191	87.44
375.416	88.44
375.642	83.44
375.868	90.44
376.094	95.44
376.319	79.44
376.545	81.44
376.771	91.44
376.997	87.44
377.222	70.44
377.448	92.44
377.674	91.44
377.899	100.44
378.125	94.44
378.35	91.44
378.576	65.44
378.802	92.44
379.027	91.44
379.253	91.44
379.478	93.44
379.704	93.44
379.929	90.44
380.155	99.44
380.38	84.44
380.606	81.44
380.831	88.44
381.057	92.44
381.282	80.44
381.507	92.44
381.733	85.44
381.958	91.44
382.184	93.44
382.409	72.44
382.634	86.44
382.86	89.44
383.085	102.44
383.31	83.44
383.535	81.44
383.761	83.44
383.986	87.44
384.211	74.44
384.436	94.44
384.662	109.44
384.887	101.44
385.112	87.44
385.337	83.44
385.562	100.44
385.787	95.44
386.013	90.44
386.238	89.44
386.463	94.44
386.688	95.44
386.913	83.44
387.138	93.44
387.363	90.44
387.588	94.44
387.813	93.44
388.038	89.44
388.263	91.44
388.488	98.44
388.713	89.44
388.938	86.44
389.163	87.44
389.387	80.44
389.612	73.44
389.837	73.44
390.062	82.44
390.287	79.44
390.512	80.44
390.736	98.44
390.961	100.44
391.186	101.44
391.411	85.44
391.636	97.44
391.86	87.44
392.085	86.44
392.31	100.44
392.534	98.44
392.759	97.44
392.984	92.44
393.208	94.44
393.433	81.44
393.658	90.44
393.882	100.44
394.107	84.44
394.331	90.44
394.556	99.44
394.78	87.44
395.005	92.44
395.229	99.44
395.454	82.44
395.678	101.44
395.903	89.44
396.127	86.44
396.352	85.44
396.576	95.44
396.801	102.44
397.025	100.44
397.249	103.44
397.474	93.44
397.698	97.44
397.922	103.44
398.147	99.44
398.371	87.44
398.595	105.44
398.82	95.44
399.044	79.44
399.268	99.44
399.492	82.44
399.717	94.44
399.941	102.44
400.165	91.44
400.389	75.44
400.613	109.44
400.837	93.44
401.062	113.44
401.286	92.44
401.51	93.44
401.734	105.44
401.958	93.44
402.182	106.44
402.406	94.44
402.63	93.44
402.854	96.44
403.078	95.44
403.302	101.44
403.526	103.44
403.75	102.44
403.974	93.44
404.198	113.44
404.422	106.44
404.645	106.44
404.869	96.44
405.093	91.44
405.317	83.44
405.541	93.44
405.765	104.44
405.988	104.44
406.212	93.44
406.436	86.44
406.66	109.44
406.883	108.44
407.107	106.44
407.331	98.44
407.555	95.44
407.778	87.44
408.002	93.44
408.226	84.44
408.449	95.44
408.673	102.44
408.896	83.44
409.12	97.44
409.344	107.44
409.567	104.44
409.791	104.44
410.014	98.44
410.238	99.44
410.461	105.44
410.685	103.44
410.908	105.44
411.132	98.44
411.355	113.44
411.578	113.44
411.802	106.44
412.025	100.44
412.249	113.44
412.472	110.44
412.695	106.44
412.919	106.44
413.142	102.44
413.365	102.44
413.589	93.44
413.812	105.44
414.035	106.44
414.258	118.44
414.482	98.44
414.705	108.44
414.928	119.44
415.151	103.44
415.374	90.44
415.597	108.44
415.821	93.44
416.044	117.44
416.267	104.44
416.49	105.44
416.713	109.44
416.936	100.44
417.159	92.44
417.382	105.44
417.605	106.44
417.828	123.44
418.051	110.44
418.274	102.44
418.497	102.44
418.72	92.44
418.943	106.44
419.166	95.44
419.389	95.44
419.611	105.44
419.834	117.44
420.057	101.44
420.28	102.44
420.503	97.44
420.726	108.44
420.948	108.44
421.171	102.44
421.394	104.44
421.617	97.44
421.839	114.44
422.062	104.44
422.285	123.44
422.507	94.44
422.73	121.44
422.953	101.44
423.175	107.44
423.398	99.44
423.621	103.44
423.843	93.44
424.066	109.44
424.288	107.44
424.511	123.44
424.733	122.44
424.956	117.44
425.178	112.44
425.401	103.44
425.623	117.44
425.846	108.44
426.068	113.44
426.291	96.44
426.513	102.44
426.735	94.44
426.958	115.44
427.18	110.44
427.402	97.44
427.625	103.44
427.847	98.44
428.069	107.44
428.292	107.44
428.514	100.44
428.736	100.44
428.958	101.44
429.181	105.44
429.403	108.44
429.625	95.44
429.847	121.44
430.069	108.44
430.292	119.44
430.514	93.44
430.736	94.44
430.958	106.44
431.18	93.44
431.402	106.44
431.624	94.44
431.846	99.44
432.068	85.44
432.29	100.44
432.512	99.44
432.734	109.44
432.956	100.44
433.178	106.44
433.4	99.44
433.622	96.44
433.844	105.44
434.066	103.44
434.287	110.44
434.509	84.44
434.731	87.44
434.953	85.44
435.175	96.44
435.397	106.44
435.618	106.44
435.84	100.44
436.062	92.44
436.284	92.44
436.505	94.44
436.727	102.44
436.949	101.44
437.17	96.44
437.392	118.44
437.614	115.44
437.835	107.44
438.057	89.44
438.278	103.44
438.5	96.44
438.721	106.44
438.943	119.44
439.165	105.44
439.386	102.44
439.608	110.44
439.829	122.44
440.05	114.44
440.272	105.44
440.493	107.44
440.715	107.44
440.936	108.44
441.158	121.44
441.379	109.44
441.6	116.44
441.822	115.44
442.043	121.44
442.264	127.44
442.486	106.44
442.707	111.44
442.928	103.44
443.149	115.44
443.371	113.44
443.592	111.44
443.813	101.44
444.034	117.44
444.255	101.44
444.476	104.44
444.698	93.44
444.919	117.44
445.14	253.44
445.361	157.44
445.582	120.44
445.803	116.44
446.024	116.44
446.245	121.44
446.466	113.44
446.687	115.44
446.908	114.44
447.129	114.44
447.35	140.44
447.571	113.44
447.792	117.44
448.013	114.44
448.234	118.44
448.455	94.44
448.675	104.44
448.896	119.44
449.117	113.44
449.338	124.44
449.559	121.44
449.779	110.44
450	103.44
450.221	112.44
450.442	121.44
450.662	108.44
450.883	91.44
451.104	117.44
451.324	117.44
451.545	106.44
451.766	94.44
451.986	106.44
452.207	94.44
452.428	106.44
452.648	101.44
452.869	117.44
453.089	94.44
453.31	84.44
453.53	94.44
453.751	102.44
453.971	100.44
454.192	103.44
454.412	83.44
454.633	91.44
454.853	101.44
455.073	94.44
455.294	101.44
455.514	108.44
455.734	102.44
455.955	95.44
456.175	110.44
456.395	101.44
456.616	82.44
456.836	82.44
457.056	100.44
457.276	95.44
457.497	95.44
457.717	98.44
457.937	107.44
458.157	94.44
458.377	104.44
458.598	98.44
458.818	97.44
459.038	96.44
459.258	82.44
459.478	101.44
459.698	93.44
459.918	92.44
460.138	86.44
460.358	91.44
460.578	105.44
460.798	96.44
461.018	103.44
461.238	86.44
461.458	100.44
461.678	99.44
461.898	95.44
462.118	101.44
462.338	103.44
462.558	92.44
462.777	95.44
462.997	100.44
463.217	93.44
463.437	102.44
463.657	91.44
463.876	99.44
464.096	90.44
464.316	83.44
464.536	109.44
464.755	107.44
464.975	96.44
465.195	108.44
465.414	102.44
465.634	115.44
465.854	95.44
466.073	111.44
466.293	101.44
466.512	102.44
466.732	104.44
466.951	110.44
467.171	109.44
467.391	97.44
467.61	99.44
467.829	92.44
468.049	109.44
468.268	103.44
468.488	100.44
468.707	100.44
468.927	105.44
469.146	96.44
469.365	120.44
469.585	112.44
469.804	109.44
470.023	94.44
470.243	106.44
470.462	118.44
470.681	108.44
470.901	107.44
471.12	117.44
471.339	120.44
471.558	113.44
471.777	109.44
471.997	124.44
472.216	91.44
472.435	99.44
472.654	95.44
472.873	97.44
473.092	106.44
473.311	122.44
473.53	109.44
473.749	119.44
473.968	104.44
474.187	99.44
474.406	115.44
474.625	114.44
474.844	104.44
475.063	105.44
475.282	116.44
475.501	107.44
475.72	107.44
475.939	96.44
476.158	101.44
476.377	90.44
476.596	104.44
476.814	104.44
477.033	97.44
477.252	95.44
477.471	110.44
477.69	110.44
477.908	126.44
478.127	120.44
478.346	101.44
478.564	105.44
478.783	109.44
479.002	106.44
479.22	110.44
479.439	105.44
479.658	106.44
479.876	107.44
480.095	110.44
480.313	102.44
480.532	106.44
480.751	102.44
480.969	87.44
481.188	101.44
481.406	85.44
481.624	79.44
481.843	98.44
482.061	102.44
482.28	102.44
482.498	93.44
482.717	104.44
482.935	119.44
483.153	121.44
483.372	120.44
483.59	125.44
483.808	99.44
484.027	102.44
484.245	102.44
484.463	115.44
484.681	122.44
484.9	110.44
485.118	99.44
485.336	104.44
485.554	97.44
485.772	92.44
485.99	97.44
486.209	107.44
486.427	93.44
486.645	121.44
486.863	105.44
487.081	117.44
487.299	101.44
487.517	114.44
487.735	113.44
487.953	130.44
488.171	125.44
488.389	125.44
488.607	115.44
488.825	112.44
489.043	102.44
489.261	123.44
489.479	111.44
489.696	113.44
489.914	117.44
490.132	113.44
490.35	123.44
490.568	127.44
490.786	127.44
491.003	142.44
491.221	123.44
491.439	124.44
491.657	123.44
491.874	154.44
492.092	145.44
492.31	165.44
492.527	138.44
492.745	156.44
492.963	108.44
493.18	150.44
493.398	123.44
493.615	132.44
493.833	131.44
494.05	126.44
494.268	110.44
494.485	123.44
494.703	127.44
494.92	143.44
495.138	118.44
495.355	128.44
495.573	120.44
495.79	119.44
496.008	126.44
496.225	127.44
496.442	136.44
496.66	133.44
496.877	125.44
497.094	123.44
497.312	116.44
497.529	115.44
497.746	122.44
497.963	115.44
498.181	100.44
498.398	111.44
498.615	109.44
498.832	119.44
499.049	91.44
499.267	108.44
499.484	92.44
499.701	114.44
499.918	101.44
500.135	117.44
500.352	113.44
500.569	120.44
500.786	97.44
501.003	113.44
501.22	110.44
501.437	99.44
501.654	110.44
501.871	105.44
502.088	110.44
502.305	112.44
502.522	105.44
502.739	115.44
502.956	113.44
503.172	111.44
503.389	97.44
503.606	107.44
503.823	107.44
504.04	105.44
504.256	104.44
504.473	101.44
504.69	111.44
504.907	124.44
505.123	92.44
505.34	104.44
505.557	113.44
505.773	108.44
505.99	99.44
506.207	102.44
506.423	106.44
506.64	108.44
506.856	109.44
507.073	96.44
507.289	101.44
507.506	97.44
507.722	99.44
507.939	105.44
508.155	106.44
508.372	95.44
508.588	91.44
508.805	84.44
509.021	97.44
509.238	87.44
509.454	100.44
509.67	97.44
509.887	99.44
510.103	108.44
510.319	89.44
510.536	97.44
510.752	93.44
510.968	94.44
511.184	89.44
511.401	97.44
511.617	95.44
511.833	87.44
512.049	96.44
512.265	101.44
512.481	94.44
512.698	104.44
512.914	102.44
513.13	89.44
513.346	97.44
513.562	100.44
513.778	83.44
