Data from Zn(NO3)2Standard.Agarose3%.GreenCap.LampEnergy5.5.E.O_HRD10591_15-03-01-768.txt Node
Date: Mon Jul 22 15:03:01 EDT 2019
User: cochatt
Spectrometer: HR+D1059
Trigger mode: 1
Integration Time (sec): 1.000000E-1
Scans to average: 1
Electric dark correction enabled: true
Nonlinearity correction enabled: false
Boxcar width: 0
XAxis mode: Wavelengths
Number of Pixels in Spectrum: 2048
>>>>>Begin Spectral Data<<<<<
223.165	-14.75
223.4	-14.75
223.635	-14.75
223.869	-12.75
224.104	-15.75
224.338	-21.75
224.573	-5.75
224.808	-19.75
225.042	-13.75
225.277	-7.75
225.511	-14.75
225.746	2.25
225.98	12.25
226.215	8.25
226.449	25.25
226.683	28.25
226.918	22.25
227.152	28.25
227.387	37.25
227.621	41.25
227.856	56.25
228.09	56.25
228.324	53.25
228.559	64.25
228.793	63.25
229.027	49.25
229.262	58.25
229.496	60.25
229.73	61.25
229.964	80.25
230.199	78.25
230.433	72.25
230.667	89.25
230.901	78.25
231.136	78.25
231.37	62.25
231.604	102.25
231.838	85.25
232.072	81.25
232.306	69.25
232.541	91.25
232.775	74.25
233.009	79.25
233.243	83.25
233.477	82.25
233.711	86.25
233.945	92.25
234.179	76.25
234.413	80.25
234.647	90.25
234.881	72.25
235.115	75.25
235.349	64.25
235.583	85.25
235.817	78.25
236.051	76.25
236.285	74.25
236.519	79.25
236.753	92.25
236.987	83.25
237.221	82.25
237.455	78.25
237.689	70.25
237.922	77.25
238.156	74.25
238.39	84.25
238.624	78.25
238.858	91.25
239.091	73.25
239.325	80.25
239.559	70.25
239.793	76.25
240.027	68.25
240.26	60.25
240.494	79.25
240.728	81.25
240.961	86.25
241.195	84.25
241.429	76.25
241.662	82.25
241.896	76.25
242.13	91.25
242.363	82.25
242.597	78.25
242.83	81.25
243.064	68.25
243.298	71.25
243.531	71.25
243.765	57.25
243.998	88.25
244.232	84.25
244.465	72.25
244.699	71.25
244.932	75.25
245.166	64.25
245.399	78.25
245.633	79.25
245.866	78.25
246.099	77.25
246.333	81.25
246.566	70.25
246.8	63.25
247.033	86.25
247.266	76.25
247.5	78.25
247.733	78.25
247.966	87.25
248.2	78.25
248.433	78.25
248.666	88.25
248.899	73.25
249.133	87.25
249.366	80.25
249.599	88.25
249.832	83.25
250.066	88.25
250.299	75.25
250.532	84.25
250.765	78.25
250.998	72.25
251.231	84.25
251.465	78.25
251.698	89.25
251.931	66.25
252.164	77.25
252.397	68.25
252.63	76.25
252.863	87.25
253.096	76.25
253.329	82.25
253.562	70.25
253.795	70.25
254.028	72.25
254.261	81.25
254.494	83.25
254.727	66.25
254.96	77.25
255.193	64.25
255.426	77.25
255.659	90.25
255.892	83.25
256.124	74.25
256.357	77.25
256.59	73.25
256.823	86.25
257.056	80.25
257.289	85.25
257.521	82.25
257.754	84.25
257.987	82.25
258.22	79.25
258.452	84.25
258.685	89.25
258.918	77.25
259.151	75.25
259.383	87.25
259.616	66.25
259.849	88.25
260.081	90.25
260.314	71.25
260.547	70.25
260.779	82.25
261.012	81.25
261.244	83.25
261.477	85.25
261.71	72.25
261.942	92.25
262.175	72.25
262.407	78.25
262.64	89.25
262.872	85.25
263.105	76.25
263.337	75.25
263.57	78.25
263.802	70.25
264.035	78.25
264.267	83.25
264.499	78.25
264.732	91.25
264.964	74.25
265.197	92.25
265.429	81.25
265.661	96.25
265.894	69.25
266.126	74.25
266.358	80.25
266.591	84.25
266.823	73.25
267.055	83.25
267.287	91.25
267.52	93.25
267.752	75.25
267.984	90.25
268.216	78.25
268.448	96.25
268.681	77.25
268.913	71.25
269.145	84.25
269.377	96.25
269.609	74.25
269.841	81.25
270.073	80.25
270.306	72.25
270.538	88.25
270.77	76.25
271.002	79.25
271.234	76.25
271.466	83.25
271.698	80.25
271.93	77.25
272.162	101.25
272.394	81.25
272.626	94.25
272.858	83.25
273.09	93.25
273.322	76.25
273.553	79.25
273.785	84.25
274.017	88.25
274.249	99.25
274.481	75.25
274.713	84.25
274.945	84.25
275.176	89.25
275.408	74.25
275.64	91.25
275.872	74.25
276.104	77.25
276.335	80.25
276.567	81.25
276.799	89.25
277.031	81.25
277.262	81.25
277.494	82.25
277.726	82.25
277.957	87.25
278.189	88.25
278.421	77.25
278.652	92.25
278.884	81.25
279.115	72.25
279.347	84.25
279.579	84.25
279.81	79.25
280.042	79.25
280.273	76.25
280.505	76.25
280.736	98.25
280.968	82.25
281.199	76.25
281.431	89.25
281.662	78.25
281.894	81.25
282.125	74.25
282.356	100.25
282.588	69.25
282.819	78.25
283.051	92.25
283.282	81.25
283.513	90.25
283.745	72.25
283.976	68.25
284.207	76.25
284.439	76.25
284.67	94.25
284.901	99.25
285.132	91.25
285.364	84.25
285.595	70.25
285.826	76.25
286.057	71.25
286.288	84.25
286.52	104.25
286.751	98.25
286.982	69.25
287.213	82.25
287.444	74.25
287.675	97.25
287.906	68.25
288.138	78.25
288.369	78.25
288.6	83.25
288.831	75.25
289.062	69.25
289.293	82.25
289.524	74.25
289.755	77.25
289.986	76.25
290.217	85.25
290.448	75.25
290.679	88.25
290.91	87.25
291.141	73.25
291.371	62.25
291.602	77.25
291.833	70.25
292.064	72.25
292.295	76.25
292.526	83.25
292.757	84.25
292.987	87.25
293.218	67.25
293.449	77.25
293.68	90.25
293.91	77.25
294.141	88.25
294.372	92.25
294.603	79.25
294.833	90.25
295.064	85.25
295.295	75.25
295.525	70.25
295.756	65.25
295.987	78.25
296.217	87.25
296.448	97.25
296.679	70.25
296.909	102.25
297.14	87.25
297.37	91.25
297.601	79.25
297.831	88.25
298.062	80.25
298.292	78.25
298.523	86.25
298.753	83.25
298.984	82.25
299.214	71.25
299.445	72.25
299.675	85.25
299.905	86.25
300.136	75.25
300.366	80.25
300.597	88.25
300.827	82.25
301.057	82.25
301.288	70.25
301.518	86.25
301.748	84.25
301.979	88.25
302.209	67.25
302.439	84.25
302.669	84.25
302.9	87.25
303.13	84.25
303.36	84.25
303.59	84.25
303.82	93.25
304.051	77.25
304.281	85.25
304.511	89.25
304.741	78.25
304.971	92.25
305.201	81.25
305.431	87.25
305.661	80.25
305.891	75.25
306.121	87.25
306.352	80.25
306.582	68.25
306.812	84.25
307.042	88.25
307.272	84.25
307.502	83.25
307.731	87.25
307.961	80.25
308.191	80.25
308.421	85.25
308.651	75.25
308.881	74.25
309.111	86.25
309.341	88.25
309.571	90.25
309.8	89.25
310.03	96.25
310.26	74.25
310.49	74.25
310.72	81.25
310.949	74.25
311.179	102.25
311.409	71.25
311.639	83.25
311.868	97.25
312.098	79.25
312.328	78.25
312.557	83.25
312.787	83.25
313.017	78.25
313.246	91.25
313.476	83.25
313.706	91.25
313.935	85.25
314.165	84.25
314.394	80.25
314.624	87.25
314.853	86.25
315.083	95.25
315.312	82.25
315.542	89.25
315.771	99.25
316.001	81.25
316.23	66.25
316.46	95.25
316.689	69.25
316.919	76.25
317.148	78.25
317.377	93.25
317.607	87.25
317.836	113.25
318.065	82.25
318.295	86.25
318.524	88.25
318.753	91.25
318.983	84.25
319.212	86.25
319.441	81.25
319.67	86.25
319.9	92.25
320.129	96.25
320.358	83.25
320.587	81.25
320.816	77.25
321.046	89.25
321.275	88.25
321.504	79.25
321.733	93.25
321.962	83.25
322.191	79.25
322.42	80.25
322.649	93.25
322.878	77.25
323.108	69.25
323.337	81.25
323.566	95.25
323.795	77.25
324.024	92.25
324.253	84.25
324.482	71.25
324.71	91.25
324.939	84.25
325.168	88.25
325.397	80.25
325.626	84.25
325.855	72.25
326.084	76.25
326.313	92.25
326.542	87.25
326.77	80.25
326.999	84.25
327.228	75.25
327.457	84.25
327.686	80.25
327.914	85.25
328.143	88.25
328.372	79.25
328.6	82.25
328.829	84.25
329.058	89.25
329.287	94.25
329.515	84.25
329.744	78.25
329.972	78.25
330.201	73.25
330.43	68.25
330.658	86.25
330.887	82.25
331.115	102.25
331.344	82.25
331.572	92.25
331.801	97.25
332.03	90.25
332.258	87.25
332.486	79.25
332.715	83.25
332.943	92.25
333.172	104.25
333.4	82.25
333.629	86.25
333.857	82.25
334.085	78.25
334.314	80.25
334.542	75.25
334.771	80.25
334.999	62.25
335.227	95.25
335.455	77.25
335.684	91.25
335.912	80.25
336.14	91.25
336.369	90.25
336.597	86.25
336.825	77.25
337.053	97.25
337.281	74.25
337.51	80.25
337.738	93.25
337.966	72.25
338.194	89.25
338.422	88.25
338.65	102.25
338.878	86.25
339.106	78.25
339.334	93.25
339.562	76.25
339.79	78.25
340.018	77.25
340.246	80.25
340.474	86.25
340.702	92.25
340.93	86.25
341.158	57.25
341.386	91.25
341.614	84.25
341.842	86.25
342.07	89.25
342.298	87.25
342.526	84.25
342.754	87.25
342.981	75.25
343.209	88.25
343.437	92.25
343.665	75.25
343.893	81.25
344.12	77.25
344.348	77.25
344.576	101.25
344.804	85.25
345.031	88.25
345.259	79.25
345.487	102.25
345.714	87.25
345.942	87.25
346.17	90.25
346.397	90.25
346.625	74.25
346.853	84.25
347.08	73.25
347.308	99.25
347.535	87.25
347.763	79.25
347.99	72.25
348.218	90.25
348.445	78.25
348.673	69.25
348.9	89.25
349.128	93.25
349.355	81.25
349.583	84.25
349.81	76.25
350.037	77.25
350.265	82.25
350.492	91.25
350.72	88.25
350.947	84.25
351.174	84.25
351.402	88.25
351.629	95.25
351.856	62.25
352.083	68.25
352.311	84.25
352.538	84.25
352.765	88.25
352.992	91.25
353.22	91.25
353.447	92.25
353.674	85.25
353.901	77.25
354.128	95.25
354.355	100.25
354.583	70.25
354.81	85.25
355.037	92.25
355.264	87.25
355.491	90.25
355.718	87.25
355.945	71.25
356.172	77.25
356.399	83.25
356.626	70.25
356.853	71.25
357.08	94.25
357.307	94.25
357.534	79.25
357.761	95.25
357.988	96.25
358.215	90.25
358.441	80.25
358.668	87.25
358.895	80.25
359.122	84.25
359.349	81.25
359.576	83.25
359.802	83.25
360.029	97.25
360.256	61.25
360.483	82.25
360.709	96.25
360.936	85.25
361.163	81.25
361.39	76.25
361.616	64.25
361.843	86.25
362.07	83.25
362.296	81.25
362.523	91.25
362.749	86.25
362.976	93.25
363.203	83.25
363.429	89.25
363.656	89.25
363.882	82.25
364.109	82.25
364.335	75.25
364.562	83.25
364.788	77.25
365.015	77.25
365.241	86.25
365.468	80.25
365.694	88.25
365.92	81.25
366.147	86.25
366.373	78.25
366.599	76.25
366.826	77.25
367.052	82.25
367.278	91.25
367.505	96.25
367.731	81.25
367.957	85.25
368.184	80.25
368.41	83.25
368.636	69.25
368.862	92.25
369.089	81.25
369.315	85.25
369.541	84.25
369.767	91.25
369.993	93.25
370.219	91.25
370.445	77.25
370.672	88.25
370.898	75.25
371.124	77.25
371.35	84.25
371.576	82.25
371.802	94.25
372.028	70.25
372.254	86.25
372.48	78.25
372.706	76.25
372.932	87.25
373.158	101.25
373.384	81.25
373.61	96.25
373.835	92.25
374.061	77.25
374.287	83.25
374.513	64.25
374.739	97.25
374.965	81.25
375.191	76.25
375.416	98.25
375.642	70.25
375.868	82.25
376.094	89.25
376.319	83.25
376.545	88.25
376.771	90.25
376.997	85.25
377.222	89.25
377.448	97.25
377.674	84.25
377.899	93.25
378.125	91.25
378.35	82.25
378.576	94.25
378.802	70.25
379.027	86.25
379.253	97.25
379.478	77.25
379.704	84.25
379.929	85.25
380.155	82.25
380.38	79.25
380.606	75.25
380.831	70.25
381.057	103.25
381.282	86.25
381.507	87.25
381.733	90.25
381.958	76.25
382.184	73.25
382.409	78.25
382.634	74.25
382.86	86.25
383.085	82.25
383.31	88.25
383.535	81.25
383.761	86.25
383.986	85.25
384.211	72.25
384.436	75.25
384.662	96.25
384.887	64.25
385.112	90.25
385.337	79.25
385.562	72.25
385.787	81.25
386.013	86.25
386.238	75.25
386.463	82.25
386.688	72.25
386.913	83.25
387.138	81.25
387.363	88.25
387.588	77.25
387.813	93.25
388.038	90.25
388.263	77.25
388.488	78.25
388.713	89.25
388.938	77.25
389.163	79.25
389.387	79.25
389.612	92.25
389.837	76.25
390.062	85.25
390.287	76.25
390.512	96.25
390.736	89.25
390.961	70.25
391.186	109.25
391.411	93.25
391.636	83.25
391.86	98.25
392.085	68.25
392.31	68.25
392.534	81.25
392.759	81.25
392.984	83.25
393.208	83.25
393.433	82.25
393.658	84.25
393.882	88.25
394.107	82.25
394.331	66.25
394.556	86.25
394.78	68.25
395.005	81.25
395.229	91.25
395.454	80.25
395.678	75.25
395.903	98.25
396.127	77.25
396.352	80.25
396.576	85.25
396.801	84.25
397.025	80.25
397.249	85.25
397.474	88.25
397.698	82.25
397.922	71.25
398.147	57.25
398.371	82.25
398.595	78.25
398.82	70.25
399.044	78.25
399.268	88.25
399.492	90.25
399.717	81.25
399.941	93.25
400.165	79.25
400.389	86.25
400.613	88.25
400.837	74.25
401.062	91.25
401.286	89.25
401.51	92.25
401.734	82.25
401.958	86.25
402.182	87.25
402.406	78.25
402.63	84.25
402.854	92.25
403.078	89.25
403.302	82.25
403.526	85.25
403.75	87.25
403.974	77.25
404.198	84.25
404.422	88.25
404.645	74.25
404.869	77.25
405.093	85.25
405.317	62.25
405.541	87.25
405.765	80.25
405.988	89.25
406.212	84.25
406.436	79.25
406.66	78.25
406.883	64.25
407.107	80.25
407.331	81.25
407.555	87.25
407.778	85.25
408.002	84.25
408.226	76.25
408.449	85.25
408.673	90.25
408.896	101.25
409.12	86.25
409.344	86.25
409.567	88.25
409.791	86.25
410.014	91.25
410.238	81.25
410.461	78.25
410.685	105.25
410.908	85.25
411.132	87.25
411.355	94.25
411.578	98.25
411.802	82.25
412.025	85.25
412.249	86.25
412.472	86.25
412.695	76.25
412.919	88.25
413.142	90.25
413.365	89.25
413.589	73.25
413.812	82.25
414.035	86.25
414.258	70.25
414.482	89.25
414.705	93.25
414.928	96.25
415.151	90.25
415.374	77.25
415.597	78.25
415.821	87.25
416.044	92.25
416.267	83.25
416.49	82.25
416.713	90.25
416.936	97.25
417.159	79.25
417.382	77.25
417.605	82.25
417.828	80.25
418.051	90.25
418.274	91.25
418.497	89.25
418.72	95.25
418.943	93.25
419.166	92.25
419.389	90.25
419.611	83.25
419.834	86.25
420.057	88.25
420.28	90.25
420.503	81.25
420.726	87.25
420.948	93.25
421.171	83.25
421.394	89.25
421.617	83.25
421.839	74.25
422.062	83.25
422.285	105.25
422.507	93.25
422.73	90.25
422.953	93.25
423.175	85.25
423.398	105.25
423.621	92.25
423.843	89.25
424.066	105.25
424.288	93.25
424.511	83.25
424.733	85.25
424.956	91.25
425.178	89.25
425.401	95.25
425.623	82.25
425.846	90.25
426.068	81.25
426.291	87.25
426.513	81.25
426.735	86.25
426.958	107.25
427.18	84.25
427.402	100.25
427.625	106.25
427.847	93.25
428.069	72.25
428.292	78.25
428.514	97.25
428.736	81.25
428.958	78.25
429.181	103.25
429.403	88.25
429.625	91.25
429.847	89.25
430.069	94.25
430.292	87.25
430.514	89.25
430.736	95.25
430.958	97.25
431.18	94.25
431.402	98.25
431.624	74.25
431.846	77.25
432.068	83.25
432.29	76.25
432.512	93.25
432.734	90.25
432.956	92.25
433.178	93.25
433.4	100.25
433.622	94.25
433.844	84.25
434.066	89.25
434.287	86.25
434.509	90.25
434.731	80.25
434.953	74.25
435.175	82.25
435.397	91.25
435.618	77.25
435.84	92.25
436.062	74.25
436.284	95.25
436.505	93.25
436.727	97.25
436.949	96.25
437.17	92.25
437.392	88.25
437.614	87.25
437.835	93.25
438.057	94.25
438.278	82.25
438.5	85.25
438.721	93.25
438.943	102.25
439.165	73.25
439.386	78.25
439.608	78.25
439.829	93.25
440.05	90.25
440.272	73.25
440.493	92.25
440.715	84.25
440.936	105.25
441.158	87.25
441.379	87.25
441.6	90.25
441.822	83.25
442.043	76.25
442.264	87.25
442.486	91.25
442.707	86.25
442.928	86.25
443.149	76.25
443.371	89.25
443.592	99.25
443.813	98.25
444.034	88.25
444.255	97.25
444.476	81.25
444.698	84.25
444.919	87.25
445.14	198.25
445.361	145.25
445.582	107.25
445.803	79.25
446.024	93.25
446.245	96.25
446.466	87.25
446.687	102.25
446.908	102.25
447.129	92.25
447.35	93.25
447.571	91.25
447.792	86.25
448.013	81.25
448.234	94.25
448.455	95.25
448.675	91.25
448.896	93.25
449.117	87.25
449.338	93.25
449.559	91.25
449.779	96.25
450	89.25
450.221	80.25
450.442	100.25
450.662	77.25
450.883	78.25
451.104	88.25
451.324	95.25
451.545	79.25
451.766	101.25
451.986	81.25
452.207	85.25
452.428	93.25
452.648	103.25
452.869	76.25
453.089	82.25
453.31	87.25
453.53	77.25
453.751	75.25
453.971	65.25
454.192	79.25
454.412	98.25
454.633	87.25
454.853	87.25
455.073	92.25
455.294	78.25
455.514	101.25
455.734	74.25
455.955	88.25
456.175	82.25
456.395	84.25
456.616	78.25
456.836	82.25
457.056	78.25
457.276	94.25
457.497	91.25
457.717	94.25
457.937	92.25
458.157	83.25
458.377	74.25
458.598	85.25
458.818	92.25
459.038	88.25
459.258	78.25
459.478	86.25
459.698	84.25
459.918	83.25
460.138	85.25
460.358	84.25
460.578	96.25
460.798	97.25
461.018	96.25
461.238	73.25
461.458	76.25
461.678	75.25
461.898	78.25
462.118	82.25
462.338	88.25
462.558	81.25
462.777	78.25
462.997	84.25
463.217	78.25
463.437	74.25
463.657	95.25
463.876	87.25
464.096	86.25
464.316	96.25
464.536	85.25
464.755	94.25
464.975	93.25
465.195	89.25
465.414	94.25
465.634	93.25
465.854	87.25
466.073	87.25
466.293	84.25
466.512	88.25
466.732	83.25
466.951	103.25
467.171	76.25
467.391	104.25
467.61	97.25
467.829	80.25
468.049	94.25
468.268	74.25
468.488	84.25
468.707	99.25
468.927	88.25
469.146	88.25
469.365	86.25
469.585	93.25
469.804	96.25
470.023	91.25
470.243	79.25
470.462	87.25
470.681	101.25
470.901	88.25
471.12	88.25
471.339	94.25
471.558	89.25
471.777	88.25
471.997	86.25
472.216	76.25
472.435	86.25
472.654	84.25
472.873	88.25
473.092	99.25
473.311	90.25
473.53	91.25
473.749	94.25
473.968	92.25
474.187	99.25
474.406	75.25
474.625	82.25
474.844	85.25
475.063	71.25
475.282	92.25
475.501	80.25
475.72	92.25
475.939	89.25
476.158	93.25
476.377	84.25
476.596	84.25
476.814	84.25
477.033	91.25
477.252	83.25
477.471	82.25
477.69	78.25
477.908	76.25
478.127	92.25
478.346	93.25
478.564	76.25
478.783	90.25
479.002	94.25
479.22	82.25
479.439	78.25
479.658	91.25
479.876	74.25
480.095	88.25
480.313	90.25
480.532	87.25
480.751	93.25
480.969	98.25
481.188	73.25
481.406	94.25
481.624	88.25
481.843	77.25
482.061	91.25
482.28	89.25
482.498	92.25
482.717	81.25
482.935	83.25
483.153	90.25
483.372	102.25
483.59	104.25
483.808	83.25
484.027	85.25
484.245	93.25
484.463	88.25
484.681	93.25
484.9	103.25
485.118	84.25
485.336	92.25
485.554	81.25
485.772	71.25
485.99	92.25
486.209	84.25
486.427	96.25
486.645	91.25
486.863	76.25
487.081	87.25
487.299	96.25
487.517	88.25
487.735	90.25
487.953	91.25
488.171	104.25
488.389	91.25
488.607	96.25
488.825	102.25
489.043	87.25
489.261	97.25
489.479	98.25
489.696	91.25
489.914	95.25
490.132	93.25
490.35	102.25
490.568	86.25
490.786	92.25
491.003	98.25
491.221	97.25
491.439	106.25
491.657	101.25
491.874	104.25
492.092	103.25
492.31	105.25
492.527	105.25
492.745	112.25
492.963	93.25
493.18	112.25
493.398	94.25
493.615	94.25
493.833	93.25
494.05	89.25
494.268	87.25
494.485	92.25
494.703	92.25
494.92	108.25
495.138	101.25
495.355	94.25
495.573	93.25
495.79	94.25
496.008	85.25
496.225	92.25
496.442	95.25
496.66	94.25
496.877	108.25
497.094	105.25
497.312	103.25
497.529	104.25
497.746	89.25
497.963	88.25
498.181	82.25
498.398	86.25
498.615	83.25
498.832	95.25
499.049	85.25
499.267	89.25
499.484	100.25
499.701	92.25
499.918	97.25
500.135	83.25
500.352	100.25
500.569	107.25
500.786	108.25
501.003	92.25
501.22	80.25
501.437	83.25
501.654	115.25
501.871	88.25
502.088	90.25
502.305	101.25
502.522	89.25
502.739	83.25
502.956	98.25
503.172	90.25
503.389	93.25
503.606	84.25
503.823	83.25
504.04	97.25
504.256	78.25
504.473	90.25
504.69	88.25
504.907	93.25
505.123	85.25
505.34	87.25
505.557	88.25
505.773	101.25
505.99	96.25
506.207	99.25
506.423	84.25
506.64	91.25
506.856	89.25
507.073	82.25
507.289	96.25
507.506	84.25
507.722	92.25
507.939	93.25
508.155	116.25
508.372	83.25
508.588	84.25
508.805	85.25
509.021	83.25
509.238	89.25
509.454	67.25
509.67	102.25
509.887	89.25
510.103	82.25
510.319	88.25
510.536	89.25
510.752	98.25
510.968	83.25
511.184	85.25
511.401	74.25
511.617	91.25
511.833	95.25
512.049	85.25
512.265	84.25
512.481	84.25
512.698	73.25
512.914	88.25
513.13	84.25
513.346	72.25
513.562	69.25
513.778	80.25
513.994	79.25
514.21	89.25
514.426	88.25
514.642	80.25
514.858	96.25
515.074	93.25
515.29	97.25
515.506	74.25
515.721	86.25
515.937	80.25
516.153	75.25
516.369	101.25
516.585	91.25
516.801	83.25
517.016	86.25
517.232	89.25
517.448	86.25
517.664	95.25
517.879	81.25
518.095	97.25
518.311	71.25
518.527	83.25
