Data from Zn(NO3)2Standard.Agarose3%.GreenCap.LampEnergy5.5.E.O_HRD10591_15-03-03-768.txt Node
Date: Mon Jul 22 15:03:03 EDT 2019
User: cochatt
Spectrometer: HR+D1059
Trigger mode: 1
Integration Time (sec): 1.000000E-1
Scans to average: 1
Electric dark correction enabled: true
Nonlinearity correction enabled: false
Boxcar width: 0
XAxis mode: Wavelengths
Number of Pixels in Spectrum: 2048
>>>>>Begin Spectral Data<<<<<
223.165	-19.19
223.4	-19.19
223.635	-19.19
223.869	-19.19
224.104	-24.19
224.338	-12.19
224.573	-19.19
224.808	-16.19
225.042	-3.19
225.277	-2.19
225.511	2.81
225.746	20.81
225.98	0.81
226.215	13.81
226.449	12.81
226.683	13.81
226.918	24.81
227.152	25.81
227.387	27.81
227.621	28.81
227.856	42.81
228.09	33.81
228.324	40.81
228.559	60.81
228.793	44.81
229.027	67.81
229.262	68.81
229.496	70.81
229.73	64.81
229.964	82.81
230.199	69.81
230.433	63.81
230.667	76.81
230.901	69.81
231.136	84.81
231.37	77.81
231.604	71.81
231.838	75.81
232.072	93.81
232.306	82.81
232.541	93.81
232.775	72.81
233.009	90.81
233.243	77.81
233.477	73.81
233.711	88.81
233.945	80.81
234.179	80.81
234.413	68.81
234.647	74.81
234.881	72.81
235.115	75.81
235.349	61.81
235.583	83.81
235.817	62.81
236.051	68.81
236.285	67.81
236.519	86.81
236.753	75.81
236.987	67.81
237.221	80.81
237.455	71.81
237.689	67.81
237.922	69.81
238.156	65.81
238.39	77.81
238.624	78.81
238.858	71.81
239.091	80.81
239.325	76.81
239.559	70.81
239.793	89.81
240.027	83.81
240.26	72.81
240.494	73.81
240.728	72.81
240.961	79.81
241.195	70.81
241.429	72.81
241.662	76.81
241.896	64.81
242.13	64.81
242.363	75.81
242.597	79.81
242.83	86.81
243.064	72.81
243.298	80.81
243.531	82.81
243.765	64.81
243.998	87.81
244.232	79.81
244.465	83.81
244.699	65.81
244.932	67.81
245.166	75.81
245.399	80.81
245.633	85.81
245.866	65.81
246.099	79.81
246.333	73.81
246.566	74.81
246.8	81.81
247.033	70.81
247.266	83.81
247.5	82.81
247.733	86.81
247.966	76.81
248.2	74.81
248.433	77.81
248.666	82.81
248.899	87.81
249.133	78.81
249.366	88.81
249.599	68.81
249.832	68.81
250.066	78.81
250.299	85.81
250.532	85.81
250.765	75.81
250.998	85.81
251.231	73.81
251.465	72.81
251.698	71.81
251.931	70.81
252.164	81.81
252.397	75.81
252.63	75.81
252.863	74.81
253.096	76.81
253.329	81.81
253.562	64.81
253.795	75.81
254.028	92.81
254.261	72.81
254.494	79.81
254.727	68.81
254.96	66.81
255.193	58.81
255.426	68.81
255.659	85.81
255.892	75.81
256.124	74.81
256.357	80.81
256.59	84.81
256.823	70.81
257.056	82.81
257.289	76.81
257.521	68.81
257.754	84.81
257.987	81.81
258.22	70.81
258.452	92.81
258.685	96.81
258.918	83.81
259.151	64.81
259.383	83.81
259.616	79.81
259.849	91.81
260.081	89.81
260.314	70.81
260.547	81.81
260.779	86.81
261.012	75.81
261.244	68.81
261.477	84.81
261.71	77.81
261.942	79.81
262.175	86.81
262.407	74.81
262.64	66.81
262.872	73.81
263.105	77.81
263.337	81.81
263.57	80.81
263.802	96.81
264.035	76.81
264.267	66.81
264.499	83.81
264.732	90.81
264.964	76.81
265.197	68.81
265.429	84.81
265.661	98.81
265.894	81.81
266.126	77.81
266.358	69.81
266.591	71.81
266.823	77.81
267.055	94.81
267.287	73.81
267.52	77.81
267.752	71.81
267.984	69.81
268.216	83.81
268.448	89.81
268.681	87.81
268.913	78.81
269.145	82.81
269.377	73.81
269.609	86.81
269.841	91.81
270.073	73.81
270.306	80.81
270.538	88.81
270.77	79.81
271.002	77.81
271.234	87.81
271.466	90.81
271.698	78.81
271.93	83.81
272.162	81.81
272.394	83.81
272.626	84.81
272.858	82.81
273.09	74.81
273.322	80.81
273.553	84.81
273.785	73.81
274.017	87.81
274.249	108.81
274.481	82.81
274.713	74.81
274.945	88.81
275.176	92.81
275.408	85.81
275.64	60.81
275.872	81.81
276.104	73.81
276.335	74.81
276.567	68.81
276.799	73.81
277.031	85.81
277.262	68.81
277.494	73.81
277.726	81.81
277.957	87.81
278.189	74.81
278.421	87.81
278.652	80.81
278.884	79.81
279.115	85.81
279.347	86.81
279.579	76.81
279.81	87.81
280.042	83.81
280.273	89.81
280.505	70.81
280.736	80.81
280.968	83.81
281.199	80.81
281.431	80.81
281.662	80.81
281.894	82.81
282.125	81.81
282.356	82.81
282.588	88.81
282.819	87.81
283.051	75.81
283.282	86.81
283.513	87.81
283.745	77.81
283.976	87.81
284.207	92.81
284.439	81.81
284.67	101.81
284.901	72.81
285.132	58.81
285.364	77.81
285.595	80.81
285.826	84.81
286.057	100.81
286.288	67.81
286.52	79.81
286.751	80.81
286.982	83.81
287.213	76.81
287.444	87.81
287.675	74.81
287.906	80.81
288.138	74.81
288.369	72.81
288.6	85.81
288.831	75.81
289.062	75.81
289.293	94.81
289.524	74.81
289.755	71.81
289.986	87.81
290.217	83.81
290.448	84.81
290.679	84.81
290.91	95.81
291.141	79.81
291.371	80.81
291.602	91.81
291.833	85.81
292.064	74.81
292.295	77.81
292.526	78.81
292.757	74.81
292.987	76.81
293.218	68.81
293.449	80.81
293.68	73.81
293.91	81.81
294.141	86.81
294.372	82.81
294.603	91.81
294.833	87.81
295.064	75.81
295.295	89.81
295.525	79.81
295.756	81.81
295.987	81.81
296.217	84.81
296.448	77.81
296.679	73.81
296.909	59.81
297.14	81.81
297.37	84.81
297.601	71.81
297.831	83.81
298.062	87.81
298.292	64.81
298.523	78.81
298.753	87.81
298.984	84.81
299.214	88.81
299.445	87.81
299.675	76.81
299.905	98.81
300.136	88.81
300.366	83.81
300.597	84.81
300.827	94.81
301.057	81.81
301.288	87.81
301.518	82.81
301.748	92.81
301.979	79.81
302.209	76.81
302.439	65.81
302.669	83.81
302.9	77.81
303.13	76.81
303.36	88.81
303.59	87.81
303.82	82.81
304.051	70.81
304.281	82.81
304.511	85.81
304.741	76.81
304.971	80.81
305.201	90.81
305.431	98.81
305.661	87.81
305.891	74.81
306.121	87.81
306.352	88.81
306.582	83.81
306.812	74.81
307.042	80.81
307.272	85.81
307.502	84.81
307.731	85.81
307.961	84.81
308.191	93.81
308.421	69.81
308.651	79.81
308.881	75.81
309.111	79.81
309.341	67.81
309.571	80.81
309.8	74.81
310.03	77.81
310.26	76.81
310.49	80.81
310.72	89.81
310.949	84.81
311.179	75.81
311.409	74.81
311.639	86.81
311.868	85.81
312.098	77.81
312.328	74.81
312.557	75.81
312.787	82.81
313.017	72.81
313.246	70.81
313.476	83.81
313.706	71.81
313.935	72.81
314.165	90.81
314.394	89.81
314.624	85.81
314.853	95.81
315.083	80.81
315.312	67.81
315.542	83.81
315.771	80.81
316.001	83.81
316.23	83.81
316.46	77.81
316.689	86.81
316.919	77.81
317.148	87.81
317.377	98.81
317.607	81.81
317.836	85.81
318.065	87.81
318.295	98.81
318.524	74.81
318.753	95.81
318.983	76.81
319.212	80.81
319.441	78.81
319.67	73.81
319.9	87.81
320.129	71.81
320.358	75.81
320.587	71.81
320.816	91.81
321.046	81.81
321.275	86.81
321.504	92.81
321.733	73.81
321.962	75.81
322.191	88.81
322.42	85.81
322.649	85.81
322.878	75.81
323.108	89.81
323.337	71.81
323.566	78.81
323.795	80.81
324.024	88.81
324.253	81.81
324.482	90.81
324.71	81.81
324.939	86.81
325.168	83.81
325.397	81.81
325.626	88.81
325.855	85.81
326.084	80.81
326.313	87.81
326.542	84.81
326.77	100.81
326.999	84.81
327.228	80.81
327.457	77.81
327.686	90.81
327.914	77.81
328.143	83.81
328.372	75.81
328.6	91.81
328.829	85.81
329.058	72.81
329.287	83.81
329.515	83.81
329.744	87.81
329.972	81.81
330.201	81.81
330.43	83.81
330.658	91.81
330.887	82.81
331.115	80.81
331.344	93.81
331.572	76.81
331.801	75.81
332.03	94.81
332.258	83.81
332.486	66.81
332.715	77.81
332.943	88.81
333.172	85.81
333.4	73.81
333.629	75.81
333.857	86.81
334.085	89.81
334.314	82.81
334.542	83.81
334.771	80.81
334.999	99.81
335.227	88.81
335.455	97.81
335.684	79.81
335.912	77.81
336.14	74.81
336.369	86.81
336.597	71.81
336.825	77.81
337.053	83.81
337.281	76.81
337.51	65.81
337.738	77.81
337.966	73.81
338.194	86.81
338.422	74.81
338.65	92.81
338.878	100.81
339.106	85.81
339.334	81.81
339.562	67.81
339.79	90.81
340.018	73.81
340.246	76.81
340.474	74.81
340.702	82.81
340.93	86.81
341.158	89.81
341.386	85.81
341.614	77.81
341.842	74.81
342.07	68.81
342.298	102.81
342.526	89.81
342.754	82.81
342.981	86.81
343.209	81.81
343.437	81.81
343.665	80.81
343.893	80.81
344.12	70.81
344.348	88.81
344.576	85.81
344.804	84.81
345.031	91.81
345.259	80.81
345.487	77.81
345.714	73.81
345.942	69.81
346.17	80.81
346.397	77.81
346.625	81.81
346.853	91.81
347.08	79.81
347.308	75.81
347.535	76.81
347.763	88.81
347.99	78.81
348.218	82.81
348.445	84.81
348.673	76.81
348.9	96.81
349.128	80.81
349.355	76.81
349.583	88.81
349.81	75.81
350.037	95.81
350.265	91.81
350.492	79.81
350.72	76.81
350.947	77.81
351.174	84.81
351.402	92.81
351.629	77.81
351.856	82.81
352.083	83.81
352.311	95.81
352.538	85.81
352.765	83.81
352.992	85.81
353.22	83.81
353.447	91.81
353.674	81.81
353.901	86.81
354.128	84.81
354.355	74.81
354.583	67.81
354.81	92.81
355.037	83.81
355.264	88.81
355.491	84.81
355.718	78.81
355.945	76.81
356.172	75.81
356.399	89.81
356.626	93.81
356.853	71.81
357.08	85.81
357.307	85.81
357.534	94.81
357.761	97.81
357.988	81.81
358.215	83.81
358.441	83.81
358.668	71.81
358.895	88.81
359.122	86.81
359.349	89.81
359.576	82.81
359.802	72.81
360.029	77.81
360.256	88.81
360.483	86.81
360.709	85.81
360.936	74.81
361.163	83.81
361.39	69.81
361.616	93.81
361.843	69.81
362.07	67.81
362.296	72.81
362.523	83.81
362.749	90.81
362.976	83.81
363.203	68.81
363.429	73.81
363.656	83.81
363.882	84.81
364.109	80.81
364.335	95.81
364.562	77.81
364.788	71.81
365.015	86.81
365.241	76.81
365.468	84.81
365.694	82.81
365.92	85.81
366.147	86.81
366.373	91.81
366.599	83.81
366.826	83.81
367.052	91.81
367.278	81.81
367.505	87.81
367.731	91.81
367.957	74.81
368.184	77.81
368.41	96.81
368.636	79.81
368.862	77.81
369.089	72.81
369.315	82.81
369.541	72.81
369.767	75.81
369.993	77.81
370.219	81.81
370.445	78.81
370.672	76.81
370.898	82.81
371.124	86.81
371.35	80.81
371.576	81.81
371.802	86.81
372.028	83.81
372.254	88.81
372.48	70.81
372.706	65.81
372.932	76.81
373.158	94.81
373.384	94.81
373.61	84.81
373.835	85.81
374.061	82.81
374.287	76.81
374.513	78.81
374.739	72.81
374.965	75.81
375.191	80.81
375.416	87.81
375.642	76.81
375.868	72.81
376.094	76.81
376.319	81.81
376.545	78.81
376.771	80.81
376.997	86.81
377.222	78.81
377.448	85.81
377.674	82.81
377.899	90.81
378.125	88.81
378.35	99.81
378.576	76.81
378.802	93.81
379.027	80.81
379.253	79.81
379.478	81.81
379.704	70.81
379.929	71.81
380.155	88.81
380.38	83.81
380.606	77.81
380.831	82.81
381.057	98.81
381.282	86.81
381.507	80.81
381.733	76.81
381.958	83.81
382.184	79.81
382.409	79.81
382.634	87.81
382.86	71.81
383.085	81.81
383.31	79.81
383.535	86.81
383.761	70.81
383.986	80.81
384.211	76.81
384.436	71.81
384.662	73.81
384.887	91.81
385.112	81.81
385.337	76.81
385.562	72.81
385.787	90.81
386.013	92.81
386.238	80.81
386.463	76.81
386.688	85.81
386.913	77.81
387.138	86.81
387.363	86.81
387.588	85.81
387.813	59.81
388.038	84.81
388.263	80.81
388.488	96.81
388.713	86.81
388.938	86.81
389.163	84.81
389.387	92.81
389.612	75.81
389.837	77.81
390.062	88.81
390.287	78.81
390.512	81.81
390.736	88.81
390.961	80.81
391.186	74.81
391.411	67.81
391.636	90.81
391.86	76.81
392.085	92.81
392.31	84.81
392.534	72.81
392.759	80.81
392.984	97.81
393.208	74.81
393.433	95.81
393.658	81.81
393.882	83.81
394.107	88.81
394.331	81.81
394.556	81.81
394.78	95.81
395.005	87.81
395.229	90.81
395.454	75.81
395.678	91.81
395.903	69.81
396.127	79.81
396.352	79.81
396.576	89.81
396.801	87.81
397.025	90.81
397.249	92.81
397.474	96.81
397.698	77.81
397.922	83.81
398.147	72.81
398.371	73.81
398.595	93.81
398.82	90.81
399.044	96.81
399.268	79.81
399.492	75.81
399.717	82.81
399.941	71.81
400.165	77.81
400.389	73.81
400.613	88.81
400.837	93.81
401.062	85.81
401.286	86.81
401.51	74.81
401.734	92.81
401.958	88.81
402.182	81.81
402.406	100.81
402.63	87.81
402.854	85.81
403.078	84.81
403.302	99.81
403.526	83.81
403.75	90.81
403.974	92.81
404.198	84.81
404.422	75.81
404.645	87.81
404.869	87.81
405.093	91.81
405.317	76.81
405.541	95.81
405.765	93.81
405.988	81.81
406.212	75.81
406.436	77.81
406.66	83.81
406.883	76.81
407.107	87.81
407.331	70.81
407.555	72.81
407.778	84.81
408.002	95.81
408.226	89.81
408.449	95.81
408.673	93.81
408.896	84.81
409.12	79.81
409.344	74.81
409.567	85.81
409.791	88.81
410.014	77.81
410.238	89.81
410.461	89.81
410.685	90.81
410.908	74.81
411.132	88.81
411.355	92.81
411.578	84.81
411.802	85.81
412.025	82.81
412.249	74.81
412.472	82.81
412.695	76.81
412.919	96.81
413.142	100.81
413.365	74.81
413.589	88.81
413.812	77.81
414.035	82.81
414.258	96.81
414.482	85.81
414.705	73.81
414.928	77.81
415.151	85.81
415.374	80.81
415.597	63.81
415.821	85.81
416.044	87.81
416.267	77.81
416.49	83.81
416.713	82.81
416.936	91.81
417.159	80.81
417.382	73.81
417.605	81.81
417.828	67.81
418.051	81.81
418.274	93.81
418.497	89.81
418.72	83.81
418.943	85.81
419.166	81.81
419.389	82.81
419.611	89.81
419.834	105.81
420.057	89.81
420.28	89.81
420.503	98.81
420.726	72.81
420.948	90.81
421.171	85.81
421.394	76.81
421.617	85.81
421.839	88.81
422.062	91.81
422.285	76.81
422.507	82.81
422.73	97.81
422.953	85.81
423.175	85.81
423.398	88.81
423.621	93.81
423.843	82.81
424.066	85.81
424.288	81.81
424.511	89.81
424.733	75.81
424.956	83.81
425.178	88.81
425.401	81.81
425.623	93.81
425.846	80.81
426.068	81.81
426.291	85.81
426.513	88.81
426.735	87.81
426.958	73.81
427.18	72.81
427.402	87.81
427.625	82.81
427.847	91.81
428.069	81.81
428.292	80.81
428.514	94.81
428.736	86.81
428.958	74.81
429.181	83.81
429.403	101.81
429.625	93.81
429.847	75.81
430.069	79.81
430.292	84.81
430.514	81.81
430.736	83.81
430.958	86.81
431.18	85.81
431.402	93.81
431.624	83.81
431.846	105.81
432.068	97.81
432.29	89.81
432.512	75.81
432.734	88.81
432.956	89.81
433.178	96.81
433.4	93.81
433.622	76.81
433.844	89.81
434.066	80.81
434.287	72.81
434.509	89.81
434.731	84.81
434.953	83.81
435.175	88.81
435.397	107.81
435.618	75.81
435.84	85.81
436.062	89.81
436.284	90.81
436.505	81.81
436.727	87.81
436.949	85.81
437.17	89.81
437.392	85.81
437.614	87.81
437.835	81.81
438.057	85.81
438.278	77.81
438.5	73.81
438.721	87.81
438.943	91.81
439.165	89.81
439.386	90.81
439.608	102.81
439.829	100.81
440.05	81.81
440.272	77.81
440.493	79.81
440.715	104.81
440.936	86.81
441.158	85.81
441.379	79.81
441.6	88.81
441.822	94.81
442.043	90.81
442.264	95.81
442.486	83.81
442.707	100.81
442.928	89.81
443.149	96.81
443.371	101.81
443.592	103.81
443.813	101.81
444.034	95.81
444.255	87.81
444.476	88.81
444.698	93.81
444.919	85.81
445.14	208.81
445.361	127.81
445.582	95.81
445.803	81.81
446.024	90.81
446.245	106.81
446.466	83.81
446.687	106.81
446.908	84.81
447.129	83.81
447.35	85.81
447.571	78.81
447.792	90.81
448.013	83.81
448.234	89.81
448.455	91.81
448.675	96.81
448.896	97.81
449.117	88.81
449.338	111.81
449.559	81.81
449.779	79.81
450	91.81
450.221	79.81
450.442	85.81
450.662	81.81
450.883	75.81
451.104	84.81
451.324	79.81
451.545	84.81
451.766	90.81
451.986	84.81
452.207	94.81
452.428	83.81
452.648	93.81
452.869	82.81
453.089	83.81
453.31	84.81
453.53	88.81
453.751	89.81
453.971	68.81
454.192	73.81
454.412	79.81
454.633	77.81
454.853	84.81
455.073	88.81
455.294	87.81
455.514	94.81
455.734	87.81
455.955	83.81
456.175	75.81
456.395	89.81
456.616	83.81
456.836	75.81
457.056	74.81
457.276	80.81
457.497	86.81
457.717	78.81
457.937	81.81
458.157	84.81
458.377	78.81
458.598	60.81
458.818	80.81
459.038	65.81
459.258	84.81
459.478	68.81
459.698	73.81
459.918	84.81
460.138	82.81
460.358	77.81
460.578	93.81
460.798	88.81
461.018	70.81
461.238	75.81
461.458	75.81
461.678	92.81
461.898	81.81
462.118	92.81
462.338	85.81
462.558	70.81
462.777	78.81
462.997	75.81
463.217	89.81
463.437	69.81
463.657	86.81
463.876	97.81
464.096	74.81
464.316	78.81
464.536	81.81
464.755	91.81
464.975	79.81
465.195	99.81
465.414	93.81
465.634	80.81
465.854	75.81
466.073	83.81
466.293	76.81
466.512	91.81
466.732	91.81
466.951	81.81
467.171	83.81
467.391	86.81
467.61	96.81
467.829	86.81
468.049	85.81
468.268	76.81
468.488	91.81
468.707	95.81
468.927	73.81
469.146	90.81
469.365	110.81
469.585	98.81
469.804	80.81
470.023	78.81
470.243	104.81
470.462	86.81
470.681	89.81
470.901	77.81
471.12	79.81
471.339	93.81
471.558	89.81
471.777	96.81
471.997	108.81
472.216	104.81
472.435	92.81
472.654	77.81
472.873	84.81
473.092	79.81
473.311	86.81
473.53	78.81
473.749	91.81
473.968	92.81
474.187	109.81
474.406	83.81
474.625	99.81
474.844	92.81
475.063	89.81
475.282	107.81
475.501	92.81
475.72	87.81
475.939	70.81
476.158	81.81
476.377	90.81
476.596	87.81
476.814	78.81
477.033	83.81
477.252	84.81
477.471	89.81
477.69	82.81
477.908	79.81
478.127	93.81
478.346	81.81
478.564	87.81
478.783	99.81
479.002	106.81
479.22	91.81
479.439	81.81
479.658	96.81
479.876	87.81
480.095	89.81
480.313	81.81
480.532	83.81
480.751	85.81
480.969	97.81
481.188	97.81
481.406	81.81
481.624	88.81
481.843	79.81
482.061	77.81
482.28	90.81
482.498	83.81
482.717	85.81
482.935	80.81
483.153	85.81
483.372	79.81
483.59	94.81
483.808	76.81
484.027	84.81
484.245	93.81
484.463	98.81
484.681	91.81
484.9	85.81
485.118	86.81
485.336	87.81
485.554	72.81
485.772	80.81
485.99	80.81
486.209	103.81
486.427	85.81
486.645	92.81
486.863	80.81
487.081	83.81
487.299	95.81
487.517	90.81
487.735	98.81
487.953	100.81
488.171	93.81
488.389	99.81
488.607	85.81
488.825	100.81
489.043	91.81
489.261	90.81
489.479	94.81
489.696	106.81
489.914	84.81
490.132	87.81
490.35	96.81
490.568	95.81
490.786	104.81
491.003	93.81
491.221	96.81
491.439	112.81
491.657	98.81
491.874	103.81
492.092	95.81
492.31	103.81
492.527	101.81
492.745	93.81
492.963	95.81
493.18	95.81
493.398	102.81
493.615	94.81
493.833	100.81
494.05	88.81
494.268	93.81
494.485	96.81
494.703	90.81
494.92	98.81
495.138	95.81
495.355	92.81
495.573	96.81
495.79	89.81
496.008	97.81
496.225	77.81
496.442	96.81
496.66	101.81
496.877	111.81
497.094	92.81
497.312	86.81
497.529	89.81
497.746	104.81
497.963	88.81
498.181	71.81
498.398	81.81
498.615	77.81
498.832	84.81
499.049	91.81
499.267	107.81
499.484	95.81
499.701	83.81
499.918	80.81
500.135	89.81
500.352	93.81
500.569	85.81
500.786	99.81
501.003	103.81
501.22	77.81
501.437	87.81
501.654	85.81
501.871	93.81
502.088	94.81
502.305	92.81
502.522	84.81
502.739	81.81
502.956	87.81
503.172	95.81
503.389	99.81
503.606	89.81
503.823	99.81
504.04	98.81
504.256	80.81
504.473	89.81
504.69	85.81
504.907	89.81
505.123	79.81
505.34	90.81
505.557	89.81
505.773	92.81
505.99	81.81
506.207	76.81
506.423	86.81
506.64	88.81
506.856	87.81
507.073	89.81
507.289	87.81
507.506	90.81
507.722	81.81
507.939	74.81
508.155	88.81
508.372	88.81
508.588	87.81
508.805	88.81
509.021	87.81
509.238	75.81
509.454	68.81
509.67	75.81
509.887	92.81
510.103	81.81
510.319	81.81
510.536	80.81
510.752	93.81
510.968	77.81
511.184	81.81
511.401	85.81
511.617	89.81
511.833	84.81
512.049	93.81
512.265	85.81
512.481	95.81
512.698	68.81
512.914	79.81
513.13	73.81
513.346	79.81
513.562	67.81
513.778	78.81
513.994	87.81
514.21	83.81
514.426	81.81
514.642	77.81
514.858	70.81
515.074	72.81
515.29	86.81
515.506	80.81
515.721	93.81
515.937	82.81
516.153	85.81
516.369	99.81
516.585	83.81
516.801	85.81
517.016	77.81
517.232	75.81
517.448	84.81
517.664	80.81
517.879	88.81
518.095	90.81
518.311	99.81
518.527	89.81
518.742	88.81
