Data from Zn(NO3)2Standard.Agarose3%.GreenCap.LampEnergy5.5.E.O_HRD10591_15-02-49-767.txt Node
Date: Mon Jul 22 15:02:49 EDT 2019
User: cochatt
Spectrometer: HR+D1059
Trigger mode: 1
Integration Time (sec): 1.000000E-1
Scans to average: 1
Electric dark correction enabled: true
Nonlinearity correction enabled: false
Boxcar width: 0
XAxis mode: Wavelengths
Number of Pixels in Spectrum: 2048
>>>>>Begin Spectral Data<<<<<
223.165	-11.19
223.4	-11.19
223.635	-11.19
223.869	-15.19
224.104	-18.19
224.338	-24.19
224.573	-34.19
224.808	-8.19
225.042	-7.19
225.277	-0.19
225.511	-15.19
225.746	18.81
225.98	3.81
226.215	9.81
226.449	22.81
226.683	26.81
226.918	19.81
227.152	31.81
227.387	43.81
227.621	34.81
227.856	42.81
228.09	58.81
228.324	63.81
228.559	52.81
228.793	69.81
229.027	68.81
229.262	69.81
229.496	56.81
229.73	60.81
229.964	76.81
230.199	82.81
230.433	81.81
230.667	74.81
230.901	83.81
231.136	77.81
231.37	66.81
231.604	88.81
231.838	76.81
232.072	70.81
232.306	83.81
232.541	79.81
232.775	68.81
233.009	83.81
233.243	71.81
233.477	77.81
233.711	71.81
233.945	85.81
234.179	79.81
234.413	80.81
234.647	68.81
234.881	71.81
235.115	66.81
235.349	82.81
235.583	77.81
235.817	67.81
236.051	69.81
236.285	65.81
236.519	82.81
236.753	84.81
236.987	74.81
237.221	81.81
237.455	77.81
237.689	86.81
237.922	87.81
238.156	81.81
238.39	80.81
238.624	73.81
238.858	63.81
239.091	65.81
239.325	75.81
239.559	84.81
239.793	83.81
240.027	66.81
240.26	89.81
240.494	86.81
240.728	68.81
240.961	65.81
241.195	68.81
241.429	74.81
241.662	74.81
241.896	71.81
242.13	72.81
242.363	74.81
242.597	82.81
242.83	81.81
243.064	67.81
243.298	71.81
243.531	83.81
243.765	58.81
243.998	75.81
244.232	69.81
244.465	74.81
244.699	63.81
244.932	71.81
245.166	72.81
245.399	80.81
245.633	84.81
245.866	73.81
246.099	68.81
246.333	80.81
246.566	80.81
246.8	72.81
247.033	89.81
247.266	82.81
247.5	84.81
247.733	80.81
247.966	76.81
248.2	101.81
248.433	88.81
248.666	93.81
248.899	82.81
249.133	79.81
249.366	84.81
249.599	80.81
249.832	72.81
250.066	88.81
250.299	88.81
250.532	87.81
250.765	86.81
250.998	82.81
251.231	85.81
251.465	61.81
251.698	78.81
251.931	76.81
252.164	66.81
252.397	68.81
252.63	82.81
252.863	64.81
253.096	75.81
253.329	78.81
253.562	61.81
253.795	86.81
254.028	81.81
254.261	65.81
254.494	78.81
254.727	81.81
254.96	78.81
255.193	81.81
255.426	75.81
255.659	67.81
255.892	72.81
256.124	71.81
256.357	81.81
256.59	81.81
256.823	82.81
257.056	81.81
257.289	82.81
257.521	80.81
257.754	77.81
257.987	87.81
258.22	83.81
258.452	72.81
258.685	83.81
258.918	89.81
259.151	83.81
259.383	69.81
259.616	85.81
259.849	67.81
260.081	82.81
260.314	69.81
260.547	79.81
260.779	83.81
261.012	73.81
261.244	77.81
261.477	91.81
261.71	65.81
261.942	91.81
262.175	73.81
262.407	66.81
262.64	89.81
262.872	71.81
263.105	79.81
263.337	82.81
263.57	77.81
263.802	67.81
264.035	84.81
264.267	82.81
264.499	79.81
264.732	99.81
264.964	85.81
265.197	74.81
265.429	77.81
265.661	77.81
265.894	86.81
266.126	72.81
266.358	76.81
266.591	75.81
266.823	82.81
267.055	65.81
267.287	81.81
267.52	88.81
267.752	78.81
267.984	104.81
268.216	89.81
268.448	85.81
268.681	69.81
268.913	82.81
269.145	76.81
269.377	84.81
269.609	75.81
269.841	78.81
270.073	76.81
270.306	82.81
270.538	81.81
270.77	81.81
271.002	89.81
271.234	73.81
271.466	83.81
271.698	80.81
271.93	83.81
272.162	72.81
272.394	76.81
272.626	67.81
272.858	81.81
273.09	86.81
273.322	92.81
273.553	75.81
273.785	74.81
274.017	77.81
274.249	81.81
274.481	67.81
274.713	74.81
274.945	104.81
275.176	73.81
275.408	73.81
275.64	83.81
275.872	88.81
276.104	66.81
276.335	86.81
276.567	69.81
276.799	86.81
277.031	72.81
277.262	77.81
277.494	83.81
277.726	75.81
277.957	92.81
278.189	87.81
278.421	85.81
278.652	81.81
278.884	79.81
279.115	82.81
279.347	81.81
279.579	78.81
279.81	80.81
280.042	88.81
280.273	86.81
280.505	82.81
280.736	88.81
280.968	85.81
281.199	89.81
281.431	85.81
281.662	78.81
281.894	98.81
282.125	87.81
282.356	83.81
282.588	87.81
282.819	75.81
283.051	83.81
283.282	90.81
283.513	82.81
283.745	74.81
283.976	87.81
284.207	77.81
284.439	83.81
284.67	89.81
284.901	64.81
285.132	89.81
285.364	96.81
285.595	88.81
285.826	83.81
286.057	87.81
286.288	76.81
286.52	67.81
286.751	82.81
286.982	79.81
287.213	65.81
287.444	81.81
287.675	71.81
287.906	89.81
288.138	75.81
288.369	77.81
288.6	74.81
288.831	80.81
289.062	84.81
289.293	89.81
289.524	84.81
289.755	90.81
289.986	93.81
290.217	94.81
290.448	74.81
290.679	79.81
290.91	88.81
291.141	85.81
291.371	73.81
291.602	88.81
291.833	71.81
292.064	86.81
292.295	86.81
292.526	83.81
292.757	83.81
292.987	81.81
293.218	87.81
293.449	78.81
293.68	76.81
293.91	99.81
294.141	91.81
294.372	64.81
294.603	82.81
294.833	73.81
295.064	73.81
295.295	94.81
295.525	85.81
295.756	86.81
295.987	92.81
296.217	92.81
296.448	84.81
296.679	87.81
296.909	88.81
297.14	77.81
297.37	71.81
297.601	87.81
297.831	82.81
298.062	85.81
298.292	91.81
298.523	78.81
298.753	74.81
298.984	87.81
299.214	87.81
299.445	80.81
299.675	68.81
299.905	75.81
300.136	72.81
300.366	79.81
300.597	89.81
300.827	81.81
301.057	89.81
301.288	89.81
301.518	86.81
301.748	74.81
301.979	86.81
302.209	84.81
302.439	82.81
302.669	86.81
302.9	73.81
303.13	83.81
303.36	87.81
303.59	81.81
303.82	92.81
304.051	89.81
304.281	79.81
304.511	87.81
304.741	74.81
304.971	80.81
305.201	79.81
305.431	85.81
305.661	88.81
305.891	92.81
306.121	89.81
306.352	86.81
306.582	85.81
306.812	84.81
307.042	74.81
307.272	75.81
307.502	65.81
307.731	82.81
307.961	86.81
308.191	86.81
308.421	73.81
308.651	72.81
308.881	86.81
309.111	82.81
309.341	85.81
309.571	87.81
309.8	94.81
310.03	85.81
310.26	82.81
310.49	71.81
310.72	77.81
310.949	87.81
311.179	86.81
311.409	91.81
311.639	75.81
311.868	82.81
312.098	79.81
312.328	85.81
312.557	81.81
312.787	61.81
313.017	78.81
313.246	82.81
313.476	73.81
313.706	100.81
313.935	88.81
314.165	84.81
314.394	98.81
314.624	86.81
314.853	73.81
315.083	83.81
315.312	85.81
315.542	79.81
315.771	73.81
316.001	98.81
316.23	79.81
316.46	75.81
316.689	86.81
316.919	78.81
317.148	72.81
317.377	73.81
317.607	68.81
317.836	99.81
318.065	92.81
318.295	77.81
318.524	76.81
318.753	87.81
318.983	90.81
319.212	90.81
319.441	75.81
319.67	87.81
319.9	82.81
320.129	76.81
320.358	85.81
320.587	82.81
320.816	101.81
321.046	92.81
321.275	92.81
321.504	88.81
321.733	86.81
321.962	92.81
322.191	84.81
322.42	69.81
322.649	84.81
322.878	93.81
323.108	98.81
323.337	85.81
323.566	89.81
323.795	81.81
324.024	82.81
324.253	84.81
324.482	85.81
324.71	94.81
324.939	79.81
325.168	89.81
325.397	73.81
325.626	84.81
325.855	85.81
326.084	90.81
326.313	83.81
326.542	80.81
326.77	84.81
326.999	77.81
327.228	89.81
327.457	90.81
327.686	76.81
327.914	81.81
328.143	86.81
328.372	75.81
328.6	80.81
328.829	79.81
329.058	82.81
329.287	78.81
329.515	67.81
329.744	73.81
329.972	88.81
330.201	83.81
330.43	70.81
330.658	76.81
330.887	89.81
331.115	81.81
331.344	86.81
331.572	75.81
331.801	91.81
332.03	77.81
332.258	88.81
332.486	84.81
332.715	73.81
332.943	79.81
333.172	85.81
333.4	89.81
333.629	81.81
333.857	77.81
334.085	82.81
334.314	95.81
334.542	80.81
334.771	81.81
334.999	73.81
335.227	87.81
335.455	82.81
335.684	76.81
335.912	101.81
336.14	82.81
336.369	84.81
336.597	87.81
336.825	91.81
337.053	91.81
337.281	85.81
337.51	85.81
337.738	65.81
337.966	79.81
338.194	72.81
338.422	81.81
338.65	98.81
338.878	73.81
339.106	83.81
339.334	73.81
339.562	67.81
339.79	72.81
340.018	80.81
340.246	76.81
340.474	92.81
340.702	69.81
340.93	78.81
341.158	89.81
341.386	75.81
341.614	76.81
341.842	66.81
342.07	82.81
342.298	83.81
342.526	108.81
342.754	87.81
342.981	92.81
343.209	86.81
343.437	85.81
343.665	68.81
343.893	85.81
344.12	85.81
344.348	84.81
344.576	85.81
344.804	89.81
345.031	81.81
345.259	81.81
345.487	83.81
345.714	88.81
345.942	78.81
346.17	90.81
346.397	81.81
346.625	78.81
346.853	92.81
347.08	75.81
347.308	87.81
347.535	67.81
347.763	85.81
347.99	93.81
348.218	86.81
348.445	87.81
348.673	91.81
348.9	87.81
349.128	86.81
349.355	79.81
349.583	73.81
349.81	84.81
350.037	83.81
350.265	86.81
350.492	83.81
350.72	91.81
350.947	86.81
351.174	87.81
351.402	85.81
351.629	82.81
351.856	84.81
352.083	70.81
352.311	88.81
352.538	84.81
352.765	75.81
352.992	77.81
353.22	86.81
353.447	80.81
353.674	82.81
353.901	75.81
354.128	85.81
354.355	74.81
354.583	87.81
354.81	80.81
355.037	69.81
355.264	79.81
355.491	89.81
355.718	68.81
355.945	73.81
356.172	72.81
356.399	83.81
356.626	89.81
356.853	83.81
357.08	63.81
357.307	85.81
357.534	75.81
357.761	74.81
357.988	80.81
358.215	91.81
358.441	95.81
358.668	74.81
358.895	83.81
359.122	75.81
359.349	86.81
359.576	73.81
359.802	63.81
360.029	77.81
360.256	85.81
360.483	74.81
360.709	71.81
360.936	86.81
361.163	92.81
361.39	81.81
361.616	81.81
361.843	80.81
362.07	79.81
362.296	80.81
362.523	86.81
362.749	82.81
362.976	81.81
363.203	95.81
363.429	83.81
363.656	90.81
363.882	89.81
364.109	79.81
364.335	92.81
364.562	79.81
364.788	76.81
365.015	80.81
365.241	77.81
365.468	91.81
365.694	84.81
365.92	78.81
366.147	64.81
366.373	84.81
366.599	81.81
366.826	81.81
367.052	96.81
367.278	87.81
367.505	78.81
367.731	72.81
367.957	97.81
368.184	84.81
368.41	85.81
368.636	93.81
368.862	76.81
369.089	93.81
369.315	84.81
369.541	84.81
369.767	82.81
369.993	86.81
370.219	80.81
370.445	81.81
370.672	86.81
370.898	85.81
371.124	77.81
371.35	88.81
371.576	74.81
371.802	81.81
372.028	81.81
372.254	86.81
372.48	73.81
372.706	86.81
372.932	73.81
373.158	84.81
373.384	93.81
373.61	85.81
373.835	74.81
374.061	85.81
374.287	83.81
374.513	74.81
374.739	76.81
374.965	76.81
375.191	81.81
375.416	82.81
375.642	85.81
375.868	75.81
376.094	76.81
376.319	84.81
376.545	100.81
376.771	72.81
376.997	69.81
377.222	80.81
377.448	74.81
377.674	96.81
377.899	91.81
378.125	89.81
378.35	73.81
378.576	75.81
378.802	86.81
379.027	77.81
379.253	89.81
379.478	78.81
379.704	92.81
379.929	75.81
380.155	77.81
380.38	92.81
380.606	96.81
380.831	85.81
381.057	90.81
381.282	80.81
381.507	81.81
381.733	85.81
381.958	87.81
382.184	73.81
382.409	72.81
382.634	72.81
382.86	68.81
383.085	71.81
383.31	86.81
383.535	82.81
383.761	77.81
383.986	81.81
384.211	77.81
384.436	84.81
384.662	81.81
384.887	70.81
385.112	79.81
385.337	82.81
385.562	82.81
385.787	80.81
386.013	81.81
386.238	82.81
386.463	72.81
386.688	88.81
386.913	74.81
387.138	86.81
387.363	85.81
387.588	91.81
387.813	89.81
388.038	84.81
388.263	85.81
388.488	89.81
388.713	87.81
388.938	75.81
389.163	77.81
389.387	87.81
389.612	83.81
389.837	83.81
390.062	90.81
390.287	88.81
390.512	77.81
390.736	90.81
390.961	92.81
391.186	85.81
391.411	88.81
391.636	80.81
391.86	76.81
392.085	78.81
392.31	82.81
392.534	76.81
392.759	80.81
392.984	83.81
393.208	74.81
393.433	81.81
393.658	88.81
393.882	68.81
394.107	87.81
394.331	95.81
394.556	75.81
394.78	72.81
395.005	71.81
395.229	75.81
395.454	90.81
395.678	83.81
395.903	82.81
396.127	85.81
396.352	93.81
396.576	82.81
396.801	93.81
397.025	74.81
397.249	77.81
397.474	94.81
397.698	89.81
397.922	70.81
398.147	82.81
398.371	77.81
398.595	75.81
398.82	84.81
399.044	81.81
399.268	88.81
399.492	82.81
399.717	88.81
399.941	88.81
400.165	95.81
400.389	73.81
400.613	76.81
400.837	83.81
401.062	75.81
401.286	90.81
401.51	76.81
401.734	81.81
401.958	82.81
402.182	76.81
402.406	79.81
402.63	75.81
402.854	77.81
403.078	77.81
403.302	89.81
403.526	88.81
403.75	77.81
403.974	101.81
404.198	85.81
404.422	80.81
404.645	90.81
404.869	72.81
405.093	77.81
405.317	91.81
405.541	96.81
405.765	82.81
405.988	88.81
406.212	91.81
406.436	78.81
406.66	81.81
406.883	86.81
407.107	91.81
407.331	87.81
407.555	89.81
407.778	90.81
408.002	79.81
408.226	87.81
408.449	84.81
408.673	83.81
408.896	89.81
409.12	89.81
409.344	83.81
409.567	81.81
409.791	99.81
410.014	98.81
410.238	71.81
410.461	84.81
410.685	80.81
410.908	98.81
411.132	93.81
411.355	88.81
411.578	87.81
411.802	90.81
412.025	90.81
412.249	95.81
412.472	94.81
412.695	75.81
412.919	90.81
413.142	92.81
413.365	75.81
413.589	83.81
413.812	84.81
414.035	94.81
414.258	98.81
414.482	79.81
414.705	89.81
414.928	88.81
415.151	80.81
415.374	86.81
415.597	83.81
415.821	85.81
416.044	93.81
416.267	95.81
416.49	87.81
416.713	87.81
416.936	86.81
417.159	81.81
417.382	91.81
417.605	84.81
417.828	87.81
418.051	80.81
418.274	79.81
418.497	89.81
418.72	96.81
418.943	89.81
419.166	81.81
419.389	82.81
419.611	76.81
419.834	95.81
420.057	93.81
420.28	83.81
420.503	88.81
420.726	88.81
420.948	86.81
421.171	92.81
421.394	88.81
421.617	94.81
421.839	74.81
422.062	91.81
422.285	96.81
422.507	97.81
422.73	87.81
422.953	96.81
423.175	87.81
423.398	82.81
423.621	84.81
423.843	91.81
424.066	83.81
424.288	83.81
424.511	97.81
424.733	88.81
424.956	74.81
425.178	85.81
425.401	92.81
425.623	80.81
425.846	67.81
426.068	93.81
426.291	83.81
426.513	88.81
426.735	97.81
426.958	80.81
427.18	87.81
427.402	86.81
427.625	65.81
427.847	86.81
428.069	84.81
428.292	82.81
428.514	87.81
428.736	92.81
428.958	66.81
429.181	90.81
429.403	81.81
429.625	91.81
429.847	80.81
430.069	81.81
430.292	91.81
430.514	90.81
430.736	80.81
430.958	83.81
431.18	82.81
431.402	83.81
431.624	71.81
431.846	77.81
432.068	72.81
432.29	83.81
432.512	85.81
432.734	87.81
432.956	91.81
433.178	84.81
433.4	90.81
433.622	98.81
433.844	73.81
434.066	87.81
434.287	71.81
434.509	76.81
434.731	94.81
434.953	77.81
435.175	97.81
435.397	96.81
435.618	77.81
435.84	68.81
436.062	76.81
436.284	100.81
436.505	90.81
436.727	90.81
436.949	95.81
437.17	75.81
437.392	98.81
437.614	85.81
437.835	84.81
438.057	88.81
438.278	90.81
438.5	86.81
438.721	88.81
438.943	93.81
439.165	92.81
439.386	89.81
439.608	84.81
439.829	89.81
440.05	90.81
440.272	83.81
440.493	94.81
440.715	97.81
440.936	86.81
441.158	81.81
441.379	77.81
441.6	91.81
441.822	97.81
442.043	99.81
442.264	94.81
442.486	92.81
442.707	88.81
442.928	77.81
443.149	91.81
443.371	77.81
443.592	80.81
443.813	89.81
444.034	87.81
444.255	76.81
444.476	81.81
444.698	86.81
444.919	96.81
445.14	209.81
445.361	146.81
445.582	90.81
445.803	89.81
446.024	96.81
446.245	86.81
446.466	75.81
446.687	97.81
446.908	92.81
447.129	93.81
447.35	97.81
447.571	81.81
447.792	88.81
448.013	83.81
448.234	94.81
448.455	85.81
448.675	101.81
448.896	91.81
449.117	96.81
449.338	87.81
449.559	91.81
449.779	92.81
450	98.81
450.221	91.81
450.442	89.81
450.662	76.81
450.883	86.81
451.104	77.81
451.324	95.81
451.545	87.81
451.766	74.81
451.986	93.81
452.207	100.81
452.428	99.81
452.648	101.81
452.869	83.81
453.089	88.81
453.31	82.81
453.53	84.81
453.751	76.81
453.971	94.81
454.192	74.81
454.412	85.81
454.633	81.81
454.853	79.81
455.073	87.81
455.294	92.81
455.514	93.81
455.734	77.81
455.955	81.81
456.175	68.81
456.395	100.81
456.616	86.81
456.836	68.81
457.056	73.81
457.276	78.81
457.497	71.81
457.717	83.81
457.937	79.81
458.157	85.81
458.377	76.81
458.598	81.81
458.818	81.81
459.038	79.81
459.258	75.81
459.478	84.81
459.698	89.81
459.918	84.81
460.138	87.81
460.358	100.81
460.578	88.81
460.798	85.81
461.018	76.81
461.238	87.81
461.458	86.81
461.678	89.81
461.898	80.81
462.118	90.81
462.338	100.81
462.558	103.81
462.777	88.81
462.997	73.81
463.217	75.81
463.437	83.81
463.657	78.81
463.876	81.81
464.096	83.81
464.316	75.81
464.536	73.81
464.755	93.81
464.975	79.81
465.195	72.81
465.414	77.81
465.634	82.81
465.854	90.81
466.073	84.81
466.293	79.81
466.512	81.81
466.732	83.81
466.951	84.81
467.171	103.81
467.391	90.81
467.61	86.81
467.829	98.81
468.049	102.81
468.268	88.81
468.488	89.81
468.707	97.81
468.927	100.81
469.146	89.81
469.365	78.81
469.585	98.81
469.804	92.81
470.023	89.81
470.243	97.81
470.462	92.81
470.681	89.81
470.901	86.81
471.12	90.81
471.339	82.81
471.558	95.81
471.777	92.81
471.997	102.81
472.216	90.81
472.435	77.81
472.654	80.81
472.873	79.81
473.092	83.81
473.311	84.81
473.53	78.81
473.749	93.81
473.968	89.81
474.187	94.81
474.406	88.81
474.625	87.81
474.844	100.81
475.063	87.81
475.282	90.81
475.501	78.81
475.72	78.81
475.939	65.81
476.158	85.81
476.377	88.81
476.596	89.81
476.814	88.81
477.033	72.81
477.252	82.81
477.471	82.81
477.69	86.81
477.908	83.81
478.127	95.81
478.346	82.81
478.564	97.81
478.783	82.81
479.002	99.81
479.22	87.81
479.439	91.81
479.658	81.81
479.876	102.81
480.095	92.81
480.313	89.81
480.532	85.81
480.751	87.81
480.969	78.81
481.188	89.81
481.406	74.81
481.624	78.81
481.843	83.81
482.061	81.81
482.28	80.81
482.498	90.81
482.717	82.81
482.935	101.81
483.153	87.81
483.372	91.81
483.59	79.81
483.808	112.81
484.027	78.81
484.245	84.81
484.463	89.81
484.681	85.81
484.9	91.81
485.118	99.81
485.336	93.81
485.554	78.81
485.772	90.81
485.99	76.81
486.209	81.81
486.427	75.81
486.645	82.81
486.863	72.81
487.081	95.81
487.299	89.81
487.517	87.81
487.735	89.81
487.953	89.81
488.171	98.81
488.389	111.81
488.607	95.81
488.825	94.81
489.043	92.81
489.261	81.81
489.479	97.81
489.696	99.81
489.914	89.81
490.132	83.81
490.35	87.81
490.568	91.81
490.786	109.81
491.003	89.81
491.221	91.81
491.439	93.81
491.657	111.81
491.874	101.81
492.092	96.81
492.31	102.81
492.527	94.81
492.745	101.81
492.963	103.81
493.18	100.81
493.398	104.81
493.615	100.81
493.833	89.81
494.05	106.81
494.268	107.81
494.485	99.81
494.703	85.81
494.92	101.81
495.138	92.81
495.355	96.81
495.573	106.81
495.79	104.81
496.008	108.81
496.225	91.81
496.442	99.81
496.66	93.81
496.877	96.81
497.094	105.81
497.312	100.81
497.529	97.81
497.746	89.81
497.963	93.81
498.181	89.81
498.398	85.81
498.615	93.81
498.832	81.81
499.049	89.81
499.267	75.81
499.484	73.81
499.701	95.81
499.918	85.81
500.135	91.81
500.352	101.81
500.569	91.81
500.786	85.81
501.003	80.81
501.22	101.81
501.437	90.81
501.654	89.81
501.871	84.81
502.088	86.81
502.305	92.81
502.522	92.81
502.739	88.81
502.956	99.81
503.172	78.81
503.389	77.81
503.606	83.81
503.823	87.81
504.04	96.81
504.256	91.81
504.473	96.81
504.69	106.81
504.907	85.81
505.123	93.81
505.34	88.81
505.557	83.81
505.773	76.81
505.99	88.81
506.207	90.81
506.423	86.81
506.64	85.81
506.856	87.81
507.073	85.81
507.289	87.81
507.506	84.81
507.722	78.81
507.939	86.81
508.155	85.81
508.372	80.81
508.588	83.81
508.805	72.81
509.021	75.81
509.238	75.81
509.454	99.81
509.67	90.81
509.887	74.81
510.103	91.81
510.319	73.81
510.536	90.81
510.752	82.81
510.968	66.81
511.184	83.81
511.401	75.81
511.617	67.81
511.833	89.81
512.049	79.81
512.265	82.81
512.481	80.81
512.698	83.81
512.914	83.81
513.13	85.81
513.346	67.81
513.562	76.81
513.778	92.81
513.994	64.81
514.21	86.81
514.426	82.81
514.642	75.81
514.858	90.81
515.074	79.81
515.29	85.81
515.506	83.81
515.721	76.81
515.937	71.81
516.153	75.81
516.369	82.81
516.585	71.81
516.801	85.81
517.016	67.81
517.232	83.81
517.448	80.81
517.664	71.81
517.879	92.81
518.095	75.81
518.311	85.81
518.527	94.81
518.742	90.81
