Data from Zn(NO3)2Standard.Agarose3%.GreenCap.LampEnergy10E.O_HRD10591_15-07-38-946.txt Node
Date: Mon Jul 22 15:07:38 EDT 2019
User: cochatt
Spectrometer: HR+D1059
Trigger mode: 1
Integration Time (sec): 1.000000E-1
Scans to average: 1
Electric dark correction enabled: true
Nonlinearity correction enabled: false
Boxcar width: 0
XAxis mode: Wavelengths
Number of Pixels in Spectrum: 2048
>>>>>Begin Spectral Data<<<<<
223.165	-12.12
223.4	-12.12
223.635	-12.12
223.869	-15.12
224.104	-19.12
224.338	-16.12
224.573	-13.12
224.808	-20.12
225.042	-4.12
225.277	-8.12
225.511	-5.12
225.746	2.88
225.98	8.88
226.215	-2.12
226.449	21.88
226.683	22.88
226.918	27.88
227.152	30.88
227.387	42.88
227.621	28.88
227.856	53.88
228.09	44.88
228.324	59.88
228.559	59.88
228.793	59.88
229.027	64.88
229.262	66.88
229.496	69.88
229.73	67.88
229.964	56.88
230.199	64.88
230.433	85.88
230.667	72.88
230.901	79.88
231.136	79.88
231.37	90.88
231.604	92.88
231.838	68.88
232.072	84.88
232.306	77.88
232.541	75.88
232.775	61.88
233.009	81.88
233.243	91.88
233.477	88.88
233.711	91.88
233.945	78.88
234.179	86.88
234.413	77.88
234.647	85.88
234.881	89.88
235.115	81.88
235.349	68.88
235.583	81.88
235.817	80.88
236.051	76.88
236.285	78.88
236.519	82.88
236.753	65.88
236.987	69.88
237.221	77.88
237.455	88.88
237.689	74.88
237.922	88.88
238.156	72.88
238.39	76.88
238.624	82.88
238.858	86.88
239.091	77.88
239.325	70.88
239.559	74.88
239.793	81.88
240.027	81.88
240.26	79.88
240.494	95.88
240.728	79.88
240.961	72.88
241.195	88.88
241.429	79.88
241.662	69.88
241.896	76.88
242.13	81.88
242.363	87.88
242.597	82.88
242.83	69.88
243.064	74.88
243.298	75.88
243.531	86.88
243.765	70.88
243.998	80.88
244.232	87.88
244.465	76.88
244.699	75.88
244.932	85.88
245.166	84.88
245.399	84.88
245.633	85.88
245.866	82.88
246.099	91.88
246.333	81.88
246.566	67.88
246.8	72.88
247.033	81.88
247.266	78.88
247.5	80.88
247.733	80.88
247.966	84.88
248.2	68.88
248.433	87.88
248.666	72.88
248.899	89.88
249.133	89.88
249.366	95.88
249.599	83.88
249.832	75.88
250.066	85.88
250.299	67.88
250.532	84.88
250.765	84.88
250.998	68.88
251.231	84.88
251.465	66.88
251.698	70.88
251.931	74.88
252.164	81.88
252.397	87.88
252.63	79.88
252.863	78.88
253.096	66.88
253.329	93.88
253.562	84.88
253.795	83.88
254.028	69.88
254.261	75.88
254.494	73.88
254.727	69.88
254.96	77.88
255.193	76.88
255.426	77.88
255.659	86.88
255.892	97.88
256.124	88.88
256.357	74.88
256.59	88.88
256.823	85.88
257.056	77.88
257.289	83.88
257.521	86.88
257.754	77.88
257.987	75.88
258.22	79.88
258.452	85.88
258.685	96.88
258.918	85.88
259.151	91.88
259.383	87.88
259.616	82.88
259.849	84.88
260.081	75.88
260.314	83.88
260.547	84.88
260.779	67.88
261.012	84.88
261.244	89.88
261.477	84.88
261.71	82.88
261.942	81.88
262.175	81.88
262.407	70.88
262.64	92.88
262.872	87.88
263.105	81.88
263.337	95.88
263.57	90.88
263.802	85.88
264.035	84.88
264.267	83.88
264.499	84.88
264.732	70.88
264.964	85.88
265.197	74.88
265.429	81.88
265.661	93.88
265.894	74.88
266.126	68.88
266.358	69.88
266.591	67.88
266.823	90.88
267.055	76.88
267.287	88.88
267.52	79.88
267.752	72.88
267.984	84.88
268.216	90.88
268.448	91.88
268.681	87.88
268.913	91.88
269.145	84.88
269.377	84.88
269.609	81.88
269.841	80.88
270.073	76.88
270.306	91.88
270.538	80.88
270.77	83.88
271.002	86.88
271.234	82.88
271.466	85.88
271.698	80.88
271.93	68.88
272.162	85.88
272.394	90.88
272.626	85.88
272.858	80.88
273.09	93.88
273.322	86.88
273.553	76.88
273.785	88.88
274.017	83.88
274.249	82.88
274.481	91.88
274.713	89.88
274.945	92.88
275.176	82.88
275.408	69.88
275.64	81.88
275.872	72.88
276.104	83.88
276.335	79.88
276.567	88.88
276.799	82.88
277.031	90.88
277.262	86.88
277.494	85.88
277.726	80.88
277.957	84.88
278.189	76.88
278.421	103.88
278.652	84.88
278.884	90.88
279.115	78.88
279.347	95.88
279.579	85.88
279.81	81.88
280.042	74.88
280.273	68.88
280.505	78.88
280.736	88.88
280.968	75.88
281.199	79.88
281.431	78.88
281.662	81.88
281.894	85.88
282.125	89.88
282.356	88.88
282.588	78.88
282.819	72.88
283.051	65.88
283.282	85.88
283.513	89.88
283.745	80.88
283.976	84.88
284.207	80.88
284.439	87.88
284.67	70.88
284.901	87.88
285.132	81.88
285.364	72.88
285.595	87.88
285.826	85.88
286.057	65.88
286.288	74.88
286.52	87.88
286.751	82.88
286.982	91.88
287.213	82.88
287.444	80.88
287.675	99.88
287.906	77.88
288.138	79.88
288.369	84.88
288.6	81.88
288.831	81.88
289.062	82.88
289.293	81.88
289.524	82.88
289.755	64.88
289.986	82.88
290.217	67.88
290.448	83.88
290.679	90.88
290.91	83.88
291.141	65.88
291.371	77.88
291.602	89.88
291.833	87.88
292.064	84.88
292.295	82.88
292.526	75.88
292.757	84.88
292.987	96.88
293.218	83.88
293.449	95.88
293.68	86.88
293.91	89.88
294.141	82.88
294.372	83.88
294.603	79.88
294.833	79.88
295.064	87.88
295.295	79.88
295.525	82.88
295.756	77.88
295.987	77.88
296.217	76.88
296.448	89.88
296.679	98.88
296.909	86.88
297.14	91.88
297.37	82.88
297.601	81.88
297.831	83.88
298.062	88.88
298.292	84.88
298.523	87.88
298.753	76.88
298.984	76.88
299.214	96.88
299.445	92.88
299.675	84.88
299.905	78.88
300.136	82.88
300.366	89.88
300.597	87.88
300.827	85.88
301.057	82.88
301.288	82.88
301.518	85.88
301.748	92.88
301.979	93.88
302.209	93.88
302.439	78.88
302.669	84.88
302.9	72.88
303.13	83.88
303.36	97.88
303.59	84.88
303.82	81.88
304.051	83.88
304.281	77.88
304.511	89.88
304.741	86.88
304.971	102.88
305.201	91.88
305.431	84.88
305.661	96.88
305.891	83.88
306.121	82.88
306.352	84.88
306.582	82.88
306.812	88.88
307.042	77.88
307.272	83.88
307.502	89.88
307.731	78.88
307.961	79.88
308.191	70.88
308.421	79.88
308.651	95.88
308.881	86.88
309.111	85.88
309.341	82.88
309.571	99.88
309.8	67.88
310.03	75.88
310.26	85.88
310.49	87.88
310.72	75.88
310.949	83.88
311.179	65.88
311.409	90.88
311.639	94.88
311.868	88.88
312.098	73.88
312.328	83.88
312.557	84.88
312.787	78.88
313.017	76.88
313.246	83.88
313.476	80.88
313.706	86.88
313.935	87.88
314.165	78.88
314.394	85.88
314.624	86.88
314.853	108.88
315.083	93.88
315.312	96.88
315.542	90.88
315.771	103.88
316.001	99.88
316.23	100.88
316.46	77.88
316.689	96.88
316.919	93.88
317.148	96.88
317.377	89.88
317.607	91.88
317.836	96.88
318.065	80.88
318.295	89.88
318.524	81.88
318.753	89.88
318.983	71.88
319.212	91.88
319.441	84.88
319.67	90.88
319.9	82.88
320.129	92.88
320.358	88.88
320.587	91.88
320.816	78.88
321.046	87.88
321.275	85.88
321.504	89.88
321.733	89.88
321.962	95.88
322.191	82.88
322.42	79.88
322.649	88.88
322.878	90.88
323.108	84.88
323.337	98.88
323.566	86.88
323.795	84.88
324.024	82.88
324.253	69.88
324.482	89.88
324.71	77.88
324.939	84.88
325.168	79.88
325.397	84.88
325.626	83.88
325.855	89.88
326.084	96.88
326.313	97.88
326.542	80.88
326.77	86.88
326.999	74.88
327.228	91.88
327.457	74.88
327.686	76.88
327.914	98.88
328.143	84.88
328.372	80.88
328.6	83.88
328.829	97.88
329.058	98.88
329.287	88.88
329.515	105.88
329.744	94.88
329.972	75.88
330.201	91.88
330.43	92.88
330.658	91.88
330.887	99.88
331.115	86.88
331.344	85.88
331.572	86.88
331.801	79.88
332.03	82.88
332.258	92.88
332.486	86.88
332.715	85.88
332.943	107.88
333.172	59.88
333.4	85.88
333.629	74.88
333.857	92.88
334.085	89.88
334.314	81.88
334.542	78.88
334.771	93.88
334.999	93.88
335.227	70.88
335.455	91.88
335.684	88.88
335.912	81.88
336.14	98.88
336.369	80.88
336.597	83.88
336.825	92.88
337.053	76.88
337.281	84.88
337.51	68.88
337.738	85.88
337.966	89.88
338.194	80.88
338.422	88.88
338.65	79.88
338.878	89.88
339.106	95.88
339.334	80.88
339.562	70.88
339.79	87.88
340.018	90.88
340.246	80.88
340.474	80.88
340.702	80.88
340.93	83.88
341.158	77.88
341.386	81.88
341.614	87.88
341.842	97.88
342.07	95.88
342.298	84.88
342.526	90.88
342.754	89.88
342.981	80.88
343.209	76.88
343.437	80.88
343.665	80.88
343.893	70.88
344.12	92.88
344.348	98.88
344.576	103.88
344.804	81.88
345.031	75.88
345.259	77.88
345.487	75.88
345.714	88.88
345.942	71.88
346.17	98.88
346.397	87.88
346.625	77.88
346.853	91.88
347.08	82.88
347.308	77.88
347.535	81.88
347.763	92.88
347.99	101.88
348.218	101.88
348.445	78.88
348.673	77.88
348.9	77.88
349.128	91.88
349.355	76.88
349.583	81.88
349.81	77.88
350.037	85.88
350.265	79.88
350.492	86.88
350.72	76.88
350.947	80.88
351.174	64.88
351.402	80.88
351.629	93.88
351.856	96.88
352.083	81.88
352.311	77.88
352.538	70.88
352.765	76.88
352.992	91.88
353.22	95.88
353.447	90.88
353.674	87.88
353.901	83.88
354.128	90.88
354.355	75.88
354.583	87.88
354.81	82.88
355.037	89.88
355.264	84.88
355.491	87.88
355.718	83.88
355.945	80.88
356.172	90.88
356.399	80.88
356.626	97.88
356.853	91.88
357.08	97.88
357.307	98.88
357.534	87.88
357.761	75.88
357.988	90.88
358.215	68.88
358.441	84.88
358.668	75.88
358.895	76.88
359.122	84.88
359.349	82.88
359.576	75.88
359.802	76.88
360.029	88.88
360.256	100.88
360.483	98.88
360.709	77.88
360.936	87.88
361.163	77.88
361.39	83.88
361.616	79.88
361.843	90.88
362.07	86.88
362.296	84.88
362.523	70.88
362.749	84.88
362.976	87.88
363.203	80.88
363.429	76.88
363.656	80.88
363.882	83.88
364.109	82.88
364.335	90.88
364.562	78.88
364.788	83.88
365.015	87.88
365.241	89.88
365.468	83.88
365.694	88.88
365.92	85.88
366.147	96.88
366.373	81.88
366.599	83.88
366.826	75.88
367.052	80.88
367.278	89.88
367.505	81.88
367.731	89.88
367.957	78.88
368.184	77.88
368.41	95.88
368.636	76.88
368.862	67.88
369.089	77.88
369.315	73.88
369.541	80.88
369.767	86.88
369.993	91.88
370.219	73.88
370.445	83.88
370.672	69.88
370.898	78.88
371.124	90.88
371.35	83.88
371.576	81.88
371.802	87.88
372.028	89.88
372.254	90.88
372.48	97.88
372.706	98.88
372.932	83.88
373.158	77.88
373.384	87.88
373.61	88.88
373.835	91.88
374.061	83.88
374.287	90.88
374.513	79.88
374.739	92.88
374.965	78.88
375.191	89.88
375.416	91.88
375.642	91.88
375.868	84.88
376.094	74.88
376.319	101.88
376.545	96.88
376.771	87.88
376.997	83.88
377.222	86.88
377.448	86.88
377.674	84.88
377.899	84.88
378.125	90.88
378.35	96.88
378.576	87.88
378.802	83.88
379.027	95.88
379.253	92.88
379.478	76.88
379.704	93.88
379.929	80.88
380.155	63.88
380.38	83.88
380.606	86.88
380.831	88.88
381.057	83.88
381.282	75.88
381.507	93.88
381.733	84.88
381.958	94.88
382.184	83.88
382.409	95.88
382.634	84.88
382.86	95.88
383.085	87.88
383.31	91.88
383.535	97.88
383.761	73.88
383.986	87.88
384.211	99.88
384.436	105.88
384.662	105.88
384.887	101.88
385.112	91.88
385.337	75.88
385.562	95.88
385.787	82.88
386.013	89.88
386.238	93.88
386.463	89.88
386.688	81.88
386.913	104.88
387.138	95.88
387.363	93.88
387.588	99.88
387.813	89.88
388.038	93.88
388.263	100.88
388.488	97.88
388.713	84.88
388.938	85.88
389.163	96.88
389.387	85.88
389.612	93.88
389.837	91.88
390.062	97.88
390.287	95.88
390.512	81.88
390.736	78.88
390.961	93.88
391.186	101.88
391.411	88.88
391.636	97.88
391.86	81.88
392.085	87.88
392.31	85.88
392.534	105.88
392.759	104.88
392.984	114.88
393.208	93.88
393.433	88.88
393.658	100.88
393.882	90.88
394.107	89.88
394.331	89.88
394.556	85.88
394.78	97.88
395.005	96.88
395.229	85.88
395.454	73.88
395.678	100.88
395.903	95.88
396.127	97.88
396.352	80.88
396.576	94.88
396.801	92.88
397.025	91.88
397.249	90.88
397.474	104.88
397.698	99.88
397.922	93.88
398.147	76.88
398.371	97.88
398.595	89.88
398.82	93.88
399.044	88.88
399.268	103.88
399.492	86.88
399.717	95.88
399.941	108.88
400.165	101.88
400.389	77.88
400.613	92.88
400.837	101.88
401.062	86.88
401.286	91.88
401.51	101.88
401.734	92.88
401.958	96.88
402.182	85.88
402.406	111.88
402.63	93.88
402.854	88.88
403.078	99.88
403.302	97.88
403.526	103.88
403.75	96.88
403.974	87.88
404.198	93.88
404.422	93.88
404.645	103.88
404.869	94.88
405.093	86.88
405.317	89.88
405.541	83.88
405.765	96.88
405.988	107.88
406.212	99.88
406.436	102.88
406.66	106.88
406.883	96.88
407.107	93.88
407.331	106.88
407.555	95.88
407.778	90.88
408.002	85.88
408.226	99.88
408.449	97.88
408.673	98.88
408.896	101.88
409.12	113.88
409.344	85.88
409.567	104.88
409.791	99.88
410.014	89.88
410.238	99.88
410.461	106.88
410.685	103.88
410.908	99.88
411.132	108.88
411.355	105.88
411.578	113.88
411.802	105.88
412.025	92.88
412.249	101.88
412.472	103.88
412.695	105.88
412.919	102.88
413.142	106.88
413.365	98.88
413.589	101.88
413.812	91.88
414.035	92.88
414.258	107.88
414.482	110.88
414.705	97.88
414.928	106.88
415.151	99.88
415.374	95.88
415.597	107.88
415.821	95.88
416.044	101.88
416.267	107.88
416.49	90.88
416.713	103.88
416.936	112.88
417.159	94.88
417.382	101.88
417.605	92.88
417.828	109.88
418.051	91.88
418.274	95.88
418.497	98.88
418.72	90.88
418.943	100.88
419.166	111.88
419.389	92.88
419.611	94.88
419.834	108.88
420.057	88.88
420.28	117.88
420.503	119.88
420.726	120.88
420.948	86.88
421.171	104.88
421.394	116.88
421.617	104.88
421.839	89.88
422.062	105.88
422.285	100.88
422.507	111.88
422.73	97.88
422.953	113.88
423.175	92.88
423.398	102.88
423.621	104.88
423.843	116.88
424.066	117.88
424.288	116.88
424.511	97.88
424.733	108.88
424.956	119.88
425.178	95.88
425.401	106.88
425.623	104.88
425.846	90.88
426.068	92.88
426.291	104.88
426.513	98.88
426.735	109.88
426.958	113.88
427.18	98.88
427.402	100.88
427.625	106.88
427.847	105.88
428.069	98.88
428.292	101.88
428.514	99.88
428.736	100.88
428.958	106.88
429.181	96.88
429.403	100.88
429.625	96.88
429.847	109.88
430.069	109.88
430.292	100.88
430.514	120.88
430.736	101.88
430.958	102.88
431.18	88.88
431.402	98.88
431.624	101.88
431.846	90.88
432.068	98.88
432.29	91.88
432.512	99.88
432.734	103.88
432.956	91.88
433.178	107.88
433.4	108.88
433.622	100.88
433.844	108.88
434.066	93.88
434.287	89.88
434.509	81.88
434.731	80.88
434.953	82.88
435.175	93.88
435.397	114.88
435.618	92.88
435.84	110.88
436.062	101.88
436.284	107.88
436.505	115.88
436.727	103.88
436.949	101.88
437.17	101.88
437.392	98.88
437.614	105.88
437.835	109.88
438.057	85.88
438.278	93.88
438.5	94.88
438.721	108.88
438.943	98.88
439.165	121.88
439.386	100.88
439.608	117.88
439.829	107.88
440.05	111.88
440.272	113.88
440.493	112.88
440.715	111.88
440.936	97.88
441.158	105.88
441.379	103.88
441.6	104.88
441.822	127.88
442.043	115.88
442.264	97.88
442.486	107.88
442.707	112.88
442.928	123.88
443.149	119.88
443.371	116.88
443.592	97.88
443.813	91.88
444.034	117.88
444.255	118.88
444.476	100.88
444.698	120.88
444.919	120.88
445.14	249.88
445.361	173.88
445.582	117.88
445.803	111.88
446.024	117.88
446.245	104.88
446.466	123.88
446.687	107.88
446.908	119.88
447.129	97.88
447.35	111.88
447.571	106.88
447.792	108.88
448.013	120.88
448.234	115.88
448.455	115.88
448.675	122.88
448.896	115.88
449.117	101.88
449.338	99.88
449.559	91.88
449.779	102.88
450	115.88
450.221	101.88
450.442	105.88
450.662	98.88
450.883	107.88
451.104	100.88
451.324	97.88
451.545	108.88
451.766	96.88
451.986	109.88
452.207	104.88
452.428	123.88
452.648	99.88
452.869	101.88
453.089	97.88
453.31	105.88
453.53	104.88
453.751	93.88
453.971	83.88
454.192	103.88
454.412	109.88
454.633	112.88
454.853	94.88
455.073	89.88
455.294	93.88
455.514	100.88
455.734	92.88
455.955	85.88
456.175	89.88
456.395	78.88
456.616	101.88
456.836	109.88
457.056	82.88
457.276	84.88
457.497	88.88
457.717	96.88
457.937	98.88
458.157	90.88
458.377	92.88
458.598	87.88
458.818	87.88
459.038	88.88
459.258	94.88
459.478	79.88
459.698	84.88
459.918	82.88
460.138	102.88
460.358	92.88
460.578	100.88
460.798	97.88
461.018	88.88
461.238	94.88
461.458	101.88
461.678	100.88
461.898	103.88
462.118	107.88
462.338	91.88
462.558	89.88
462.777	96.88
462.997	86.88
463.217	84.88
463.437	102.88
463.657	104.88
463.876	100.88
464.096	102.88
464.316	97.88
464.536	95.88
464.755	97.88
464.975	102.88
465.195	97.88
465.414	95.88
465.634	107.88
465.854	100.88
466.073	103.88
466.293	95.88
466.512	84.88
466.732	91.88
466.951	111.88
467.171	91.88
467.391	109.88
467.61	119.88
467.829	105.88
468.049	110.88
468.268	121.88
468.488	99.88
468.707	98.88
468.927	102.88
469.146	120.88
469.365	122.88
469.585	108.88
469.804	100.88
470.023	127.88
470.243	115.88
470.462	107.88
470.681	122.88
470.901	115.88
471.12	121.88
471.339	115.88
471.558	104.88
471.777	102.88
471.997	107.88
472.216	97.88
472.435	93.88
472.654	114.88
472.873	97.88
473.092	106.88
473.311	105.88
473.53	109.88
473.749	102.88
473.968	111.88
474.187	99.88
474.406	88.88
474.625	97.88
474.844	104.88
475.063	116.88
475.282	97.88
475.501	107.88
475.72	115.88
475.939	100.88
476.158	99.88
476.377	101.88
476.596	103.88
476.814	106.88
477.033	101.88
477.252	93.88
477.471	100.88
477.69	112.88
477.908	103.88
478.127	102.88
478.346	93.88
478.564	96.88
478.783	114.88
479.002	116.88
479.22	104.88
479.439	119.88
479.658	100.88
479.876	89.88
480.095	91.88
480.313	109.88
480.532	97.88
480.751	96.88
480.969	85.88
481.188	94.88
481.406	89.88
481.624	83.88
481.843	81.88
482.061	88.88
482.28	95.88
482.498	93.88
482.717	95.88
482.935	105.88
483.153	111.88
483.372	117.88
483.59	104.88
483.808	114.88
484.027	111.88
484.245	115.88
484.463	124.88
484.681	127.88
484.9	111.88
485.118	117.88
485.336	100.88
485.554	89.88
485.772	92.88
485.99	89.88
486.209	94.88
486.427	91.88
486.645	103.88
486.863	104.88
487.081	113.88
487.299	107.88
487.517	111.88
487.735	123.88
487.953	139.88
488.171	134.88
488.389	134.88
488.607	135.88
488.825	119.88
489.043	100.88
489.261	100.88
489.479	106.88
489.696	113.88
489.914	105.88
490.132	109.88
490.35	106.88
490.568	118.88
490.786	121.88
491.003	128.88
491.221	133.88
491.439	144.88
491.657	147.88
491.874	145.88
492.092	135.88
492.31	162.88
492.527	153.88
492.745	117.88
492.963	136.88
493.18	141.88
493.398	133.88
493.615	116.88
493.833	122.88
494.05	138.88
494.268	132.88
494.485	126.88
494.703	116.88
494.92	137.88
495.138	121.88
495.355	115.88
495.573	124.88
495.79	132.88
496.008	128.88
496.225	123.88
496.442	125.88
496.66	122.88
496.877	113.88
497.094	130.88
497.312	112.88
497.529	95.88
497.746	113.88
497.963	112.88
498.181	104.88
498.398	104.88
498.615	120.88
498.832	99.88
499.049	102.88
499.267	100.88
499.484	106.88
499.701	101.88
499.918	119.88
500.135	100.88
500.352	116.88
500.569	98.88
500.786	111.88
501.003	117.88
501.22	109.88
501.437	117.88
501.654	118.88
501.871	103.88
502.088	102.88
502.305	108.88
502.522	105.88
502.739	122.88
502.956	101.88
503.172	106.88
503.389	104.88
503.606	92.88
503.823	101.88
504.04	97.88
504.256	106.88
504.473	110.88
504.69	107.88
504.907	112.88
505.123	96.88
505.34	116.88
505.557	113.88
505.773	105.88
505.99	112.88
506.207	108.88
506.423	115.88
506.64	97.88
506.856	92.88
507.073	89.88
507.289	95.88
507.506	115.88
507.722	96.88
507.939	117.88
508.155	102.88
508.372	101.88
508.588	92.88
508.805	96.88
509.021	84.88
509.238	90.88
509.454	94.88
509.67	89.88
509.887	90.88
510.103	95.88
510.319	91.88
510.536	93.88
510.752	87.88
510.968	78.88
511.184	89.88
511.401	71.88
511.617	97.88
511.833	83.88
512.049	88.88
512.265	98.88
512.481	93.88
512.698	86.88
512.914	86.88
513.13	86.88
513.346	89.88
513.562	87.88
513.778	91.88
513.994	92.88
514.21	99.88
514.426	89.88
514.642	88.88
