Data from Zn(NO3)2Standard.Agarose3%.GreenCap.LampEnergy10E.O_HRD10591_15-07-12-943.txt Node
Date: Mon Jul 22 15:07:12 EDT 2019
User: cochatt
Spectrometer: HR+D1059
Trigger mode: 1
Integration Time (sec): 1.000000E-1
Scans to average: 1
Electric dark correction enabled: true
Nonlinearity correction enabled: false
Boxcar width: 0
XAxis mode: Wavelengths
Number of Pixels in Spectrum: 2048
>>>>>Begin Spectral Data<<<<<
223.165	-20.44
223.4	-20.44
223.635	-20.44
223.869	-4.44
224.104	-20.44
224.338	-12.44
224.573	-20.44
224.808	-15.44
225.042	2.56
225.277	-0.44
225.511	1.56
225.746	6.56
225.98	1.56
226.215	14.56
226.449	15.56
226.683	17.56
226.918	22.56
227.152	11.56
227.387	30.56
227.621	48.56
227.856	34.56
228.09	46.56
228.324	41.56
228.559	48.56
228.793	46.56
229.027	65.56
229.262	48.56
229.496	72.56
229.73	76.56
229.964	69.56
230.199	68.56
230.433	71.56
230.667	77.56
230.901	75.56
231.136	80.56
231.37	69.56
231.604	80.56
231.838	73.56
232.072	68.56
232.306	90.56
232.541	82.56
232.775	86.56
233.009	75.56
233.243	89.56
233.477	67.56
233.711	65.56
233.945	70.56
234.179	74.56
234.413	62.56
234.647	75.56
234.881	82.56
235.115	77.56
235.349	79.56
235.583	57.56
235.817	81.56
236.051	85.56
236.285	67.56
236.519	74.56
236.753	78.56
236.987	70.56
237.221	75.56
237.455	73.56
237.689	78.56
237.922	70.56
238.156	74.56
238.39	81.56
238.624	74.56
238.858	84.56
239.091	80.56
239.325	70.56
239.559	73.56
239.793	78.56
240.027	72.56
240.26	83.56
240.494	78.56
240.728	80.56
240.961	76.56
241.195	60.56
241.429	79.56
241.662	81.56
241.896	68.56
242.13	74.56
242.363	66.56
242.597	76.56
242.83	67.56
243.064	73.56
243.298	67.56
243.531	67.56
243.765	84.56
243.998	72.56
244.232	76.56
244.465	81.56
244.699	91.56
244.932	62.56
245.166	71.56
245.399	72.56
245.633	76.56
245.866	64.56
246.099	74.56
246.333	70.56
246.566	73.56
246.8	74.56
247.033	73.56
247.266	82.56
247.5	76.56
247.733	81.56
247.966	78.56
248.2	73.56
248.433	73.56
248.666	80.56
248.899	72.56
249.133	77.56
249.366	90.56
249.599	62.56
249.832	77.56
250.066	90.56
250.299	61.56
250.532	62.56
250.765	52.56
250.998	83.56
251.231	60.56
251.465	76.56
251.698	79.56
251.931	76.56
252.164	65.56
252.397	74.56
252.63	60.56
252.863	76.56
253.096	73.56
253.329	63.56
253.562	72.56
253.795	73.56
254.028	70.56
254.261	73.56
254.494	75.56
254.727	69.56
254.96	67.56
255.193	79.56
255.426	83.56
255.659	72.56
255.892	72.56
256.124	87.56
256.357	88.56
256.59	82.56
256.823	73.56
257.056	72.56
257.289	81.56
257.521	78.56
257.754	65.56
257.987	52.56
258.22	84.56
258.452	93.56
258.685	92.56
258.918	83.56
259.151	80.56
259.383	74.56
259.616	66.56
259.849	79.56
260.081	64.56
260.314	74.56
260.547	71.56
260.779	78.56
261.012	76.56
261.244	83.56
261.477	75.56
261.71	70.56
261.942	79.56
262.175	71.56
262.407	90.56
262.64	82.56
262.872	82.56
263.105	87.56
263.337	70.56
263.57	95.56
263.802	78.56
264.035	80.56
264.267	75.56
264.499	73.56
264.732	73.56
264.964	80.56
265.197	82.56
265.429	72.56
265.661	82.56
265.894	72.56
266.126	78.56
266.358	69.56
266.591	76.56
266.823	86.56
267.055	73.56
267.287	83.56
267.52	88.56
267.752	72.56
267.984	68.56
268.216	77.56
268.448	86.56
268.681	84.56
268.913	93.56
269.145	94.56
269.377	87.56
269.609	69.56
269.841	91.56
270.073	81.56
270.306	69.56
270.538	91.56
270.77	83.56
271.002	77.56
271.234	86.56
271.466	88.56
271.698	67.56
271.93	92.56
272.162	75.56
272.394	62.56
272.626	67.56
272.858	83.56
273.09	82.56
273.322	77.56
273.553	92.56
273.785	76.56
274.017	91.56
274.249	83.56
274.481	79.56
274.713	84.56
274.945	92.56
275.176	95.56
275.408	72.56
275.64	84.56
275.872	86.56
276.104	76.56
276.335	79.56
276.567	73.56
276.799	69.56
277.031	85.56
277.262	73.56
277.494	77.56
277.726	75.56
277.957	78.56
278.189	89.56
278.421	71.56
278.652	78.56
278.884	76.56
279.115	84.56
279.347	93.56
279.579	84.56
279.81	79.56
280.042	88.56
280.273	84.56
280.505	64.56
280.736	84.56
280.968	92.56
281.199	62.56
281.431	79.56
281.662	88.56
281.894	87.56
282.125	83.56
282.356	83.56
282.588	82.56
282.819	71.56
283.051	80.56
283.282	77.56
283.513	71.56
283.745	84.56
283.976	81.56
284.207	80.56
284.439	76.56
284.67	87.56
284.901	69.56
285.132	98.56
285.364	77.56
285.595	95.56
285.826	72.56
286.057	82.56
286.288	86.56
286.52	75.56
286.751	78.56
286.982	77.56
287.213	82.56
287.444	89.56
287.675	91.56
287.906	84.56
288.138	82.56
288.369	85.56
288.6	91.56
288.831	70.56
289.062	65.56
289.293	88.56
289.524	79.56
289.755	83.56
289.986	84.56
290.217	78.56
290.448	75.56
290.679	73.56
290.91	75.56
291.141	90.56
291.371	71.56
291.602	84.56
291.833	79.56
292.064	78.56
292.295	86.56
292.526	84.56
292.757	75.56
292.987	82.56
293.218	64.56
293.449	76.56
293.68	84.56
293.91	76.56
294.141	77.56
294.372	84.56
294.603	88.56
294.833	86.56
295.064	65.56
295.295	78.56
295.525	87.56
295.756	85.56
295.987	79.56
296.217	62.56
296.448	84.56
296.679	76.56
296.909	71.56
297.14	86.56
297.37	88.56
297.601	84.56
297.831	73.56
298.062	73.56
298.292	83.56
298.523	82.56
298.753	91.56
298.984	74.56
299.214	81.56
299.445	75.56
299.675	86.56
299.905	81.56
300.136	77.56
300.366	77.56
300.597	87.56
300.827	76.56
301.057	76.56
301.288	94.56
301.518	84.56
301.748	77.56
301.979	86.56
302.209	84.56
302.439	83.56
302.669	88.56
302.9	90.56
303.13	67.56
303.36	96.56
303.59	75.56
303.82	95.56
304.051	88.56
304.281	77.56
304.511	90.56
304.741	74.56
304.971	88.56
305.201	88.56
305.431	82.56
305.661	73.56
305.891	84.56
306.121	87.56
306.352	96.56
306.582	77.56
306.812	81.56
307.042	85.56
307.272	75.56
307.502	83.56
307.731	82.56
307.961	72.56
308.191	102.56
308.421	69.56
308.651	82.56
308.881	81.56
309.111	79.56
309.341	87.56
309.571	75.56
309.8	77.56
310.03	75.56
310.26	70.56
310.49	76.56
310.72	94.56
310.949	83.56
311.179	93.56
311.409	91.56
311.639	74.56
311.868	79.56
312.098	80.56
312.328	72.56
312.557	90.56
312.787	85.56
313.017	76.56
313.246	79.56
313.476	76.56
313.706	96.56
313.935	86.56
314.165	80.56
314.394	74.56
314.624	86.56
314.853	80.56
315.083	82.56
315.312	81.56
315.542	87.56
315.771	87.56
316.001	73.56
316.23	91.56
316.46	79.56
316.689	85.56
316.919	88.56
317.148	84.56
317.377	85.56
317.607	76.56
317.836	85.56
318.065	65.56
318.295	78.56
318.524	78.56
318.753	90.56
318.983	95.56
319.212	87.56
319.441	84.56
319.67	90.56
319.9	85.56
320.129	75.56
320.358	90.56
320.587	78.56
320.816	99.56
321.046	68.56
321.275	87.56
321.504	86.56
321.733	104.56
321.962	76.56
322.191	68.56
322.42	71.56
322.649	78.56
322.878	78.56
323.108	83.56
323.337	85.56
323.566	91.56
323.795	81.56
324.024	77.56
324.253	72.56
324.482	88.56
324.71	86.56
324.939	82.56
325.168	80.56
325.397	73.56
325.626	86.56
325.855	84.56
326.084	83.56
326.313	86.56
326.542	80.56
326.77	89.56
326.999	79.56
327.228	71.56
327.457	79.56
327.686	74.56
327.914	73.56
328.143	80.56
328.372	68.56
328.6	76.56
328.829	82.56
329.058	87.56
329.287	72.56
329.515	72.56
329.744	84.56
329.972	89.56
330.201	89.56
330.43	75.56
330.658	86.56
330.887	83.56
331.115	105.56
331.344	81.56
331.572	70.56
331.801	94.56
332.03	67.56
332.258	83.56
332.486	75.56
332.715	90.56
332.943	83.56
333.172	83.56
333.4	88.56
333.629	82.56
333.857	89.56
334.085	91.56
334.314	90.56
334.542	84.56
334.771	81.56
334.999	77.56
335.227	80.56
335.455	80.56
335.684	69.56
335.912	74.56
336.14	76.56
336.369	78.56
336.597	89.56
336.825	84.56
337.053	73.56
337.281	83.56
337.51	66.56
337.738	87.56
337.966	89.56
338.194	92.56
338.422	77.56
338.65	78.56
338.878	74.56
339.106	84.56
339.334	80.56
339.562	94.56
339.79	86.56
340.018	79.56
340.246	82.56
340.474	77.56
340.702	69.56
340.93	82.56
341.158	79.56
341.386	87.56
341.614	86.56
341.842	82.56
342.07	63.56
342.298	79.56
342.526	74.56
342.754	82.56
342.981	79.56
343.209	95.56
343.437	97.56
343.665	73.56
343.893	71.56
344.12	91.56
344.348	75.56
344.576	81.56
344.804	92.56
345.031	65.56
345.259	84.56
345.487	77.56
345.714	89.56
345.942	83.56
346.17	90.56
346.397	75.56
346.625	90.56
346.853	75.56
347.08	75.56
347.308	78.56
347.535	72.56
347.763	91.56
347.99	73.56
348.218	79.56
348.445	68.56
348.673	80.56
348.9	82.56
349.128	97.56
349.355	86.56
349.583	94.56
349.81	72.56
350.037	75.56
350.265	81.56
350.492	88.56
350.72	83.56
350.947	84.56
351.174	74.56
351.402	79.56
351.629	81.56
351.856	81.56
352.083	81.56
352.311	79.56
352.538	72.56
352.765	75.56
352.992	77.56
353.22	88.56
353.447	86.56
353.674	84.56
353.901	87.56
354.128	81.56
354.355	85.56
354.583	78.56
354.81	75.56
355.037	62.56
355.264	66.56
355.491	89.56
355.718	96.56
355.945	75.56
356.172	68.56
356.399	74.56
356.626	82.56
356.853	75.56
357.08	87.56
357.307	84.56
357.534	72.56
357.761	87.56
357.988	80.56
358.215	95.56
358.441	78.56
358.668	76.56
358.895	71.56
359.122	77.56
359.349	82.56
359.576	66.56
359.802	94.56
360.029	88.56
360.256	77.56
360.483	82.56
360.709	95.56
360.936	76.56
361.163	92.56
361.39	89.56
361.616	82.56
361.843	85.56
362.07	81.56
362.296	88.56
362.523	93.56
362.749	74.56
362.976	92.56
363.203	94.56
363.429	86.56
363.656	78.56
363.882	92.56
364.109	75.56
364.335	74.56
364.562	77.56
364.788	78.56
365.015	89.56
365.241	95.56
365.468	90.56
365.694	82.56
365.92	73.56
366.147	86.56
366.373	62.56
366.599	71.56
366.826	85.56
367.052	69.56
367.278	73.56
367.505	87.56
367.731	90.56
367.957	80.56
368.184	80.56
368.41	74.56
368.636	83.56
368.862	104.56
369.089	85.56
369.315	88.56
369.541	92.56
369.767	89.56
369.993	82.56
370.219	92.56
370.445	69.56
370.672	89.56
370.898	81.56
371.124	86.56
371.35	78.56
371.576	87.56
371.802	88.56
372.028	85.56
372.254	79.56
372.48	96.56
372.706	96.56
372.932	85.56
373.158	94.56
373.384	72.56
373.61	95.56
373.835	83.56
374.061	78.56
374.287	88.56
374.513	68.56
374.739	87.56
374.965	85.56
375.191	81.56
375.416	80.56
375.642	91.56
375.868	94.56
376.094	57.56
376.319	79.56
376.545	81.56
376.771	99.56
376.997	81.56
377.222	80.56
377.448	74.56
377.674	87.56
377.899	91.56
378.125	79.56
378.35	95.56
378.576	84.56
378.802	78.56
379.027	90.56
379.253	86.56
379.478	90.56
379.704	83.56
379.929	75.56
380.155	80.56
380.38	89.56
380.606	79.56
380.831	86.56
381.057	85.56
381.282	80.56
381.507	80.56
381.733	93.56
381.958	86.56
382.184	92.56
382.409	90.56
382.634	88.56
382.86	83.56
383.085	96.56
383.31	94.56
383.535	98.56
383.761	83.56
383.986	92.56
384.211	83.56
384.436	76.56
384.662	69.56
384.887	89.56
385.112	85.56
385.337	83.56
385.562	92.56
385.787	95.56
386.013	86.56
386.238	89.56
386.463	80.56
386.688	84.56
386.913	64.56
387.138	77.56
387.363	77.56
387.588	93.56
387.813	94.56
388.038	107.56
388.263	99.56
388.488	80.56
388.713	70.56
388.938	96.56
389.163	80.56
389.387	90.56
389.612	82.56
389.837	94.56
390.062	78.56
390.287	83.56
390.512	75.56
390.736	73.56
390.961	86.56
391.186	86.56
391.411	88.56
391.636	91.56
391.86	80.56
392.085	97.56
392.31	84.56
392.534	93.56
392.759	82.56
392.984	95.56
393.208	96.56
393.433	83.56
393.658	76.56
393.882	91.56
394.107	89.56
394.331	72.56
394.556	90.56
394.78	86.56
395.005	91.56
395.229	96.56
395.454	96.56
395.678	83.56
395.903	95.56
396.127	84.56
396.352	90.56
396.576	84.56
396.801	81.56
397.025	85.56
397.249	88.56
397.474	108.56
397.698	89.56
397.922	86.56
398.147	90.56
398.371	93.56
398.595	94.56
398.82	82.56
399.044	74.56
399.268	108.56
399.492	96.56
399.717	96.56
399.941	96.56
400.165	86.56
400.389	75.56
400.613	88.56
400.837	99.56
401.062	97.56
401.286	102.56
401.51	93.56
401.734	93.56
401.958	114.56
402.182	98.56
402.406	90.56
402.63	94.56
402.854	66.56
403.078	85.56
403.302	109.56
403.526	94.56
403.75	87.56
403.974	94.56
404.198	89.56
404.422	83.56
404.645	91.56
404.869	100.56
405.093	90.56
405.317	99.56
405.541	96.56
405.765	80.56
405.988	83.56
406.212	100.56
406.436	82.56
406.66	102.56
406.883	107.56
407.107	100.56
407.331	99.56
407.555	87.56
407.778	103.56
408.002	107.56
408.226	97.56
408.449	77.56
408.673	86.56
408.896	96.56
409.12	98.56
409.344	104.56
409.567	93.56
409.791	98.56
410.014	110.56
410.238	96.56
410.461	94.56
410.685	89.56
410.908	95.56
411.132	103.56
411.355	105.56
411.578	114.56
411.802	94.56
412.025	99.56
412.249	95.56
412.472	95.56
412.695	95.56
412.919	106.56
413.142	98.56
413.365	98.56
413.589	100.56
413.812	102.56
414.035	96.56
414.258	93.56
414.482	98.56
414.705	90.56
414.928	95.56
415.151	99.56
415.374	91.56
415.597	105.56
415.821	87.56
416.044	103.56
416.267	88.56
416.49	98.56
416.713	114.56
416.936	106.56
417.159	98.56
417.382	88.56
417.605	96.56
417.828	95.56
418.051	92.56
418.274	118.56
418.497	95.56
418.72	112.56
418.943	109.56
419.166	106.56
419.389	116.56
419.611	115.56
419.834	95.56
420.057	116.56
420.28	86.56
420.503	95.56
420.726	95.56
420.948	111.56
421.171	108.56
421.394	100.56
421.617	103.56
421.839	102.56
422.062	115.56
422.285	103.56
422.507	105.56
422.73	86.56
422.953	91.56
423.175	98.56
423.398	115.56
423.621	104.56
423.843	99.56
424.066	98.56
424.288	103.56
424.511	106.56
424.733	102.56
424.956	114.56
425.178	104.56
425.401	97.56
425.623	92.56
425.846	95.56
426.068	112.56
426.291	99.56
426.513	94.56
426.735	97.56
426.958	101.56
427.18	97.56
427.402	102.56
427.625	116.56
427.847	101.56
428.069	114.56
428.292	109.56
428.514	101.56
428.736	106.56
428.958	102.56
429.181	99.56
429.403	99.56
429.625	101.56
429.847	111.56
430.069	98.56
430.292	107.56
430.514	96.56
430.736	110.56
430.958	114.56
431.18	100.56
431.402	91.56
431.624	90.56
431.846	82.56
432.068	83.56
432.29	88.56
432.512	94.56
432.734	94.56
432.956	111.56
433.178	98.56
433.4	99.56
433.622	112.56
433.844	111.56
434.066	104.56
434.287	99.56
434.509	94.56
434.731	79.56
434.953	98.56
435.175	89.56
435.397	90.56
435.618	101.56
435.84	96.56
436.062	92.56
436.284	96.56
436.505	100.56
436.727	108.56
436.949	114.56
437.17	113.56
437.392	103.56
437.614	109.56
437.835	90.56
438.057	98.56
438.278	94.56
438.5	96.56
438.721	104.56
438.943	99.56
439.165	95.56
439.386	97.56
439.608	115.56
439.829	101.56
440.05	118.56
440.272	100.56
440.493	120.56
440.715	104.56
440.936	113.56
441.158	101.56
441.379	108.56
441.6	103.56
441.822	121.56
442.043	106.56
442.264	104.56
442.486	85.56
442.707	98.56
442.928	129.56
443.149	107.56
443.371	99.56
443.592	119.56
443.813	108.56
444.034	102.56
444.255	101.56
444.476	111.56
444.698	101.56
444.919	101.56
445.14	214.56
445.361	156.56
445.582	119.56
445.803	116.56
446.024	91.56
446.245	101.56
446.466	102.56
446.687	119.56
446.908	112.56
447.129	107.56
447.35	112.56
447.571	114.56
447.792	110.56
448.013	102.56
448.234	99.56
448.455	105.56
448.675	115.56
448.896	116.56
449.117	105.56
449.338	114.56
449.559	112.56
449.779	105.56
450	115.56
450.221	110.56
450.442	104.56
450.662	83.56
450.883	114.56
451.104	104.56
451.324	106.56
451.545	109.56
451.766	98.56
451.986	110.56
452.207	110.56
452.428	95.56
452.648	107.56
452.869	105.56
453.089	123.56
453.31	89.56
453.53	90.56
453.751	87.56
453.971	70.56
454.192	91.56
454.412	76.56
454.633	104.56
454.853	95.56
455.073	101.56
455.294	106.56
455.514	93.56
455.734	94.56
455.955	92.56
456.175	98.56
456.395	90.56
456.616	99.56
456.836	95.56
457.056	111.56
457.276	92.56
457.497	81.56
457.717	82.56
457.937	96.56
458.157	89.56
458.377	94.56
458.598	80.56
458.818	94.56
459.038	90.56
459.258	76.56
459.478	73.56
459.698	80.56
459.918	90.56
460.138	94.56
460.358	90.56
460.578	103.56
460.798	77.56
461.018	106.56
461.238	97.56
461.458	86.56
461.678	92.56
461.898	98.56
462.118	95.56
462.338	98.56
462.558	97.56
462.777	79.56
462.997	95.56
463.217	81.56
463.437	89.56
463.657	90.56
463.876	86.56
464.096	104.56
464.316	75.56
464.536	81.56
464.755	100.56
464.975	98.56
465.195	99.56
465.414	106.56
465.634	104.56
465.854	95.56
466.073	97.56
466.293	105.56
466.512	105.56
466.732	99.56
466.951	108.56
467.171	104.56
467.391	90.56
467.61	114.56
467.829	97.56
468.049	92.56
468.268	90.56
468.488	107.56
468.707	100.56
468.927	110.56
469.146	105.56
469.365	106.56
469.585	113.56
469.804	106.56
470.023	105.56
470.243	116.56
470.462	96.56
470.681	116.56
470.901	110.56
471.12	95.56
471.339	114.56
471.558	120.56
471.777	102.56
471.997	112.56
472.216	105.56
472.435	100.56
472.654	95.56
472.873	106.56
473.092	96.56
473.311	111.56
473.53	101.56
473.749	103.56
473.968	103.56
474.187	95.56
474.406	115.56
474.625	110.56
474.844	100.56
475.063	84.56
475.282	99.56
475.501	93.56
475.72	98.56
475.939	109.56
476.158	98.56
476.377	106.56
476.596	98.56
476.814	103.56
477.033	93.56
477.252	106.56
477.471	104.56
477.69	115.56
477.908	116.56
478.127	120.56
478.346	103.56
478.564	97.56
478.783	85.56
479.002	100.56
479.22	96.56
479.439	97.56
479.658	100.56
479.876	92.56
480.095	96.56
480.313	98.56
480.532	95.56
480.751	89.56
480.969	78.56
481.188	74.56
481.406	81.56
481.624	84.56
481.843	83.56
482.061	79.56
482.28	101.56
482.498	97.56
482.717	100.56
482.935	110.56
483.153	101.56
483.372	110.56
483.59	98.56
483.808	106.56
484.027	100.56
484.245	103.56
484.463	108.56
484.681	120.56
484.9	101.56
485.118	122.56
485.336	112.56
485.554	118.56
485.772	95.56
485.99	86.56
486.209	99.56
486.427	113.56
486.645	99.56
486.863	90.56
487.081	110.56
487.299	115.56
487.517	101.56
487.735	116.56
487.953	134.56
488.171	149.56
488.389	120.56
488.607	119.56
488.825	122.56
489.043	108.56
489.261	121.56
489.479	107.56
489.696	104.56
489.914	98.56
490.132	108.56
490.35	119.56
490.568	122.56
490.786	106.56
491.003	122.56
491.221	128.56
491.439	121.56
491.657	113.56
491.874	131.56
492.092	132.56
492.31	139.56
492.527	146.56
492.745	130.56
492.963	141.56
493.18	125.56
493.398	133.56
493.615	135.56
493.833	122.56
494.05	123.56
494.268	135.56
494.485	128.56
494.703	128.56
494.92	127.56
495.138	128.56
495.355	126.56
495.573	135.56
495.79	126.56
496.008	134.56
496.225	128.56
496.442	110.56
496.66	117.56
496.877	126.56
497.094	129.56
497.312	120.56
497.529	105.56
497.746	104.56
497.963	100.56
498.181	98.56
498.398	103.56
498.615	91.56
498.832	92.56
499.049	101.56
499.267	91.56
499.484	102.56
499.701	99.56
499.918	104.56
500.135	98.56
500.352	119.56
500.569	108.56
500.786	105.56
501.003	94.56
501.22	109.56
501.437	108.56
501.654	105.56
501.871	98.56
502.088	101.56
502.305	111.56
502.522	107.56
502.739	103.56
502.956	107.56
503.172	102.56
503.389	91.56
503.606	90.56
503.823	102.56
504.04	109.56
504.256	108.56
504.473	105.56
504.69	105.56
504.907	100.56
505.123	100.56
505.34	108.56
505.557	100.56
505.773	104.56
505.99	96.56
506.207	101.56
506.423	86.56
506.64	102.56
506.856	98.56
507.073	100.56
507.289	109.56
507.506	100.56
507.722	110.56
507.939	93.56
508.155	100.56
508.372	96.56
508.588	95.56
508.805	104.56
509.021	82.56
509.238	84.56
509.454	104.56
509.67	94.56
509.887	95.56
510.103	86.56
510.319	74.56
510.536	90.56
510.752	83.56
510.968	81.56
511.184	74.56
511.401	92.56
511.617	87.56
511.833	87.56
512.049	87.56
512.265	98.56
512.481	82.56
512.698	77.56
512.914	87.56
513.13	87.56
513.346	80.56
513.562	90.56
513.778	82.56
513.994	80.56
514.21	97.56
514.426	92.56
514.642	76.56
514.858	106.56
515.074	82.56
515.29	95.56
515.506	87.56
