Data from Zn(NO3)2Standard.Agarose3%.GreenCap.LampEnergy5.5.E.O_HRD10591_15-00-45-767.txt Node
Date: Mon Jul 22 15:00:45 EDT 2019
User: cochatt
Spectrometer: HR+D1059
Trigger mode: 1
Integration Time (sec): 1.000000E-1
Scans to average: 1
Electric dark correction enabled: true
Nonlinearity correction enabled: false
Boxcar width: 0
XAxis mode: Wavelengths
Number of Pixels in Spectrum: 2048
>>>>>Begin Spectral Data<<<<<
223.165	-11.88
223.4	-11.88
223.635	-11.88
223.869	-26.88
224.104	-11.88
224.338	-14.88
224.573	-20.88
224.808	-14.88
225.042	-2.88
225.277	6.12
225.511	1.12
225.746	4.12
225.98	5.12
226.215	9.12
226.449	11.12
226.683	15.12
226.918	23.12
227.152	29.12
227.387	41.12
227.621	54.12
227.856	48.12
228.09	60.12
228.324	51.12
228.559	54.12
228.793	49.12
229.027	59.12
229.262	66.12
229.496	60.12
229.73	56.12
229.964	65.12
230.199	76.12
230.433	78.12
230.667	76.12
230.901	76.12
231.136	83.12
231.37	87.12
231.604	82.12
231.838	74.12
232.072	67.12
232.306	78.12
232.541	82.12
232.775	78.12
233.009	78.12
233.243	81.12
233.477	81.12
233.711	81.12
233.945	89.12
234.179	76.12
234.413	77.12
234.647	96.12
234.881	72.12
235.115	81.12
235.349	87.12
235.583	92.12
235.817	88.12
236.051	75.12
236.285	93.12
236.519	73.12
236.753	73.12
236.987	75.12
237.221	80.12
237.455	75.12
237.689	77.12
237.922	89.12
238.156	64.12
238.39	78.12
238.624	84.12
238.858	77.12
239.091	82.12
239.325	73.12
239.559	72.12
239.793	67.12
240.027	67.12
240.26	77.12
240.494	76.12
240.728	80.12
240.961	69.12
241.195	73.12
241.429	80.12
241.662	73.12
241.896	82.12
242.13	78.12
242.363	74.12
242.597	65.12
242.83	69.12
243.064	70.12
243.298	69.12
243.531	73.12
243.765	77.12
243.998	73.12
244.232	89.12
244.465	77.12
244.699	73.12
244.932	75.12
245.166	75.12
245.399	76.12
245.633	77.12
245.866	76.12
246.099	75.12
246.333	68.12
246.566	73.12
246.8	89.12
247.033	77.12
247.266	77.12
247.5	73.12
247.733	83.12
247.966	78.12
248.2	76.12
248.433	75.12
248.666	70.12
248.899	60.12
249.133	75.12
249.366	89.12
249.599	91.12
249.832	85.12
250.066	77.12
250.299	75.12
250.532	81.12
250.765	69.12
250.998	87.12
251.231	86.12
251.465	76.12
251.698	82.12
251.931	81.12
252.164	77.12
252.397	75.12
252.63	87.12
252.863	76.12
253.096	82.12
253.329	88.12
253.562	70.12
253.795	72.12
254.028	86.12
254.261	75.12
254.494	81.12
254.727	88.12
254.96	81.12
255.193	90.12
255.426	81.12
255.659	68.12
255.892	96.12
256.124	91.12
256.357	82.12
256.59	84.12
256.823	80.12
257.056	85.12
257.289	74.12
257.521	73.12
257.754	84.12
257.987	71.12
258.22	82.12
258.452	84.12
258.685	71.12
258.918	82.12
259.151	78.12
259.383	64.12
259.616	77.12
259.849	81.12
260.081	78.12
260.314	81.12
260.547	77.12
260.779	90.12
261.012	95.12
261.244	78.12
261.477	89.12
261.71	92.12
261.942	73.12
262.175	79.12
262.407	73.12
262.64	79.12
262.872	74.12
263.105	97.12
263.337	75.12
263.57	84.12
263.802	76.12
264.035	86.12
264.267	91.12
264.499	74.12
264.732	76.12
264.964	67.12
265.197	88.12
265.429	82.12
265.661	77.12
265.894	80.12
266.126	75.12
266.358	80.12
266.591	76.12
266.823	81.12
267.055	82.12
267.287	86.12
267.52	95.12
267.752	84.12
267.984	75.12
268.216	71.12
268.448	88.12
268.681	88.12
268.913	89.12
269.145	90.12
269.377	87.12
269.609	79.12
269.841	76.12
270.073	81.12
270.306	73.12
270.538	84.12
270.77	88.12
271.002	86.12
271.234	85.12
271.466	87.12
271.698	90.12
271.93	67.12
272.162	72.12
272.394	84.12
272.626	73.12
272.858	94.12
273.09	80.12
273.322	80.12
273.553	69.12
273.785	68.12
274.017	78.12
274.249	79.12
274.481	91.12
274.713	66.12
274.945	86.12
275.176	79.12
275.408	80.12
275.64	92.12
275.872	78.12
276.104	80.12
276.335	73.12
276.567	84.12
276.799	72.12
277.031	84.12
277.262	84.12
277.494	77.12
277.726	94.12
277.957	80.12
278.189	81.12
278.421	76.12
278.652	85.12
278.884	77.12
279.115	69.12
279.347	71.12
279.579	96.12
279.81	84.12
280.042	86.12
280.273	83.12
280.505	73.12
280.736	90.12
280.968	93.12
281.199	89.12
281.431	77.12
281.662	89.12
281.894	91.12
282.125	88.12
282.356	75.12
282.588	84.12
282.819	77.12
283.051	78.12
283.282	84.12
283.513	95.12
283.745	81.12
283.976	87.12
284.207	70.12
284.439	88.12
284.67	78.12
284.901	82.12
285.132	79.12
285.364	72.12
285.595	86.12
285.826	86.12
286.057	88.12
286.288	85.12
286.52	87.12
286.751	81.12
286.982	85.12
287.213	86.12
287.444	82.12
287.675	84.12
287.906	61.12
288.138	74.12
288.369	88.12
288.6	74.12
288.831	77.12
289.062	84.12
289.293	89.12
289.524	79.12
289.755	68.12
289.986	71.12
290.217	80.12
290.448	86.12
290.679	82.12
290.91	82.12
291.141	80.12
291.371	84.12
291.602	83.12
291.833	83.12
292.064	93.12
292.295	88.12
292.526	93.12
292.757	89.12
292.987	89.12
293.218	74.12
293.449	84.12
293.68	100.12
293.91	87.12
294.141	84.12
294.372	77.12
294.603	83.12
294.833	87.12
295.064	89.12
295.295	83.12
295.525	75.12
295.756	82.12
295.987	86.12
296.217	88.12
296.448	78.12
296.679	93.12
296.909	88.12
297.14	77.12
297.37	88.12
297.601	84.12
297.831	81.12
298.062	85.12
298.292	94.12
298.523	76.12
298.753	78.12
298.984	78.12
299.214	85.12
299.445	86.12
299.675	62.12
299.905	81.12
300.136	77.12
300.366	88.12
300.597	92.12
300.827	87.12
301.057	80.12
301.288	75.12
301.518	91.12
301.748	94.12
301.979	104.12
302.209	83.12
302.439	91.12
302.669	65.12
302.9	83.12
303.13	83.12
303.36	80.12
303.59	75.12
303.82	107.12
304.051	78.12
304.281	85.12
304.511	98.12
304.741	94.12
304.971	82.12
305.201	80.12
305.431	96.12
305.661	86.12
305.891	94.12
306.121	89.12
306.352	78.12
306.582	79.12
306.812	85.12
307.042	94.12
307.272	70.12
307.502	88.12
307.731	77.12
307.961	84.12
308.191	87.12
308.421	65.12
308.651	95.12
308.881	84.12
309.111	86.12
309.341	79.12
309.571	72.12
309.8	83.12
310.03	84.12
310.26	70.12
310.49	88.12
310.72	83.12
310.949	90.12
311.179	90.12
311.409	88.12
311.639	92.12
311.868	81.12
312.098	88.12
312.328	76.12
312.557	84.12
312.787	78.12
313.017	78.12
313.246	84.12
313.476	75.12
313.706	74.12
313.935	79.12
314.165	88.12
314.394	96.12
314.624	83.12
314.853	90.12
315.083	84.12
315.312	86.12
315.542	75.12
315.771	81.12
316.001	62.12
316.23	91.12
316.46	90.12
316.689	87.12
316.919	70.12
317.148	78.12
317.377	99.12
317.607	91.12
317.836	83.12
318.065	91.12
318.295	83.12
318.524	93.12
318.753	90.12
318.983	86.12
319.212	96.12
319.441	84.12
319.67	85.12
319.9	84.12
320.129	82.12
320.358	92.12
320.587	78.12
320.816	90.12
321.046	87.12
321.275	78.12
321.504	84.12
321.733	85.12
321.962	82.12
322.191	94.12
322.42	77.12
322.649	93.12
322.878	82.12
323.108	86.12
323.337	89.12
323.566	81.12
323.795	93.12
324.024	84.12
324.253	76.12
324.482	79.12
324.71	90.12
324.939	86.12
325.168	87.12
325.397	80.12
325.626	82.12
325.855	79.12
326.084	82.12
326.313	93.12
326.542	82.12
326.77	77.12
326.999	86.12
327.228	96.12
327.457	78.12
327.686	83.12
327.914	86.12
328.143	87.12
328.372	84.12
328.6	78.12
328.829	104.12
329.058	64.12
329.287	76.12
329.515	100.12
329.744	93.12
329.972	85.12
330.201	81.12
330.43	77.12
330.658	85.12
330.887	94.12
331.115	99.12
331.344	84.12
331.572	75.12
331.801	91.12
332.03	80.12
332.258	89.12
332.486	88.12
332.715	90.12
332.943	79.12
333.172	72.12
333.4	81.12
333.629	81.12
333.857	84.12
334.085	89.12
334.314	84.12
334.542	85.12
334.771	89.12
334.999	78.12
335.227	82.12
335.455	91.12
335.684	91.12
335.912	83.12
336.14	91.12
336.369	74.12
336.597	78.12
336.825	95.12
337.053	98.12
337.281	74.12
337.51	68.12
337.738	90.12
337.966	77.12
338.194	87.12
338.422	91.12
338.65	59.12
338.878	87.12
339.106	85.12
339.334	97.12
339.562	73.12
339.79	84.12
340.018	77.12
340.246	74.12
340.474	92.12
340.702	82.12
340.93	81.12
341.158	85.12
341.386	60.12
341.614	91.12
341.842	90.12
342.07	88.12
342.298	86.12
342.526	99.12
342.754	91.12
342.981	86.12
343.209	81.12
343.437	82.12
343.665	85.12
343.893	92.12
344.12	82.12
344.348	82.12
344.576	90.12
344.804	87.12
345.031	72.12
345.259	89.12
345.487	73.12
345.714	78.12
345.942	104.12
346.17	92.12
346.397	86.12
346.625	84.12
346.853	84.12
347.08	81.12
347.308	79.12
347.535	88.12
347.763	74.12
347.99	84.12
348.218	69.12
348.445	75.12
348.673	82.12
348.9	92.12
349.128	96.12
349.355	84.12
349.583	73.12
349.81	85.12
350.037	85.12
350.265	83.12
350.492	81.12
350.72	102.12
350.947	87.12
351.174	89.12
351.402	66.12
351.629	84.12
351.856	87.12
352.083	75.12
352.311	93.12
352.538	64.12
352.765	82.12
352.992	94.12
353.22	84.12
353.447	84.12
353.674	80.12
353.901	83.12
354.128	93.12
354.355	96.12
354.583	98.12
354.81	99.12
355.037	92.12
355.264	75.12
355.491	90.12
355.718	78.12
355.945	89.12
356.172	72.12
356.399	88.12
356.626	74.12
356.853	90.12
357.08	80.12
357.307	77.12
357.534	78.12
357.761	82.12
357.988	91.12
358.215	96.12
358.441	80.12
358.668	96.12
358.895	99.12
359.122	85.12
359.349	93.12
359.576	79.12
359.802	77.12
360.029	71.12
360.256	77.12
360.483	84.12
360.709	90.12
360.936	106.12
361.163	96.12
361.39	91.12
361.616	78.12
361.843	90.12
362.07	73.12
362.296	77.12
362.523	75.12
362.749	70.12
362.976	93.12
363.203	92.12
363.429	86.12
363.656	92.12
363.882	81.12
364.109	81.12
364.335	82.12
364.562	90.12
364.788	80.12
365.015	74.12
365.241	69.12
365.468	86.12
365.694	93.12
365.92	87.12
366.147	91.12
366.373	70.12
366.599	81.12
366.826	86.12
367.052	78.12
367.278	79.12
367.505	75.12
367.731	88.12
367.957	81.12
368.184	85.12
368.41	91.12
368.636	90.12
368.862	77.12
369.089	84.12
369.315	87.12
369.541	82.12
369.767	86.12
369.993	78.12
370.219	91.12
370.445	74.12
370.672	77.12
370.898	81.12
371.124	78.12
371.35	72.12
371.576	72.12
371.802	81.12
372.028	78.12
372.254	95.12
372.48	84.12
372.706	86.12
372.932	80.12
373.158	93.12
373.384	92.12
373.61	82.12
373.835	86.12
374.061	74.12
374.287	81.12
374.513	79.12
374.739	89.12
374.965	82.12
375.191	94.12
375.416	84.12
375.642	89.12
375.868	89.12
376.094	84.12
376.319	85.12
376.545	91.12
376.771	85.12
376.997	86.12
377.222	91.12
377.448	85.12
377.674	85.12
377.899	93.12
378.125	98.12
378.35	90.12
378.576	90.12
378.802	77.12
379.027	69.12
379.253	78.12
379.478	87.12
379.704	69.12
379.929	86.12
380.155	78.12
380.38	79.12
380.606	96.12
380.831	90.12
381.057	96.12
381.282	90.12
381.507	76.12
381.733	89.12
381.958	86.12
382.184	97.12
382.409	88.12
382.634	81.12
382.86	97.12
383.085	97.12
383.31	87.12
383.535	92.12
383.761	90.12
383.986	81.12
384.211	78.12
384.436	86.12
384.662	78.12
384.887	86.12
385.112	85.12
385.337	67.12
385.562	82.12
385.787	78.12
386.013	93.12
386.238	86.12
386.463	73.12
386.688	89.12
386.913	96.12
387.138	88.12
387.363	87.12
387.588	83.12
387.813	92.12
388.038	101.12
388.263	99.12
388.488	75.12
388.713	83.12
388.938	79.12
389.163	65.12
389.387	67.12
389.612	86.12
389.837	74.12
390.062	87.12
390.287	73.12
390.512	86.12
390.736	80.12
390.961	83.12
391.186	83.12
391.411	87.12
391.636	84.12
391.86	100.12
392.085	96.12
392.31	92.12
392.534	86.12
392.759	90.12
392.984	70.12
393.208	88.12
393.433	73.12
393.658	86.12
393.882	87.12
394.107	98.12
394.331	109.12
394.556	73.12
394.78	93.12
395.005	76.12
395.229	75.12
395.454	91.12
395.678	88.12
395.903	82.12
396.127	76.12
396.352	83.12
396.576	85.12
396.801	85.12
397.025	89.12
397.249	88.12
397.474	86.12
397.698	93.12
397.922	86.12
398.147	77.12
398.371	79.12
398.595	80.12
398.82	80.12
399.044	91.12
399.268	98.12
399.492	78.12
399.717	81.12
399.941	82.12
400.165	75.12
400.389	65.12
400.613	79.12
400.837	83.12
401.062	77.12
401.286	77.12
401.51	74.12
401.734	78.12
401.958	102.12
402.182	77.12
402.406	75.12
402.63	84.12
402.854	86.12
403.078	98.12
403.302	94.12
403.526	83.12
403.75	79.12
403.974	87.12
404.198	76.12
404.422	85.12
404.645	90.12
404.869	77.12
405.093	86.12
405.317	79.12
405.541	86.12
405.765	78.12
405.988	78.12
406.212	86.12
406.436	102.12
406.66	94.12
406.883	94.12
407.107	88.12
407.331	79.12
407.555	83.12
407.778	84.12
408.002	86.12
408.226	87.12
408.449	86.12
408.673	93.12
408.896	82.12
409.12	85.12
409.344	76.12
409.567	87.12
409.791	93.12
410.014	84.12
410.238	80.12
410.461	88.12
410.685	100.12
410.908	82.12
411.132	88.12
411.355	74.12
411.578	77.12
411.802	88.12
412.025	75.12
412.249	85.12
412.472	90.12
412.695	86.12
412.919	90.12
413.142	98.12
413.365	92.12
413.589	83.12
413.812	78.12
414.035	84.12
414.258	86.12
414.482	91.12
414.705	85.12
414.928	92.12
415.151	91.12
415.374	92.12
415.597	91.12
415.821	87.12
416.044	108.12
416.267	98.12
416.49	97.12
416.713	98.12
416.936	95.12
417.159	98.12
417.382	93.12
417.605	82.12
417.828	88.12
418.051	85.12
418.274	77.12
418.497	99.12
418.72	96.12
418.943	101.12
419.166	87.12
419.389	79.12
419.611	84.12
419.834	82.12
420.057	97.12
420.28	104.12
420.503	79.12
420.726	77.12
420.948	93.12
421.171	80.12
421.394	85.12
421.617	93.12
421.839	88.12
422.062	90.12
422.285	99.12
422.507	86.12
422.73	83.12
422.953	87.12
423.175	80.12
423.398	83.12
423.621	92.12
423.843	86.12
424.066	77.12
424.288	88.12
424.511	87.12
424.733	92.12
424.956	88.12
425.178	84.12
425.401	87.12
425.623	91.12
425.846	87.12
426.068	86.12
426.291	95.12
426.513	86.12
426.735	88.12
426.958	89.12
427.18	89.12
427.402	84.12
427.625	85.12
427.847	88.12
428.069	73.12
428.292	77.12
428.514	83.12
428.736	92.12
428.958	91.12
429.181	75.12
429.403	84.12
429.625	85.12
429.847	82.12
430.069	87.12
430.292	106.12
430.514	82.12
430.736	90.12
430.958	93.12
431.18	87.12
431.402	89.12
431.624	78.12
431.846	93.12
432.068	89.12
432.29	64.12
432.512	91.12
432.734	92.12
432.956	74.12
433.178	96.12
433.4	89.12
433.622	93.12
433.844	86.12
434.066	81.12
434.287	82.12
434.509	72.12
434.731	76.12
434.953	77.12
435.175	79.12
435.397	94.12
435.618	86.12
435.84	88.12
436.062	79.12
436.284	86.12
436.505	79.12
436.727	85.12
436.949	97.12
437.17	85.12
437.392	94.12
437.614	91.12
437.835	84.12
438.057	78.12
438.278	97.12
438.5	81.12
438.721	77.12
438.943	95.12
439.165	90.12
439.386	90.12
439.608	92.12
439.829	88.12
440.05	83.12
440.272	99.12
440.493	96.12
440.715	86.12
440.936	85.12
441.158	99.12
441.379	91.12
441.6	90.12
441.822	85.12
442.043	97.12
442.264	95.12
442.486	85.12
442.707	82.12
442.928	88.12
443.149	89.12
443.371	91.12
443.592	97.12
443.813	94.12
444.034	95.12
444.255	90.12
444.476	80.12
444.698	97.12
444.919	89.12
445.14	171.12
445.361	129.12
445.582	99.12
445.803	93.12
446.024	86.12
446.245	97.12
446.466	88.12
446.687	74.12
446.908	92.12
447.129	86.12
447.35	87.12
447.571	102.12
447.792	90.12
448.013	82.12
448.234	87.12
448.455	96.12
448.675	76.12
448.896	99.12
449.117	101.12
449.338	90.12
449.559	85.12
449.779	73.12
450	83.12
450.221	80.12
450.442	94.12
450.662	77.12
450.883	76.12
451.104	84.12
451.324	94.12
451.545	96.12
451.766	101.12
451.986	96.12
452.207	71.12
452.428	78.12
452.648	92.12
452.869	87.12
453.089	85.12
453.31	85.12
453.53	77.12
453.751	98.12
453.971	78.12
454.192	75.12
454.412	108.12
454.633	92.12
454.853	87.12
455.073	82.12
455.294	81.12
455.514	82.12
455.734	101.12
455.955	75.12
456.175	75.12
456.395	91.12
456.616	72.12
456.836	68.12
457.056	85.12
457.276	78.12
457.497	85.12
457.717	86.12
457.937	92.12
458.157	87.12
458.377	86.12
458.598	77.12
458.818	89.12
459.038	81.12
459.258	82.12
459.478	77.12
459.698	81.12
459.918	78.12
460.138	93.12
460.358	90.12
460.578	101.12
460.798	83.12
461.018	102.12
461.238	106.12
461.458	109.12
461.678	96.12
461.898	89.12
462.118	88.12
462.338	92.12
462.558	90.12
462.777	74.12
462.997	86.12
463.217	70.12
463.437	85.12
463.657	80.12
463.876	82.12
464.096	99.12
464.316	96.12
464.536	89.12
464.755	86.12
464.975	72.12
465.195	90.12
465.414	82.12
465.634	100.12
465.854	86.12
466.073	81.12
466.293	96.12
466.512	85.12
466.732	93.12
466.951	74.12
467.171	89.12
467.391	86.12
467.61	84.12
467.829	80.12
468.049	82.12
468.268	95.12
468.488	77.12
468.707	93.12
468.927	89.12
469.146	82.12
469.365	96.12
469.585	95.12
469.804	78.12
470.023	91.12
470.243	86.12
470.462	85.12
470.681	84.12
470.901	94.12
471.12	84.12
471.339	83.12
471.558	92.12
471.777	98.12
471.997	83.12
472.216	110.12
472.435	99.12
472.654	72.12
472.873	86.12
473.092	81.12
473.311	94.12
473.53	92.12
473.749	97.12
473.968	88.12
474.187	96.12
474.406	85.12
474.625	79.12
474.844	85.12
475.063	101.12
475.282	98.12
475.501	86.12
475.72	78.12
475.939	96.12
476.158	75.12
476.377	99.12
476.596	104.12
476.814	93.12
477.033	71.12
477.252	79.12
477.471	80.12
477.69	96.12
477.908	90.12
478.127	86.12
478.346	84.12
478.564	85.12
478.783	94.12
479.002	91.12
479.22	90.12
479.439	102.12
479.658	84.12
479.876	90.12
480.095	86.12
480.313	81.12
480.532	90.12
480.751	80.12
480.969	84.12
481.188	84.12
481.406	85.12
481.624	89.12
481.843	72.12
482.061	95.12
482.28	98.12
482.498	87.12
482.717	87.12
482.935	87.12
483.153	80.12
483.372	94.12
483.59	91.12
483.808	82.12
484.027	82.12
484.245	83.12
484.463	91.12
484.681	94.12
484.9	93.12
485.118	81.12
485.336	90.12
485.554	99.12
485.772	77.12
485.99	90.12
486.209	96.12
486.427	87.12
486.645	98.12
486.863	89.12
487.081	97.12
487.299	100.12
487.517	87.12
487.735	90.12
487.953	109.12
488.171	100.12
488.389	97.12
488.607	93.12
488.825	86.12
489.043	85.12
489.261	85.12
489.479	100.12
489.696	90.12
489.914	100.12
490.132	81.12
490.35	101.12
490.568	88.12
490.786	115.12
491.003	91.12
491.221	105.12
491.439	97.12
491.657	98.12
491.874	98.12
492.092	103.12
492.31	111.12
492.527	102.12
492.745	104.12
492.963	115.12
493.18	97.12
493.398	103.12
493.615	93.12
493.833	107.12
494.05	88.12
494.268	103.12
494.485	104.12
494.703	91.12
494.92	101.12
495.138	100.12
495.355	102.12
495.573	99.12
495.79	99.12
496.008	109.12
496.225	104.12
496.442	97.12
496.66	107.12
496.877	94.12
497.094	81.12
497.312	94.12
497.529	92.12
497.746	90.12
497.963	106.12
498.181	89.12
498.398	105.12
498.615	88.12
498.832	85.12
499.049	79.12
499.267	77.12
499.484	98.12
499.701	98.12
499.918	84.12
500.135	83.12
500.352	97.12
500.569	92.12
500.786	94.12
501.003	98.12
501.22	109.12
501.437	89.12
501.654	101.12
501.871	94.12
502.088	82.12
502.305	90.12
502.522	103.12
502.739	87.12
502.956	91.12
503.172	89.12
503.389	81.12
503.606	74.12
503.823	85.12
504.04	83.12
504.256	84.12
504.473	84.12
504.69	83.12
504.907	86.12
505.123	97.12
505.34	97.12
505.557	93.12
505.773	95.12
505.99	92.12
506.207	87.12
506.423	98.12
506.64	82.12
506.856	88.12
507.073	82.12
507.289	94.12
507.506	90.12
507.722	104.12
507.939	94.12
508.155	84.12
508.372	100.12
508.588	94.12
508.805	74.12
509.021	73.12
509.238	84.12
509.454	90.12
509.67	114.12
509.887	90.12
510.103	77.12
510.319	88.12
510.536	93.12
510.752	85.12
510.968	85.12
511.184	84.12
511.401	84.12
511.617	95.12
511.833	77.12
512.049	76.12
512.265	95.12
512.481	74.12
512.698	83.12
512.914	76.12
513.13	78.12
513.346	85.12
513.562	76.12
513.778	73.12
513.994	81.12
514.21	77.12
514.426	79.12
514.642	82.12
514.858	78.12
515.074	87.12
515.29	92.12
515.506	70.12
515.721	85.12
515.937	76.12
516.153	84.12
516.369	87.12
516.585	75.12
516.801	85.12
517.016	105.12
517.232	86.12
517.448	74.12
517.664	87.12
517.879	88.12
518.095	81.12
518.311	90.12
518.527	86.12
