Data from Zn(NO3)2Standard.Agarose3%.GreenCap.LampEnergy10E.O_HRD10591_15-08-22-948.txt Node
Date: Mon Jul 22 15:08:22 EDT 2019
User: cochatt
Spectrometer: HR+D1059
Trigger mode: 1
Integration Time (sec): 1.000000E-1
Scans to average: 1
Electric dark correction enabled: true
Nonlinearity correction enabled: false
Boxcar width: 0
XAxis mode: Wavelengths
Number of Pixels in Spectrum: 2048
>>>>>Begin Spectral Data<<<<<
223.165	-23.62
223.4	-23.62
223.635	-23.62
223.869	-8.62
224.104	-16.62
224.338	-21.62
224.573	-24.62
224.808	-21.62
225.042	-8.62
225.277	-7.62
225.511	0.38
225.746	3.38
225.98	8.38
226.215	4.38
226.449	16.38
226.683	27.38
226.918	49.38
227.152	23.38
227.387	34.38
227.621	43.38
227.856	39.38
228.09	48.38
228.324	45.38
228.559	61.38
228.793	53.38
229.027	64.38
229.262	68.38
229.496	77.38
229.73	54.38
229.964	71.38
230.199	88.38
230.433	73.38
230.667	75.38
230.901	99.38
231.136	91.38
231.37	74.38
231.604	93.38
231.838	89.38
232.072	94.38
232.306	87.38
232.541	73.38
232.775	74.38
233.009	76.38
233.243	80.38
233.477	78.38
233.711	73.38
233.945	86.38
234.179	84.38
234.413	79.38
234.647	84.38
234.881	81.38
235.115	76.38
235.349	85.38
235.583	84.38
235.817	74.38
236.051	74.38
236.285	88.38
236.519	88.38
236.753	87.38
236.987	70.38
237.221	73.38
237.455	93.38
237.689	70.38
237.922	94.38
238.156	70.38
238.39	67.38
238.624	75.38
238.858	74.38
239.091	71.38
239.325	76.38
239.559	78.38
239.793	74.38
240.027	79.38
240.26	80.38
240.494	76.38
240.728	88.38
240.961	90.38
241.195	82.38
241.429	65.38
241.662	74.38
241.896	77.38
242.13	80.38
242.363	84.38
242.597	69.38
242.83	72.38
243.064	78.38
243.298	72.38
243.531	67.38
243.765	87.38
243.998	86.38
244.232	83.38
244.465	75.38
244.699	68.38
244.932	68.38
245.166	88.38
245.399	73.38
245.633	88.38
245.866	74.38
246.099	81.38
246.333	81.38
246.566	71.38
246.8	76.38
247.033	86.38
247.266	88.38
247.5	80.38
247.733	83.38
247.966	88.38
248.2	75.38
248.433	66.38
248.666	86.38
248.899	85.38
249.133	84.38
249.366	68.38
249.599	78.38
249.832	79.38
250.066	85.38
250.299	74.38
250.532	79.38
250.765	71.38
250.998	84.38
251.231	71.38
251.465	75.38
251.698	76.38
251.931	78.38
252.164	93.38
252.397	82.38
252.63	88.38
252.863	73.38
253.096	88.38
253.329	84.38
253.562	69.38
253.795	87.38
254.028	86.38
254.261	82.38
254.494	95.38
254.727	95.38
254.96	87.38
255.193	92.38
255.426	79.38
255.659	82.38
255.892	84.38
256.124	68.38
256.357	87.38
256.59	74.38
256.823	91.38
257.056	92.38
257.289	77.38
257.521	85.38
257.754	68.38
257.987	67.38
258.22	84.38
258.452	73.38
258.685	86.38
258.918	82.38
259.151	86.38
259.383	80.38
259.616	85.38
259.849	70.38
260.081	87.38
260.314	78.38
260.547	85.38
260.779	87.38
261.012	85.38
261.244	79.38
261.477	90.38
261.71	77.38
261.942	95.38
262.175	83.38
262.407	78.38
262.64	94.38
262.872	87.38
263.105	76.38
263.337	92.38
263.57	93.38
263.802	80.38
264.035	74.38
264.267	86.38
264.499	75.38
264.732	94.38
264.964	93.38
265.197	83.38
265.429	89.38
265.661	82.38
265.894	82.38
266.126	83.38
266.358	88.38
266.591	77.38
266.823	79.38
267.055	79.38
267.287	75.38
267.52	78.38
267.752	83.38
267.984	76.38
268.216	83.38
268.448	77.38
268.681	87.38
268.913	79.38
269.145	83.38
269.377	86.38
269.609	92.38
269.841	88.38
270.073	93.38
270.306	70.38
270.538	86.38
270.77	91.38
271.002	74.38
271.234	93.38
271.466	92.38
271.698	94.38
271.93	81.38
272.162	70.38
272.394	70.38
272.626	90.38
272.858	79.38
273.09	70.38
273.322	92.38
273.553	86.38
273.785	93.38
274.017	91.38
274.249	81.38
274.481	81.38
274.713	97.38
274.945	83.38
275.176	94.38
275.408	91.38
275.64	92.38
275.872	80.38
276.104	94.38
276.335	84.38
276.567	80.38
276.799	84.38
277.031	87.38
277.262	83.38
277.494	86.38
277.726	84.38
277.957	69.38
278.189	78.38
278.421	82.38
278.652	81.38
278.884	80.38
279.115	86.38
279.347	86.38
279.579	80.38
279.81	79.38
280.042	78.38
280.273	72.38
280.505	77.38
280.736	75.38
280.968	71.38
281.199	88.38
281.431	96.38
281.662	85.38
281.894	93.38
282.125	78.38
282.356	80.38
282.588	85.38
282.819	77.38
283.051	84.38
283.282	71.38
283.513	88.38
283.745	86.38
283.976	78.38
284.207	96.38
284.439	62.38
284.67	91.38
284.901	63.38
285.132	94.38
285.364	80.38
285.595	89.38
285.826	87.38
286.057	94.38
286.288	91.38
286.52	82.38
286.751	91.38
286.982	86.38
287.213	87.38
287.444	87.38
287.675	105.38
287.906	81.38
288.138	79.38
288.369	92.38
288.6	77.38
288.831	99.38
289.062	100.38
289.293	93.38
289.524	86.38
289.755	82.38
289.986	80.38
290.217	98.38
290.448	90.38
290.679	86.38
290.91	83.38
291.141	82.38
291.371	96.38
291.602	91.38
291.833	92.38
292.064	91.38
292.295	91.38
292.526	90.38
292.757	69.38
292.987	87.38
293.218	78.38
293.449	84.38
293.68	98.38
293.91	88.38
294.141	81.38
294.372	88.38
294.603	79.38
294.833	88.38
295.064	86.38
295.295	63.38
295.525	82.38
295.756	87.38
295.987	87.38
296.217	70.38
296.448	87.38
296.679	79.38
296.909	91.38
297.14	79.38
297.37	91.38
297.601	87.38
297.831	94.38
298.062	89.38
298.292	94.38
298.523	97.38
298.753	84.38
298.984	77.38
299.214	89.38
299.445	91.38
299.675	63.38
299.905	79.38
300.136	95.38
300.366	94.38
300.597	105.38
300.827	93.38
301.057	97.38
301.288	84.38
301.518	94.38
301.748	77.38
301.979	85.38
302.209	90.38
302.439	84.38
302.669	89.38
302.9	98.38
303.13	81.38
303.36	95.38
303.59	88.38
303.82	91.38
304.051	83.38
304.281	92.38
304.511	82.38
304.741	77.38
304.971	93.38
305.201	96.38
305.431	81.38
305.661	88.38
305.891	83.38
306.121	99.38
306.352	103.38
306.582	94.38
306.812	77.38
307.042	87.38
307.272	80.38
307.502	92.38
307.731	95.38
307.961	80.38
308.191	92.38
308.421	87.38
308.651	86.38
308.881	88.38
309.111	82.38
309.341	83.38
309.571	81.38
309.8	83.38
310.03	80.38
310.26	83.38
310.49	87.38
310.72	86.38
310.949	85.38
311.179	77.38
311.409	86.38
311.639	75.38
311.868	84.38
312.098	83.38
312.328	107.38
312.557	91.38
312.787	90.38
313.017	88.38
313.246	92.38
313.476	95.38
313.706	86.38
313.935	96.38
314.165	85.38
314.394	86.38
314.624	77.38
314.853	73.38
315.083	106.38
315.312	95.38
315.542	95.38
315.771	87.38
316.001	69.38
316.23	100.38
316.46	80.38
316.689	91.38
316.919	79.38
317.148	77.38
317.377	95.38
317.607	80.38
317.836	89.38
318.065	87.38
318.295	86.38
318.524	90.38
318.753	84.38
318.983	93.38
319.212	92.38
319.441	102.38
319.67	87.38
319.9	78.38
320.129	80.38
320.358	99.38
320.587	112.38
320.816	96.38
321.046	89.38
321.275	91.38
321.504	86.38
321.733	88.38
321.962	100.38
322.191	86.38
322.42	95.38
322.649	86.38
322.878	91.38
323.108	80.38
323.337	86.38
323.566	90.38
323.795	82.38
324.024	94.38
324.253	99.38
324.482	87.38
324.71	87.38
324.939	97.38
325.168	91.38
325.397	76.38
325.626	78.38
325.855	79.38
326.084	98.38
326.313	71.38
326.542	96.38
326.77	77.38
326.999	88.38
327.228	88.38
327.457	82.38
327.686	89.38
327.914	79.38
328.143	92.38
328.372	76.38
328.6	88.38
328.829	78.38
329.058	99.38
329.287	88.38
329.515	84.38
329.744	83.38
329.972	89.38
330.201	87.38
330.43	79.38
330.658	87.38
330.887	92.38
331.115	80.38
331.344	80.38
331.572	77.38
331.801	76.38
332.03	85.38
332.258	94.38
332.486	98.38
332.715	90.38
332.943	84.38
333.172	94.38
333.4	90.38
333.629	80.38
333.857	89.38
334.085	82.38
334.314	91.38
334.542	102.38
334.771	87.38
334.999	84.38
335.227	70.38
335.455	84.38
335.684	97.38
335.912	79.38
336.14	96.38
336.369	87.38
336.597	90.38
336.825	81.38
337.053	92.38
337.281	78.38
337.51	83.38
337.738	75.38
337.966	87.38
338.194	87.38
338.422	94.38
338.65	75.38
338.878	83.38
339.106	97.38
339.334	88.38
339.562	78.38
339.79	88.38
340.018	74.38
340.246	83.38
340.474	81.38
340.702	85.38
340.93	84.38
341.158	97.38
341.386	74.38
341.614	76.38
341.842	79.38
342.07	84.38
342.298	75.38
342.526	91.38
342.754	97.38
342.981	89.38
343.209	84.38
343.437	97.38
343.665	93.38
343.893	80.38
344.12	94.38
344.348	83.38
344.576	92.38
344.804	89.38
345.031	88.38
345.259	100.38
345.487	92.38
345.714	98.38
345.942	93.38
346.17	80.38
346.397	90.38
346.625	86.38
346.853	79.38
347.08	91.38
347.308	92.38
347.535	77.38
347.763	90.38
347.99	70.38
348.218	95.38
348.445	88.38
348.673	78.38
348.9	89.38
349.128	94.38
349.355	88.38
349.583	98.38
349.81	94.38
350.037	91.38
350.265	80.38
350.492	75.38
350.72	91.38
350.947	99.38
351.174	91.38
351.402	82.38
351.629	92.38
351.856	87.38
352.083	94.38
352.311	95.38
352.538	86.38
352.765	79.38
352.992	95.38
353.22	99.38
353.447	94.38
353.674	83.38
353.901	84.38
354.128	82.38
354.355	78.38
354.583	94.38
354.81	94.38
355.037	79.38
355.264	85.38
355.491	78.38
355.718	80.38
355.945	83.38
356.172	77.38
356.399	92.38
356.626	79.38
356.853	85.38
357.08	75.38
357.307	93.38
357.534	81.38
357.761	83.38
357.988	101.38
358.215	74.38
358.441	92.38
358.668	76.38
358.895	79.38
359.122	88.38
359.349	89.38
359.576	86.38
359.802	87.38
360.029	79.38
360.256	98.38
360.483	92.38
360.709	95.38
360.936	75.38
361.163	78.38
361.39	74.38
361.616	88.38
361.843	83.38
362.07	86.38
362.296	93.38
362.523	85.38
362.749	74.38
362.976	81.38
363.203	97.38
363.429	76.38
363.656	82.38
363.882	81.38
364.109	78.38
364.335	80.38
364.562	87.38
364.788	78.38
365.015	96.38
365.241	79.38
365.468	82.38
365.694	77.38
365.92	86.38
366.147	83.38
366.373	94.38
366.599	79.38
366.826	98.38
367.052	72.38
367.278	79.38
367.505	83.38
367.731	83.38
367.957	87.38
368.184	92.38
368.41	88.38
368.636	79.38
368.862	93.38
369.089	96.38
369.315	79.38
369.541	78.38
369.767	88.38
369.993	95.38
370.219	69.38
370.445	90.38
370.672	102.38
370.898	80.38
371.124	103.38
371.35	85.38
371.576	73.38
371.802	94.38
372.028	78.38
372.254	88.38
372.48	79.38
372.706	89.38
372.932	92.38
373.158	72.38
373.384	98.38
373.61	95.38
373.835	92.38
374.061	79.38
374.287	97.38
374.513	81.38
374.739	89.38
374.965	92.38
375.191	90.38
375.416	73.38
375.642	88.38
375.868	102.38
376.094	98.38
376.319	93.38
376.545	86.38
376.771	87.38
376.997	99.38
377.222	92.38
377.448	89.38
377.674	85.38
377.899	105.38
378.125	79.38
378.35	80.38
378.576	88.38
378.802	81.38
379.027	82.38
379.253	104.38
379.478	97.38
379.704	86.38
379.929	91.38
380.155	87.38
380.38	105.38
380.606	89.38
380.831	92.38
381.057	90.38
381.282	77.38
381.507	87.38
381.733	96.38
381.958	100.38
382.184	101.38
382.409	102.38
382.634	98.38
382.86	98.38
383.085	83.38
383.31	95.38
383.535	81.38
383.761	82.38
383.986	89.38
384.211	92.38
384.436	78.38
384.662	85.38
384.887	90.38
385.112	88.38
385.337	93.38
385.562	86.38
385.787	84.38
386.013	91.38
386.238	83.38
386.463	96.38
386.688	78.38
386.913	96.38
387.138	100.38
387.363	99.38
387.588	90.38
387.813	90.38
388.038	100.38
388.263	87.38
388.488	86.38
388.713	80.38
388.938	88.38
389.163	99.38
389.387	93.38
389.612	91.38
389.837	92.38
390.062	86.38
390.287	90.38
390.512	92.38
390.736	86.38
390.961	99.38
391.186	95.38
391.411	92.38
391.636	100.38
391.86	87.38
392.085	84.38
392.31	96.38
392.534	92.38
392.759	101.38
392.984	85.38
393.208	102.38
393.433	97.38
393.658	85.38
393.882	92.38
394.107	87.38
394.331	77.38
394.556	91.38
394.78	94.38
395.005	92.38
395.229	82.38
395.454	95.38
395.678	101.38
395.903	107.38
396.127	105.38
396.352	99.38
396.576	107.38
396.801	98.38
397.025	92.38
397.249	100.38
397.474	108.38
397.698	96.38
397.922	96.38
398.147	100.38
398.371	109.38
398.595	98.38
398.82	96.38
399.044	107.38
399.268	103.38
399.492	98.38
399.717	94.38
399.941	85.38
400.165	107.38
400.389	97.38
400.613	100.38
400.837	101.38
401.062	105.38
401.286	100.38
401.51	88.38
401.734	91.38
401.958	105.38
402.182	100.38
402.406	87.38
402.63	88.38
402.854	104.38
403.078	101.38
403.302	99.38
403.526	101.38
403.75	100.38
403.974	96.38
404.198	108.38
404.422	90.38
404.645	95.38
404.869	99.38
405.093	94.38
405.317	99.38
405.541	107.38
405.765	86.38
405.988	114.38
406.212	92.38
406.436	92.38
406.66	104.38
406.883	116.38
407.107	89.38
407.331	111.38
407.555	89.38
407.778	94.38
408.002	107.38
408.226	106.38
408.449	104.38
408.673	95.38
408.896	118.38
409.12	97.38
409.344	97.38
409.567	102.38
409.791	90.38
410.014	105.38
410.238	109.38
410.461	104.38
410.685	101.38
410.908	94.38
411.132	101.38
411.355	114.38
411.578	100.38
411.802	90.38
412.025	106.38
412.249	106.38
412.472	105.38
412.695	91.38
412.919	91.38
413.142	106.38
413.365	109.38
413.589	104.38
413.812	90.38
414.035	100.38
414.258	106.38
414.482	111.38
414.705	93.38
414.928	84.38
415.151	98.38
415.374	96.38
415.597	98.38
415.821	107.38
416.044	101.38
416.267	98.38
416.49	118.38
416.713	98.38
416.936	102.38
417.159	104.38
417.382	111.38
417.605	114.38
417.828	107.38
418.051	94.38
418.274	103.38
418.497	99.38
418.72	112.38
418.943	106.38
419.166	110.38
419.389	94.38
419.611	99.38
419.834	107.38
420.057	107.38
420.28	108.38
420.503	116.38
420.726	98.38
420.948	112.38
421.171	111.38
421.394	105.38
421.617	109.38
421.839	108.38
422.062	106.38
422.285	108.38
422.507	112.38
422.73	114.38
422.953	113.38
423.175	118.38
423.398	110.38
423.621	103.38
423.843	111.38
424.066	114.38
424.288	114.38
424.511	114.38
424.733	109.38
424.956	125.38
425.178	111.38
425.401	121.38
425.623	116.38
425.846	101.38
426.068	110.38
426.291	93.38
426.513	111.38
426.735	94.38
426.958	106.38
427.18	104.38
427.402	116.38
427.625	106.38
427.847	108.38
428.069	104.38
428.292	98.38
428.514	105.38
428.736	105.38
428.958	98.38
429.181	116.38
429.403	118.38
429.625	115.38
429.847	103.38
430.069	101.38
430.292	114.38
430.514	91.38
430.736	116.38
430.958	115.38
431.18	107.38
431.402	91.38
431.624	109.38
431.846	96.38
432.068	90.38
432.29	92.38
432.512	109.38
432.734	105.38
432.956	104.38
433.178	100.38
433.4	115.38
433.622	98.38
433.844	106.38
434.066	92.38
434.287	109.38
434.509	85.38
434.731	100.38
434.953	98.38
435.175	108.38
435.397	105.38
435.618	97.38
435.84	109.38
436.062	100.38
436.284	106.38
436.505	102.38
436.727	97.38
436.949	115.38
437.17	117.38
437.392	114.38
437.614	110.38
437.835	81.38
438.057	95.38
438.278	102.38
438.5	92.38
438.721	111.38
438.943	104.38
439.165	114.38
439.386	110.38
439.608	110.38
439.829	112.38
440.05	119.38
440.272	94.38
440.493	108.38
440.715	104.38
440.936	109.38
441.158	111.38
441.379	122.38
441.6	120.38
441.822	135.38
442.043	102.38
442.264	107.38
442.486	108.38
442.707	114.38
442.928	124.38
443.149	116.38
443.371	115.38
443.592	120.38
443.813	119.38
444.034	112.38
444.255	112.38
444.476	115.38
444.698	114.38
444.919	114.38
445.14	202.38
445.361	143.38
445.582	118.38
445.803	122.38
446.024	122.38
446.245	111.38
446.466	123.38
446.687	130.38
446.908	116.38
447.129	118.38
447.35	118.38
447.571	106.38
447.792	108.38
448.013	98.38
448.234	107.38
448.455	109.38
448.675	105.38
448.896	98.38
449.117	116.38
449.338	107.38
449.559	104.38
449.779	98.38
450	110.38
450.221	115.38
450.442	116.38
450.662	104.38
450.883	100.38
451.104	106.38
451.324	98.38
451.545	91.38
451.766	115.38
451.986	87.38
452.207	99.38
452.428	120.38
452.648	120.38
452.869	95.38
453.089	94.38
453.31	93.38
453.53	91.38
453.751	104.38
453.971	100.38
454.192	98.38
454.412	104.38
454.633	95.38
454.853	103.38
455.073	108.38
455.294	104.38
455.514	95.38
455.734	106.38
455.955	89.38
456.175	86.38
456.395	105.38
456.616	95.38
456.836	86.38
457.056	105.38
457.276	114.38
457.497	108.38
457.717	96.38
457.937	110.38
458.157	94.38
458.377	97.38
458.598	99.38
458.818	97.38
459.038	101.38
459.258	91.38
459.478	65.38
459.698	91.38
459.918	81.38
460.138	97.38
460.358	94.38
460.578	117.38
460.798	99.38
461.018	114.38
461.238	96.38
461.458	97.38
461.678	104.38
461.898	99.38
462.118	77.38
462.338	98.38
462.558	105.38
462.777	99.38
462.997	104.38
463.217	89.38
463.437	84.38
463.657	92.38
463.876	96.38
464.096	94.38
464.316	89.38
464.536	100.38
464.755	94.38
464.975	98.38
465.195	95.38
465.414	104.38
465.634	110.38
465.854	114.38
466.073	95.38
466.293	105.38
466.512	102.38
466.732	104.38
466.951	108.38
467.171	107.38
467.391	119.38
467.61	109.38
467.829	97.38
468.049	108.38
468.268	105.38
468.488	99.38
468.707	118.38
468.927	103.38
469.146	122.38
469.365	107.38
469.585	101.38
469.804	115.38
470.023	105.38
470.243	116.38
470.462	112.38
470.681	116.38
470.901	122.38
471.12	111.38
471.339	102.38
471.558	110.38
471.777	120.38
471.997	119.38
472.216	116.38
472.435	109.38
472.654	98.38
472.873	88.38
473.092	101.38
473.311	86.38
473.53	117.38
473.749	110.38
473.968	112.38
474.187	95.38
474.406	116.38
474.625	105.38
474.844	104.38
475.063	114.38
475.282	111.38
475.501	97.38
475.72	119.38
475.939	117.38
476.158	103.38
476.377	118.38
476.596	97.38
476.814	102.38
477.033	100.38
477.252	82.38
477.471	97.38
477.69	106.38
477.908	119.38
478.127	118.38
478.346	106.38
478.564	122.38
478.783	106.38
479.002	116.38
479.22	98.38
479.439	119.38
479.658	100.38
479.876	102.38
480.095	98.38
480.313	99.38
480.532	113.38
480.751	106.38
480.969	81.38
481.188	89.38
481.406	96.38
481.624	85.38
481.843	99.38
482.061	91.38
482.28	109.38
482.498	97.38
482.717	100.38
482.935	102.38
483.153	111.38
483.372	107.38
483.59	125.38
483.808	134.38
484.027	116.38
484.245	124.38
484.463	116.38
484.681	127.38
484.9	113.38
485.118	105.38
485.336	92.38
485.554	105.38
485.772	97.38
485.99	88.38
486.209	90.38
486.427	105.38
486.645	99.38
486.863	114.38
487.081	118.38
487.299	120.38
487.517	122.38
487.735	123.38
487.953	118.38
488.171	133.38
488.389	129.38
488.607	105.38
488.825	121.38
489.043	119.38
489.261	101.38
489.479	116.38
489.696	123.38
489.914	112.38
490.132	129.38
490.35	107.38
490.568	117.38
490.786	129.38
491.003	142.38
491.221	120.38
491.439	140.38
491.657	138.38
491.874	134.38
492.092	149.38
492.31	145.38
492.527	153.38
492.745	136.38
492.963	149.38
493.18	140.38
493.398	140.38
493.615	125.38
493.833	124.38
494.05	140.38
494.268	126.38
494.485	132.38
494.703	126.38
494.92	126.38
495.138	130.38
495.355	122.38
495.573	126.38
495.79	131.38
496.008	133.38
496.225	121.38
496.442	114.38
496.66	142.38
496.877	115.38
497.094	135.38
497.312	128.38
497.529	109.38
497.746	130.38
497.963	116.38
498.181	107.38
498.398	101.38
498.615	110.38
498.832	100.38
499.049	97.38
499.267	107.38
499.484	131.38
499.701	107.38
499.918	113.38
500.135	106.38
500.352	120.38
500.569	101.38
500.786	116.38
501.003	120.38
501.22	111.38
501.437	130.38
501.654	114.38
501.871	109.38
502.088	122.38
502.305	106.38
502.522	108.38
502.739	108.38
502.956	120.38
503.172	105.38
503.389	126.38
503.606	114.38
503.823	105.38
504.04	109.38
504.256	95.38
504.473	88.38
504.69	112.38
504.907	103.38
505.123	107.38
505.34	101.38
505.557	98.38
505.773	112.38
505.99	104.38
506.207	112.38
506.423	115.38
506.64	101.38
506.856	95.38
507.073	101.38
507.289	122.38
507.506	113.38
507.722	110.38
507.939	100.38
508.155	101.38
508.372	103.38
508.588	91.38
508.805	100.38
509.021	110.38
509.238	114.38
509.454	96.38
509.67	84.38
509.887	101.38
510.103	81.38
510.319	97.38
510.536	92.38
510.752	80.38
510.968	95.38
511.184	99.38
511.401	76.38
511.617	91.38
511.833	94.38
512.049	72.38
512.265	90.38
512.481	99.38
512.698	91.38
512.914	94.38
513.13	98.38
513.346	96.38
513.562	99.38
513.778	94.38
