Data from Zn(NO3)2Standard.Agarose3%.GreenCap.LampEnergy10E.O_HRD10591_15-06-12-942.txt Node
Date: Mon Jul 22 15:06:12 EDT 2019
User: cochatt
Spectrometer: HR+D1059
Trigger mode: 1
Integration Time (sec): 1.000000E-1
Scans to average: 1
Electric dark correction enabled: true
Nonlinearity correction enabled: false
Boxcar width: 0
XAxis mode: Wavelengths
Number of Pixels in Spectrum: 2048
>>>>>Begin Spectral Data<<<<<
223.165	-11.62
223.4	-11.62
223.635	-11.62
223.869	-24.62
224.104	-25.62
224.338	-7.62
224.573	-10.62
224.808	-20.62
225.042	0.38
225.277	2.38
225.511	0.38
225.746	4.38
225.98	5.38
226.215	9.38
226.449	21.38
226.683	13.38
226.918	26.38
227.152	17.38
227.387	29.38
227.621	28.38
227.856	33.38
228.09	40.38
228.324	33.38
228.559	42.38
228.793	50.38
229.027	54.38
229.262	68.38
229.496	66.38
229.73	69.38
229.964	73.38
230.199	58.38
230.433	68.38
230.667	72.38
230.901	77.38
231.136	74.38
231.37	63.38
231.604	72.38
231.838	72.38
232.072	71.38
232.306	74.38
232.541	81.38
232.775	88.38
233.009	58.38
233.243	74.38
233.477	86.38
233.711	83.38
233.945	75.38
234.179	77.38
234.413	67.38
234.647	67.38
234.881	78.38
235.115	71.38
235.349	68.38
235.583	85.38
235.817	80.38
236.051	78.38
236.285	69.38
236.519	67.38
236.753	62.38
236.987	67.38
237.221	60.38
237.455	73.38
237.689	72.38
237.922	82.38
238.156	63.38
238.39	59.38
238.624	75.38
238.858	85.38
239.091	75.38
239.325	94.38
239.559	77.38
239.793	95.38
240.027	73.38
240.26	72.38
240.494	71.38
240.728	77.38
240.961	70.38
241.195	72.38
241.429	80.38
241.662	73.38
241.896	55.38
242.13	73.38
242.363	82.38
242.597	73.38
242.83	65.38
243.064	88.38
243.298	73.38
243.531	70.38
243.765	78.38
243.998	61.38
244.232	75.38
244.465	70.38
244.699	71.38
244.932	80.38
245.166	70.38
245.399	74.38
245.633	82.38
245.866	63.38
246.099	54.38
246.333	57.38
246.566	79.38
246.8	75.38
247.033	73.38
247.266	63.38
247.5	65.38
247.733	93.38
247.966	76.38
248.2	71.38
248.433	74.38
248.666	81.38
248.899	71.38
249.133	77.38
249.366	78.38
249.599	77.38
249.832	86.38
250.066	74.38
250.299	59.38
250.532	75.38
250.765	86.38
250.998	75.38
251.231	73.38
251.465	75.38
251.698	79.38
251.931	88.38
252.164	78.38
252.397	77.38
252.63	84.38
252.863	73.38
253.096	82.38
253.329	84.38
253.562	74.38
253.795	75.38
254.028	85.38
254.261	66.38
254.494	77.38
254.727	65.38
254.96	81.38
255.193	89.38
255.426	77.38
255.659	81.38
255.892	74.38
256.124	85.38
256.357	77.38
256.59	94.38
256.823	73.38
257.056	81.38
257.289	70.38
257.521	67.38
257.754	80.38
257.987	73.38
258.22	81.38
258.452	70.38
258.685	68.38
258.918	70.38
259.151	78.38
259.383	76.38
259.616	80.38
259.849	81.38
260.081	76.38
260.314	76.38
260.547	69.38
260.779	83.38
261.012	81.38
261.244	68.38
261.477	79.38
261.71	90.38
261.942	86.38
262.175	81.38
262.407	70.38
262.64	81.38
262.872	72.38
263.105	88.38
263.337	89.38
263.57	83.38
263.802	81.38
264.035	69.38
264.267	70.38
264.499	73.38
264.732	80.38
264.964	74.38
265.197	91.38
265.429	86.38
265.661	74.38
265.894	72.38
266.126	85.38
266.358	78.38
266.591	73.38
266.823	83.38
267.055	68.38
267.287	77.38
267.52	72.38
267.752	77.38
267.984	68.38
268.216	85.38
268.448	81.38
268.681	68.38
268.913	75.38
269.145	87.38
269.377	78.38
269.609	79.38
269.841	79.38
270.073	82.38
270.306	85.38
270.538	68.38
270.77	84.38
271.002	74.38
271.234	84.38
271.466	71.38
271.698	77.38
271.93	87.38
272.162	77.38
272.394	74.38
272.626	85.38
272.858	78.38
273.09	86.38
273.322	84.38
273.553	87.38
273.785	80.38
274.017	69.38
274.249	80.38
274.481	69.38
274.713	73.38
274.945	92.38
275.176	83.38
275.408	73.38
275.64	89.38
275.872	70.38
276.104	88.38
276.335	86.38
276.567	85.38
276.799	81.38
277.031	71.38
277.262	81.38
277.494	75.38
277.726	73.38
277.957	77.38
278.189	82.38
278.421	83.38
278.652	75.38
278.884	81.38
279.115	73.38
279.347	82.38
279.579	63.38
279.81	74.38
280.042	75.38
280.273	77.38
280.505	85.38
280.736	80.38
280.968	78.38
281.199	78.38
281.431	75.38
281.662	102.38
281.894	74.38
282.125	78.38
282.356	68.38
282.588	78.38
282.819	77.38
283.051	72.38
283.282	81.38
283.513	103.38
283.745	65.38
283.976	73.38
284.207	83.38
284.439	94.38
284.67	78.38
284.901	75.38
285.132	76.38
285.364	80.38
285.595	92.38
285.826	75.38
286.057	78.38
286.288	75.38
286.52	79.38
286.751	76.38
286.982	81.38
287.213	75.38
287.444	81.38
287.675	81.38
287.906	89.38
288.138	74.38
288.369	89.38
288.6	80.38
288.831	82.38
289.062	86.38
289.293	77.38
289.524	75.38
289.755	79.38
289.986	84.38
290.217	79.38
290.448	75.38
290.679	85.38
290.91	71.38
291.141	86.38
291.371	80.38
291.602	71.38
291.833	82.38
292.064	85.38
292.295	82.38
292.526	73.38
292.757	81.38
292.987	92.38
293.218	71.38
293.449	68.38
293.68	90.38
293.91	88.38
294.141	83.38
294.372	88.38
294.603	69.38
294.833	78.38
295.064	81.38
295.295	92.38
295.525	73.38
295.756	76.38
295.987	80.38
296.217	72.38
296.448	59.38
296.679	72.38
296.909	87.38
297.14	85.38
297.37	78.38
297.601	82.38
297.831	75.38
298.062	84.38
298.292	66.38
298.523	87.38
298.753	75.38
298.984	62.38
299.214	83.38
299.445	74.38
299.675	99.38
299.905	87.38
300.136	69.38
300.366	65.38
300.597	78.38
300.827	67.38
301.057	76.38
301.288	78.38
301.518	71.38
301.748	85.38
301.979	68.38
302.209	75.38
302.439	60.38
302.669	85.38
302.9	81.38
303.13	89.38
303.36	77.38
303.59	83.38
303.82	81.38
304.051	85.38
304.281	79.38
304.511	84.38
304.741	82.38
304.971	79.38
305.201	94.38
305.431	88.38
305.661	81.38
305.891	88.38
306.121	81.38
306.352	74.38
306.582	83.38
306.812	64.38
307.042	75.38
307.272	71.38
307.502	85.38
307.731	81.38
307.961	73.38
308.191	91.38
308.421	83.38
308.651	89.38
308.881	81.38
309.111	81.38
309.341	70.38
309.571	85.38
309.8	74.38
310.03	85.38
310.26	79.38
310.49	85.38
310.72	88.38
310.949	89.38
311.179	93.38
311.409	95.38
311.639	78.38
311.868	59.38
312.098	76.38
312.328	74.38
312.557	73.38
312.787	63.38
313.017	77.38
313.246	84.38
313.476	93.38
313.706	82.38
313.935	75.38
314.165	73.38
314.394	89.38
314.624	75.38
314.853	86.38
315.083	71.38
315.312	82.38
315.542	85.38
315.771	78.38
316.001	90.38
316.23	80.38
316.46	73.38
316.689	83.38
316.919	76.38
317.148	90.38
317.377	85.38
317.607	88.38
317.836	78.38
318.065	67.38
318.295	84.38
318.524	93.38
318.753	66.38
318.983	78.38
319.212	82.38
319.441	92.38
319.67	86.38
319.9	75.38
320.129	80.38
320.358	77.38
320.587	72.38
320.816	77.38
321.046	84.38
321.275	73.38
321.504	68.38
321.733	87.38
321.962	88.38
322.191	94.38
322.42	74.38
322.649	90.38
322.878	72.38
323.108	72.38
323.337	81.38
323.566	79.38
323.795	83.38
324.024	87.38
324.253	78.38
324.482	72.38
324.71	102.38
324.939	71.38
325.168	72.38
325.397	91.38
325.626	91.38
325.855	91.38
326.084	86.38
326.313	83.38
326.542	83.38
326.77	74.38
326.999	67.38
327.228	71.38
327.457	77.38
327.686	70.38
327.914	73.38
328.143	79.38
328.372	79.38
328.6	62.38
328.829	81.38
329.058	74.38
329.287	90.38
329.515	81.38
329.744	93.38
329.972	82.38
330.201	83.38
330.43	75.38
330.658	75.38
330.887	82.38
331.115	74.38
331.344	88.38
331.572	90.38
331.801	84.38
332.03	79.38
332.258	84.38
332.486	83.38
332.715	70.38
332.943	68.38
333.172	73.38
333.4	89.38
333.629	94.38
333.857	73.38
334.085	66.38
334.314	83.38
334.542	80.38
334.771	78.38
334.999	68.38
335.227	82.38
335.455	82.38
335.684	89.38
335.912	79.38
336.14	65.38
336.369	62.38
336.597	73.38
336.825	82.38
337.053	83.38
337.281	69.38
337.51	96.38
337.738	81.38
337.966	76.38
338.194	83.38
338.422	81.38
338.65	76.38
338.878	80.38
339.106	81.38
339.334	82.38
339.562	67.38
339.79	71.38
340.018	72.38
340.246	83.38
340.474	79.38
340.702	81.38
340.93	75.38
341.158	85.38
341.386	82.38
341.614	94.38
341.842	78.38
342.07	65.38
342.298	71.38
342.526	90.38
342.754	76.38
342.981	89.38
343.209	82.38
343.437	70.38
343.665	68.38
343.893	85.38
344.12	80.38
344.348	69.38
344.576	79.38
344.804	75.38
345.031	79.38
345.259	68.38
345.487	75.38
345.714	80.38
345.942	84.38
346.17	68.38
346.397	74.38
346.625	84.38
346.853	80.38
347.08	78.38
347.308	80.38
347.535	89.38
347.763	89.38
347.99	78.38
348.218	67.38
348.445	86.38
348.673	76.38
348.9	73.38
349.128	78.38
349.355	69.38
349.583	73.38
349.81	73.38
350.037	92.38
350.265	78.38
350.492	59.38
350.72	76.38
350.947	89.38
351.174	85.38
351.402	93.38
351.629	90.38
351.856	93.38
352.083	54.38
352.311	82.38
352.538	84.38
352.765	91.38
352.992	70.38
353.22	71.38
353.447	85.38
353.674	78.38
353.901	79.38
354.128	82.38
354.355	90.38
354.583	66.38
354.81	84.38
355.037	77.38
355.264	75.38
355.491	79.38
355.718	73.38
355.945	71.38
356.172	81.38
356.399	69.38
356.626	80.38
356.853	79.38
357.08	86.38
357.307	84.38
357.534	77.38
357.761	83.38
357.988	85.38
358.215	97.38
358.441	66.38
358.668	87.38
358.895	69.38
359.122	68.38
359.349	83.38
359.576	83.38
359.802	85.38
360.029	88.38
360.256	85.38
360.483	71.38
360.709	91.38
360.936	94.38
361.163	88.38
361.39	69.38
361.616	79.38
361.843	78.38
362.07	82.38
362.296	88.38
362.523	83.38
362.749	78.38
362.976	78.38
363.203	94.38
363.429	81.38
363.656	82.38
363.882	87.38
364.109	89.38
364.335	73.38
364.562	77.38
364.788	72.38
365.015	81.38
365.241	68.38
365.468	57.38
365.694	78.38
365.92	65.38
366.147	75.38
366.373	86.38
366.599	79.38
366.826	84.38
367.052	81.38
367.278	96.38
367.505	86.38
367.731	90.38
367.957	72.38
368.184	97.38
368.41	84.38
368.636	74.38
368.862	77.38
369.089	67.38
369.315	76.38
369.541	75.38
369.767	90.38
369.993	84.38
370.219	79.38
370.445	85.38
370.672	77.38
370.898	81.38
371.124	70.38
371.35	80.38
371.576	79.38
371.802	87.38
372.028	73.38
372.254	95.38
372.48	75.38
372.706	93.38
372.932	79.38
373.158	79.38
373.384	90.38
373.61	83.38
373.835	94.38
374.061	79.38
374.287	72.38
374.513	73.38
374.739	77.38
374.965	72.38
375.191	77.38
375.416	86.38
375.642	83.38
375.868	86.38
376.094	90.38
376.319	79.38
376.545	75.38
376.771	81.38
376.997	80.38
377.222	81.38
377.448	75.38
377.674	77.38
377.899	74.38
378.125	82.38
378.35	76.38
378.576	71.38
378.802	87.38
379.027	83.38
379.253	79.38
379.478	87.38
379.704	84.38
379.929	94.38
380.155	97.38
380.38	91.38
380.606	83.38
380.831	83.38
381.057	83.38
381.282	86.38
381.507	90.38
381.733	73.38
381.958	71.38
382.184	79.38
382.409	78.38
382.634	81.38
382.86	98.38
383.085	85.38
383.31	82.38
383.535	88.38
383.761	91.38
383.986	85.38
384.211	85.38
384.436	87.38
384.662	83.38
384.887	72.38
385.112	76.38
385.337	99.38
385.562	93.38
385.787	86.38
386.013	81.38
386.238	83.38
386.463	81.38
386.688	88.38
386.913	101.38
387.138	80.38
387.363	71.38
387.588	87.38
387.813	80.38
388.038	83.38
388.263	85.38
388.488	72.38
388.713	84.38
388.938	89.38
389.163	81.38
389.387	84.38
389.612	81.38
389.837	82.38
390.062	85.38
390.287	85.38
390.512	86.38
390.736	90.38
390.961	90.38
391.186	98.38
391.411	88.38
391.636	79.38
391.86	82.38
392.085	81.38
392.31	87.38
392.534	74.38
392.759	82.38
392.984	82.38
393.208	84.38
393.433	85.38
393.658	95.38
393.882	79.38
394.107	87.38
394.331	104.38
394.556	88.38
394.78	90.38
395.005	96.38
395.229	99.38
395.454	74.38
395.678	87.38
395.903	82.38
396.127	104.38
396.352	92.38
396.576	95.38
396.801	94.38
397.025	87.38
397.249	84.38
397.474	75.38
397.698	101.38
397.922	99.38
398.147	98.38
398.371	84.38
398.595	90.38
398.82	75.38
399.044	91.38
399.268	91.38
399.492	81.38
399.717	86.38
399.941	98.38
400.165	92.38
400.389	97.38
400.613	89.38
400.837	81.38
401.062	95.38
401.286	85.38
401.51	90.38
401.734	91.38
401.958	83.38
402.182	91.38
402.406	80.38
402.63	90.38
402.854	101.38
403.078	86.38
403.302	80.38
403.526	83.38
403.75	102.38
403.974	86.38
404.198	96.38
404.422	95.38
404.645	110.38
404.869	88.38
405.093	94.38
405.317	87.38
405.541	89.38
405.765	86.38
405.988	76.38
406.212	104.38
406.436	97.38
406.66	109.38
406.883	106.38
407.107	101.38
407.331	99.38
407.555	86.38
407.778	94.38
408.002	87.38
408.226	103.38
408.449	101.38
408.673	86.38
408.896	81.38
409.12	84.38
409.344	81.38
409.567	89.38
409.791	93.38
410.014	94.38
410.238	76.38
410.461	80.38
410.685	101.38
410.908	102.38
411.132	107.38
411.355	99.38
411.578	96.38
411.802	98.38
412.025	90.38
412.249	90.38
412.472	92.38
412.695	104.38
412.919	87.38
413.142	101.38
413.365	103.38
413.589	91.38
413.812	82.38
414.035	99.38
414.258	85.38
414.482	82.38
414.705	100.38
414.928	101.38
415.151	97.38
415.374	88.38
415.597	96.38
415.821	102.38
416.044	102.38
416.267	90.38
416.49	109.38
416.713	93.38
416.936	89.38
417.159	86.38
417.382	99.38
417.605	87.38
417.828	103.38
418.051	90.38
418.274	106.38
418.497	98.38
418.72	100.38
418.943	109.38
419.166	106.38
419.389	103.38
419.611	97.38
419.834	94.38
420.057	103.38
420.28	100.38
420.503	100.38
420.726	109.38
420.948	95.38
421.171	93.38
421.394	86.38
421.617	103.38
421.839	107.38
422.062	101.38
422.285	99.38
422.507	112.38
422.73	81.38
422.953	106.38
423.175	100.38
423.398	94.38
423.621	109.38
423.843	102.38
424.066	114.38
424.288	111.38
424.511	121.38
424.733	117.38
424.956	100.38
425.178	96.38
425.401	96.38
425.623	98.38
425.846	105.38
426.068	123.38
426.291	97.38
426.513	99.38
426.735	95.38
426.958	104.38
427.18	81.38
427.402	113.38
427.625	95.38
427.847	98.38
428.069	92.38
428.292	106.38
428.514	117.38
428.736	101.38
428.958	94.38
429.181	98.38
429.403	109.38
429.625	98.38
429.847	122.38
430.069	95.38
430.292	95.38
430.514	97.38
430.736	83.38
430.958	87.38
431.18	95.38
431.402	95.38
431.624	90.38
431.846	97.38
432.068	89.38
432.29	90.38
432.512	98.38
432.734	89.38
432.956	109.38
433.178	111.38
433.4	107.38
433.622	100.38
433.844	115.38
434.066	97.38
434.287	92.38
434.509	75.38
434.731	78.38
434.953	95.38
435.175	105.38
435.397	96.38
435.618	105.38
435.84	105.38
436.062	102.38
436.284	95.38
436.505	105.38
436.727	114.38
436.949	89.38
437.17	79.38
437.392	98.38
437.614	89.38
437.835	99.38
438.057	98.38
438.278	91.38
438.5	84.38
438.721	82.38
438.943	90.38
439.165	99.38
439.386	105.38
439.608	106.38
439.829	93.38
440.05	105.38
440.272	106.38
440.493	103.38
440.715	106.38
440.936	115.38
441.158	114.38
441.379	98.38
441.6	99.38
441.822	98.38
442.043	116.38
442.264	99.38
442.486	80.38
442.707	107.38
442.928	102.38
443.149	106.38
443.371	113.38
443.592	107.38
443.813	102.38
444.034	101.38
444.255	106.38
444.476	109.38
444.698	103.38
444.919	122.38
445.14	225.38
445.361	149.38
445.582	105.38
445.803	97.38
446.024	119.38
446.245	113.38
446.466	109.38
446.687	127.38
446.908	110.38
447.129	124.38
447.35	108.38
447.571	103.38
447.792	110.38
448.013	112.38
448.234	113.38
448.455	121.38
448.675	107.38
448.896	104.38
449.117	102.38
449.338	96.38
449.559	119.38
449.779	122.38
450	106.38
450.221	98.38
450.442	101.38
450.662	107.38
450.883	98.38
451.104	100.38
451.324	95.38
451.545	109.38
451.766	90.38
451.986	85.38
452.207	97.38
452.428	106.38
452.648	96.38
452.869	105.38
453.089	96.38
453.31	83.38
453.53	90.38
453.751	86.38
453.971	94.38
454.192	91.38
454.412	83.38
454.633	91.38
454.853	105.38
455.073	105.38
455.294	88.38
455.514	106.38
455.734	111.38
455.955	95.38
456.175	102.38
456.395	92.38
456.616	95.38
456.836	79.38
457.056	96.38
457.276	81.38
457.497	86.38
457.717	100.38
457.937	103.38
458.157	111.38
458.377	76.38
458.598	91.38
458.818	79.38
459.038	68.38
459.258	86.38
459.478	83.38
459.698	81.38
459.918	70.38
460.138	98.38
460.358	92.38
460.578	99.38
460.798	84.38
461.018	91.38
461.238	92.38
461.458	93.38
461.678	97.38
461.898	101.38
462.118	102.38
462.338	101.38
462.558	70.38
462.777	95.38
462.997	102.38
463.217	92.38
463.437	92.38
463.657	94.38
463.876	92.38
464.096	100.38
464.316	83.38
464.536	92.38
464.755	94.38
464.975	89.38
465.195	94.38
465.414	89.38
465.634	98.38
465.854	91.38
466.073	99.38
466.293	107.38
466.512	95.38
466.732	101.38
466.951	97.38
467.171	101.38
467.391	116.38
467.61	102.38
467.829	106.38
468.049	103.38
468.268	103.38
468.488	90.38
468.707	91.38
468.927	110.38
469.146	107.38
469.365	117.38
469.585	119.38
469.804	115.38
470.023	105.38
470.243	117.38
470.462	100.38
470.681	127.38
470.901	111.38
471.12	90.38
471.339	118.38
471.558	113.38
471.777	110.38
471.997	89.38
472.216	101.38
472.435	88.38
472.654	74.38
472.873	93.38
473.092	91.38
473.311	109.38
473.53	111.38
473.749	87.38
473.968	90.38
474.187	87.38
474.406	82.38
474.625	91.38
474.844	96.38
475.063	104.38
475.282	101.38
475.501	97.38
475.72	89.38
475.939	104.38
476.158	107.38
476.377	96.38
476.596	82.38
476.814	92.38
477.033	86.38
477.252	96.38
477.471	103.38
477.69	102.38
477.908	106.38
478.127	105.38
478.346	95.38
478.564	106.38
478.783	103.38
479.002	106.38
479.22	116.38
479.439	121.38
479.658	103.38
479.876	89.38
480.095	99.38
480.313	93.38
480.532	107.38
480.751	97.38
480.969	89.38
481.188	71.38
481.406	91.38
481.624	91.38
481.843	90.38
482.061	83.38
482.28	98.38
482.498	93.38
482.717	88.38
482.935	94.38
483.153	106.38
483.372	117.38
483.59	105.38
483.808	123.38
484.027	103.38
484.245	109.38
484.463	109.38
484.681	124.38
484.9	114.38
485.118	109.38
485.336	97.38
485.554	81.38
485.772	96.38
485.99	94.38
486.209	92.38
486.427	95.38
486.645	101.38
486.863	100.38
487.081	107.38
487.299	106.38
487.517	104.38
487.735	118.38
487.953	156.38
488.171	140.38
488.389	118.38
488.607	105.38
488.825	104.38
489.043	93.38
489.261	106.38
489.479	102.38
489.696	104.38
489.914	112.38
490.132	96.38
490.35	125.38
490.568	96.38
490.786	129.38
491.003	120.38
491.221	128.38
491.439	127.38
491.657	122.38
491.874	127.38
492.092	151.38
492.31	168.38
492.527	150.38
492.745	138.38
492.963	145.38
493.18	126.38
493.398	133.38
493.615	120.38
493.833	119.38
494.05	125.38
494.268	143.38
494.485	130.38
494.703	117.38
494.92	123.38
495.138	129.38
495.355	138.38
495.573	113.38
495.79	127.38
496.008	114.38
496.225	121.38
496.442	119.38
496.66	134.38
496.877	119.38
497.094	135.38
497.312	123.38
497.529	125.38
497.746	101.38
497.963	107.38
498.181	110.38
498.398	102.38
498.615	97.38
498.832	105.38
499.049	96.38
499.267	116.38
499.484	95.38
499.701	100.38
499.918	99.38
500.135	111.38
500.352	109.38
500.569	107.38
500.786	117.38
501.003	109.38
501.22	112.38
501.437	117.38
501.654	94.38
501.871	115.38
502.088	97.38
502.305	123.38
502.522	121.38
502.739	97.38
502.956	100.38
503.172	97.38
503.389	93.38
503.606	94.38
503.823	93.38
504.04	84.38
504.256	109.38
504.473	90.38
504.69	99.38
504.907	99.38
505.123	96.38
505.34	98.38
505.557	94.38
505.773	96.38
505.99	103.38
506.207	116.38
506.423	96.38
506.64	99.38
506.856	94.38
507.073	97.38
507.289	76.38
507.506	102.38
507.722	90.38
507.939	98.38
508.155	113.38
508.372	83.38
508.588	105.38
508.805	98.38
509.021	91.38
509.238	93.38
509.454	91.38
509.67	82.38
509.887	116.38
510.103	87.38
510.319	78.38
510.536	90.38
510.752	90.38
510.968	81.38
511.184	64.38
511.401	82.38
511.617	82.38
511.833	83.38
512.049	74.38
512.265	93.38
512.481	93.38
512.698	79.38
512.914	103.38
513.13	92.38
513.346	103.38
513.562	81.38
513.778	77.38
513.994	82.38
514.21	90.38
514.426	89.38
514.642	72.38
514.858	85.38
515.074	86.38
515.29	83.38
515.506	81.38
515.721	78.38
515.937	79.38
