Data from Zn(NO3)2Standard.Agarose3%.GreenCap.LampEnergy10E.O_HRD10591_15-07-05-942.txt Node
Date: Mon Jul 22 15:07:05 EDT 2019
User: cochatt
Spectrometer: HR+D1059
Trigger mode: 1
Integration Time (sec): 1.000000E-1
Scans to average: 1
Electric dark correction enabled: true
Nonlinearity correction enabled: false
Boxcar width: 0
XAxis mode: Wavelengths
Number of Pixels in Spectrum: 2048
>>>>>Begin Spectral Data<<<<<
223.165	-22.38
223.4	-22.38
223.635	-22.38
223.869	-26.38
224.104	-12.38
224.338	-8.38
224.573	-29.38
224.808	-10.38
225.042	1.62
225.277	-9.38
225.511	6.62
225.746	10.62
225.98	10.62
226.215	-7.38
226.449	19.62
226.683	25.62
226.918	18.62
227.152	32.62
227.387	40.62
227.621	39.62
227.856	35.62
228.09	38.62
228.324	46.62
228.559	48.62
228.793	63.62
229.027	59.62
229.262	85.62
229.496	63.62
229.73	69.62
229.964	79.62
230.199	70.62
230.433	79.62
230.667	84.62
230.901	83.62
231.136	67.62
231.37	77.62
231.604	64.62
231.838	76.62
232.072	86.62
232.306	81.62
232.541	84.62
232.775	96.62
233.009	85.62
233.243	82.62
233.477	78.62
233.711	78.62
233.945	94.62
234.179	79.62
234.413	78.62
234.647	84.62
234.881	91.62
235.115	97.62
235.349	68.62
235.583	77.62
235.817	68.62
236.051	67.62
236.285	83.62
236.519	81.62
236.753	87.62
236.987	95.62
237.221	74.62
237.455	71.62
237.689	74.62
237.922	80.62
238.156	93.62
238.39	69.62
238.624	76.62
238.858	78.62
239.091	70.62
239.325	77.62
239.559	73.62
239.793	74.62
240.027	78.62
240.26	89.62
240.494	85.62
240.728	68.62
240.961	83.62
241.195	70.62
241.429	74.62
241.662	82.62
241.896	87.62
242.13	75.62
242.363	74.62
242.597	86.62
242.83	69.62
243.064	67.62
243.298	84.62
243.531	69.62
243.765	70.62
243.998	84.62
244.232	83.62
244.465	72.62
244.699	72.62
244.932	97.62
245.166	97.62
245.399	91.62
245.633	93.62
245.866	77.62
246.099	65.62
246.333	77.62
246.566	69.62
246.8	86.62
247.033	77.62
247.266	75.62
247.5	85.62
247.733	65.62
247.966	84.62
248.2	78.62
248.433	73.62
248.666	90.62
248.899	70.62
249.133	87.62
249.366	87.62
249.599	90.62
249.832	85.62
250.066	79.62
250.299	83.62
250.532	86.62
250.765	86.62
250.998	63.62
251.231	78.62
251.465	75.62
251.698	90.62
251.931	83.62
252.164	71.62
252.397	77.62
252.63	77.62
252.863	81.62
253.096	83.62
253.329	87.62
253.562	91.62
253.795	76.62
254.028	79.62
254.261	73.62
254.494	80.62
254.727	86.62
254.96	78.62
255.193	83.62
255.426	89.62
255.659	85.62
255.892	89.62
256.124	77.62
256.357	72.62
256.59	74.62
256.823	81.62
257.056	90.62
257.289	79.62
257.521	73.62
257.754	91.62
257.987	87.62
258.22	90.62
258.452	93.62
258.685	74.62
258.918	83.62
259.151	86.62
259.383	92.62
259.616	93.62
259.849	92.62
260.081	91.62
260.314	83.62
260.547	74.62
260.779	87.62
261.012	81.62
261.244	99.62
261.477	109.62
261.71	70.62
261.942	75.62
262.175	78.62
262.407	92.62
262.64	76.62
262.872	87.62
263.105	89.62
263.337	87.62
263.57	83.62
263.802	82.62
264.035	86.62
264.267	76.62
264.499	82.62
264.732	97.62
264.964	99.62
265.197	79.62
265.429	89.62
265.661	92.62
265.894	82.62
266.126	85.62
266.358	85.62
266.591	81.62
266.823	59.62
267.055	86.62
267.287	93.62
267.52	76.62
267.752	84.62
267.984	80.62
268.216	102.62
268.448	101.62
268.681	81.62
268.913	99.62
269.145	79.62
269.377	89.62
269.609	83.62
269.841	95.62
270.073	97.62
270.306	80.62
270.538	90.62
270.77	72.62
271.002	86.62
271.234	79.62
271.466	78.62
271.698	87.62
271.93	99.62
272.162	94.62
272.394	79.62
272.626	84.62
272.858	84.62
273.09	84.62
273.322	87.62
273.553	91.62
273.785	79.62
274.017	74.62
274.249	80.62
274.481	87.62
274.713	89.62
274.945	78.62
275.176	73.62
275.408	85.62
275.64	85.62
275.872	77.62
276.104	76.62
276.335	92.62
276.567	79.62
276.799	87.62
277.031	92.62
277.262	87.62
277.494	76.62
277.726	78.62
277.957	83.62
278.189	75.62
278.421	81.62
278.652	97.62
278.884	87.62
279.115	78.62
279.347	84.62
279.579	99.62
279.81	71.62
280.042	79.62
280.273	89.62
280.505	78.62
280.736	76.62
280.968	95.62
281.199	87.62
281.431	84.62
281.662	74.62
281.894	84.62
282.125	91.62
282.356	93.62
282.588	95.62
282.819	93.62
283.051	79.62
283.282	88.62
283.513	99.62
283.745	86.62
283.976	87.62
284.207	74.62
284.439	87.62
284.67	96.62
284.901	88.62
285.132	81.62
285.364	87.62
285.595	101.62
285.826	84.62
286.057	96.62
286.288	90.62
286.52	83.62
286.751	85.62
286.982	89.62
287.213	94.62
287.444	87.62
287.675	88.62
287.906	92.62
288.138	86.62
288.369	73.62
288.6	89.62
288.831	94.62
289.062	93.62
289.293	85.62
289.524	71.62
289.755	89.62
289.986	90.62
290.217	81.62
290.448	77.62
290.679	86.62
290.91	85.62
291.141	89.62
291.371	79.62
291.602	96.62
291.833	90.62
292.064	82.62
292.295	86.62
292.526	96.62
292.757	100.62
292.987	94.62
293.218	97.62
293.449	97.62
293.68	91.62
293.91	83.62
294.141	84.62
294.372	70.62
294.603	80.62
294.833	94.62
295.064	87.62
295.295	91.62
295.525	83.62
295.756	88.62
295.987	93.62
296.217	70.62
296.448	90.62
296.679	96.62
296.909	92.62
297.14	109.62
297.37	91.62
297.601	79.62
297.831	74.62
298.062	93.62
298.292	84.62
298.523	91.62
298.753	79.62
298.984	79.62
299.214	95.62
299.445	78.62
299.675	76.62
299.905	83.62
300.136	82.62
300.366	88.62
300.597	106.62
300.827	79.62
301.057	91.62
301.288	90.62
301.518	87.62
301.748	99.62
301.979	92.62
302.209	86.62
302.439	83.62
302.669	69.62
302.9	94.62
303.13	86.62
303.36	98.62
303.59	72.62
303.82	92.62
304.051	86.62
304.281	95.62
304.511	76.62
304.741	84.62
304.971	93.62
305.201	102.62
305.431	92.62
305.661	79.62
305.891	87.62
306.121	90.62
306.352	89.62
306.582	79.62
306.812	94.62
307.042	92.62
307.272	92.62
307.502	90.62
307.731	103.62
307.961	90.62
308.191	90.62
308.421	80.62
308.651	89.62
308.881	86.62
309.111	94.62
309.341	86.62
309.571	78.62
309.8	79.62
310.03	78.62
310.26	89.62
310.49	80.62
310.72	94.62
310.949	94.62
311.179	87.62
311.409	90.62
311.639	79.62
311.868	83.62
312.098	86.62
312.328	94.62
312.557	74.62
312.787	81.62
313.017	84.62
313.246	100.62
313.476	88.62
313.706	88.62
313.935	83.62
314.165	89.62
314.394	83.62
314.624	84.62
314.853	73.62
315.083	83.62
315.312	84.62
315.542	80.62
315.771	83.62
316.001	79.62
316.23	79.62
316.46	83.62
316.689	86.62
316.919	83.62
317.148	80.62
317.377	91.62
317.607	86.62
317.836	88.62
318.065	93.62
318.295	86.62
318.524	83.62
318.753	82.62
318.983	87.62
319.212	78.62
319.441	89.62
319.67	78.62
319.9	94.62
320.129	91.62
320.358	75.62
320.587	82.62
320.816	85.62
321.046	95.62
321.275	85.62
321.504	93.62
321.733	82.62
321.962	75.62
322.191	91.62
322.42	88.62
322.649	89.62
322.878	87.62
323.108	88.62
323.337	99.62
323.566	90.62
323.795	87.62
324.024	90.62
324.253	93.62
324.482	73.62
324.71	79.62
324.939	95.62
325.168	83.62
325.397	86.62
325.626	75.62
325.855	75.62
326.084	90.62
326.313	81.62
326.542	86.62
326.77	76.62
326.999	84.62
327.228	93.62
327.457	83.62
327.686	75.62
327.914	86.62
328.143	86.62
328.372	81.62
328.6	84.62
328.829	86.62
329.058	77.62
329.287	80.62
329.515	93.62
329.744	93.62
329.972	92.62
330.201	84.62
330.43	96.62
330.658	76.62
330.887	90.62
331.115	87.62
331.344	90.62
331.572	87.62
331.801	84.62
332.03	100.62
332.258	68.62
332.486	86.62
332.715	84.62
332.943	83.62
333.172	83.62
333.4	101.62
333.629	88.62
333.857	85.62
334.085	84.62
334.314	90.62
334.542	79.62
334.771	101.62
334.999	90.62
335.227	89.62
335.455	83.62
335.684	92.62
335.912	84.62
336.14	79.62
336.369	90.62
336.597	88.62
336.825	93.62
337.053	84.62
337.281	82.62
337.51	100.62
337.738	89.62
337.966	81.62
338.194	77.62
338.422	85.62
338.65	83.62
338.878	88.62
339.106	70.62
339.334	92.62
339.562	95.62
339.79	86.62
340.018	81.62
340.246	88.62
340.474	63.62
340.702	79.62
340.93	74.62
341.158	88.62
341.386	93.62
341.614	85.62
341.842	104.62
342.07	71.62
342.298	92.62
342.526	82.62
342.754	95.62
342.981	83.62
343.209	89.62
343.437	87.62
343.665	84.62
343.893	85.62
344.12	80.62
344.348	77.62
344.576	90.62
344.804	81.62
345.031	86.62
345.259	96.62
345.487	91.62
345.714	74.62
345.942	98.62
346.17	89.62
346.397	86.62
346.625	80.62
346.853	84.62
347.08	90.62
347.308	85.62
347.535	80.62
347.763	94.62
347.99	83.62
348.218	93.62
348.445	74.62
348.673	83.62
348.9	86.62
349.128	87.62
349.355	90.62
349.583	96.62
349.81	95.62
350.037	77.62
350.265	93.62
350.492	78.62
350.72	86.62
350.947	81.62
351.174	83.62
351.402	73.62
351.629	82.62
351.856	74.62
352.083	71.62
352.311	81.62
352.538	79.62
352.765	81.62
352.992	89.62
353.22	76.62
353.447	78.62
353.674	73.62
353.901	69.62
354.128	83.62
354.355	86.62
354.583	82.62
354.81	94.62
355.037	83.62
355.264	85.62
355.491	86.62
355.718	68.62
355.945	90.62
356.172	94.62
356.399	93.62
356.626	82.62
356.853	81.62
357.08	84.62
357.307	92.62
357.534	68.62
357.761	75.62
357.988	78.62
358.215	88.62
358.441	91.62
358.668	90.62
358.895	86.62
359.122	76.62
359.349	82.62
359.576	74.62
359.802	90.62
360.029	85.62
360.256	92.62
360.483	94.62
360.709	77.62
360.936	88.62
361.163	86.62
361.39	87.62
361.616	75.62
361.843	88.62
362.07	105.62
362.296	96.62
362.523	97.62
362.749	90.62
362.976	94.62
363.203	109.62
363.429	77.62
363.656	86.62
363.882	78.62
364.109	92.62
364.335	92.62
364.562	95.62
364.788	97.62
365.015	105.62
365.241	77.62
365.468	96.62
365.694	69.62
365.92	85.62
366.147	85.62
366.373	83.62
366.599	82.62
366.826	66.62
367.052	98.62
367.278	81.62
367.505	79.62
367.731	95.62
367.957	83.62
368.184	86.62
368.41	90.62
368.636	87.62
368.862	94.62
369.089	99.62
369.315	98.62
369.541	84.62
369.767	83.62
369.993	104.62
370.219	79.62
370.445	91.62
370.672	97.62
370.898	91.62
371.124	78.62
371.35	97.62
371.576	86.62
371.802	77.62
372.028	79.62
372.254	85.62
372.48	84.62
372.706	82.62
372.932	85.62
373.158	99.62
373.384	92.62
373.61	96.62
373.835	87.62
374.061	85.62
374.287	98.62
374.513	89.62
374.739	84.62
374.965	76.62
375.191	82.62
375.416	77.62
375.642	104.62
375.868	102.62
376.094	91.62
376.319	85.62
376.545	110.62
376.771	86.62
376.997	83.62
377.222	94.62
377.448	87.62
377.674	89.62
377.899	104.62
378.125	90.62
378.35	101.62
378.576	94.62
378.802	88.62
379.027	77.62
379.253	90.62
379.478	99.62
379.704	91.62
379.929	85.62
380.155	85.62
380.38	85.62
380.606	88.62
380.831	83.62
381.057	85.62
381.282	87.62
381.507	90.62
381.733	93.62
381.958	102.62
382.184	84.62
382.409	86.62
382.634	90.62
382.86	93.62
383.085	81.62
383.31	92.62
383.535	80.62
383.761	98.62
383.986	109.62
384.211	75.62
384.436	93.62
384.662	91.62
384.887	85.62
385.112	76.62
385.337	91.62
385.562	83.62
385.787	91.62
386.013	93.62
386.238	87.62
386.463	100.62
386.688	89.62
386.913	86.62
387.138	105.62
387.363	84.62
387.588	99.62
387.813	95.62
388.038	87.62
388.263	82.62
388.488	87.62
388.713	91.62
388.938	79.62
389.163	87.62
389.387	93.62
389.612	98.62
389.837	90.62
390.062	99.62
390.287	87.62
390.512	86.62
390.736	91.62
390.961	88.62
391.186	92.62
391.411	85.62
391.636	82.62
391.86	85.62
392.085	113.62
392.31	97.62
392.534	89.62
392.759	92.62
392.984	83.62
393.208	101.62
393.433	90.62
393.658	86.62
393.882	86.62
394.107	82.62
394.331	93.62
394.556	78.62
394.78	93.62
395.005	80.62
395.229	94.62
395.454	95.62
395.678	98.62
395.903	87.62
396.127	107.62
396.352	91.62
396.576	88.62
396.801	89.62
397.025	110.62
397.249	88.62
397.474	102.62
397.698	86.62
397.922	99.62
398.147	92.62
398.371	87.62
398.595	98.62
398.82	81.62
399.044	104.62
399.268	98.62
399.492	85.62
399.717	109.62
399.941	98.62
400.165	90.62
400.389	96.62
400.613	89.62
400.837	100.62
401.062	95.62
401.286	95.62
401.51	104.62
401.734	85.62
401.958	81.62
402.182	99.62
402.406	99.62
402.63	100.62
402.854	93.62
403.078	103.62
403.302	85.62
403.526	98.62
403.75	94.62
403.974	95.62
404.198	126.62
404.422	96.62
404.645	82.62
404.869	97.62
405.093	95.62
405.317	110.62
405.541	109.62
405.765	107.62
405.988	113.62
406.212	89.62
406.436	89.62
406.66	90.62
406.883	93.62
407.107	92.62
407.331	105.62
407.555	106.62
407.778	102.62
408.002	99.62
408.226	92.62
408.449	102.62
408.673	68.62
408.896	111.62
409.12	98.62
409.344	88.62
409.567	102.62
409.791	102.62
410.014	90.62
410.238	107.62
410.461	106.62
410.685	106.62
410.908	90.62
411.132	111.62
411.355	100.62
411.578	111.62
411.802	90.62
412.025	90.62
412.249	101.62
412.472	107.62
412.695	89.62
412.919	108.62
413.142	89.62
413.365	106.62
413.589	94.62
413.812	111.62
414.035	100.62
414.258	95.62
414.482	99.62
414.705	112.62
414.928	106.62
415.151	87.62
415.374	105.62
415.597	105.62
415.821	100.62
416.044	102.62
416.267	89.62
416.49	104.62
416.713	99.62
416.936	102.62
417.159	91.62
417.382	104.62
417.605	98.62
417.828	91.62
418.051	109.62
418.274	100.62
418.497	117.62
418.72	101.62
418.943	119.62
419.166	98.62
419.389	106.62
419.611	107.62
419.834	117.62
420.057	97.62
420.28	105.62
420.503	92.62
420.726	108.62
420.948	114.62
421.171	87.62
421.394	106.62
421.617	103.62
421.839	120.62
422.062	105.62
422.285	101.62
422.507	106.62
422.73	100.62
422.953	109.62
423.175	102.62
423.398	108.62
423.621	113.62
423.843	107.62
424.066	106.62
424.288	113.62
424.511	119.62
424.733	108.62
424.956	110.62
425.178	107.62
425.401	100.62
425.623	101.62
425.846	97.62
426.068	101.62
426.291	108.62
426.513	106.62
426.735	93.62
426.958	96.62
427.18	102.62
427.402	102.62
427.625	115.62
427.847	99.62
428.069	100.62
428.292	112.62
428.514	93.62
428.736	105.62
428.958	100.62
429.181	103.62
429.403	90.62
429.625	98.62
429.847	97.62
430.069	112.62
430.292	97.62
430.514	114.62
430.736	102.62
430.958	100.62
431.18	113.62
431.402	96.62
431.624	89.62
431.846	101.62
432.068	92.62
432.29	88.62
432.512	93.62
432.734	89.62
432.956	122.62
433.178	109.62
433.4	115.62
433.622	94.62
433.844	98.62
434.066	95.62
434.287	101.62
434.509	87.62
434.731	75.62
434.953	95.62
435.175	94.62
435.397	92.62
435.618	105.62
435.84	106.62
436.062	100.62
436.284	94.62
436.505	119.62
436.727	109.62
436.949	109.62
437.17	109.62
437.392	96.62
437.614	97.62
437.835	98.62
438.057	82.62
438.278	90.62
438.5	98.62
438.721	98.62
438.943	110.62
439.165	94.62
439.386	105.62
439.608	109.62
439.829	114.62
440.05	115.62
440.272	127.62
440.493	114.62
440.715	115.62
440.936	124.62
441.158	108.62
441.379	117.62
441.6	125.62
441.822	105.62
442.043	117.62
442.264	95.62
442.486	96.62
442.707	128.62
442.928	108.62
443.149	121.62
443.371	115.62
443.592	111.62
443.813	110.62
444.034	121.62
444.255	117.62
444.476	113.62
444.698	114.62
444.919	113.62
445.14	224.62
445.361	147.62
445.582	122.62
445.803	113.62
446.024	103.62
446.245	109.62
446.466	121.62
446.687	113.62
446.908	118.62
447.129	108.62
447.35	115.62
447.571	119.62
447.792	105.62
448.013	113.62
448.234	101.62
448.455	117.62
448.675	107.62
448.896	121.62
449.117	110.62
449.338	113.62
449.559	125.62
449.779	107.62
450	113.62
450.221	106.62
450.442	106.62
450.662	111.62
450.883	96.62
451.104	101.62
451.324	132.62
451.545	92.62
451.766	104.62
451.986	97.62
452.207	103.62
452.428	100.62
452.648	101.62
452.869	106.62
453.089	102.62
453.31	91.62
453.53	115.62
453.751	99.62
453.971	88.62
454.192	77.62
454.412	83.62
454.633	92.62
454.853	100.62
455.073	110.62
455.294	100.62
455.514	110.62
455.734	99.62
455.955	107.62
456.175	97.62
456.395	95.62
456.616	90.62
456.836	102.62
457.056	95.62
457.276	105.62
457.497	91.62
457.717	94.62
457.937	97.62
458.157	85.62
458.377	96.62
458.598	100.62
458.818	97.62
459.038	75.62
459.258	83.62
459.478	81.62
459.698	73.62
459.918	92.62
460.138	114.62
460.358	85.62
460.578	105.62
460.798	92.62
461.018	107.62
461.238	103.62
461.458	108.62
461.678	103.62
461.898	94.62
462.118	87.62
462.338	97.62
462.558	88.62
462.777	92.62
462.997	97.62
463.217	107.62
463.437	86.62
463.657	87.62
463.876	104.62
464.096	102.62
464.316	97.62
464.536	107.62
464.755	98.62
464.975	94.62
465.195	107.62
465.414	104.62
465.634	94.62
465.854	97.62
466.073	108.62
466.293	88.62
466.512	109.62
466.732	97.62
466.951	98.62
467.171	101.62
467.391	107.62
467.61	95.62
467.829	114.62
468.049	103.62
468.268	113.62
468.488	119.62
468.707	119.62
468.927	116.62
469.146	116.62
469.365	110.62
469.585	117.62
469.804	117.62
470.023	115.62
470.243	116.62
470.462	105.62
470.681	106.62
470.901	109.62
471.12	124.62
471.339	105.62
471.558	93.62
471.777	100.62
471.997	107.62
472.216	102.62
472.435	83.62
472.654	88.62
472.873	89.62
473.092	107.62
473.311	99.62
473.53	98.62
473.749	115.62
473.968	113.62
474.187	108.62
474.406	93.62
474.625	110.62
474.844	114.62
475.063	101.62
475.282	97.62
475.501	74.62
475.72	98.62
475.939	101.62
476.158	107.62
476.377	102.62
476.596	94.62
476.814	92.62
477.033	90.62
477.252	100.62
477.471	97.62
477.69	121.62
477.908	98.62
478.127	102.62
478.346	108.62
478.564	107.62
478.783	110.62
479.002	111.62
479.22	99.62
479.439	113.62
479.658	105.62
479.876	99.62
480.095	85.62
480.313	69.62
480.532	103.62
480.751	93.62
480.969	84.62
481.188	84.62
481.406	94.62
481.624	94.62
481.843	89.62
482.061	89.62
482.28	91.62
482.498	93.62
482.717	102.62
482.935	95.62
483.153	121.62
483.372	106.62
483.59	112.62
483.808	115.62
484.027	108.62
484.245	115.62
484.463	121.62
484.681	129.62
484.9	119.62
485.118	101.62
485.336	94.62
485.554	102.62
485.772	111.62
485.99	104.62
486.209	98.62
486.427	100.62
486.645	96.62
486.863	103.62
487.081	105.62
487.299	93.62
487.517	109.62
487.735	108.62
487.953	131.62
488.171	139.62
488.389	143.62
488.607	108.62
488.825	116.62
489.043	108.62
489.261	95.62
489.479	99.62
489.696	123.62
489.914	99.62
490.132	101.62
490.35	118.62
490.568	125.62
490.786	134.62
491.003	129.62
491.221	129.62
491.439	133.62
491.657	145.62
491.874	147.62
492.092	157.62
492.31	156.62
492.527	143.62
492.745	142.62
492.963	140.62
493.18	133.62
493.398	127.62
493.615	141.62
493.833	113.62
494.05	120.62
494.268	121.62
494.485	131.62
494.703	131.62
494.92	139.62
495.138	107.62
495.355	141.62
495.573	117.62
495.79	120.62
496.008	127.62
496.225	123.62
496.442	119.62
496.66	115.62
496.877	130.62
497.094	120.62
497.312	115.62
497.529	135.62
497.746	108.62
497.963	112.62
498.181	115.62
498.398	99.62
498.615	101.62
498.832	107.62
499.049	108.62
499.267	98.62
499.484	101.62
499.701	104.62
499.918	99.62
500.135	107.62
500.352	115.62
500.569	99.62
500.786	122.62
501.003	107.62
501.22	105.62
501.437	108.62
501.654	124.62
501.871	123.62
502.088	106.62
502.305	117.62
502.522	103.62
502.739	114.62
502.956	101.62
503.172	101.62
503.389	102.62
503.606	106.62
503.823	98.62
504.04	116.62
504.256	102.62
504.473	94.62
504.69	94.62
504.907	108.62
505.123	121.62
505.34	107.62
505.557	97.62
505.773	111.62
505.99	100.62
506.207	97.62
506.423	90.62
506.64	97.62
506.856	97.62
507.073	86.62
507.289	90.62
507.506	100.62
507.722	118.62
507.939	108.62
508.155	104.62
508.372	84.62
508.588	110.62
508.805	89.62
509.021	98.62
509.238	95.62
509.454	90.62
509.67	83.62
509.887	92.62
510.103	93.62
510.319	91.62
510.536	78.62
510.752	84.62
510.968	92.62
511.184	86.62
511.401	98.62
511.617	86.62
511.833	96.62
512.049	83.62
512.265	77.62
512.481	94.62
512.698	92.62
512.914	88.62
513.13	99.62
513.346	84.62
513.562	85.62
513.778	83.62
513.994	89.62
514.21	90.62
514.426	92.62
