Data from Zn(NO3)2Standard.Agarose3%.GreenCap.LampEnergy10E.O_HRD10591_15-07-42-946.txt Node
Date: Mon Jul 22 15:07:42 EDT 2019
User: cochatt
Spectrometer: HR+D1059
Trigger mode: 1
Integration Time (sec): 1.000000E-1
Scans to average: 1
Electric dark correction enabled: true
Nonlinearity correction enabled: false
Boxcar width: 0
XAxis mode: Wavelengths
Number of Pixels in Spectrum: 2048
>>>>>Begin Spectral Data<<<<<
223.165	-21.19
223.4	-21.19
223.635	-21.19
223.869	-20.19
224.104	-17.19
224.338	-20.19
224.573	-3.19
224.808	-12.19
225.042	-9.19
225.277	4.81
225.511	-10.19
225.746	-7.19
225.98	6.81
226.215	7.81
226.449	16.81
226.683	20.81
226.918	25.81
227.152	37.81
227.387	29.81
227.621	49.81
227.856	43.81
228.09	49.81
228.324	47.81
228.559	62.81
228.793	62.81
229.027	71.81
229.262	74.81
229.496	66.81
229.73	85.81
229.964	85.81
230.199	90.81
230.433	80.81
230.667	77.81
230.901	79.81
231.136	80.81
231.37	83.81
231.604	93.81
231.838	93.81
232.072	81.81
232.306	90.81
232.541	81.81
232.775	82.81
233.009	89.81
233.243	76.81
233.477	79.81
233.711	89.81
233.945	88.81
234.179	94.81
234.413	87.81
234.647	78.81
234.881	71.81
235.115	83.81
235.349	78.81
235.583	70.81
235.817	85.81
236.051	68.81
236.285	72.81
236.519	73.81
236.753	71.81
236.987	67.81
237.221	79.81
237.455	62.81
237.689	87.81
237.922	87.81
238.156	77.81
238.39	87.81
238.624	74.81
238.858	79.81
239.091	69.81
239.325	87.81
239.559	78.81
239.793	84.81
240.027	74.81
240.26	85.81
240.494	62.81
240.728	74.81
240.961	83.81
241.195	87.81
241.429	77.81
241.662	79.81
241.896	84.81
242.13	84.81
242.363	82.81
242.597	83.81
242.83	86.81
243.064	70.81
243.298	86.81
243.531	75.81
243.765	78.81
243.998	77.81
244.232	75.81
244.465	74.81
244.699	80.81
244.932	87.81
245.166	85.81
245.399	85.81
245.633	76.81
245.866	76.81
246.099	79.81
246.333	74.81
246.566	70.81
246.8	74.81
247.033	78.81
247.266	89.81
247.5	74.81
247.733	79.81
247.966	67.81
248.2	89.81
248.433	77.81
248.666	73.81
248.899	83.81
249.133	75.81
249.366	92.81
249.599	74.81
249.832	77.81
250.066	79.81
250.299	72.81
250.532	70.81
250.765	85.81
250.998	88.81
251.231	80.81
251.465	82.81
251.698	77.81
251.931	71.81
252.164	74.81
252.397	79.81
252.63	84.81
252.863	92.81
253.096	68.81
253.329	92.81
253.562	81.81
253.795	83.81
254.028	80.81
254.261	85.81
254.494	92.81
254.727	66.81
254.96	86.81
255.193	67.81
255.426	68.81
255.659	72.81
255.892	77.81
256.124	73.81
256.357	69.81
256.59	80.81
256.823	83.81
257.056	83.81
257.289	78.81
257.521	73.81
257.754	78.81
257.987	78.81
258.22	84.81
258.452	78.81
258.685	80.81
258.918	66.81
259.151	76.81
259.383	79.81
259.616	88.81
259.849	69.81
260.081	85.81
260.314	87.81
260.547	88.81
260.779	77.81
261.012	88.81
261.244	69.81
261.477	94.81
261.71	75.81
261.942	87.81
262.175	91.81
262.407	84.81
262.64	85.81
262.872	82.81
263.105	73.81
263.337	88.81
263.57	84.81
263.802	89.81
264.035	89.81
264.267	92.81
264.499	68.81
264.732	100.81
264.964	77.81
265.197	83.81
265.429	90.81
265.661	90.81
265.894	85.81
266.126	80.81
266.358	92.81
266.591	102.81
266.823	86.81
267.055	77.81
267.287	82.81
267.52	81.81
267.752	85.81
267.984	90.81
268.216	89.81
268.448	84.81
268.681	95.81
268.913	86.81
269.145	79.81
269.377	103.81
269.609	85.81
269.841	97.81
270.073	92.81
270.306	82.81
270.538	69.81
270.77	84.81
271.002	87.81
271.234	88.81
271.466	89.81
271.698	88.81
271.93	85.81
272.162	74.81
272.394	90.81
272.626	90.81
272.858	84.81
273.09	90.81
273.322	81.81
273.553	75.81
273.785	97.81
274.017	69.81
274.249	86.81
274.481	91.81
274.713	76.81
274.945	83.81
275.176	73.81
275.408	79.81
275.64	88.81
275.872	57.81
276.104	78.81
276.335	85.81
276.567	84.81
276.799	93.81
277.031	69.81
277.262	80.81
277.494	95.81
277.726	86.81
277.957	95.81
278.189	82.81
278.421	87.81
278.652	88.81
278.884	95.81
279.115	76.81
279.347	98.81
279.579	74.81
279.81	78.81
280.042	100.81
280.273	95.81
280.505	84.81
280.736	71.81
280.968	79.81
281.199	78.81
281.431	87.81
281.662	91.81
281.894	90.81
282.125	89.81
282.356	96.81
282.588	91.81
282.819	76.81
283.051	62.81
283.282	103.81
283.513	100.81
283.745	80.81
283.976	89.81
284.207	80.81
284.439	91.81
284.67	84.81
284.901	90.81
285.132	78.81
285.364	92.81
285.595	78.81
285.826	82.81
286.057	86.81
286.288	74.81
286.52	96.81
286.751	75.81
286.982	85.81
287.213	81.81
287.444	94.81
287.675	77.81
287.906	91.81
288.138	68.81
288.369	90.81
288.6	85.81
288.831	86.81
289.062	102.81
289.293	83.81
289.524	78.81
289.755	89.81
289.986	93.81
290.217	85.81
290.448	90.81
290.679	92.81
290.91	75.81
291.141	81.81
291.371	94.81
291.602	92.81
291.833	83.81
292.064	74.81
292.295	74.81
292.526	101.81
292.757	79.81
292.987	93.81
293.218	87.81
293.449	88.81
293.68	90.81
293.91	78.81
294.141	86.81
294.372	87.81
294.603	85.81
294.833	82.81
295.064	76.81
295.295	82.81
295.525	84.81
295.756	75.81
295.987	91.81
296.217	85.81
296.448	91.81
296.679	85.81
296.909	102.81
297.14	82.81
297.37	88.81
297.601	90.81
297.831	64.81
298.062	86.81
298.292	87.81
298.523	94.81
298.753	85.81
298.984	90.81
299.214	83.81
299.445	99.81
299.675	86.81
299.905	92.81
300.136	85.81
300.366	81.81
300.597	92.81
300.827	78.81
301.057	87.81
301.288	82.81
301.518	84.81
301.748	78.81
301.979	86.81
302.209	81.81
302.439	85.81
302.669	97.81
302.9	89.81
303.13	86.81
303.36	73.81
303.59	89.81
303.82	75.81
304.051	85.81
304.281	89.81
304.511	88.81
304.741	89.81
304.971	75.81
305.201	106.81
305.431	98.81
305.661	78.81
305.891	80.81
306.121	86.81
306.352	98.81
306.582	87.81
306.812	85.81
307.042	85.81
307.272	74.81
307.502	91.81
307.731	97.81
307.961	92.81
308.191	86.81
308.421	102.81
308.651	76.81
308.881	85.81
309.111	81.81
309.341	86.81
309.571	85.81
309.8	91.81
310.03	87.81
310.26	85.81
310.49	86.81
310.72	77.81
310.949	71.81
311.179	93.81
311.409	77.81
311.639	93.81
311.868	81.81
312.098	92.81
312.328	83.81
312.557	81.81
312.787	86.81
313.017	95.81
313.246	96.81
313.476	90.81
313.706	79.81
313.935	89.81
314.165	78.81
314.394	72.81
314.624	83.81
314.853	80.81
315.083	77.81
315.312	95.81
315.542	81.81
315.771	89.81
316.001	93.81
316.23	87.81
316.46	68.81
316.689	86.81
316.919	76.81
317.148	93.81
317.377	83.81
317.607	99.81
317.836	69.81
318.065	89.81
318.295	76.81
318.524	87.81
318.753	75.81
318.983	85.81
319.212	91.81
319.441	73.81
319.67	89.81
319.9	92.81
320.129	81.81
320.358	89.81
320.587	105.81
320.816	66.81
321.046	92.81
321.275	83.81
321.504	88.81
321.733	97.81
321.962	84.81
322.191	78.81
322.42	83.81
322.649	85.81
322.878	92.81
323.108	93.81
323.337	79.81
323.566	78.81
323.795	85.81
324.024	91.81
324.253	92.81
324.482	97.81
324.71	96.81
324.939	79.81
325.168	91.81
325.397	100.81
325.626	86.81
325.855	73.81
326.084	87.81
326.313	91.81
326.542	108.81
326.77	96.81
326.999	102.81
327.228	89.81
327.457	101.81
327.686	95.81
327.914	78.81
328.143	84.81
328.372	81.81
328.6	84.81
328.829	75.81
329.058	86.81
329.287	83.81
329.515	85.81
329.744	97.81
329.972	76.81
330.201	74.81
330.43	78.81
330.658	83.81
330.887	79.81
331.115	108.81
331.344	106.81
331.572	90.81
331.801	90.81
332.03	99.81
332.258	89.81
332.486	89.81
332.715	92.81
332.943	76.81
333.172	91.81
333.4	75.81
333.629	74.81
333.857	91.81
334.085	89.81
334.314	73.81
334.542	88.81
334.771	104.81
334.999	99.81
335.227	70.81
335.455	94.81
335.684	78.81
335.912	75.81
336.14	83.81
336.369	80.81
336.597	89.81
336.825	86.81
337.053	91.81
337.281	89.81
337.51	83.81
337.738	85.81
337.966	79.81
338.194	88.81
338.422	75.81
338.65	90.81
338.878	84.81
339.106	83.81
339.334	99.81
339.562	98.81
339.79	92.81
340.018	81.81
340.246	64.81
340.474	97.81
340.702	89.81
340.93	92.81
341.158	85.81
341.386	68.81
341.614	85.81
341.842	81.81
342.07	76.81
342.298	69.81
342.526	88.81
342.754	76.81
342.981	72.81
343.209	99.81
343.437	92.81
343.665	85.81
343.893	97.81
344.12	78.81
344.348	75.81
344.576	95.81
344.804	79.81
345.031	92.81
345.259	82.81
345.487	93.81
345.714	83.81
345.942	78.81
346.17	77.81
346.397	85.81
346.625	86.81
346.853	85.81
347.08	89.81
347.308	79.81
347.535	100.81
347.763	82.81
347.99	96.81
348.218	78.81
348.445	78.81
348.673	93.81
348.9	98.81
349.128	79.81
349.355	78.81
349.583	86.81
349.81	86.81
350.037	91.81
350.265	90.81
350.492	82.81
350.72	89.81
350.947	81.81
351.174	90.81
351.402	70.81
351.629	83.81
351.856	79.81
352.083	79.81
352.311	85.81
352.538	81.81
352.765	85.81
352.992	91.81
353.22	83.81
353.447	81.81
353.674	94.81
353.901	91.81
354.128	79.81
354.355	92.81
354.583	87.81
354.81	107.81
355.037	83.81
355.264	82.81
355.491	93.81
355.718	99.81
355.945	84.81
356.172	76.81
356.399	93.81
356.626	91.81
356.853	86.81
357.08	90.81
357.307	84.81
357.534	95.81
357.761	86.81
357.988	83.81
358.215	77.81
358.441	88.81
358.668	78.81
358.895	92.81
359.122	89.81
359.349	86.81
359.576	80.81
359.802	80.81
360.029	78.81
360.256	84.81
360.483	100.81
360.709	76.81
360.936	90.81
361.163	87.81
361.39	78.81
361.616	94.81
361.843	94.81
362.07	90.81
362.296	84.81
362.523	86.81
362.749	87.81
362.976	82.81
363.203	103.81
363.429	87.81
363.656	82.81
363.882	87.81
364.109	70.81
364.335	87.81
364.562	91.81
364.788	79.81
365.015	92.81
365.241	93.81
365.468	88.81
365.694	82.81
365.92	84.81
366.147	86.81
366.373	86.81
366.599	77.81
366.826	68.81
367.052	75.81
367.278	89.81
367.505	82.81
367.731	80.81
367.957	92.81
368.184	81.81
368.41	95.81
368.636	93.81
368.862	91.81
369.089	79.81
369.315	88.81
369.541	93.81
369.767	91.81
369.993	79.81
370.219	75.81
370.445	72.81
370.672	93.81
370.898	74.81
371.124	77.81
371.35	99.81
371.576	92.81
371.802	88.81
372.028	77.81
372.254	87.81
372.48	93.81
372.706	93.81
372.932	85.81
373.158	94.81
373.384	88.81
373.61	91.81
373.835	92.81
374.061	89.81
374.287	96.81
374.513	78.81
374.739	104.81
374.965	85.81
375.191	75.81
375.416	93.81
375.642	89.81
375.868	91.81
376.094	76.81
376.319	85.81
376.545	93.81
376.771	100.81
376.997	106.81
377.222	98.81
377.448	90.81
377.674	88.81
377.899	87.81
378.125	94.81
378.35	83.81
378.576	86.81
378.802	74.81
379.027	90.81
379.253	85.81
379.478	89.81
379.704	81.81
379.929	79.81
380.155	109.81
380.38	100.81
380.606	100.81
380.831	95.81
381.057	91.81
381.282	88.81
381.507	85.81
381.733	84.81
381.958	83.81
382.184	103.81
382.409	92.81
382.634	85.81
382.86	90.81
383.085	87.81
383.31	82.81
383.535	88.81
383.761	84.81
383.986	91.81
384.211	88.81
384.436	94.81
384.662	98.81
384.887	94.81
385.112	91.81
385.337	90.81
385.562	84.81
385.787	88.81
386.013	90.81
386.238	79.81
386.463	93.81
386.688	86.81
386.913	87.81
387.138	75.81
387.363	82.81
387.588	94.81
387.813	100.81
388.038	79.81
388.263	104.81
388.488	88.81
388.713	89.81
388.938	85.81
389.163	97.81
389.387	88.81
389.612	100.81
389.837	92.81
390.062	95.81
390.287	95.81
390.512	91.81
390.736	90.81
390.961	96.81
391.186	79.81
391.411	88.81
391.636	95.81
391.86	96.81
392.085	88.81
392.31	91.81
392.534	98.81
392.759	87.81
392.984	85.81
393.208	97.81
393.433	96.81
393.658	78.81
393.882	103.81
394.107	100.81
394.331	98.81
394.556	87.81
394.78	88.81
395.005	83.81
395.229	113.81
395.454	91.81
395.678	90.81
395.903	95.81
396.127	91.81
396.352	96.81
396.576	93.81
396.801	94.81
397.025	84.81
397.249	81.81
397.474	107.81
397.698	88.81
397.922	93.81
398.147	97.81
398.371	93.81
398.595	92.81
398.82	83.81
399.044	101.81
399.268	93.81
399.492	101.81
399.717	104.81
399.941	91.81
400.165	97.81
400.389	99.81
400.613	96.81
400.837	95.81
401.062	92.81
401.286	82.81
401.51	105.81
401.734	87.81
401.958	102.81
402.182	90.81
402.406	95.81
402.63	96.81
402.854	99.81
403.078	101.81
403.302	94.81
403.526	87.81
403.75	107.81
403.974	102.81
404.198	99.81
404.422	101.81
404.645	96.81
404.869	90.81
405.093	104.81
405.317	108.81
405.541	106.81
405.765	86.81
405.988	98.81
406.212	92.81
406.436	93.81
406.66	86.81
406.883	85.81
407.107	107.81
407.331	112.81
407.555	87.81
407.778	93.81
408.002	104.81
408.226	87.81
408.449	93.81
408.673	100.81
408.896	110.81
409.12	99.81
409.344	99.81
409.567	112.81
409.791	90.81
410.014	98.81
410.238	98.81
410.461	100.81
410.685	111.81
410.908	105.81
411.132	101.81
411.355	103.81
411.578	101.81
411.802	93.81
412.025	93.81
412.249	84.81
412.472	89.81
412.695	97.81
412.919	109.81
413.142	105.81
413.365	99.81
413.589	93.81
413.812	89.81
414.035	99.81
414.258	102.81
414.482	95.81
414.705	95.81
414.928	94.81
415.151	111.81
415.374	106.81
415.597	104.81
415.821	99.81
416.044	117.81
416.267	100.81
416.49	95.81
416.713	115.81
416.936	101.81
417.159	105.81
417.382	123.81
417.605	103.81
417.828	101.81
418.051	118.81
418.274	106.81
418.497	92.81
418.72	114.81
418.943	101.81
419.166	107.81
419.389	120.81
419.611	103.81
419.834	102.81
420.057	90.81
420.28	95.81
420.503	97.81
420.726	117.81
420.948	106.81
421.171	111.81
421.394	114.81
421.617	125.81
421.839	121.81
422.062	118.81
422.285	99.81
422.507	121.81
422.73	98.81
422.953	91.81
423.175	106.81
423.398	100.81
423.621	108.81
423.843	103.81
424.066	118.81
424.288	102.81
424.511	113.81
424.733	124.81
424.956	125.81
425.178	115.81
425.401	109.81
425.623	108.81
425.846	110.81
426.068	106.81
426.291	106.81
426.513	91.81
426.735	103.81
426.958	111.81
427.18	114.81
427.402	119.81
427.625	97.81
427.847	81.81
428.069	98.81
428.292	96.81
428.514	96.81
428.736	103.81
428.958	90.81
429.181	89.81
429.403	123.81
429.625	92.81
429.847	96.81
430.069	108.81
430.292	115.81
430.514	103.81
430.736	118.81
430.958	117.81
431.18	115.81
431.402	102.81
431.624	106.81
431.846	83.81
432.068	98.81
432.29	102.81
432.512	91.81
432.734	100.81
432.956	113.81
433.178	118.81
433.4	113.81
433.622	118.81
433.844	106.81
434.066	100.81
434.287	106.81
434.509	92.81
434.731	97.81
434.953	110.81
435.175	101.81
435.397	91.81
435.618	99.81
435.84	81.81
436.062	95.81
436.284	110.81
436.505	99.81
436.727	106.81
436.949	105.81
437.17	96.81
437.392	120.81
437.614	105.81
437.835	107.81
438.057	104.81
438.278	95.81
438.5	94.81
438.721	96.81
438.943	119.81
439.165	93.81
439.386	127.81
439.608	106.81
439.829	103.81
440.05	115.81
440.272	118.81
440.493	113.81
440.715	111.81
440.936	99.81
441.158	99.81
441.379	113.81
441.6	117.81
441.822	123.81
442.043	119.81
442.264	107.81
442.486	117.81
442.707	114.81
442.928	118.81
443.149	113.81
443.371	122.81
443.592	106.81
443.813	91.81
444.034	119.81
444.255	102.81
444.476	121.81
444.698	111.81
444.919	119.81
445.14	229.81
445.361	158.81
445.582	123.81
445.803	107.81
446.024	110.81
446.245	120.81
446.466	105.81
446.687	107.81
446.908	123.81
447.129	113.81
447.35	123.81
447.571	127.81
447.792	116.81
448.013	101.81
448.234	117.81
448.455	113.81
448.675	106.81
448.896	110.81
449.117	121.81
449.338	111.81
449.559	105.81
449.779	106.81
450	109.81
450.221	114.81
450.442	111.81
450.662	115.81
450.883	97.81
451.104	105.81
451.324	106.81
451.545	110.81
451.766	100.81
451.986	114.81
452.207	102.81
452.428	94.81
452.648	97.81
452.869	115.81
453.089	96.81
453.31	104.81
453.53	96.81
453.751	86.81
453.971	96.81
454.192	101.81
454.412	94.81
454.633	105.81
454.853	86.81
455.073	104.81
455.294	111.81
455.514	117.81
455.734	102.81
455.955	84.81
456.175	98.81
456.395	93.81
456.616	104.81
456.836	94.81
457.056	102.81
457.276	89.81
457.497	96.81
457.717	89.81
457.937	97.81
458.157	93.81
458.377	88.81
458.598	91.81
458.818	77.81
459.038	90.81
459.258	87.81
459.478	77.81
459.698	80.81
459.918	90.81
460.138	103.81
460.358	99.81
460.578	106.81
460.798	102.81
461.018	90.81
461.238	94.81
461.458	108.81
461.678	90.81
461.898	87.81
462.118	93.81
462.338	88.81
462.558	92.81
462.777	99.81
462.997	95.81
463.217	84.81
463.437	109.81
463.657	95.81
463.876	108.81
464.096	102.81
464.316	105.81
464.536	101.81
464.755	89.81
464.975	91.81
465.195	101.81
465.414	96.81
465.634	100.81
465.854	114.81
466.073	111.81
466.293	110.81
466.512	94.81
466.732	101.81
466.951	85.81
467.171	100.81
467.391	108.81
467.61	97.81
467.829	108.81
468.049	94.81
468.268	107.81
468.488	118.81
468.707	105.81
468.927	98.81
469.146	99.81
469.365	105.81
469.585	101.81
469.804	115.81
470.023	109.81
470.243	116.81
470.462	111.81
470.681	118.81
470.901	117.81
471.12	110.81
471.339	111.81
471.558	108.81
471.777	118.81
471.997	117.81
472.216	98.81
472.435	100.81
472.654	105.81
472.873	105.81
473.092	88.81
473.311	108.81
473.53	106.81
473.749	109.81
473.968	121.81
474.187	100.81
474.406	97.81
474.625	105.81
474.844	105.81
475.063	111.81
475.282	108.81
475.501	109.81
475.72	109.81
475.939	103.81
476.158	113.81
476.377	102.81
476.596	97.81
476.814	106.81
477.033	86.81
477.252	95.81
477.471	104.81
477.69	108.81
477.908	122.81
478.127	133.81
478.346	114.81
478.564	108.81
478.783	117.81
479.002	113.81
479.22	107.81
479.439	107.81
479.658	86.81
479.876	100.81
480.095	111.81
480.313	94.81
480.532	101.81
480.751	105.81
480.969	89.81
481.188	83.81
481.406	86.81
481.624	82.81
481.843	90.81
482.061	97.81
482.28	99.81
482.498	114.81
482.717	91.81
482.935	103.81
483.153	110.81
483.372	120.81
483.59	113.81
483.808	115.81
484.027	117.81
484.245	110.81
484.463	120.81
484.681	133.81
484.9	112.81
485.118	119.81
485.336	107.81
485.554	117.81
485.772	117.81
485.99	87.81
486.209	96.81
486.427	102.81
486.645	103.81
486.863	118.81
487.081	121.81
487.299	106.81
487.517	110.81
487.735	121.81
487.953	139.81
488.171	143.81
488.389	127.81
488.607	134.81
488.825	117.81
489.043	92.81
489.261	99.81
489.479	99.81
489.696	112.81
489.914	131.81
490.132	118.81
490.35	119.81
490.568	129.81
490.786	118.81
491.003	130.81
491.221	132.81
491.439	149.81
491.657	122.81
491.874	147.81
492.092	169.81
492.31	152.81
492.527	146.81
492.745	139.81
492.963	137.81
493.18	129.81
493.398	123.81
493.615	135.81
493.833	144.81
494.05	131.81
494.268	127.81
494.485	126.81
494.703	118.81
494.92	121.81
495.138	120.81
495.355	127.81
495.573	124.81
495.79	137.81
496.008	125.81
496.225	130.81
496.442	124.81
496.66	126.81
496.877	129.81
497.094	132.81
497.312	126.81
497.529	113.81
497.746	104.81
497.963	117.81
498.181	101.81
498.398	119.81
498.615	101.81
498.832	106.81
499.049	90.81
499.267	112.81
499.484	98.81
499.701	96.81
499.918	120.81
500.135	120.81
500.352	118.81
500.569	106.81
500.786	117.81
501.003	109.81
501.22	103.81
501.437	107.81
501.654	114.81
501.871	100.81
502.088	98.81
502.305	107.81
502.522	124.81
502.739	113.81
502.956	99.81
503.172	98.81
503.389	106.81
503.606	116.81
503.823	113.81
504.04	110.81
504.256	102.81
504.473	88.81
504.69	102.81
504.907	102.81
505.123	104.81
505.34	104.81
505.557	99.81
505.773	99.81
505.99	95.81
506.207	113.81
506.423	105.81
506.64	118.81
506.856	109.81
507.073	98.81
507.289	115.81
507.506	94.81
507.722	105.81
507.939	85.81
508.155	93.81
508.372	101.81
508.588	99.81
508.805	92.81
509.021	105.81
509.238	93.81
509.454	101.81
509.67	83.81
509.887	89.81
510.103	92.81
510.319	94.81
510.536	80.81
510.752	92.81
510.968	87.81
511.184	86.81
511.401	90.81
511.617	82.81
511.833	91.81
512.049	79.81
512.265	93.81
512.481	90.81
512.698	91.81
512.914	82.81
513.13	91.81
513.346	83.81
513.562	86.81
513.778	97.81
513.994	84.81
514.21	87.81
