Data from Zn(NO3)2Standard.Agarose3%.GreenCap.LampEnergy10E.O_HRD10591_15-07-47-945.txt Node
Date: Mon Jul 22 15:07:47 EDT 2019
User: cochatt
Spectrometer: HR+D1059
Trigger mode: 1
Integration Time (sec): 1.000000E-1
Scans to average: 1
Electric dark correction enabled: true
Nonlinearity correction enabled: false
Boxcar width: 0
XAxis mode: Wavelengths
Number of Pixels in Spectrum: 2048
>>>>>Begin Spectral Data<<<<<
223.165	-18.25
223.4	-18.25
223.635	-18.25
223.869	-4.25
224.104	-19.25
224.338	-13.25
224.573	-10.25
224.808	-12.25
225.042	-11.25
225.277	-11.25
225.511	5.75
225.746	7.75
225.98	-9.25
226.215	2.75
226.449	24.75
226.683	10.75
226.918	18.75
227.152	38.75
227.387	44.75
227.621	32.75
227.856	49.75
228.09	32.75
228.324	40.75
228.559	57.75
228.793	44.75
229.027	61.75
229.262	65.75
229.496	68.75
229.73	62.75
229.964	69.75
230.199	72.75
230.433	80.75
230.667	68.75
230.901	73.75
231.136	73.75
231.37	83.75
231.604	82.75
231.838	82.75
232.072	90.75
232.306	78.75
232.541	83.75
232.775	78.75
233.009	84.75
233.243	76.75
233.477	92.75
233.711	92.75
233.945	82.75
234.179	68.75
234.413	90.75
234.647	82.75
234.881	83.75
235.115	77.75
235.349	69.75
235.583	73.75
235.817	72.75
236.051	85.75
236.285	87.75
236.519	85.75
236.753	91.75
236.987	86.75
237.221	74.75
237.455	66.75
237.689	84.75
237.922	68.75
238.156	73.75
238.39	73.75
238.624	71.75
238.858	68.75
239.091	86.75
239.325	60.75
239.559	64.75
239.793	80.75
240.027	84.75
240.26	57.75
240.494	72.75
240.728	79.75
240.961	84.75
241.195	82.75
241.429	74.75
241.662	77.75
241.896	74.75
242.13	73.75
242.363	78.75
242.597	66.75
242.83	69.75
243.064	83.75
243.298	97.75
243.531	83.75
243.765	66.75
243.998	94.75
244.232	87.75
244.465	82.75
244.699	61.75
244.932	73.75
245.166	75.75
245.399	89.75
245.633	81.75
245.866	85.75
246.099	92.75
246.333	81.75
246.566	92.75
246.8	81.75
247.033	89.75
247.266	60.75
247.5	77.75
247.733	80.75
247.966	83.75
248.2	81.75
248.433	75.75
248.666	79.75
248.899	83.75
249.133	74.75
249.366	69.75
249.599	78.75
249.832	84.75
250.066	84.75
250.299	81.75
250.532	77.75
250.765	76.75
250.998	72.75
251.231	84.75
251.465	82.75
251.698	66.75
251.931	81.75
252.164	73.75
252.397	84.75
252.63	99.75
252.863	85.75
253.096	88.75
253.329	71.75
253.562	70.75
253.795	92.75
254.028	84.75
254.261	87.75
254.494	63.75
254.727	84.75
254.96	81.75
255.193	87.75
255.426	75.75
255.659	77.75
255.892	87.75
256.124	91.75
256.357	81.75
256.59	73.75
256.823	69.75
257.056	76.75
257.289	88.75
257.521	86.75
257.754	77.75
257.987	89.75
258.22	89.75
258.452	76.75
258.685	85.75
258.918	74.75
259.151	73.75
259.383	83.75
259.616	89.75
259.849	84.75
260.081	84.75
260.314	82.75
260.547	82.75
260.779	75.75
261.012	74.75
261.244	64.75
261.477	88.75
261.71	82.75
261.942	94.75
262.175	84.75
262.407	89.75
262.64	90.75
262.872	80.75
263.105	77.75
263.337	75.75
263.57	77.75
263.802	73.75
264.035	88.75
264.267	69.75
264.499	74.75
264.732	87.75
264.964	79.75
265.197	82.75
265.429	79.75
265.661	82.75
265.894	91.75
266.126	87.75
266.358	82.75
266.591	87.75
266.823	87.75
267.055	92.75
267.287	67.75
267.52	89.75
267.752	80.75
267.984	61.75
268.216	88.75
268.448	76.75
268.681	81.75
268.913	80.75
269.145	84.75
269.377	82.75
269.609	85.75
269.841	82.75
270.073	83.75
270.306	66.75
270.538	84.75
270.77	76.75
271.002	81.75
271.234	80.75
271.466	78.75
271.698	93.75
271.93	77.75
272.162	72.75
272.394	83.75
272.626	66.75
272.858	98.75
273.09	86.75
273.322	79.75
273.553	100.75
273.785	79.75
274.017	82.75
274.249	72.75
274.481	82.75
274.713	81.75
274.945	103.75
275.176	78.75
275.408	86.75
275.64	82.75
275.872	79.75
276.104	91.75
276.335	83.75
276.567	85.75
276.799	80.75
277.031	84.75
277.262	79.75
277.494	83.75
277.726	82.75
277.957	84.75
278.189	74.75
278.421	69.75
278.652	87.75
278.884	80.75
279.115	90.75
279.347	83.75
279.579	78.75
279.81	90.75
280.042	86.75
280.273	79.75
280.505	77.75
280.736	83.75
280.968	81.75
281.199	87.75
281.431	88.75
281.662	75.75
281.894	94.75
282.125	74.75
282.356	88.75
282.588	65.75
282.819	91.75
283.051	86.75
283.282	82.75
283.513	78.75
283.745	83.75
283.976	91.75
284.207	67.75
284.439	93.75
284.67	73.75
284.901	86.75
285.132	82.75
285.364	88.75
285.595	95.75
285.826	83.75
286.057	81.75
286.288	84.75
286.52	89.75
286.751	87.75
286.982	80.75
287.213	80.75
287.444	74.75
287.675	87.75
287.906	88.75
288.138	73.75
288.369	89.75
288.6	89.75
288.831	89.75
289.062	92.75
289.293	68.75
289.524	86.75
289.755	79.75
289.986	84.75
290.217	83.75
290.448	79.75
290.679	77.75
290.91	81.75
291.141	90.75
291.371	87.75
291.602	89.75
291.833	79.75
292.064	80.75
292.295	90.75
292.526	71.75
292.757	89.75
292.987	85.75
293.218	86.75
293.449	85.75
293.68	73.75
293.91	91.75
294.141	76.75
294.372	92.75
294.603	92.75
294.833	84.75
295.064	99.75
295.295	89.75
295.525	90.75
295.756	89.75
295.987	80.75
296.217	68.75
296.448	70.75
296.679	85.75
296.909	78.75
297.14	93.75
297.37	96.75
297.601	84.75
297.831	84.75
298.062	76.75
298.292	72.75
298.523	84.75
298.753	89.75
298.984	91.75
299.214	80.75
299.445	69.75
299.675	95.75
299.905	83.75
300.136	77.75
300.366	83.75
300.597	69.75
300.827	83.75
301.057	81.75
301.288	84.75
301.518	89.75
301.748	83.75
301.979	83.75
302.209	94.75
302.439	64.75
302.669	77.75
302.9	85.75
303.13	92.75
303.36	86.75
303.59	72.75
303.82	88.75
304.051	70.75
304.281	80.75
304.511	70.75
304.741	103.75
304.971	96.75
305.201	80.75
305.431	73.75
305.661	85.75
305.891	75.75
306.121	85.75
306.352	95.75
306.582	87.75
306.812	91.75
307.042	75.75
307.272	85.75
307.502	72.75
307.731	83.75
307.961	72.75
308.191	84.75
308.421	86.75
308.651	90.75
308.881	84.75
309.111	88.75
309.341	82.75
309.571	82.75
309.8	77.75
310.03	101.75
310.26	94.75
310.49	83.75
310.72	69.75
310.949	62.75
311.179	71.75
311.409	98.75
311.639	84.75
311.868	89.75
312.098	75.75
312.328	69.75
312.557	72.75
312.787	84.75
313.017	86.75
313.246	81.75
313.476	83.75
313.706	84.75
313.935	88.75
314.165	82.75
314.394	75.75
314.624	81.75
314.853	73.75
315.083	81.75
315.312	73.75
315.542	84.75
315.771	92.75
316.001	80.75
316.23	82.75
316.46	73.75
316.689	86.75
316.919	87.75
317.148	81.75
317.377	87.75
317.607	88.75
317.836	79.75
318.065	79.75
318.295	86.75
318.524	74.75
318.753	92.75
318.983	87.75
319.212	66.75
319.441	77.75
319.67	91.75
319.9	90.75
320.129	86.75
320.358	89.75
320.587	67.75
320.816	81.75
321.046	72.75
321.275	90.75
321.504	86.75
321.733	82.75
321.962	90.75
322.191	90.75
322.42	85.75
322.649	84.75
322.878	82.75
323.108	87.75
323.337	80.75
323.566	87.75
323.795	95.75
324.024	98.75
324.253	82.75
324.482	71.75
324.71	91.75
324.939	76.75
325.168	84.75
325.397	82.75
325.626	85.75
325.855	97.75
326.084	80.75
326.313	87.75
326.542	75.75
326.77	85.75
326.999	81.75
327.228	73.75
327.457	75.75
327.686	93.75
327.914	81.75
328.143	92.75
328.372	96.75
328.6	95.75
328.829	68.75
329.058	84.75
329.287	78.75
329.515	73.75
329.744	83.75
329.972	82.75
330.201	85.75
330.43	85.75
330.658	81.75
330.887	82.75
331.115	79.75
331.344	77.75
331.572	75.75
331.801	82.75
332.03	74.75
332.258	96.75
332.486	68.75
332.715	81.75
332.943	72.75
333.172	75.75
333.4	81.75
333.629	85.75
333.857	82.75
334.085	83.75
334.314	85.75
334.542	84.75
334.771	88.75
334.999	75.75
335.227	82.75
335.455	91.75
335.684	84.75
335.912	95.75
336.14	87.75
336.369	89.75
336.597	82.75
336.825	87.75
337.053	80.75
337.281	82.75
337.51	87.75
337.738	81.75
337.966	90.75
338.194	77.75
338.422	85.75
338.65	88.75
338.878	95.75
339.106	93.75
339.334	77.75
339.562	83.75
339.79	82.75
340.018	87.75
340.246	85.75
340.474	74.75
340.702	100.75
340.93	87.75
341.158	69.75
341.386	87.75
341.614	91.75
341.842	88.75
342.07	90.75
342.298	74.75
342.526	85.75
342.754	84.75
342.981	83.75
343.209	81.75
343.437	88.75
343.665	81.75
343.893	82.75
344.12	90.75
344.348	79.75
344.576	90.75
344.804	70.75
345.031	68.75
345.259	79.75
345.487	77.75
345.714	79.75
345.942	83.75
346.17	82.75
346.397	92.75
346.625	95.75
346.853	74.75
347.08	87.75
347.308	84.75
347.535	87.75
347.763	72.75
347.99	87.75
348.218	75.75
348.445	88.75
348.673	81.75
348.9	89.75
349.128	84.75
349.355	91.75
349.583	79.75
349.81	82.75
350.037	101.75
350.265	88.75
350.492	87.75
350.72	71.75
350.947	84.75
351.174	99.75
351.402	83.75
351.629	81.75
351.856	83.75
352.083	63.75
352.311	75.75
352.538	87.75
352.765	84.75
352.992	69.75
353.22	74.75
353.447	69.75
353.674	76.75
353.901	84.75
354.128	81.75
354.355	79.75
354.583	76.75
354.81	78.75
355.037	79.75
355.264	87.75
355.491	73.75
355.718	79.75
355.945	76.75
356.172	85.75
356.399	80.75
356.626	92.75
356.853	81.75
357.08	75.75
357.307	75.75
357.534	85.75
357.761	78.75
357.988	91.75
358.215	76.75
358.441	71.75
358.668	81.75
358.895	84.75
359.122	85.75
359.349	76.75
359.576	89.75
359.802	82.75
360.029	87.75
360.256	76.75
360.483	77.75
360.709	87.75
360.936	95.75
361.163	77.75
361.39	84.75
361.616	90.75
361.843	74.75
362.07	65.75
362.296	84.75
362.523	74.75
362.749	86.75
362.976	73.75
363.203	81.75
363.429	99.75
363.656	81.75
363.882	87.75
364.109	99.75
364.335	83.75
364.562	83.75
364.788	88.75
365.015	83.75
365.241	79.75
365.468	92.75
365.694	80.75
365.92	88.75
366.147	86.75
366.373	83.75
366.599	87.75
366.826	92.75
367.052	81.75
367.278	75.75
367.505	98.75
367.731	80.75
367.957	76.75
368.184	76.75
368.41	77.75
368.636	77.75
368.862	90.75
369.089	92.75
369.315	85.75
369.541	81.75
369.767	92.75
369.993	69.75
370.219	68.75
370.445	82.75
370.672	83.75
370.898	83.75
371.124	72.75
371.35	65.75
371.576	84.75
371.802	91.75
372.028	86.75
372.254	85.75
372.48	99.75
372.706	81.75
372.932	84.75
373.158	78.75
373.384	85.75
373.61	83.75
373.835	85.75
374.061	70.75
374.287	74.75
374.513	90.75
374.739	94.75
374.965	83.75
375.191	85.75
375.416	75.75
375.642	97.75
375.868	82.75
376.094	84.75
376.319	88.75
376.545	85.75
376.771	78.75
376.997	92.75
377.222	71.75
377.448	89.75
377.674	87.75
377.899	95.75
378.125	75.75
378.35	85.75
378.576	92.75
378.802	85.75
379.027	89.75
379.253	91.75
379.478	73.75
379.704	79.75
379.929	82.75
380.155	89.75
380.38	86.75
380.606	84.75
380.831	81.75
381.057	90.75
381.282	92.75
381.507	92.75
381.733	88.75
381.958	89.75
382.184	79.75
382.409	88.75
382.634	98.75
382.86	88.75
383.085	88.75
383.31	87.75
383.535	94.75
383.761	97.75
383.986	77.75
384.211	98.75
384.436	96.75
384.662	90.75
384.887	84.75
385.112	92.75
385.337	84.75
385.562	83.75
385.787	85.75
386.013	92.75
386.238	92.75
386.463	92.75
386.688	98.75
386.913	82.75
387.138	89.75
387.363	95.75
387.588	107.75
387.813	72.75
388.038	99.75
388.263	86.75
388.488	93.75
388.713	93.75
388.938	85.75
389.163	101.75
389.387	88.75
389.612	85.75
389.837	102.75
390.062	83.75
390.287	82.75
390.512	86.75
390.736	86.75
390.961	95.75
391.186	91.75
391.411	87.75
391.636	81.75
391.86	91.75
392.085	96.75
392.31	83.75
392.534	96.75
392.759	93.75
392.984	105.75
393.208	83.75
393.433	86.75
393.658	84.75
393.882	97.75
394.107	88.75
394.331	83.75
394.556	84.75
394.78	95.75
395.005	89.75
395.229	91.75
395.454	89.75
395.678	80.75
395.903	92.75
396.127	88.75
396.352	79.75
396.576	95.75
396.801	95.75
397.025	99.75
397.249	91.75
397.474	97.75
397.698	92.75
397.922	77.75
398.147	88.75
398.371	92.75
398.595	83.75
398.82	92.75
399.044	109.75
399.268	100.75
399.492	112.75
399.717	86.75
399.941	92.75
400.165	84.75
400.389	94.75
400.613	103.75
400.837	91.75
401.062	98.75
401.286	86.75
401.51	92.75
401.734	87.75
401.958	106.75
402.182	100.75
402.406	92.75
402.63	87.75
402.854	95.75
403.078	91.75
403.302	88.75
403.526	85.75
403.75	105.75
403.974	94.75
404.198	96.75
404.422	106.75
404.645	96.75
404.869	84.75
405.093	97.75
405.317	86.75
405.541	103.75
405.765	105.75
405.988	101.75
406.212	94.75
406.436	104.75
406.66	99.75
406.883	83.75
407.107	94.75
407.331	93.75
407.555	98.75
407.778	103.75
408.002	111.75
408.226	108.75
408.449	103.75
408.673	99.75
408.896	97.75
409.12	84.75
409.344	78.75
409.567	83.75
409.791	105.75
410.014	91.75
410.238	91.75
410.461	94.75
410.685	91.75
410.908	87.75
411.132	97.75
411.355	95.75
411.578	93.75
411.802	101.75
412.025	96.75
412.249	109.75
412.472	104.75
412.695	108.75
412.919	114.75
413.142	103.75
413.365	101.75
413.589	95.75
413.812	104.75
414.035	90.75
414.258	103.75
414.482	98.75
414.705	100.75
414.928	91.75
415.151	93.75
415.374	88.75
415.597	106.75
415.821	105.75
416.044	108.75
416.267	115.75
416.49	108.75
416.713	95.75
416.936	97.75
417.159	108.75
417.382	88.75
417.605	125.75
417.828	95.75
418.051	106.75
418.274	114.75
418.497	123.75
418.72	118.75
418.943	109.75
419.166	97.75
419.389	102.75
419.611	113.75
419.834	118.75
420.057	103.75
420.28	105.75
420.503	104.75
420.726	106.75
420.948	116.75
421.171	119.75
421.394	88.75
421.617	105.75
421.839	111.75
422.062	108.75
422.285	111.75
422.507	108.75
422.73	104.75
422.953	114.75
423.175	95.75
423.398	85.75
423.621	98.75
423.843	111.75
424.066	116.75
424.288	99.75
424.511	100.75
424.733	111.75
424.956	103.75
425.178	97.75
425.401	100.75
425.623	112.75
425.846	94.75
426.068	105.75
426.291	100.75
426.513	104.75
426.735	104.75
426.958	109.75
427.18	92.75
427.402	103.75
427.625	106.75
427.847	100.75
428.069	119.75
428.292	92.75
428.514	113.75
428.736	109.75
428.958	104.75
429.181	108.75
429.403	107.75
429.625	114.75
429.847	114.75
430.069	109.75
430.292	114.75
430.514	104.75
430.736	109.75
430.958	107.75
431.18	90.75
431.402	94.75
431.624	95.75
431.846	93.75
432.068	91.75
432.29	93.75
432.512	97.75
432.734	104.75
432.956	106.75
433.178	119.75
433.4	111.75
433.622	105.75
433.844	111.75
434.066	101.75
434.287	110.75
434.509	97.75
434.731	95.75
434.953	95.75
435.175	96.75
435.397	93.75
435.618	94.75
435.84	90.75
436.062	99.75
436.284	110.75
436.505	104.75
436.727	91.75
436.949	103.75
437.17	95.75
437.392	107.75
437.614	91.75
437.835	82.75
438.057	89.75
438.278	111.75
438.5	95.75
438.721	116.75
438.943	117.75
439.165	103.75
439.386	113.75
439.608	106.75
439.829	111.75
440.05	113.75
440.272	115.75
440.493	107.75
440.715	101.75
440.936	108.75
441.158	121.75
441.379	102.75
441.6	101.75
441.822	122.75
442.043	115.75
442.264	113.75
442.486	114.75
442.707	114.75
442.928	103.75
443.149	99.75
443.371	102.75
443.592	101.75
443.813	99.75
444.034	119.75
444.255	106.75
444.476	116.75
444.698	119.75
444.919	107.75
445.14	227.75
445.361	179.75
445.582	101.75
445.803	108.75
446.024	120.75
446.245	115.75
446.466	113.75
446.687	124.75
446.908	111.75
447.129	117.75
447.35	105.75
447.571	117.75
447.792	119.75
448.013	107.75
448.234	118.75
448.455	99.75
448.675	105.75
448.896	113.75
449.117	110.75
449.338	86.75
449.559	92.75
449.779	98.75
450	116.75
450.221	104.75
450.442	112.75
450.662	115.75
450.883	111.75
451.104	83.75
451.324	107.75
451.545	99.75
451.766	104.75
451.986	106.75
452.207	82.75
452.428	120.75
452.648	91.75
452.869	110.75
453.089	92.75
453.31	92.75
453.53	91.75
453.751	92.75
453.971	107.75
454.192	93.75
454.412	102.75
454.633	99.75
454.853	105.75
455.073	93.75
455.294	108.75
455.514	117.75
455.734	99.75
455.955	104.75
456.175	100.75
456.395	98.75
456.616	103.75
456.836	88.75
457.056	91.75
457.276	84.75
457.497	104.75
457.717	96.75
457.937	96.75
458.157	84.75
458.377	97.75
458.598	85.75
458.818	87.75
459.038	78.75
459.258	75.75
459.478	80.75
459.698	91.75
459.918	83.75
460.138	91.75
460.358	100.75
460.578	100.75
460.798	111.75
461.018	81.75
461.238	105.75
461.458	104.75
461.678	107.75
461.898	102.75
462.118	101.75
462.338	97.75
462.558	91.75
462.777	96.75
462.997	100.75
463.217	80.75
463.437	104.75
463.657	79.75
463.876	96.75
464.096	88.75
464.316	105.75
464.536	104.75
464.755	99.75
464.975	102.75
465.195	89.75
465.414	101.75
465.634	96.75
465.854	99.75
466.073	108.75
466.293	98.75
466.512	101.75
466.732	105.75
466.951	99.75
467.171	109.75
467.391	102.75
467.61	114.75
467.829	111.75
468.049	102.75
468.268	103.75
468.488	105.75
468.707	124.75
468.927	130.75
469.146	112.75
469.365	101.75
469.585	99.75
469.804	91.75
470.023	108.75
470.243	109.75
470.462	105.75
470.681	115.75
470.901	99.75
471.12	108.75
471.339	102.75
471.558	117.75
471.777	107.75
471.997	115.75
472.216	95.75
472.435	98.75
472.654	90.75
472.873	94.75
473.092	99.75
473.311	97.75
473.53	106.75
473.749	108.75
473.968	120.75
474.187	97.75
474.406	100.75
474.625	101.75
474.844	104.75
475.063	122.75
475.282	108.75
475.501	122.75
475.72	95.75
475.939	113.75
476.158	100.75
476.377	107.75
476.596	93.75
476.814	100.75
477.033	104.75
477.252	93.75
477.471	104.75
477.69	118.75
477.908	111.75
478.127	93.75
478.346	100.75
478.564	100.75
478.783	104.75
479.002	101.75
479.22	103.75
479.439	101.75
479.658	93.75
479.876	112.75
480.095	81.75
480.313	101.75
480.532	107.75
480.751	98.75
480.969	88.75
481.188	79.75
481.406	72.75
481.624	82.75
481.843	85.75
482.061	83.75
482.28	89.75
482.498	100.75
482.717	112.75
482.935	114.75
483.153	107.75
483.372	127.75
483.59	115.75
483.808	108.75
484.027	91.75
484.245	100.75
484.463	126.75
484.681	120.75
484.9	111.75
485.118	116.75
485.336	100.75
485.554	107.75
485.772	91.75
485.99	93.75
486.209	98.75
486.427	99.75
486.645	98.75
486.863	129.75
487.081	118.75
487.299	111.75
487.517	112.75
487.735	121.75
487.953	114.75
488.171	130.75
488.389	112.75
488.607	112.75
488.825	114.75
489.043	106.75
489.261	106.75
489.479	109.75
489.696	101.75
489.914	104.75
490.132	116.75
490.35	111.75
490.568	117.75
490.786	115.75
491.003	128.75
491.221	147.75
491.439	121.75
491.657	134.75
491.874	132.75
492.092	142.75
492.31	157.75
492.527	157.75
492.745	163.75
492.963	147.75
493.18	128.75
493.398	128.75
493.615	128.75
493.833	130.75
494.05	129.75
494.268	118.75
494.485	104.75
494.703	125.75
494.92	141.75
495.138	125.75
495.355	125.75
495.573	126.75
495.79	115.75
496.008	121.75
496.225	112.75
496.442	136.75
496.66	133.75
496.877	130.75
497.094	137.75
497.312	116.75
497.529	116.75
497.746	130.75
497.963	114.75
498.181	113.75
498.398	113.75
498.615	93.75
498.832	117.75
499.049	100.75
499.267	99.75
499.484	107.75
499.701	104.75
499.918	119.75
500.135	108.75
500.352	100.75
500.569	130.75
500.786	117.75
501.003	104.75
501.22	112.75
501.437	124.75
501.654	112.75
501.871	116.75
502.088	120.75
502.305	124.75
502.522	116.75
502.739	102.75
502.956	122.75
503.172	98.75
503.389	103.75
503.606	91.75
503.823	99.75
504.04	104.75
504.256	111.75
504.473	120.75
504.69	105.75
504.907	92.75
505.123	100.75
505.34	89.75
505.557	109.75
505.773	102.75
505.99	95.75
506.207	98.75
506.423	95.75
506.64	93.75
506.856	106.75
507.073	106.75
507.289	99.75
507.506	96.75
507.722	103.75
507.939	99.75
508.155	94.75
508.372	103.75
508.588	98.75
508.805	98.75
509.021	91.75
509.238	81.75
509.454	72.75
509.67	94.75
509.887	97.75
510.103	90.75
510.319	86.75
510.536	85.75
510.752	76.75
510.968	87.75
511.184	94.75
511.401	100.75
511.617	80.75
511.833	97.75
512.049	97.75
512.265	84.75
512.481	101.75
512.698	99.75
512.914	97.75
513.13	88.75
513.346	76.75
513.562	81.75
513.778	87.75
513.994	82.75
514.21	75.75
514.426	81.75
514.642	97.75
