Data from Zn(NO3)2Standard.Agarose3%.GreenCap.LampEnergy10E.O_HRD10591_15-05-57-942.txt Node
Date: Mon Jul 22 15:05:57 EDT 2019
User: cochatt
Spectrometer: HR+D1059
Trigger mode: 1
Integration Time (sec): 1.000000E-1
Scans to average: 1
Electric dark correction enabled: true
Nonlinearity correction enabled: false
Boxcar width: 0
XAxis mode: Wavelengths
Number of Pixels in Spectrum: 2048
>>>>>Begin Spectral Data<<<<<
223.165	-13.69
223.4	-13.69
223.635	-13.69
223.869	-15.69
224.104	-14.69
224.338	-8.69
224.573	-5.69
224.808	-7.69
225.042	-14.69
225.277	-12.69
225.511	-0.69
225.746	7.31
225.98	8.31
226.215	13.31
226.449	-0.69
226.683	14.31
226.918	28.31
227.152	23.31
227.387	36.31
227.621	34.31
227.856	52.31
228.09	57.31
228.324	63.31
228.559	70.31
228.793	62.31
229.027	62.31
229.262	53.31
229.496	70.31
229.73	69.31
229.964	60.31
230.199	64.31
230.433	76.31
230.667	78.31
230.901	82.31
231.136	88.31
231.37	70.31
231.604	84.31
231.838	80.31
232.072	85.31
232.306	64.31
232.541	81.31
232.775	73.31
233.009	74.31
233.243	89.31
233.477	89.31
233.711	83.31
233.945	69.31
234.179	73.31
234.413	73.31
234.647	66.31
234.881	77.31
235.115	58.31
235.349	74.31
235.583	73.31
235.817	70.31
236.051	66.31
236.285	65.31
236.519	85.31
236.753	71.31
236.987	75.31
237.221	69.31
237.455	69.31
237.689	61.31
237.922	73.31
238.156	85.31
238.39	67.31
238.624	69.31
238.858	51.31
239.091	65.31
239.325	63.31
239.559	71.31
239.793	72.31
240.027	68.31
240.26	73.31
240.494	70.31
240.728	79.31
240.961	69.31
241.195	70.31
241.429	79.31
241.662	76.31
241.896	81.31
242.13	73.31
242.363	68.31
242.597	64.31
242.83	68.31
243.064	76.31
243.298	70.31
243.531	72.31
243.765	66.31
243.998	74.31
244.232	70.31
244.465	79.31
244.699	67.31
244.932	85.31
245.166	73.31
245.399	86.31
245.633	65.31
245.866	74.31
246.099	73.31
246.333	89.31
246.566	75.31
246.8	72.31
247.033	72.31
247.266	96.31
247.5	73.31
247.733	80.31
247.966	93.31
248.2	71.31
248.433	86.31
248.666	71.31
248.899	79.31
249.133	65.31
249.366	79.31
249.599	90.31
249.832	74.31
250.066	81.31
250.299	72.31
250.532	85.31
250.765	69.31
250.998	81.31
251.231	69.31
251.465	69.31
251.698	67.31
251.931	79.31
252.164	80.31
252.397	74.31
252.63	74.31
252.863	72.31
253.096	75.31
253.329	69.31
253.562	80.31
253.795	86.31
254.028	67.31
254.261	79.31
254.494	73.31
254.727	76.31
254.96	74.31
255.193	79.31
255.426	76.31
255.659	76.31
255.892	68.31
256.124	68.31
256.357	80.31
256.59	79.31
256.823	73.31
257.056	81.31
257.289	67.31
257.521	68.31
257.754	55.31
257.987	83.31
258.22	64.31
258.452	70.31
258.685	80.31
258.918	83.31
259.151	86.31
259.383	89.31
259.616	64.31
259.849	81.31
260.081	85.31
260.314	82.31
260.547	76.31
260.779	57.31
261.012	73.31
261.244	89.31
261.477	78.31
261.71	76.31
261.942	75.31
262.175	73.31
262.407	69.31
262.64	63.31
262.872	70.31
263.105	77.31
263.337	88.31
263.57	87.31
263.802	72.31
264.035	80.31
264.267	89.31
264.499	76.31
264.732	72.31
264.964	74.31
265.197	73.31
265.429	71.31
265.661	81.31
265.894	65.31
266.126	84.31
266.358	65.31
266.591	66.31
266.823	77.31
267.055	70.31
267.287	96.31
267.52	73.31
267.752	81.31
267.984	76.31
268.216	70.31
268.448	96.31
268.681	83.31
268.913	91.31
269.145	77.31
269.377	86.31
269.609	74.31
269.841	72.31
270.073	75.31
270.306	76.31
270.538	85.31
270.77	67.31
271.002	72.31
271.234	88.31
271.466	72.31
271.698	91.31
271.93	90.31
272.162	66.31
272.394	72.31
272.626	75.31
272.858	82.31
273.09	77.31
273.322	86.31
273.553	78.31
273.785	82.31
274.017	73.31
274.249	79.31
274.481	68.31
274.713	81.31
274.945	84.31
275.176	77.31
275.408	69.31
275.64	79.31
275.872	88.31
276.104	79.31
276.335	65.31
276.567	85.31
276.799	79.31
277.031	78.31
277.262	69.31
277.494	78.31
277.726	92.31
277.957	95.31
278.189	73.31
278.421	96.31
278.652	80.31
278.884	74.31
279.115	87.31
279.347	82.31
279.579	99.31
279.81	95.31
280.042	87.31
280.273	82.31
280.505	65.31
280.736	74.31
280.968	89.31
281.199	83.31
281.431	81.31
281.662	79.31
281.894	89.31
282.125	93.31
282.356	79.31
282.588	82.31
282.819	82.31
283.051	85.31
283.282	94.31
283.513	95.31
283.745	80.31
283.976	67.31
284.207	87.31
284.439	78.31
284.67	68.31
284.901	81.31
285.132	77.31
285.364	73.31
285.595	81.31
285.826	84.31
286.057	86.31
286.288	67.31
286.52	80.31
286.751	73.31
286.982	73.31
287.213	89.31
287.444	75.31
287.675	86.31
287.906	83.31
288.138	94.31
288.369	78.31
288.6	83.31
288.831	80.31
289.062	78.31
289.293	79.31
289.524	74.31
289.755	86.31
289.986	81.31
290.217	83.31
290.448	85.31
290.679	91.31
290.91	71.31
291.141	78.31
291.371	84.31
291.602	83.31
291.833	77.31
292.064	93.31
292.295	86.31
292.526	88.31
292.757	89.31
292.987	90.31
293.218	81.31
293.449	73.31
293.68	95.31
293.91	86.31
294.141	74.31
294.372	70.31
294.603	90.31
294.833	80.31
295.064	81.31
295.295	82.31
295.525	89.31
295.756	91.31
295.987	80.31
296.217	77.31
296.448	81.31
296.679	76.31
296.909	81.31
297.14	97.31
297.37	59.31
297.601	73.31
297.831	79.31
298.062	80.31
298.292	87.31
298.523	86.31
298.753	75.31
298.984	81.31
299.214	77.31
299.445	82.31
299.675	80.31
299.905	82.31
300.136	75.31
300.366	64.31
300.597	90.31
300.827	91.31
301.057	80.31
301.288	75.31
301.518	79.31
301.748	80.31
301.979	87.31
302.209	86.31
302.439	83.31
302.669	78.31
302.9	84.31
303.13	82.31
303.36	87.31
303.59	66.31
303.82	77.31
304.051	84.31
304.281	75.31
304.511	95.31
304.741	74.31
304.971	85.31
305.201	82.31
305.431	75.31
305.661	71.31
305.891	75.31
306.121	90.31
306.352	73.31
306.582	85.31
306.812	78.31
307.042	75.31
307.272	78.31
307.502	76.31
307.731	88.31
307.961	73.31
308.191	86.31
308.421	77.31
308.651	70.31
308.881	88.31
309.111	88.31
309.341	80.31
309.571	85.31
309.8	76.31
310.03	80.31
310.26	79.31
310.49	82.31
310.72	72.31
310.949	74.31
311.179	66.31
311.409	96.31
311.639	91.31
311.868	98.31
312.098	91.31
312.328	94.31
312.557	76.31
312.787	78.31
313.017	81.31
313.246	89.31
313.476	78.31
313.706	64.31
313.935	86.31
314.165	73.31
314.394	76.31
314.624	99.31
314.853	78.31
315.083	96.31
315.312	81.31
315.542	66.31
315.771	78.31
316.001	79.31
316.23	84.31
316.46	87.31
316.689	73.31
316.919	86.31
317.148	91.31
317.377	78.31
317.607	74.31
317.836	81.31
318.065	66.31
318.295	90.31
318.524	82.31
318.753	82.31
318.983	74.31
319.212	92.31
319.441	76.31
319.67	79.31
319.9	76.31
320.129	73.31
320.358	75.31
320.587	68.31
320.816	82.31
321.046	80.31
321.275	91.31
321.504	78.31
321.733	82.31
321.962	92.31
322.191	87.31
322.42	70.31
322.649	84.31
322.878	79.31
323.108	75.31
323.337	84.31
323.566	87.31
323.795	80.31
324.024	77.31
324.253	65.31
324.482	78.31
324.71	76.31
324.939	82.31
325.168	73.31
325.397	81.31
325.626	68.31
325.855	77.31
326.084	81.31
326.313	67.31
326.542	73.31
326.77	70.31
326.999	75.31
327.228	84.31
327.457	79.31
327.686	82.31
327.914	80.31
328.143	79.31
328.372	71.31
328.6	70.31
328.829	79.31
329.058	83.31
329.287	83.31
329.515	81.31
329.744	79.31
329.972	84.31
330.201	72.31
330.43	89.31
330.658	85.31
330.887	92.31
331.115	87.31
331.344	76.31
331.572	81.31
331.801	80.31
332.03	66.31
332.258	76.31
332.486	74.31
332.715	91.31
332.943	71.31
333.172	70.31
333.4	78.31
333.629	72.31
333.857	80.31
334.085	79.31
334.314	83.31
334.542	77.31
334.771	60.31
334.999	88.31
335.227	87.31
335.455	81.31
335.684	81.31
335.912	68.31
336.14	55.31
336.369	72.31
336.597	79.31
336.825	96.31
337.053	81.31
337.281	91.31
337.51	75.31
337.738	92.31
337.966	83.31
338.194	85.31
338.422	88.31
338.65	80.31
338.878	85.31
339.106	88.31
339.334	82.31
339.562	90.31
339.79	80.31
340.018	72.31
340.246	78.31
340.474	75.31
340.702	68.31
340.93	96.31
341.158	90.31
341.386	88.31
341.614	91.31
341.842	74.31
342.07	91.31
342.298	80.31
342.526	78.31
342.754	80.31
342.981	66.31
343.209	66.31
343.437	80.31
343.665	83.31
343.893	77.31
344.12	104.31
344.348	83.31
344.576	74.31
344.804	75.31
345.031	81.31
345.259	89.31
345.487	85.31
345.714	80.31
345.942	61.31
346.17	88.31
346.397	79.31
346.625	83.31
346.853	81.31
347.08	72.31
347.308	82.31
347.535	86.31
347.763	79.31
347.99	80.31
348.218	75.31
348.445	85.31
348.673	83.31
348.9	87.31
349.128	77.31
349.355	63.31
349.583	78.31
349.81	69.31
350.037	83.31
350.265	86.31
350.492	76.31
350.72	61.31
350.947	81.31
351.174	80.31
351.402	76.31
351.629	86.31
351.856	82.31
352.083	64.31
352.311	67.31
352.538	86.31
352.765	87.31
352.992	82.31
353.22	73.31
353.447	77.31
353.674	82.31
353.901	87.31
354.128	80.31
354.355	77.31
354.583	80.31
354.81	84.31
355.037	80.31
355.264	65.31
355.491	86.31
355.718	68.31
355.945	88.31
356.172	69.31
356.399	89.31
356.626	73.31
356.853	74.31
357.08	87.31
357.307	87.31
357.534	83.31
357.761	85.31
357.988	88.31
358.215	77.31
358.441	72.31
358.668	73.31
358.895	77.31
359.122	85.31
359.349	70.31
359.576	90.31
359.802	64.31
360.029	87.31
360.256	79.31
360.483	82.31
360.709	88.31
360.936	88.31
361.163	91.31
361.39	80.31
361.616	79.31
361.843	76.31
362.07	94.31
362.296	68.31
362.523	96.31
362.749	82.31
362.976	77.31
363.203	83.31
363.429	65.31
363.656	74.31
363.882	89.31
364.109	85.31
364.335	82.31
364.562	79.31
364.788	77.31
365.015	78.31
365.241	70.31
365.468	95.31
365.694	77.31
365.92	71.31
366.147	90.31
366.373	70.31
366.599	76.31
366.826	72.31
367.052	73.31
367.278	75.31
367.505	75.31
367.731	70.31
367.957	79.31
368.184	71.31
368.41	82.31
368.636	71.31
368.862	74.31
369.089	80.31
369.315	66.31
369.541	83.31
369.767	99.31
369.993	80.31
370.219	86.31
370.445	84.31
370.672	73.31
370.898	81.31
371.124	86.31
371.35	71.31
371.576	86.31
371.802	77.31
372.028	72.31
372.254	85.31
372.48	84.31
372.706	86.31
372.932	79.31
373.158	84.31
373.384	80.31
373.61	85.31
373.835	81.31
374.061	82.31
374.287	86.31
374.513	75.31
374.739	92.31
374.965	76.31
375.191	78.31
375.416	77.31
375.642	76.31
375.868	88.31
376.094	88.31
376.319	87.31
376.545	77.31
376.771	79.31
376.997	83.31
377.222	76.31
377.448	74.31
377.674	78.31
377.899	86.31
378.125	89.31
378.35	88.31
378.576	79.31
378.802	84.31
379.027	90.31
379.253	89.31
379.478	89.31
379.704	84.31
379.929	80.31
380.155	92.31
380.38	81.31
380.606	76.31
380.831	77.31
381.057	91.31
381.282	83.31
381.507	93.31
381.733	82.31
381.958	85.31
382.184	76.31
382.409	97.31
382.634	88.31
382.86	92.31
383.085	88.31
383.31	89.31
383.535	79.31
383.761	89.31
383.986	89.31
384.211	79.31
384.436	81.31
384.662	75.31
384.887	77.31
385.112	84.31
385.337	81.31
385.562	76.31
385.787	91.31
386.013	91.31
386.238	93.31
386.463	94.31
386.688	76.31
386.913	83.31
387.138	83.31
387.363	78.31
387.588	86.31
387.813	83.31
388.038	77.31
388.263	81.31
388.488	93.31
388.713	74.31
388.938	87.31
389.163	78.31
389.387	84.31
389.612	88.31
389.837	89.31
390.062	81.31
390.287	80.31
390.512	75.31
390.736	86.31
390.961	92.31
391.186	89.31
391.411	82.31
391.636	100.31
391.86	85.31
392.085	88.31
392.31	94.31
392.534	89.31
392.759	71.31
392.984	88.31
393.208	93.31
393.433	89.31
393.658	86.31
393.882	88.31
394.107	91.31
394.331	90.31
394.556	101.31
394.78	91.31
395.005	94.31
395.229	97.31
395.454	102.31
395.678	90.31
395.903	94.31
396.127	78.31
396.352	91.31
396.576	105.31
396.801	99.31
397.025	82.31
397.249	89.31
397.474	98.31
397.698	73.31
397.922	83.31
398.147	94.31
398.371	82.31
398.595	96.31
398.82	77.31
399.044	81.31
399.268	93.31
399.492	105.31
399.717	90.31
399.941	78.31
400.165	85.31
400.389	85.31
400.613	86.31
400.837	93.31
401.062	81.31
401.286	91.31
401.51	101.31
401.734	82.31
401.958	106.31
402.182	79.31
402.406	76.31
402.63	98.31
402.854	102.31
403.078	92.31
403.302	89.31
403.526	101.31
403.75	88.31
403.974	95.31
404.198	88.31
404.422	82.31
404.645	93.31
404.869	89.31
405.093	79.31
405.317	100.31
405.541	83.31
405.765	82.31
405.988	83.31
406.212	101.31
406.436	90.31
406.66	88.31
406.883	96.31
407.107	103.31
407.331	92.31
407.555	94.31
407.778	99.31
408.002	106.31
408.226	115.31
408.449	79.31
408.673	98.31
408.896	94.31
409.12	89.31
409.344	102.31
409.567	105.31
409.791	88.31
410.014	91.31
410.238	114.31
410.461	88.31
410.685	105.31
410.908	93.31
411.132	83.31
411.355	89.31
411.578	96.31
411.802	87.31
412.025	83.31
412.249	91.31
412.472	87.31
412.695	88.31
412.919	109.31
413.142	103.31
413.365	95.31
413.589	91.31
413.812	93.31
414.035	102.31
414.258	127.31
414.482	98.31
414.705	106.31
414.928	91.31
415.151	101.31
415.374	97.31
415.597	99.31
415.821	119.31
416.044	95.31
416.267	99.31
416.49	82.31
416.713	90.31
416.936	91.31
417.159	100.31
417.382	101.31
417.605	104.31
417.828	105.31
418.051	93.31
418.274	103.31
418.497	96.31
418.72	92.31
418.943	90.31
419.166	97.31
419.389	94.31
419.611	87.31
419.834	100.31
420.057	103.31
420.28	89.31
420.503	102.31
420.726	91.31
420.948	103.31
421.171	94.31
421.394	112.31
421.617	100.31
421.839	103.31
422.062	96.31
422.285	105.31
422.507	94.31
422.73	91.31
422.953	105.31
423.175	98.31
423.398	88.31
423.621	104.31
423.843	104.31
424.066	99.31
424.288	118.31
424.511	104.31
424.733	104.31
424.956	102.31
425.178	102.31
425.401	96.31
425.623	97.31
425.846	99.31
426.068	95.31
426.291	92.31
426.513	94.31
426.735	105.31
426.958	101.31
427.18	99.31
427.402	91.31
427.625	108.31
427.847	100.31
428.069	98.31
428.292	94.31
428.514	104.31
428.736	89.31
428.958	109.31
429.181	101.31
429.403	101.31
429.625	99.31
429.847	93.31
430.069	100.31
430.292	117.31
430.514	98.31
430.736	92.31
430.958	92.31
431.18	94.31
431.402	90.31
431.624	91.31
431.846	88.31
432.068	75.31
432.29	84.31
432.512	83.31
432.734	89.31
432.956	112.31
433.178	105.31
433.4	111.31
433.622	101.31
433.844	106.31
434.066	96.31
434.287	76.31
434.509	88.31
434.731	89.31
434.953	85.31
435.175	91.31
435.397	98.31
435.618	110.31
435.84	94.31
436.062	94.31
436.284	100.31
436.505	111.31
436.727	92.31
436.949	97.31
437.17	88.31
437.392	89.31
437.614	86.31
437.835	87.31
438.057	76.31
438.278	98.31
438.5	87.31
438.721	100.31
438.943	100.31
439.165	117.31
439.386	111.31
439.608	104.31
439.829	98.31
440.05	119.31
440.272	102.31
440.493	102.31
440.715	115.31
440.936	106.31
441.158	107.31
441.379	114.31
441.6	103.31
441.822	109.31
442.043	104.31
442.264	102.31
442.486	118.31
442.707	99.31
442.928	96.31
443.149	107.31
443.371	99.31
443.592	87.31
443.813	110.31
444.034	100.31
444.255	102.31
444.476	124.31
444.698	92.31
444.919	97.31
445.14	243.31
445.361	181.31
445.582	115.31
445.803	102.31
446.024	106.31
446.245	110.31
446.466	105.31
446.687	117.31
446.908	114.31
447.129	117.31
447.35	99.31
447.571	105.31
447.792	104.31
448.013	112.31
448.234	120.31
448.455	114.31
448.675	107.31
448.896	95.31
449.117	101.31
449.338	99.31
449.559	110.31
449.779	99.31
450	88.31
450.221	102.31
450.442	103.31
450.662	106.31
450.883	104.31
451.104	106.31
451.324	102.31
451.545	103.31
451.766	101.31
451.986	110.31
452.207	95.31
452.428	107.31
452.648	103.31
452.869	90.31
453.089	84.31
453.31	97.31
453.53	92.31
453.751	91.31
453.971	78.31
454.192	86.31
454.412	99.31
454.633	92.31
454.853	100.31
455.073	95.31
455.294	87.31
455.514	110.31
455.734	104.31
455.955	92.31
456.175	98.31
456.395	95.31
456.616	91.31
456.836	76.31
457.056	94.31
457.276	95.31
457.497	96.31
457.717	88.31
457.937	93.31
458.157	89.31
458.377	88.31
458.598	85.31
458.818	89.31
459.038	83.31
459.258	85.31
459.478	77.31
459.698	90.31
459.918	78.31
460.138	98.31
460.358	94.31
460.578	105.31
460.798	87.31
461.018	98.31
461.238	90.31
461.458	110.31
461.678	103.31
461.898	85.31
462.118	97.31
462.338	99.31
462.558	101.31
462.777	85.31
462.997	94.31
463.217	95.31
463.437	84.31
463.657	93.31
463.876	91.31
464.096	103.31
464.316	91.31
464.536	96.31
464.755	86.31
464.975	92.31
465.195	101.31
465.414	87.31
465.634	83.31
465.854	102.31
466.073	95.31
466.293	106.31
466.512	98.31
466.732	103.31
466.951	104.31
467.171	97.31
467.391	111.31
467.61	96.31
467.829	113.31
468.049	109.31
468.268	84.31
468.488	95.31
468.707	102.31
468.927	110.31
469.146	101.31
469.365	107.31
469.585	117.31
469.804	104.31
470.023	119.31
470.243	115.31
470.462	105.31
470.681	101.31
470.901	97.31
471.12	109.31
471.339	97.31
471.558	115.31
471.777	89.31
471.997	116.31
472.216	104.31
472.435	98.31
472.654	93.31
472.873	99.31
473.092	91.31
473.311	94.31
473.53	111.31
473.749	107.31
473.968	99.31
474.187	93.31
474.406	99.31
474.625	88.31
474.844	104.31
475.063	110.31
475.282	99.31
475.501	85.31
475.72	101.31
475.939	94.31
476.158	99.31
476.377	101.31
476.596	101.31
476.814	102.31
477.033	94.31
477.252	101.31
477.471	111.31
477.69	109.31
477.908	101.31
478.127	109.31
478.346	105.31
478.564	117.31
478.783	115.31
479.002	114.31
479.22	91.31
479.439	93.31
479.658	98.31
479.876	92.31
480.095	90.31
480.313	110.31
480.532	95.31
480.751	93.31
480.969	86.31
481.188	71.31
481.406	81.31
481.624	89.31
481.843	83.31
482.061	90.31
482.28	89.31
482.498	96.31
482.717	91.31
482.935	90.31
483.153	98.31
483.372	120.31
483.59	105.31
483.808	113.31
484.027	94.31
484.245	98.31
484.463	113.31
484.681	108.31
484.9	103.31
485.118	117.31
485.336	99.31
485.554	97.31
485.772	90.31
485.99	93.31
486.209	90.31
486.427	106.31
486.645	91.31
486.863	97.31
487.081	111.31
487.299	102.31
487.517	112.31
487.735	127.31
487.953	124.31
488.171	144.31
488.389	122.31
488.607	96.31
488.825	119.31
489.043	98.31
489.261	109.31
489.479	97.31
489.696	129.31
489.914	103.31
490.132	112.31
490.35	124.31
490.568	123.31
490.786	112.31
491.003	125.31
491.221	119.31
491.439	120.31
491.657	140.31
491.874	136.31
492.092	147.31
492.31	163.31
492.527	160.31
492.745	137.31
492.963	133.31
493.18	130.31
493.398	128.31
493.615	130.31
493.833	110.31
494.05	118.31
494.268	126.31
494.485	126.31
494.703	130.31
494.92	128.31
495.138	118.31
495.355	122.31
495.573	129.31
495.79	119.31
496.008	125.31
496.225	117.31
496.442	119.31
496.66	117.31
496.877	114.31
497.094	137.31
497.312	125.31
497.529	132.31
497.746	107.31
497.963	119.31
498.181	106.31
498.398	89.31
498.615	95.31
498.832	92.31
499.049	97.31
499.267	103.31
499.484	99.31
499.701	105.31
499.918	104.31
500.135	105.31
500.352	98.31
500.569	106.31
500.786	119.31
501.003	129.31
501.22	106.31
501.437	125.31
501.654	109.31
501.871	110.31
502.088	111.31
502.305	100.31
502.522	112.31
502.739	98.31
502.956	95.31
503.172	106.31
503.389	116.31
503.606	88.31
503.823	99.31
504.04	109.31
504.256	93.31
504.473	102.31
504.69	93.31
504.907	103.31
505.123	86.31
505.34	96.31
505.557	93.31
505.773	88.31
505.99	96.31
506.207	107.31
506.423	113.31
506.64	91.31
506.856	94.31
507.073	101.31
507.289	107.31
507.506	93.31
507.722	95.31
507.939	95.31
508.155	99.31
508.372	94.31
508.588	81.31
508.805	99.31
509.021	95.31
509.238	94.31
509.454	89.31
509.67	95.31
509.887	85.31
510.103	81.31
510.319	82.31
510.536	109.31
510.752	87.31
510.968	90.31
511.184	71.31
511.401	86.31
511.617	81.31
511.833	101.31
512.049	81.31
512.265	81.31
512.481	95.31
512.698	85.31
512.914	86.31
513.13	87.31
513.346	82.31
513.562	80.31
513.778	76.31
513.994	72.31
514.21	77.31
514.426	83.31
514.642	79.31
514.858	88.31
515.074	70.31
515.29	80.31
515.506	80.31
515.721	74.31
515.937	92.31
