Data from Zn(NO3)2Standard.Agarose3%.GreenCap.LampEnergy5.5.E.O_HRD10591_15-02-28-768.txt Node
Date: Mon Jul 22 15:02:28 EDT 2019
User: cochatt
Spectrometer: HR+D1059
Trigger mode: 1
Integration Time (sec): 1.000000E-1
Scans to average: 1
Electric dark correction enabled: true
Nonlinearity correction enabled: false
Boxcar width: 0
XAxis mode: Wavelengths
Number of Pixels in Spectrum: 2048
>>>>>Begin Spectral Data<<<<<
223.165	-17.94
223.4	-17.94
223.635	-17.94
223.869	-12.94
224.104	-18.94
224.338	-4.94
224.573	-10.94
224.808	-5.94
225.042	-0.94
225.277	-13.94
225.511	-24.94
225.746	2.06
225.98	-4.94
226.215	15.06
226.449	19.06
226.683	16.06
226.918	30.06
227.152	34.06
227.387	53.06
227.621	47.06
227.856	42.06
228.09	44.06
228.324	54.06
228.559	64.06
228.793	49.06
229.027	52.06
229.262	54.06
229.496	78.06
229.73	80.06
229.964	68.06
230.199	70.06
230.433	82.06
230.667	79.06
230.901	77.06
231.136	80.06
231.37	63.06
231.604	81.06
231.838	91.06
232.072	89.06
232.306	82.06
232.541	90.06
232.775	78.06
233.009	89.06
233.243	85.06
233.477	82.06
233.711	79.06
233.945	75.06
234.179	68.06
234.413	93.06
234.647	71.06
234.881	74.06
235.115	102.06
235.349	63.06
235.583	85.06
235.817	79.06
236.051	70.06
236.285	77.06
236.519	85.06
236.753	76.06
236.987	72.06
237.221	67.06
237.455	89.06
237.689	80.06
237.922	82.06
238.156	79.06
238.39	79.06
238.624	77.06
238.858	73.06
239.091	76.06
239.325	73.06
239.559	71.06
239.793	76.06
240.027	79.06
240.26	78.06
240.494	74.06
240.728	88.06
240.961	70.06
241.195	77.06
241.429	78.06
241.662	73.06
241.896	76.06
242.13	78.06
242.363	76.06
242.597	77.06
242.83	68.06
243.064	59.06
243.298	71.06
243.531	77.06
243.765	80.06
243.998	89.06
244.232	84.06
244.465	80.06
244.699	65.06
244.932	71.06
245.166	83.06
245.399	76.06
245.633	77.06
245.866	83.06
246.099	73.06
246.333	88.06
246.566	93.06
246.8	82.06
247.033	82.06
247.266	70.06
247.5	89.06
247.733	84.06
247.966	76.06
248.2	76.06
248.433	93.06
248.666	70.06
248.899	82.06
249.133	74.06
249.366	90.06
249.599	81.06
249.832	83.06
250.066	92.06
250.299	90.06
250.532	77.06
250.765	80.06
250.998	85.06
251.231	70.06
251.465	79.06
251.698	89.06
251.931	92.06
252.164	79.06
252.397	76.06
252.63	81.06
252.863	92.06
253.096	84.06
253.329	71.06
253.562	93.06
253.795	77.06
254.028	77.06
254.261	90.06
254.494	86.06
254.727	89.06
254.96	82.06
255.193	74.06
255.426	76.06
255.659	83.06
255.892	81.06
256.124	72.06
256.357	69.06
256.59	75.06
256.823	71.06
257.056	84.06
257.289	81.06
257.521	91.06
257.754	77.06
257.987	85.06
258.22	81.06
258.452	71.06
258.685	75.06
258.918	77.06
259.151	79.06
259.383	76.06
259.616	69.06
259.849	87.06
260.081	85.06
260.314	86.06
260.547	90.06
260.779	94.06
261.012	79.06
261.244	72.06
261.477	78.06
261.71	84.06
261.942	73.06
262.175	88.06
262.407	89.06
262.64	96.06
262.872	96.06
263.105	84.06
263.337	66.06
263.57	82.06
263.802	80.06
264.035	81.06
264.267	86.06
264.499	69.06
264.732	83.06
264.964	82.06
265.197	84.06
265.429	82.06
265.661	68.06
265.894	78.06
266.126	89.06
266.358	81.06
266.591	84.06
266.823	85.06
267.055	87.06
267.287	66.06
267.52	89.06
267.752	82.06
267.984	88.06
268.216	81.06
268.448	89.06
268.681	93.06
268.913	87.06
269.145	79.06
269.377	81.06
269.609	74.06
269.841	89.06
270.073	84.06
270.306	80.06
270.538	75.06
270.77	79.06
271.002	72.06
271.234	89.06
271.466	66.06
271.698	82.06
271.93	86.06
272.162	81.06
272.394	71.06
272.626	78.06
272.858	83.06
273.09	78.06
273.322	95.06
273.553	93.06
273.785	86.06
274.017	103.06
274.249	102.06
274.481	78.06
274.713	91.06
274.945	92.06
275.176	77.06
275.408	84.06
275.64	101.06
275.872	94.06
276.104	89.06
276.335	82.06
276.567	71.06
276.799	83.06
277.031	88.06
277.262	85.06
277.494	86.06
277.726	85.06
277.957	78.06
278.189	91.06
278.421	89.06
278.652	79.06
278.884	75.06
279.115	76.06
279.347	81.06
279.579	87.06
279.81	86.06
280.042	94.06
280.273	91.06
280.505	73.06
280.736	92.06
280.968	93.06
281.199	88.06
281.431	88.06
281.662	92.06
281.894	88.06
282.125	89.06
282.356	89.06
282.588	81.06
282.819	91.06
283.051	93.06
283.282	91.06
283.513	82.06
283.745	85.06
283.976	79.06
284.207	75.06
284.439	70.06
284.67	68.06
284.901	86.06
285.132	101.06
285.364	95.06
285.595	75.06
285.826	85.06
286.057	86.06
286.288	79.06
286.52	83.06
286.751	89.06
286.982	86.06
287.213	83.06
287.444	84.06
287.675	100.06
287.906	80.06
288.138	73.06
288.369	79.06
288.6	93.06
288.831	79.06
289.062	86.06
289.293	75.06
289.524	73.06
289.755	82.06
289.986	87.06
290.217	81.06
290.448	73.06
290.679	79.06
290.91	92.06
291.141	87.06
291.371	82.06
291.602	87.06
291.833	83.06
292.064	78.06
292.295	83.06
292.526	69.06
292.757	84.06
292.987	84.06
293.218	94.06
293.449	84.06
293.68	101.06
293.91	75.06
294.141	77.06
294.372	86.06
294.603	74.06
294.833	90.06
295.064	90.06
295.295	98.06
295.525	82.06
295.756	86.06
295.987	69.06
296.217	98.06
296.448	78.06
296.679	82.06
296.909	80.06
297.14	78.06
297.37	81.06
297.601	84.06
297.831	102.06
298.062	99.06
298.292	94.06
298.523	84.06
298.753	83.06
298.984	85.06
299.214	87.06
299.445	92.06
299.675	89.06
299.905	98.06
300.136	84.06
300.366	105.06
300.597	85.06
300.827	74.06
301.057	67.06
301.288	75.06
301.518	83.06
301.748	89.06
301.979	86.06
302.209	91.06
302.439	74.06
302.669	88.06
302.9	95.06
303.13	89.06
303.36	96.06
303.59	95.06
303.82	87.06
304.051	84.06
304.281	88.06
304.511	87.06
304.741	82.06
304.971	83.06
305.201	83.06
305.431	76.06
305.661	94.06
305.891	83.06
306.121	76.06
306.352	87.06
306.582	79.06
306.812	82.06
307.042	86.06
307.272	92.06
307.502	92.06
307.731	94.06
307.961	82.06
308.191	77.06
308.421	80.06
308.651	100.06
308.881	84.06
309.111	87.06
309.341	83.06
309.571	88.06
309.8	75.06
310.03	96.06
310.26	93.06
310.49	81.06
310.72	83.06
310.949	93.06
311.179	91.06
311.409	77.06
311.639	84.06
311.868	92.06
312.098	85.06
312.328	90.06
312.557	94.06
312.787	91.06
313.017	99.06
313.246	97.06
313.476	92.06
313.706	94.06
313.935	101.06
314.165	92.06
314.394	79.06
314.624	95.06
314.853	88.06
315.083	86.06
315.312	87.06
315.542	91.06
315.771	92.06
316.001	85.06
316.23	85.06
316.46	95.06
316.689	80.06
316.919	81.06
317.148	81.06
317.377	67.06
317.607	96.06
317.836	86.06
318.065	97.06
318.295	80.06
318.524	90.06
318.753	88.06
318.983	67.06
319.212	98.06
319.441	66.06
319.67	93.06
319.9	90.06
320.129	84.06
320.358	97.06
320.587	95.06
320.816	83.06
321.046	84.06
321.275	94.06
321.504	83.06
321.733	91.06
321.962	82.06
322.191	99.06
322.42	79.06
322.649	86.06
322.878	84.06
323.108	81.06
323.337	93.06
323.566	84.06
323.795	90.06
324.024	76.06
324.253	94.06
324.482	76.06
324.71	78.06
324.939	85.06
325.168	84.06
325.397	94.06
325.626	82.06
325.855	103.06
326.084	91.06
326.313	90.06
326.542	86.06
326.77	83.06
326.999	89.06
327.228	90.06
327.457	85.06
327.686	80.06
327.914	85.06
328.143	104.06
328.372	67.06
328.6	76.06
328.829	92.06
329.058	71.06
329.287	82.06
329.515	85.06
329.744	87.06
329.972	93.06
330.201	85.06
330.43	88.06
330.658	83.06
330.887	81.06
331.115	86.06
331.344	86.06
331.572	82.06
331.801	82.06
332.03	85.06
332.258	98.06
332.486	86.06
332.715	85.06
332.943	77.06
333.172	86.06
333.4	84.06
333.629	90.06
333.857	85.06
334.085	94.06
334.314	84.06
334.542	102.06
334.771	86.06
334.999	95.06
335.227	82.06
335.455	94.06
335.684	92.06
335.912	84.06
336.14	69.06
336.369	99.06
336.597	77.06
336.825	82.06
337.053	81.06
337.281	74.06
337.51	76.06
337.738	77.06
337.966	90.06
338.194	87.06
338.422	69.06
338.65	96.06
338.878	93.06
339.106	85.06
339.334	88.06
339.562	90.06
339.79	78.06
340.018	89.06
340.246	82.06
340.474	83.06
340.702	98.06
340.93	80.06
341.158	89.06
341.386	81.06
341.614	84.06
341.842	81.06
342.07	84.06
342.298	93.06
342.526	89.06
342.754	74.06
342.981	97.06
343.209	90.06
343.437	88.06
343.665	82.06
343.893	88.06
344.12	107.06
344.348	82.06
344.576	87.06
344.804	75.06
345.031	80.06
345.259	81.06
345.487	106.06
345.714	90.06
345.942	80.06
346.17	93.06
346.397	91.06
346.625	84.06
346.853	75.06
347.08	86.06
347.308	97.06
347.535	92.06
347.763	103.06
347.99	85.06
348.218	95.06
348.445	79.06
348.673	80.06
348.9	84.06
349.128	71.06
349.355	71.06
349.583	73.06
349.81	79.06
350.037	76.06
350.265	77.06
350.492	79.06
350.72	93.06
350.947	79.06
351.174	88.06
351.402	84.06
351.629	92.06
351.856	76.06
352.083	86.06
352.311	83.06
352.538	86.06
352.765	99.06
352.992	107.06
353.22	95.06
353.447	88.06
353.674	88.06
353.901	97.06
354.128	82.06
354.355	94.06
354.583	85.06
354.81	87.06
355.037	90.06
355.264	74.06
355.491	100.06
355.718	81.06
355.945	83.06
356.172	77.06
356.399	79.06
356.626	80.06
356.853	93.06
357.08	85.06
357.307	94.06
357.534	82.06
357.761	78.06
357.988	90.06
358.215	98.06
358.441	84.06
358.668	91.06
358.895	91.06
359.122	93.06
359.349	91.06
359.576	67.06
359.802	85.06
360.029	60.06
360.256	94.06
360.483	76.06
360.709	75.06
360.936	90.06
361.163	85.06
361.39	98.06
361.616	79.06
361.843	84.06
362.07	76.06
362.296	98.06
362.523	84.06
362.749	80.06
362.976	82.06
363.203	98.06
363.429	77.06
363.656	76.06
363.882	95.06
364.109	86.06
364.335	87.06
364.562	67.06
364.788	90.06
365.015	70.06
365.241	74.06
365.468	93.06
365.694	74.06
365.92	87.06
366.147	77.06
366.373	91.06
366.599	75.06
366.826	82.06
367.052	87.06
367.278	85.06
367.505	86.06
367.731	85.06
367.957	73.06
368.184	84.06
368.41	76.06
368.636	91.06
368.862	95.06
369.089	76.06
369.315	75.06
369.541	79.06
369.767	79.06
369.993	90.06
370.219	94.06
370.445	90.06
370.672	90.06
370.898	88.06
371.124	78.06
371.35	84.06
371.576	78.06
371.802	86.06
372.028	77.06
372.254	67.06
372.48	78.06
372.706	93.06
372.932	78.06
373.158	91.06
373.384	85.06
373.61	92.06
373.835	86.06
374.061	78.06
374.287	78.06
374.513	82.06
374.739	88.06
374.965	91.06
375.191	86.06
375.416	78.06
375.642	77.06
375.868	82.06
376.094	85.06
376.319	82.06
376.545	69.06
376.771	71.06
376.997	98.06
377.222	89.06
377.448	86.06
377.674	87.06
377.899	85.06
378.125	87.06
378.35	77.06
378.576	93.06
378.802	75.06
379.027	89.06
379.253	87.06
379.478	90.06
379.704	79.06
379.929	81.06
380.155	94.06
380.38	91.06
380.606	75.06
380.831	79.06
381.057	99.06
381.282	93.06
381.507	91.06
381.733	88.06
381.958	85.06
382.184	86.06
382.409	88.06
382.634	92.06
382.86	82.06
383.085	79.06
383.31	85.06
383.535	89.06
383.761	86.06
383.986	81.06
384.211	86.06
384.436	79.06
384.662	82.06
384.887	79.06
385.112	78.06
385.337	76.06
385.562	99.06
385.787	71.06
386.013	84.06
386.238	82.06
386.463	81.06
386.688	73.06
386.913	79.06
387.138	98.06
387.363	77.06
387.588	81.06
387.813	78.06
388.038	75.06
388.263	84.06
388.488	87.06
388.713	102.06
388.938	78.06
389.163	67.06
389.387	73.06
389.612	83.06
389.837	76.06
390.062	82.06
390.287	70.06
390.512	92.06
390.736	89.06
390.961	101.06
391.186	92.06
391.411	88.06
391.636	107.06
391.86	94.06
392.085	83.06
392.31	98.06
392.534	79.06
392.759	85.06
392.984	83.06
393.208	88.06
393.433	91.06
393.658	87.06
393.882	73.06
394.107	71.06
394.331	87.06
394.556	89.06
394.78	89.06
395.005	90.06
395.229	67.06
395.454	83.06
395.678	92.06
395.903	94.06
396.127	77.06
396.352	99.06
396.576	82.06
396.801	82.06
397.025	97.06
397.249	90.06
397.474	90.06
397.698	97.06
397.922	82.06
398.147	82.06
398.371	79.06
398.595	90.06
398.82	90.06
399.044	89.06
399.268	90.06
399.492	89.06
399.717	77.06
399.941	89.06
400.165	82.06
400.389	82.06
400.613	82.06
400.837	91.06
401.062	77.06
401.286	74.06
401.51	86.06
401.734	85.06
401.958	87.06
402.182	98.06
402.406	95.06
402.63	73.06
402.854	93.06
403.078	89.06
403.302	91.06
403.526	91.06
403.75	70.06
403.974	92.06
404.198	92.06
404.422	78.06
404.645	83.06
404.869	78.06
405.093	88.06
405.317	86.06
405.541	89.06
405.765	68.06
405.988	86.06
406.212	76.06
406.436	76.06
406.66	85.06
406.883	90.06
407.107	93.06
407.331	81.06
407.555	94.06
407.778	91.06
408.002	78.06
408.226	71.06
408.449	85.06
408.673	92.06
408.896	95.06
409.12	85.06
409.344	79.06
409.567	89.06
409.791	86.06
410.014	82.06
410.238	88.06
410.461	93.06
410.685	90.06
410.908	79.06
411.132	83.06
411.355	90.06
411.578	90.06
411.802	79.06
412.025	85.06
412.249	82.06
412.472	91.06
412.695	83.06
412.919	92.06
413.142	80.06
413.365	78.06
413.589	83.06
413.812	77.06
414.035	93.06
414.258	81.06
414.482	83.06
414.705	82.06
414.928	106.06
415.151	102.06
415.374	92.06
415.597	73.06
415.821	90.06
416.044	70.06
416.267	105.06
416.49	73.06
416.713	93.06
416.936	88.06
417.159	91.06
417.382	75.06
417.605	82.06
417.828	85.06
418.051	78.06
418.274	82.06
418.497	92.06
418.72	94.06
418.943	85.06
419.166	76.06
419.389	88.06
419.611	100.06
419.834	79.06
420.057	89.06
420.28	83.06
420.503	97.06
420.726	97.06
420.948	85.06
421.171	95.06
421.394	92.06
421.617	102.06
421.839	100.06
422.062	82.06
422.285	87.06
422.507	86.06
422.73	87.06
422.953	93.06
423.175	87.06
423.398	90.06
423.621	88.06
423.843	89.06
424.066	93.06
424.288	68.06
424.511	93.06
424.733	81.06
424.956	79.06
425.178	86.06
425.401	86.06
425.623	94.06
425.846	83.06
426.068	89.06
426.291	93.06
426.513	101.06
426.735	92.06
426.958	84.06
427.18	98.06
427.402	95.06
427.625	66.06
427.847	79.06
428.069	92.06
428.292	96.06
428.514	90.06
428.736	84.06
428.958	93.06
429.181	92.06
429.403	90.06
429.625	80.06
429.847	97.06
430.069	82.06
430.292	87.06
430.514	108.06
430.736	87.06
430.958	93.06
431.18	90.06
431.402	79.06
431.624	85.06
431.846	89.06
432.068	98.06
432.29	83.06
432.512	90.06
432.734	81.06
432.956	89.06
433.178	87.06
433.4	90.06
433.622	87.06
433.844	84.06
434.066	90.06
434.287	93.06
434.509	84.06
434.731	79.06
434.953	96.06
435.175	85.06
435.397	97.06
435.618	82.06
435.84	84.06
436.062	91.06
436.284	85.06
436.505	91.06
436.727	94.06
436.949	72.06
437.17	79.06
437.392	86.06
437.614	85.06
437.835	82.06
438.057	103.06
438.278	94.06
438.5	91.06
438.721	86.06
438.943	93.06
439.165	79.06
439.386	86.06
439.608	85.06
439.829	88.06
440.05	80.06
440.272	79.06
440.493	71.06
440.715	87.06
440.936	102.06
441.158	92.06
441.379	92.06
441.6	115.06
441.822	106.06
442.043	88.06
442.264	76.06
442.486	83.06
442.707	100.06
442.928	84.06
443.149	83.06
443.371	87.06
443.592	91.06
443.813	94.06
444.034	90.06
444.255	93.06
444.476	102.06
444.698	94.06
444.919	96.06
445.14	215.06
445.361	160.06
445.582	101.06
445.803	97.06
446.024	98.06
446.245	100.06
446.466	105.06
446.687	85.06
446.908	83.06
447.129	105.06
447.35	106.06
447.571	91.06
447.792	103.06
448.013	95.06
448.234	92.06
448.455	79.06
448.675	98.06
448.896	103.06
449.117	86.06
449.338	104.06
449.559	101.06
449.779	71.06
450	95.06
450.221	99.06
450.442	87.06
450.662	85.06
450.883	78.06
451.104	93.06
451.324	85.06
451.545	75.06
451.766	78.06
451.986	93.06
452.207	89.06
452.428	87.06
452.648	94.06
452.869	100.06
453.089	100.06
453.31	89.06
453.53	97.06
453.751	86.06
453.971	82.06
454.192	78.06
454.412	87.06
454.633	85.06
454.853	89.06
455.073	89.06
455.294	100.06
455.514	97.06
455.734	87.06
455.955	92.06
456.175	80.06
456.395	81.06
456.616	81.06
456.836	84.06
457.056	90.06
457.276	92.06
457.497	68.06
457.717	85.06
457.937	77.06
458.157	90.06
458.377	78.06
458.598	82.06
458.818	66.06
459.038	82.06
459.258	94.06
459.478	80.06
459.698	86.06
459.918	84.06
460.138	77.06
460.358	93.06
460.578	83.06
460.798	78.06
461.018	85.06
461.238	87.06
461.458	87.06
461.678	80.06
461.898	89.06
462.118	91.06
462.338	76.06
462.558	77.06
462.777	77.06
462.997	94.06
463.217	90.06
463.437	86.06
463.657	85.06
463.876	82.06
464.096	85.06
464.316	98.06
464.536	88.06
464.755	94.06
464.975	90.06
465.195	82.06
465.414	78.06
465.634	87.06
465.854	105.06
466.073	86.06
466.293	95.06
466.512	83.06
466.732	79.06
466.951	91.06
467.171	98.06
467.391	83.06
467.61	93.06
467.829	97.06
468.049	68.06
468.268	88.06
468.488	97.06
468.707	88.06
468.927	87.06
469.146	104.06
469.365	91.06
469.585	89.06
469.804	101.06
470.023	90.06
470.243	97.06
470.462	94.06
470.681	104.06
470.901	93.06
471.12	84.06
471.339	94.06
471.558	90.06
471.777	101.06
471.997	108.06
472.216	90.06
472.435	86.06
472.654	71.06
472.873	84.06
473.092	78.06
473.311	95.06
473.53	82.06
473.749	86.06
473.968	91.06
474.187	101.06
474.406	80.06
474.625	89.06
474.844	76.06
475.063	87.06
475.282	95.06
475.501	76.06
475.72	79.06
475.939	91.06
476.158	77.06
476.377	73.06
476.596	76.06
476.814	85.06
477.033	87.06
477.252	101.06
477.471	86.06
477.69	104.06
477.908	95.06
478.127	87.06
478.346	94.06
478.564	92.06
478.783	82.06
479.002	94.06
479.22	99.06
479.439	85.06
479.658	92.06
479.876	102.06
480.095	72.06
480.313	91.06
480.532	87.06
480.751	85.06
480.969	86.06
481.188	88.06
481.406	103.06
481.624	89.06
481.843	76.06
482.061	84.06
482.28	79.06
482.498	94.06
482.717	94.06
482.935	95.06
483.153	86.06
483.372	103.06
483.59	109.06
483.808	89.06
484.027	84.06
484.245	83.06
484.463	90.06
484.681	101.06
484.9	105.06
485.118	87.06
485.336	84.06
485.554	76.06
485.772	84.06
485.99	72.06
486.209	88.06
486.427	87.06
486.645	91.06
486.863	82.06
487.081	80.06
487.299	97.06
487.517	93.06
487.735	90.06
487.953	103.06
488.171	100.06
488.389	95.06
488.607	93.06
488.825	92.06
489.043	94.06
489.261	83.06
489.479	97.06
489.696	87.06
489.914	104.06
490.132	102.06
490.35	91.06
490.568	90.06
490.786	90.06
491.003	96.06
491.221	82.06
491.439	107.06
491.657	100.06
491.874	99.06
492.092	97.06
492.31	113.06
492.527	123.06
492.745	97.06
492.963	102.06
493.18	94.06
493.398	88.06
493.615	103.06
493.833	109.06
494.05	113.06
494.268	99.06
494.485	96.06
494.703	105.06
494.92	101.06
495.138	107.06
495.355	111.06
495.573	90.06
495.79	109.06
496.008	102.06
496.225	103.06
496.442	103.06
496.66	107.06
496.877	103.06
497.094	82.06
497.312	75.06
497.529	101.06
497.746	102.06
497.963	98.06
498.181	101.06
498.398	84.06
498.615	88.06
498.832	79.06
499.049	87.06
499.267	79.06
499.484	97.06
499.701	100.06
499.918	98.06
500.135	87.06
500.352	106.06
500.569	92.06
500.786	94.06
501.003	88.06
501.22	87.06
501.437	77.06
501.654	87.06
501.871	88.06
502.088	90.06
502.305	86.06
502.522	82.06
502.739	90.06
502.956	68.06
503.172	83.06
503.389	84.06
503.606	89.06
503.823	95.06
504.04	100.06
504.256	98.06
504.473	91.06
504.69	104.06
504.907	100.06
505.123	87.06
505.34	91.06
505.557	93.06
505.773	94.06
505.99	102.06
506.207	82.06
506.423	79.06
506.64	95.06
506.856	97.06
507.073	110.06
507.289	99.06
507.506	87.06
507.722	95.06
507.939	91.06
508.155	82.06
508.372	93.06
508.588	94.06
508.805	78.06
509.021	80.06
509.238	92.06
509.454	83.06
509.67	87.06
509.887	85.06
510.103	100.06
510.319	85.06
510.536	78.06
510.752	87.06
510.968	94.06
511.184	78.06
511.401	94.06
511.617	85.06
511.833	85.06
512.049	87.06
512.265	87.06
512.481	87.06
512.698	88.06
512.914	92.06
513.13	83.06
513.346	87.06
513.562	83.06
513.778	89.06
513.994	91.06
514.21	85.06
514.426	86.06
514.642	83.06
514.858	62.06
515.074	87.06
515.29	82.06
515.506	96.06
515.721	90.06
515.937	91.06
516.153	82.06
516.369	84.06
516.585	92.06
516.801	75.06
517.016	74.06
517.232	70.06
517.448	84.06
517.664	85.06
517.879	100.06
518.095	83.06
