Data from Zn(NO3)2Standard.Agarose3%.GreenCap.LampEnergy10E.O_HRD10591_15-06-24-942.txt Node
Date: Mon Jul 22 15:06:24 EDT 2019
User: cochatt
Spectrometer: HR+D1059
Trigger mode: 1
Integration Time (sec): 1.000000E-1
Scans to average: 1
Electric dark correction enabled: true
Nonlinearity correction enabled: false
Boxcar width: 0
XAxis mode: Wavelengths
Number of Pixels in Spectrum: 2048
>>>>>Begin Spectral Data<<<<<
223.165	-17.38
223.4	-17.38
223.635	-17.38
223.869	-12.38
224.104	-8.38
224.338	-25.38
224.573	-18.38
224.808	-23.38
225.042	-11.38
225.277	-8.38
225.511	4.62
225.746	4.62
225.98	6.62
226.215	15.62
226.449	18.62
226.683	25.62
226.918	24.62
227.152	24.62
227.387	27.62
227.621	38.62
227.856	51.62
228.09	46.62
228.324	57.62
228.559	80.62
228.793	59.62
229.027	67.62
229.262	62.62
229.496	68.62
229.73	75.62
229.964	84.62
230.199	65.62
230.433	78.62
230.667	75.62
230.901	68.62
231.136	82.62
231.37	83.62
231.604	79.62
231.838	82.62
232.072	77.62
232.306	95.62
232.541	76.62
232.775	75.62
233.009	92.62
233.243	89.62
233.477	93.62
233.711	88.62
233.945	91.62
234.179	76.62
234.413	89.62
234.647	71.62
234.881	81.62
235.115	79.62
235.349	77.62
235.583	84.62
235.817	75.62
236.051	88.62
236.285	75.62
236.519	62.62
236.753	67.62
236.987	80.62
237.221	88.62
237.455	77.62
237.689	83.62
237.922	79.62
238.156	78.62
238.39	69.62
238.624	79.62
238.858	81.62
239.091	77.62
239.325	80.62
239.559	81.62
239.793	77.62
240.027	81.62
240.26	77.62
240.494	73.62
240.728	86.62
240.961	79.62
241.195	92.62
241.429	82.62
241.662	81.62
241.896	77.62
242.13	90.62
242.363	72.62
242.597	87.62
242.83	77.62
243.064	78.62
243.298	77.62
243.531	90.62
243.765	87.62
243.998	82.62
244.232	78.62
244.465	73.62
244.699	81.62
244.932	84.62
245.166	83.62
245.399	79.62
245.633	96.62
245.866	78.62
246.099	83.62
246.333	90.62
246.566	75.62
246.8	86.62
247.033	81.62
247.266	88.62
247.5	83.62
247.733	98.62
247.966	80.62
248.2	85.62
248.433	82.62
248.666	71.62
248.899	79.62
249.133	87.62
249.366	81.62
249.599	87.62
249.832	78.62
250.066	80.62
250.299	99.62
250.532	81.62
250.765	76.62
250.998	81.62
251.231	75.62
251.465	89.62
251.698	83.62
251.931	65.62
252.164	89.62
252.397	84.62
252.63	82.62
252.863	66.62
253.096	83.62
253.329	71.62
253.562	82.62
253.795	95.62
254.028	92.62
254.261	90.62
254.494	77.62
254.727	92.62
254.96	73.62
255.193	82.62
255.426	81.62
255.659	70.62
255.892	86.62
256.124	76.62
256.357	73.62
256.59	87.62
256.823	91.62
257.056	89.62
257.289	96.62
257.521	80.62
257.754	92.62
257.987	85.62
258.22	93.62
258.452	80.62
258.685	93.62
258.918	81.62
259.151	78.62
259.383	92.62
259.616	87.62
259.849	79.62
260.081	87.62
260.314	84.62
260.547	87.62
260.779	81.62
261.012	81.62
261.244	84.62
261.477	89.62
261.71	93.62
261.942	89.62
262.175	83.62
262.407	79.62
262.64	71.62
262.872	93.62
263.105	92.62
263.337	96.62
263.57	80.62
263.802	93.62
264.035	81.62
264.267	77.62
264.499	96.62
264.732	79.62
264.964	82.62
265.197	88.62
265.429	69.62
265.661	89.62
265.894	84.62
266.126	68.62
266.358	65.62
266.591	87.62
266.823	80.62
267.055	85.62
267.287	77.62
267.52	78.62
267.752	89.62
267.984	73.62
268.216	73.62
268.448	97.62
268.681	89.62
268.913	92.62
269.145	96.62
269.377	89.62
269.609	86.62
269.841	81.62
270.073	94.62
270.306	86.62
270.538	89.62
270.77	91.62
271.002	78.62
271.234	80.62
271.466	81.62
271.698	87.62
271.93	74.62
272.162	88.62
272.394	100.62
272.626	86.62
272.858	81.62
273.09	94.62
273.322	91.62
273.553	78.62
273.785	76.62
274.017	72.62
274.249	90.62
274.481	92.62
274.713	92.62
274.945	86.62
275.176	83.62
275.408	94.62
275.64	91.62
275.872	89.62
276.104	92.62
276.335	76.62
276.567	98.62
276.799	86.62
277.031	88.62
277.262	94.62
277.494	75.62
277.726	88.62
277.957	91.62
278.189	86.62
278.421	83.62
278.652	87.62
278.884	81.62
279.115	78.62
279.347	88.62
279.579	89.62
279.81	88.62
280.042	77.62
280.273	85.62
280.505	81.62
280.736	86.62
280.968	95.62
281.199	94.62
281.431	93.62
281.662	92.62
281.894	95.62
282.125	92.62
282.356	83.62
282.588	75.62
282.819	80.62
283.051	83.62
283.282	95.62
283.513	91.62
283.745	97.62
283.976	104.62
284.207	81.62
284.439	88.62
284.67	89.62
284.901	96.62
285.132	75.62
285.364	81.62
285.595	97.62
285.826	82.62
286.057	91.62
286.288	99.62
286.52	87.62
286.751	81.62
286.982	92.62
287.213	79.62
287.444	79.62
287.675	91.62
287.906	70.62
288.138	91.62
288.369	80.62
288.6	88.62
288.831	85.62
289.062	96.62
289.293	73.62
289.524	84.62
289.755	90.62
289.986	76.62
290.217	82.62
290.448	68.62
290.679	69.62
290.91	90.62
291.141	77.62
291.371	84.62
291.602	91.62
291.833	90.62
292.064	96.62
292.295	96.62
292.526	94.62
292.757	86.62
292.987	89.62
293.218	76.62
293.449	87.62
293.68	76.62
293.91	79.62
294.141	81.62
294.372	77.62
294.603	81.62
294.833	91.62
295.064	87.62
295.295	92.62
295.525	87.62
295.756	81.62
295.987	86.62
296.217	79.62
296.448	91.62
296.679	87.62
296.909	89.62
297.14	98.62
297.37	87.62
297.601	79.62
297.831	82.62
298.062	89.62
298.292	86.62
298.523	89.62
298.753	84.62
298.984	86.62
299.214	91.62
299.445	78.62
299.675	90.62
299.905	96.62
300.136	95.62
300.366	87.62
300.597	96.62
300.827	91.62
301.057	85.62
301.288	87.62
301.518	101.62
301.748	99.62
301.979	97.62
302.209	86.62
302.439	78.62
302.669	84.62
302.9	89.62
303.13	88.62
303.36	83.62
303.59	77.62
303.82	86.62
304.051	87.62
304.281	85.62
304.511	93.62
304.741	98.62
304.971	93.62
305.201	81.62
305.431	83.62
305.661	98.62
305.891	85.62
306.121	94.62
306.352	81.62
306.582	84.62
306.812	81.62
307.042	86.62
307.272	84.62
307.502	84.62
307.731	103.62
307.961	88.62
308.191	88.62
308.421	69.62
308.651	85.62
308.881	89.62
309.111	91.62
309.341	87.62
309.571	83.62
309.8	85.62
310.03	88.62
310.26	75.62
310.49	95.62
310.72	82.62
310.949	68.62
311.179	105.62
311.409	92.62
311.639	85.62
311.868	91.62
312.098	86.62
312.328	85.62
312.557	95.62
312.787	89.62
313.017	84.62
313.246	80.62
313.476	69.62
313.706	87.62
313.935	99.62
314.165	96.62
314.394	92.62
314.624	71.62
314.853	84.62
315.083	74.62
315.312	92.62
315.542	78.62
315.771	92.62
316.001	87.62
316.23	83.62
316.46	81.62
316.689	88.62
316.919	72.62
317.148	77.62
317.377	97.62
317.607	84.62
317.836	96.62
318.065	85.62
318.295	72.62
318.524	83.62
318.753	87.62
318.983	86.62
319.212	91.62
319.441	73.62
319.67	83.62
319.9	92.62
320.129	78.62
320.358	87.62
320.587	92.62
320.816	89.62
321.046	88.62
321.275	95.62
321.504	78.62
321.733	82.62
321.962	92.62
322.191	99.62
322.42	90.62
322.649	89.62
322.878	89.62
323.108	94.62
323.337	89.62
323.566	73.62
323.795	80.62
324.024	87.62
324.253	94.62
324.482	95.62
324.71	99.62
324.939	81.62
325.168	87.62
325.397	101.62
325.626	97.62
325.855	84.62
326.084	87.62
326.313	82.62
326.542	91.62
326.77	81.62
326.999	95.62
327.228	101.62
327.457	95.62
327.686	84.62
327.914	81.62
328.143	88.62
328.372	83.62
328.6	76.62
328.829	100.62
329.058	86.62
329.287	78.62
329.515	81.62
329.744	102.62
329.972	91.62
330.201	85.62
330.43	91.62
330.658	85.62
330.887	86.62
331.115	86.62
331.344	94.62
331.572	93.62
331.801	92.62
332.03	90.62
332.258	89.62
332.486	92.62
332.715	74.62
332.943	81.62
333.172	82.62
333.4	95.62
333.629	85.62
333.857	80.62
334.085	83.62
334.314	104.62
334.542	91.62
334.771	95.62
334.999	81.62
335.227	103.62
335.455	97.62
335.684	91.62
335.912	86.62
336.14	89.62
336.369	75.62
336.597	93.62
336.825	82.62
337.053	91.62
337.281	70.62
337.51	80.62
337.738	69.62
337.966	84.62
338.194	77.62
338.422	79.62
338.65	84.62
338.878	94.62
339.106	96.62
339.334	93.62
339.562	86.62
339.79	79.62
340.018	81.62
340.246	80.62
340.474	84.62
340.702	88.62
340.93	79.62
341.158	81.62
341.386	96.62
341.614	89.62
341.842	74.62
342.07	92.62
342.298	103.62
342.526	93.62
342.754	78.62
342.981	98.62
343.209	74.62
343.437	87.62
343.665	82.62
343.893	87.62
344.12	70.62
344.348	91.62
344.576	89.62
344.804	87.62
345.031	81.62
345.259	77.62
345.487	95.62
345.714	88.62
345.942	75.62
346.17	92.62
346.397	76.62
346.625	73.62
346.853	99.62
347.08	105.62
347.308	77.62
347.535	91.62
347.763	92.62
347.99	97.62
348.218	86.62
348.445	76.62
348.673	80.62
348.9	87.62
349.128	99.62
349.355	83.62
349.583	100.62
349.81	90.62
350.037	77.62
350.265	102.62
350.492	79.62
350.72	72.62
350.947	104.62
351.174	79.62
351.402	82.62
351.629	87.62
351.856	77.62
352.083	75.62
352.311	89.62
352.538	77.62
352.765	78.62
352.992	91.62
353.22	85.62
353.447	84.62
353.674	91.62
353.901	94.62
354.128	81.62
354.355	87.62
354.583	71.62
354.81	91.62
355.037	72.62
355.264	89.62
355.491	83.62
355.718	82.62
355.945	88.62
356.172	85.62
356.399	85.62
356.626	85.62
356.853	90.62
357.08	90.62
357.307	78.62
357.534	80.62
357.761	89.62
357.988	89.62
358.215	81.62
358.441	95.62
358.668	80.62
358.895	85.62
359.122	93.62
359.349	85.62
359.576	80.62
359.802	86.62
360.029	90.62
360.256	81.62
360.483	81.62
360.709	96.62
360.936	101.62
361.163	87.62
361.39	96.62
361.616	96.62
361.843	84.62
362.07	87.62
362.296	73.62
362.523	78.62
362.749	85.62
362.976	97.62
363.203	86.62
363.429	92.62
363.656	93.62
363.882	79.62
364.109	87.62
364.335	93.62
364.562	96.62
364.788	85.62
365.015	85.62
365.241	98.62
365.468	76.62
365.694	82.62
365.92	82.62
366.147	68.62
366.373	87.62
366.599	93.62
366.826	92.62
367.052	88.62
367.278	91.62
367.505	92.62
367.731	96.62
367.957	88.62
368.184	79.62
368.41	91.62
368.636	96.62
368.862	96.62
369.089	82.62
369.315	80.62
369.541	76.62
369.767	77.62
369.993	79.62
370.219	93.62
370.445	86.62
370.672	79.62
370.898	92.62
371.124	92.62
371.35	91.62
371.576	100.62
371.802	98.62
372.028	83.62
372.254	70.62
372.48	87.62
372.706	83.62
372.932	89.62
373.158	87.62
373.384	96.62
373.61	88.62
373.835	79.62
374.061	72.62
374.287	95.62
374.513	92.62
374.739	80.62
374.965	97.62
375.191	78.62
375.416	90.62
375.642	90.62
375.868	92.62
376.094	74.62
376.319	86.62
376.545	99.62
376.771	95.62
376.997	95.62
377.222	85.62
377.448	75.62
377.674	87.62
377.899	92.62
378.125	81.62
378.35	93.62
378.576	86.62
378.802	98.62
379.027	97.62
379.253	101.62
379.478	95.62
379.704	87.62
379.929	80.62
380.155	88.62
380.38	102.62
380.606	92.62
380.831	98.62
381.057	95.62
381.282	89.62
381.507	81.62
381.733	88.62
381.958	83.62
382.184	90.62
382.409	75.62
382.634	93.62
382.86	96.62
383.085	92.62
383.31	96.62
383.535	96.62
383.761	87.62
383.986	86.62
384.211	80.62
384.436	89.62
384.662	79.62
384.887	95.62
385.112	88.62
385.337	83.62
385.562	80.62
385.787	93.62
386.013	84.62
386.238	96.62
386.463	87.62
386.688	88.62
386.913	77.62
387.138	82.62
387.363	83.62
387.588	103.62
387.813	98.62
388.038	89.62
388.263	76.62
388.488	95.62
388.713	90.62
388.938	87.62
389.163	101.62
389.387	88.62
389.612	86.62
389.837	81.62
390.062	78.62
390.287	75.62
390.512	92.62
390.736	87.62
390.961	87.62
391.186	87.62
391.411	84.62
391.636	86.62
391.86	96.62
392.085	100.62
392.31	84.62
392.534	88.62
392.759	108.62
392.984	104.62
393.208	104.62
393.433	99.62
393.658	88.62
393.882	94.62
394.107	98.62
394.331	89.62
394.556	81.62
394.78	108.62
395.005	112.62
395.229	82.62
395.454	90.62
395.678	91.62
395.903	95.62
396.127	89.62
396.352	98.62
396.576	75.62
396.801	87.62
397.025	108.62
397.249	104.62
397.474	109.62
397.698	91.62
397.922	80.62
398.147	100.62
398.371	89.62
398.595	89.62
398.82	101.62
399.044	96.62
399.268	86.62
399.492	96.62
399.717	96.62
399.941	91.62
400.165	94.62
400.389	93.62
400.613	90.62
400.837	97.62
401.062	94.62
401.286	107.62
401.51	108.62
401.734	94.62
401.958	89.62
402.182	92.62
402.406	97.62
402.63	103.62
402.854	97.62
403.078	80.62
403.302	92.62
403.526	95.62
403.75	95.62
403.974	100.62
404.198	110.62
404.422	103.62
404.645	89.62
404.869	102.62
405.093	110.62
405.317	107.62
405.541	96.62
405.765	97.62
405.988	96.62
406.212	99.62
406.436	92.62
406.66	102.62
406.883	105.62
407.107	100.62
407.331	92.62
407.555	118.62
407.778	115.62
408.002	90.62
408.226	105.62
408.449	107.62
408.673	105.62
408.896	120.62
409.12	101.62
409.344	89.62
409.567	103.62
409.791	112.62
410.014	90.62
410.238	99.62
410.461	103.62
410.685	100.62
410.908	104.62
411.132	110.62
411.355	103.62
411.578	98.62
411.802	101.62
412.025	95.62
412.249	104.62
412.472	94.62
412.695	112.62
412.919	99.62
413.142	99.62
413.365	92.62
413.589	92.62
413.812	100.62
414.035	99.62
414.258	100.62
414.482	95.62
414.705	106.62
414.928	101.62
415.151	110.62
415.374	91.62
415.597	87.62
415.821	100.62
416.044	91.62
416.267	103.62
416.49	122.62
416.713	101.62
416.936	118.62
417.159	104.62
417.382	81.62
417.605	96.62
417.828	113.62
418.051	112.62
418.274	105.62
418.497	108.62
418.72	103.62
418.943	100.62
419.166	110.62
419.389	101.62
419.611	112.62
419.834	107.62
420.057	107.62
420.28	99.62
420.503	105.62
420.726	103.62
420.948	112.62
421.171	99.62
421.394	107.62
421.617	115.62
421.839	103.62
422.062	96.62
422.285	104.62
422.507	111.62
422.73	88.62
422.953	104.62
423.175	100.62
423.398	103.62
423.621	106.62
423.843	100.62
424.066	103.62
424.288	101.62
424.511	106.62
424.733	116.62
424.956	101.62
425.178	110.62
425.401	104.62
425.623	87.62
425.846	100.62
426.068	94.62
426.291	111.62
426.513	116.62
426.735	107.62
426.958	109.62
427.18	124.62
427.402	108.62
427.625	125.62
427.847	115.62
428.069	97.62
428.292	105.62
428.514	97.62
428.736	112.62
428.958	95.62
429.181	111.62
429.403	106.62
429.625	102.62
429.847	108.62
430.069	103.62
430.292	111.62
430.514	110.62
430.736	100.62
430.958	112.62
431.18	110.62
431.402	97.62
431.624	97.62
431.846	102.62
432.068	87.62
432.29	99.62
432.512	102.62
432.734	124.62
432.956	113.62
433.178	96.62
433.4	105.62
433.622	113.62
433.844	109.62
434.066	95.62
434.287	100.62
434.509	83.62
434.731	92.62
434.953	86.62
435.175	97.62
435.397	109.62
435.618	89.62
435.84	100.62
436.062	102.62
436.284	98.62
436.505	104.62
436.727	98.62
436.949	95.62
437.17	91.62
437.392	103.62
437.614	92.62
437.835	106.62
438.057	101.62
438.278	83.62
438.5	105.62
438.721	92.62
438.943	121.62
439.165	94.62
439.386	116.62
439.608	109.62
439.829	107.62
440.05	123.62
440.272	107.62
440.493	122.62
440.715	118.62
440.936	97.62
441.158	97.62
441.379	108.62
441.6	119.62
441.822	117.62
442.043	120.62
442.264	116.62
442.486	115.62
442.707	104.62
442.928	118.62
443.149	107.62
443.371	109.62
443.592	111.62
443.813	127.62
444.034	118.62
444.255	94.62
444.476	119.62
444.698	95.62
444.919	102.62
445.14	240.62
445.361	161.62
445.582	114.62
445.803	115.62
446.024	122.62
446.245	126.62
446.466	125.62
446.687	120.62
446.908	128.62
447.129	126.62
447.35	124.62
447.571	102.62
447.792	106.62
448.013	102.62
448.234	99.62
448.455	124.62
448.675	109.62
448.896	105.62
449.117	113.62
449.338	104.62
449.559	134.62
449.779	104.62
450	108.62
450.221	98.62
450.442	102.62
450.662	106.62
450.883	107.62
451.104	100.62
451.324	102.62
451.545	104.62
451.766	112.62
451.986	114.62
452.207	105.62
452.428	105.62
452.648	116.62
452.869	102.62
453.089	93.62
453.31	96.62
453.53	96.62
453.751	91.62
453.971	110.62
454.192	92.62
454.412	89.62
454.633	87.62
454.853	118.62
455.073	119.62
455.294	95.62
455.514	92.62
455.734	105.62
455.955	99.62
456.175	95.62
456.395	97.62
456.616	98.62
456.836	95.62
457.056	98.62
457.276	99.62
457.497	92.62
457.717	108.62
457.937	108.62
458.157	94.62
458.377	104.62
458.598	89.62
458.818	95.62
459.038	92.62
459.258	92.62
459.478	81.62
459.698	88.62
459.918	97.62
460.138	95.62
460.358	93.62
460.578	97.62
460.798	109.62
461.018	90.62
461.238	104.62
461.458	97.62
461.678	97.62
461.898	105.62
462.118	97.62
462.338	108.62
462.558	96.62
462.777	96.62
462.997	91.62
463.217	98.62
463.437	102.62
463.657	99.62
463.876	76.62
464.096	97.62
464.316	90.62
464.536	94.62
464.755	89.62
464.975	83.62
465.195	106.62
465.414	94.62
465.634	95.62
465.854	106.62
466.073	91.62
466.293	104.62
466.512	99.62
466.732	111.62
466.951	115.62
467.171	112.62
467.391	95.62
467.61	101.62
467.829	126.62
468.049	111.62
468.268	98.62
468.488	119.62
468.707	110.62
468.927	107.62
469.146	94.62
469.365	94.62
469.585	88.62
469.804	125.62
470.023	122.62
470.243	115.62
470.462	108.62
470.681	95.62
470.901	112.62
471.12	119.62
471.339	112.62
471.558	107.62
471.777	119.62
471.997	102.62
472.216	104.62
472.435	105.62
472.654	101.62
472.873	94.62
473.092	92.62
473.311	97.62
473.53	99.62
473.749	92.62
473.968	110.62
474.187	105.62
474.406	97.62
474.625	104.62
474.844	100.62
475.063	95.62
475.282	111.62
475.501	109.62
475.72	99.62
475.939	92.62
476.158	109.62
476.377	109.62
476.596	96.62
476.814	98.62
477.033	95.62
477.252	96.62
477.471	103.62
477.69	104.62
477.908	105.62
478.127	111.62
478.346	96.62
478.564	109.62
478.783	106.62
479.002	120.62
479.22	114.62
479.439	115.62
479.658	111.62
479.876	120.62
480.095	96.62
480.313	107.62
480.532	105.62
480.751	92.62
480.969	89.62
481.188	83.62
481.406	76.62
481.624	88.62
481.843	101.62
482.061	105.62
482.28	92.62
482.498	102.62
482.717	92.62
482.935	108.62
483.153	108.62
483.372	124.62
483.59	119.62
483.808	109.62
484.027	105.62
484.245	109.62
484.463	111.62
484.681	120.62
484.9	108.62
485.118	109.62
485.336	104.62
485.554	108.62
485.772	87.62
485.99	98.62
486.209	105.62
486.427	93.62
486.645	101.62
486.863	105.62
487.081	97.62
487.299	104.62
487.517	118.62
487.735	113.62
487.953	133.62
488.171	134.62
488.389	142.62
488.607	103.62
488.825	108.62
489.043	108.62
489.261	119.62
489.479	109.62
489.696	115.62
489.914	102.62
490.132	108.62
490.35	127.62
490.568	121.62
490.786	131.62
491.003	129.62
491.221	116.62
491.439	137.62
491.657	137.62
491.874	155.62
492.092	151.62
492.31	159.62
492.527	153.62
492.745	141.62
492.963	135.62
493.18	143.62
493.398	127.62
493.615	127.62
493.833	129.62
494.05	133.62
494.268	118.62
494.485	125.62
494.703	131.62
494.92	128.62
495.138	139.62
495.355	129.62
495.573	131.62
495.79	124.62
496.008	131.62
496.225	134.62
496.442	125.62
496.66	131.62
496.877	120.62
497.094	112.62
497.312	130.62
497.529	119.62
497.746	112.62
497.963	104.62
498.181	117.62
498.398	105.62
498.615	101.62
498.832	106.62
499.049	107.62
499.267	100.62
499.484	107.62
499.701	110.62
499.918	116.62
500.135	107.62
500.352	122.62
500.569	118.62
500.786	122.62
501.003	103.62
501.22	127.62
501.437	110.62
501.654	108.62
501.871	101.62
502.088	100.62
502.305	107.62
502.522	116.62
502.739	111.62
502.956	114.62
503.172	105.62
503.389	115.62
503.606	106.62
503.823	98.62
504.04	107.62
504.256	108.62
504.473	99.62
504.69	105.62
504.907	111.62
505.123	106.62
505.34	113.62
505.557	103.62
505.773	118.62
505.99	101.62
506.207	112.62
506.423	103.62
506.64	114.62
506.856	99.62
507.073	97.62
507.289	95.62
507.506	108.62
507.722	79.62
507.939	104.62
508.155	110.62
508.372	104.62
508.588	105.62
508.805	98.62
509.021	93.62
509.238	90.62
509.454	95.62
509.67	106.62
509.887	99.62
510.103	94.62
510.319	91.62
510.536	91.62
510.752	88.62
510.968	85.62
511.184	76.62
511.401	85.62
511.617	78.62
511.833	82.62
512.049	91.62
512.265	85.62
512.481	91.62
512.698	96.62
512.914	81.62
513.13	88.62
513.346	86.62
513.562	93.62
513.778	87.62
513.994	85.62
514.21	86.62
