Data from Zn(NO3)2Standard.Agarose3%.GreenCap.LampEnergy10E.O_HRD10591_15-08-33-949.txt Node
Date: Mon Jul 22 15:08:33 EDT 2019
User: cochatt
Spectrometer: HR+D1059
Trigger mode: 1
Integration Time (sec): 1.000000E-1
Scans to average: 1
Electric dark correction enabled: true
Nonlinearity correction enabled: false
Boxcar width: 0
XAxis mode: Wavelengths
Number of Pixels in Spectrum: 2048
>>>>>Begin Spectral Data<<<<<
223.165	-19.69
223.4	-19.69
223.635	-19.69
223.869	-23.69
224.104	-10.69
224.338	-16.69
224.573	-8.69
224.808	-14.69
225.042	-14.69
225.277	-15.69
225.511	-0.69
225.746	-12.69
225.98	3.31
226.215	8.31
226.449	30.31
226.683	33.31
226.918	26.31
227.152	36.31
227.387	45.31
227.621	41.31
227.856	44.31
228.09	44.31
228.324	53.31
228.559	58.31
228.793	55.31
229.027	56.31
229.262	49.31
229.496	67.31
229.73	71.31
229.964	73.31
230.199	70.31
230.433	84.31
230.667	76.31
230.901	85.31
231.136	81.31
231.37	89.31
231.604	84.31
231.838	79.31
232.072	76.31
232.306	70.31
232.541	74.31
232.775	86.31
233.009	88.31
233.243	86.31
233.477	72.31
233.711	77.31
233.945	77.31
234.179	81.31
234.413	67.31
234.647	87.31
234.881	80.31
235.115	76.31
235.349	75.31
235.583	70.31
235.817	58.31
236.051	67.31
236.285	73.31
236.519	75.31
236.753	72.31
236.987	69.31
237.221	67.31
237.455	76.31
237.689	72.31
237.922	83.31
238.156	92.31
238.39	80.31
238.624	81.31
238.858	82.31
239.091	69.31
239.325	82.31
239.559	71.31
239.793	69.31
240.027	81.31
240.26	74.31
240.494	79.31
240.728	73.31
240.961	66.31
241.195	82.31
241.429	77.31
241.662	74.31
241.896	68.31
242.13	79.31
242.363	74.31
242.597	76.31
242.83	63.31
243.064	65.31
243.298	71.31
243.531	66.31
243.765	74.31
243.998	64.31
244.232	83.31
244.465	84.31
244.699	70.31
244.932	72.31
245.166	64.31
245.399	67.31
245.633	69.31
245.866	93.31
246.099	87.31
246.333	74.31
246.566	71.31
246.8	98.31
247.033	74.31
247.266	75.31
247.5	67.31
247.733	74.31
247.966	83.31
248.2	72.31
248.433	71.31
248.666	81.31
248.899	81.31
249.133	87.31
249.366	86.31
249.599	86.31
249.832	76.31
250.066	82.31
250.299	79.31
250.532	85.31
250.765	72.31
250.998	99.31
251.231	75.31
251.465	77.31
251.698	81.31
251.931	77.31
252.164	79.31
252.397	89.31
252.63	97.31
252.863	75.31
253.096	81.31
253.329	91.31
253.562	69.31
253.795	95.31
254.028	83.31
254.261	87.31
254.494	84.31
254.727	79.31
254.96	85.31
255.193	73.31
255.426	67.31
255.659	92.31
255.892	88.31
256.124	80.31
256.357	85.31
256.59	80.31
256.823	78.31
257.056	82.31
257.289	75.31
257.521	68.31
257.754	77.31
257.987	75.31
258.22	82.31
258.452	71.31
258.685	81.31
258.918	80.31
259.151	72.31
259.383	77.31
259.616	92.31
259.849	81.31
260.081	76.31
260.314	76.31
260.547	75.31
260.779	84.31
261.012	73.31
261.244	72.31
261.477	71.31
261.71	76.31
261.942	72.31
262.175	73.31
262.407	89.31
262.64	85.31
262.872	71.31
263.105	91.31
263.337	76.31
263.57	84.31
263.802	77.31
264.035	84.31
264.267	89.31
264.499	85.31
264.732	80.31
264.964	81.31
265.197	72.31
265.429	87.31
265.661	71.31
265.894	99.31
266.126	87.31
266.358	97.31
266.591	83.31
266.823	75.31
267.055	76.31
267.287	93.31
267.52	80.31
267.752	77.31
267.984	90.31
268.216	73.31
268.448	95.31
268.681	89.31
268.913	86.31
269.145	91.31
269.377	83.31
269.609	78.31
269.841	78.31
270.073	64.31
270.306	84.31
270.538	89.31
270.77	83.31
271.002	82.31
271.234	81.31
271.466	88.31
271.698	77.31
271.93	91.31
272.162	88.31
272.394	89.31
272.626	82.31
272.858	89.31
273.09	81.31
273.322	80.31
273.553	80.31
273.785	76.31
274.017	88.31
274.249	78.31
274.481	85.31
274.713	90.31
274.945	93.31
275.176	79.31
275.408	81.31
275.64	91.31
275.872	77.31
276.104	81.31
276.335	86.31
276.567	78.31
276.799	96.31
277.031	87.31
277.262	84.31
277.494	90.31
277.726	87.31
277.957	91.31
278.189	82.31
278.421	81.31
278.652	83.31
278.884	91.31
279.115	83.31
279.347	84.31
279.579	77.31
279.81	74.31
280.042	86.31
280.273	82.31
280.505	86.31
280.736	78.31
280.968	96.31
281.199	87.31
281.431	83.31
281.662	83.31
281.894	86.31
282.125	67.31
282.356	87.31
282.588	79.31
282.819	89.31
283.051	80.31
283.282	72.31
283.513	84.31
283.745	83.31
283.976	72.31
284.207	89.31
284.439	87.31
284.67	97.31
284.901	62.31
285.132	76.31
285.364	93.31
285.595	82.31
285.826	80.31
286.057	82.31
286.288	63.31
286.52	87.31
286.751	94.31
286.982	79.31
287.213	89.31
287.444	97.31
287.675	82.31
287.906	96.31
288.138	85.31
288.369	92.31
288.6	81.31
288.831	88.31
289.062	90.31
289.293	83.31
289.524	91.31
289.755	94.31
289.986	76.31
290.217	70.31
290.448	65.31
290.679	84.31
290.91	97.31
291.141	75.31
291.371	84.31
291.602	85.31
291.833	90.31
292.064	95.31
292.295	85.31
292.526	78.31
292.757	88.31
292.987	86.31
293.218	78.31
293.449	78.31
293.68	80.31
293.91	81.31
294.141	91.31
294.372	95.31
294.603	73.31
294.833	85.31
295.064	80.31
295.295	86.31
295.525	80.31
295.756	89.31
295.987	82.31
296.217	83.31
296.448	92.31
296.679	78.31
296.909	88.31
297.14	85.31
297.37	91.31
297.601	78.31
297.831	97.31
298.062	86.31
298.292	80.31
298.523	82.31
298.753	96.31
298.984	90.31
299.214	99.31
299.445	82.31
299.675	81.31
299.905	85.31
300.136	83.31
300.366	80.31
300.597	103.31
300.827	97.31
301.057	83.31
301.288	105.31
301.518	90.31
301.748	82.31
301.979	86.31
302.209	83.31
302.439	98.31
302.669	72.31
302.9	75.31
303.13	91.31
303.36	78.31
303.59	68.31
303.82	83.31
304.051	97.31
304.281	80.31
304.511	81.31
304.741	83.31
304.971	86.31
305.201	78.31
305.431	94.31
305.661	87.31
305.891	97.31
306.121	90.31
306.352	72.31
306.582	77.31
306.812	83.31
307.042	68.31
307.272	81.31
307.502	92.31
307.731	91.31
307.961	83.31
308.191	77.31
308.421	77.31
308.651	83.31
308.881	87.31
309.111	78.31
309.341	81.31
309.571	92.31
309.8	77.31
310.03	77.31
310.26	85.31
310.49	85.31
310.72	79.31
310.949	82.31
311.179	83.31
311.409	87.31
311.639	78.31
311.868	75.31
312.098	86.31
312.328	80.31
312.557	85.31
312.787	85.31
313.017	88.31
313.246	91.31
313.476	78.31
313.706	87.31
313.935	75.31
314.165	89.31
314.394	85.31
314.624	99.31
314.853	88.31
315.083	81.31
315.312	85.31
315.542	77.31
315.771	76.31
316.001	84.31
316.23	78.31
316.46	92.31
316.689	76.31
316.919	73.31
317.148	84.31
317.377	81.31
317.607	91.31
317.836	87.31
318.065	86.31
318.295	94.31
318.524	92.31
318.753	83.31
318.983	92.31
319.212	72.31
319.441	96.31
319.67	77.31
319.9	104.31
320.129	87.31
320.358	97.31
320.587	93.31
320.816	78.31
321.046	65.31
321.275	101.31
321.504	89.31
321.733	91.31
321.962	75.31
322.191	89.31
322.42	87.31
322.649	87.31
322.878	87.31
323.108	96.31
323.337	79.31
323.566	92.31
323.795	69.31
324.024	76.31
324.253	83.31
324.482	95.31
324.71	73.31
324.939	74.31
325.168	82.31
325.397	90.31
325.626	73.31
325.855	93.31
326.084	92.31
326.313	86.31
326.542	78.31
326.77	81.31
326.999	85.31
327.228	87.31
327.457	81.31
327.686	96.31
327.914	80.31
328.143	94.31
328.372	89.31
328.6	98.31
328.829	96.31
329.058	88.31
329.287	78.31
329.515	87.31
329.744	88.31
329.972	78.31
330.201	74.31
330.43	85.31
330.658	83.31
330.887	87.31
331.115	82.31
331.344	94.31
331.572	91.31
331.801	77.31
332.03	79.31
332.258	76.31
332.486	92.31
332.715	73.31
332.943	82.31
333.172	86.31
333.4	81.31
333.629	81.31
333.857	81.31
334.085	103.31
334.314	77.31
334.542	85.31
334.771	81.31
334.999	82.31
335.227	82.31
335.455	85.31
335.684	86.31
335.912	93.31
336.14	83.31
336.369	92.31
336.597	94.31
336.825	97.31
337.053	84.31
337.281	78.31
337.51	72.31
337.738	87.31
337.966	89.31
338.194	89.31
338.422	86.31
338.65	87.31
338.878	84.31
339.106	76.31
339.334	105.31
339.562	92.31
339.79	73.31
340.018	88.31
340.246	99.31
340.474	76.31
340.702	99.31
340.93	83.31
341.158	76.31
341.386	88.31
341.614	90.31
341.842	90.31
342.07	82.31
342.298	89.31
342.526	81.31
342.754	96.31
342.981	91.31
343.209	81.31
343.437	101.31
343.665	70.31
343.893	88.31
344.12	91.31
344.348	87.31
344.576	83.31
344.804	94.31
345.031	83.31
345.259	76.31
345.487	104.31
345.714	91.31
345.942	77.31
346.17	94.31
346.397	91.31
346.625	78.31
346.853	74.31
347.08	68.31
347.308	81.31
347.535	76.31
347.763	86.31
347.99	88.31
348.218	84.31
348.445	68.31
348.673	89.31
348.9	85.31
349.128	93.31
349.355	79.31
349.583	81.31
349.81	87.31
350.037	86.31
350.265	80.31
350.492	89.31
350.72	92.31
350.947	87.31
351.174	79.31
351.402	86.31
351.629	87.31
351.856	75.31
352.083	71.31
352.311	76.31
352.538	72.31
352.765	91.31
352.992	80.31
353.22	75.31
353.447	77.31
353.674	86.31
353.901	74.31
354.128	81.31
354.355	87.31
354.583	81.31
354.81	80.31
355.037	88.31
355.264	87.31
355.491	73.31
355.718	74.31
355.945	93.31
356.172	83.31
356.399	94.31
356.626	82.31
356.853	76.31
357.08	87.31
357.307	76.31
357.534	94.31
357.761	90.31
357.988	76.31
358.215	82.31
358.441	86.31
358.668	87.31
358.895	75.31
359.122	75.31
359.349	69.31
359.576	65.31
359.802	76.31
360.029	91.31
360.256	83.31
360.483	80.31
360.709	84.31
360.936	97.31
361.163	79.31
361.39	88.31
361.616	93.31
361.843	83.31
362.07	80.31
362.296	76.31
362.523	94.31
362.749	87.31
362.976	81.31
363.203	84.31
363.429	95.31
363.656	79.31
363.882	81.31
364.109	82.31
364.335	91.31
364.562	97.31
364.788	92.31
365.015	86.31
365.241	83.31
365.468	83.31
365.694	75.31
365.92	86.31
366.147	95.31
366.373	87.31
366.599	77.31
366.826	72.31
367.052	83.31
367.278	76.31
367.505	84.31
367.731	82.31
367.957	72.31
368.184	95.31
368.41	89.31
368.636	80.31
368.862	96.31
369.089	100.31
369.315	84.31
369.541	92.31
369.767	93.31
369.993	74.31
370.219	94.31
370.445	86.31
370.672	89.31
370.898	97.31
371.124	78.31
371.35	88.31
371.576	100.31
371.802	88.31
372.028	91.31
372.254	84.31
372.48	93.31
372.706	87.31
372.932	101.31
373.158	70.31
373.384	79.31
373.61	100.31
373.835	94.31
374.061	95.31
374.287	90.31
374.513	87.31
374.739	76.31
374.965	82.31
375.191	84.31
375.416	93.31
375.642	88.31
375.868	81.31
376.094	89.31
376.319	83.31
376.545	99.31
376.771	85.31
376.997	89.31
377.222	73.31
377.448	74.31
377.674	81.31
377.899	79.31
378.125	86.31
378.35	89.31
378.576	81.31
378.802	76.31
379.027	92.31
379.253	74.31
379.478	84.31
379.704	78.31
379.929	87.31
380.155	83.31
380.38	97.31
380.606	86.31
380.831	86.31
381.057	89.31
381.282	86.31
381.507	90.31
381.733	91.31
381.958	89.31
382.184	98.31
382.409	98.31
382.634	92.31
382.86	100.31
383.085	109.31
383.31	97.31
383.535	99.31
383.761	90.31
383.986	89.31
384.211	79.31
384.436	82.31
384.662	105.31
384.887	80.31
385.112	75.31
385.337	89.31
385.562	97.31
385.787	93.31
386.013	93.31
386.238	96.31
386.463	93.31
386.688	97.31
386.913	76.31
387.138	100.31
387.363	77.31
387.588	98.31
387.813	94.31
388.038	99.31
388.263	102.31
388.488	85.31
388.713	95.31
388.938	91.31
389.163	88.31
389.387	83.31
389.612	85.31
389.837	72.31
390.062	83.31
390.287	88.31
390.512	88.31
390.736	92.31
390.961	93.31
391.186	102.31
391.411	105.31
391.636	94.31
391.86	75.31
392.085	98.31
392.31	93.31
392.534	87.31
392.759	88.31
392.984	100.31
393.208	93.31
393.433	95.31
393.658	93.31
393.882	83.31
394.107	77.31
394.331	92.31
394.556	85.31
394.78	93.31
395.005	86.31
395.229	95.31
395.454	90.31
395.678	100.31
395.903	90.31
396.127	86.31
396.352	86.31
396.576	105.31
396.801	95.31
397.025	93.31
397.249	86.31
397.474	99.31
397.698	96.31
397.922	97.31
398.147	83.31
398.371	99.31
398.595	108.31
398.82	107.31
399.044	99.31
399.268	96.31
399.492	87.31
399.717	80.31
399.941	103.31
400.165	86.31
400.389	90.31
400.613	97.31
400.837	92.31
401.062	106.31
401.286	96.31
401.51	105.31
401.734	104.31
401.958	95.31
402.182	92.31
402.406	94.31
402.63	89.31
402.854	82.31
403.078	89.31
403.302	85.31
403.526	106.31
403.75	106.31
403.974	95.31
404.198	85.31
404.422	97.31
404.645	102.31
404.869	92.31
405.093	89.31
405.317	94.31
405.541	93.31
405.765	93.31
405.988	95.31
406.212	97.31
406.436	101.31
406.66	121.31
406.883	104.31
407.107	91.31
407.331	111.31
407.555	82.31
407.778	95.31
408.002	100.31
408.226	79.31
408.449	86.31
408.673	98.31
408.896	99.31
409.12	95.31
409.344	104.31
409.567	80.31
409.791	87.31
410.014	93.31
410.238	101.31
410.461	82.31
410.685	99.31
410.908	101.31
411.132	115.31
411.355	102.31
411.578	95.31
411.802	95.31
412.025	102.31
412.249	103.31
412.472	84.31
412.695	92.31
412.919	106.31
413.142	97.31
413.365	108.31
413.589	97.31
413.812	95.31
414.035	106.31
414.258	102.31
414.482	106.31
414.705	96.31
414.928	105.31
415.151	97.31
415.374	91.31
415.597	97.31
415.821	111.31
416.044	101.31
416.267	104.31
416.49	107.31
416.713	86.31
416.936	104.31
417.159	101.31
417.382	97.31
417.605	116.31
417.828	100.31
418.051	102.31
418.274	119.31
418.497	105.31
418.72	100.31
418.943	109.31
419.166	106.31
419.389	101.31
419.611	111.31
419.834	95.31
420.057	102.31
420.28	93.31
420.503	110.31
420.726	119.31
420.948	96.31
421.171	111.31
421.394	104.31
421.617	120.31
421.839	109.31
422.062	106.31
422.285	103.31
422.507	100.31
422.73	108.31
422.953	107.31
423.175	112.31
423.398	113.31
423.621	102.31
423.843	91.31
424.066	115.31
424.288	105.31
424.511	96.31
424.733	104.31
424.956	120.31
425.178	97.31
425.401	109.31
425.623	89.31
425.846	103.31
426.068	113.31
426.291	105.31
426.513	111.31
426.735	106.31
426.958	98.31
427.18	96.31
427.402	104.31
427.625	91.31
427.847	95.31
428.069	101.31
428.292	106.31
428.514	103.31
428.736	98.31
428.958	105.31
429.181	107.31
429.403	112.31
429.625	95.31
429.847	95.31
430.069	109.31
430.292	93.31
430.514	102.31
430.736	118.31
430.958	103.31
431.18	102.31
431.402	100.31
431.624	120.31
431.846	90.31
432.068	93.31
432.29	85.31
432.512	99.31
432.734	112.31
432.956	118.31
433.178	84.31
433.4	113.31
433.622	98.31
433.844	111.31
434.066	93.31
434.287	87.31
434.509	95.31
434.731	95.31
434.953	96.31
435.175	115.31
435.397	96.31
435.618	86.31
435.84	100.31
436.062	105.31
436.284	96.31
436.505	113.31
436.727	107.31
436.949	115.31
437.17	104.31
437.392	92.31
437.614	92.31
437.835	88.31
438.057	88.31
438.278	100.31
438.5	91.31
438.721	99.31
438.943	106.31
439.165	104.31
439.386	119.31
439.608	115.31
439.829	95.31
440.05	100.31
440.272	99.31
440.493	116.31
440.715	105.31
440.936	127.31
441.158	113.31
441.379	111.31
441.6	123.31
441.822	106.31
442.043	93.31
442.264	106.31
442.486	105.31
442.707	115.31
442.928	100.31
443.149	103.31
443.371	107.31
443.592	97.31
443.813	102.31
444.034	118.31
444.255	106.31
444.476	114.31
444.698	113.31
444.919	105.31
445.14	256.31
445.361	182.31
445.582	116.31
445.803	105.31
446.024	103.31
446.245	114.31
446.466	117.31
446.687	115.31
446.908	102.31
447.129	111.31
447.35	117.31
447.571	100.31
447.792	116.31
448.013	113.31
448.234	112.31
448.455	107.31
448.675	100.31
448.896	94.31
449.117	108.31
449.338	106.31
449.559	101.31
449.779	120.31
450	112.31
450.221	88.31
450.442	116.31
450.662	118.31
450.883	99.31
451.104	100.31
451.324	95.31
451.545	106.31
451.766	98.31
451.986	116.31
452.207	114.31
452.428	108.31
452.648	103.31
452.869	92.31
453.089	90.31
453.31	96.31
453.53	97.31
453.751	95.31
453.971	82.31
454.192	89.31
454.412	83.31
454.633	100.31
454.853	91.31
455.073	97.31
455.294	95.31
455.514	105.31
455.734	83.31
455.955	99.31
456.175	99.31
456.395	88.31
456.616	83.31
456.836	87.31
457.056	101.31
457.276	111.31
457.497	113.31
457.717	106.31
457.937	103.31
458.157	90.31
458.377	87.31
458.598	73.31
458.818	87.31
459.038	99.31
459.258	90.31
459.478	84.31
459.698	100.31
459.918	91.31
460.138	99.31
460.358	101.31
460.578	80.31
460.798	91.31
461.018	98.31
461.238	101.31
461.458	89.31
461.678	98.31
461.898	100.31
462.118	92.31
462.338	95.31
462.558	99.31
462.777	106.31
462.997	106.31
463.217	97.31
463.437	98.31
463.657	89.31
463.876	89.31
464.096	96.31
464.316	98.31
464.536	95.31
464.755	92.31
464.975	104.31
465.195	106.31
465.414	92.31
465.634	99.31
465.854	94.31
466.073	98.31
466.293	93.31
466.512	99.31
466.732	101.31
466.951	113.31
467.171	103.31
467.391	116.31
467.61	101.31
467.829	102.31
468.049	103.31
468.268	117.31
468.488	115.31
468.707	105.31
468.927	105.31
469.146	115.31
469.365	98.31
469.585	91.31
469.804	101.31
470.023	112.31
470.243	107.31
470.462	97.31
470.681	116.31
470.901	113.31
471.12	114.31
471.339	105.31
471.558	104.31
471.777	114.31
471.997	101.31
472.216	98.31
472.435	91.31
472.654	96.31
472.873	82.31
473.092	100.31
473.311	104.31
473.53	100.31
473.749	105.31
473.968	116.31
474.187	101.31
474.406	100.31
474.625	110.31
474.844	120.31
475.063	110.31
475.282	106.31
475.501	90.31
475.72	95.31
475.939	110.31
476.158	111.31
476.377	104.31
476.596	102.31
476.814	106.31
477.033	82.31
477.252	91.31
477.471	104.31
477.69	100.31
477.908	105.31
478.127	96.31
478.346	111.31
478.564	102.31
478.783	114.31
479.002	123.31
479.22	102.31
479.439	102.31
479.658	89.31
479.876	107.31
480.095	99.31
480.313	104.31
480.532	103.31
480.751	88.31
480.969	114.31
481.188	89.31
481.406	87.31
481.624	104.31
481.843	83.31
482.061	87.31
482.28	96.31
482.498	97.31
482.717	113.31
482.935	103.31
483.153	108.31
483.372	117.31
483.59	116.31
483.808	107.31
484.027	103.31
484.245	111.31
484.463	116.31
484.681	113.31
484.9	116.31
485.118	108.31
485.336	114.31
485.554	91.31
485.772	93.31
485.99	76.31
486.209	80.31
486.427	79.31
486.645	106.31
486.863	107.31
487.081	116.31
487.299	109.31
487.517	115.31
487.735	125.31
487.953	123.31
488.171	127.31
488.389	131.31
488.607	123.31
488.825	111.31
489.043	112.31
489.261	91.31
489.479	117.31
489.696	115.31
489.914	116.31
490.132	111.31
490.35	121.31
490.568	127.31
490.786	117.31
491.003	131.31
491.221	131.31
491.439	139.31
491.657	140.31
491.874	131.31
492.092	154.31
492.31	153.31
492.527	143.31
492.745	137.31
492.963	140.31
493.18	130.31
493.398	127.31
493.615	135.31
493.833	108.31
494.05	130.31
494.268	120.31
494.485	121.31
494.703	120.31
494.92	127.31
495.138	127.31
495.355	138.31
495.573	127.31
495.79	104.31
496.008	112.31
496.225	117.31
496.442	119.31
496.66	124.31
496.877	129.31
497.094	127.31
497.312	125.31
497.529	118.31
497.746	104.31
497.963	111.31
498.181	102.31
498.398	102.31
498.615	93.31
498.832	103.31
499.049	103.31
499.267	93.31
499.484	88.31
499.701	101.31
499.918	117.31
500.135	113.31
500.352	107.31
500.569	110.31
500.786	119.31
501.003	118.31
501.22	107.31
501.437	109.31
501.654	124.31
501.871	120.31
502.088	101.31
502.305	107.31
502.522	105.31
502.739	115.31
502.956	113.31
503.172	112.31
503.389	108.31
503.606	107.31
503.823	103.31
504.04	107.31
504.256	100.31
504.473	106.31
504.69	102.31
504.907	103.31
505.123	116.31
505.34	114.31
505.557	92.31
505.773	98.31
505.99	104.31
506.207	101.31
506.423	117.31
506.64	99.31
506.856	102.31
507.073	104.31
507.289	91.31
507.506	113.31
507.722	106.31
507.939	112.31
508.155	103.31
508.372	95.31
508.588	93.31
508.805	101.31
509.021	101.31
509.238	82.31
509.454	93.31
509.67	90.31
509.887	94.31
510.103	94.31
510.319	88.31
510.536	88.31
510.752	83.31
510.968	81.31
511.184	85.31
511.401	90.31
511.617	92.31
511.833	77.31
512.049	82.31
512.265	88.31
512.481	98.31
512.698	93.31
512.914	89.31
513.13	83.31
513.346	100.31
513.562	92.31
513.778	115.31
513.994	101.31
514.21	92.31
514.426	101.31
