Data from Zn(NO3)2Standard.Agarose3%.GreenCap.LampEnergy10E.O_HRD10591_15-08-46-951.txt Node
Date: Mon Jul 22 15:08:46 EDT 2019
User: cochatt
Spectrometer: HR+D1059
Trigger mode: 1
Integration Time (sec): 1.000000E-1
Scans to average: 1
Electric dark correction enabled: true
Nonlinearity correction enabled: false
Boxcar width: 0
XAxis mode: Wavelengths
Number of Pixels in Spectrum: 2048
>>>>>Begin Spectral Data<<<<<
223.165	-29.5
223.4	-29.5
223.635	-29.5
223.869	-15.5
224.104	-10.5
224.338	-16.5
224.573	-1.5
224.808	-10.5
225.042	0.5
225.277	3.5
225.511	-12.5
225.746	-11.5
225.98	10.5
226.215	22.5
226.449	5.5
226.683	23.5
226.918	24.5
227.152	17.5
227.387	33.5
227.621	27.5
227.856	35.5
228.09	34.5
228.324	49.5
228.559	58.5
228.793	47.5
229.027	66.5
229.262	58.5
229.496	57.5
229.73	74.5
229.964	74.5
230.199	71.5
230.433	70.5
230.667	57.5
230.901	73.5
231.136	76.5
231.37	71.5
231.604	77.5
231.838	74.5
232.072	78.5
232.306	71.5
232.541	83.5
232.775	74.5
233.009	81.5
233.243	80.5
233.477	82.5
233.711	81.5
233.945	87.5
234.179	66.5
234.413	84.5
234.647	77.5
234.881	79.5
235.115	69.5
235.349	79.5
235.583	81.5
235.817	76.5
236.051	72.5
236.285	74.5
236.519	74.5
236.753	80.5
236.987	79.5
237.221	72.5
237.455	83.5
237.689	88.5
237.922	74.5
238.156	79.5
238.39	74.5
238.624	72.5
238.858	73.5
239.091	78.5
239.325	73.5
239.559	75.5
239.793	82.5
240.027	87.5
240.26	80.5
240.494	75.5
240.728	64.5
240.961	63.5
241.195	82.5
241.429	88.5
241.662	83.5
241.896	71.5
242.13	74.5
242.363	66.5
242.597	76.5
242.83	73.5
243.064	83.5
243.298	78.5
243.531	75.5
243.765	74.5
243.998	68.5
244.232	74.5
244.465	83.5
244.699	76.5
244.932	78.5
245.166	79.5
245.399	74.5
245.633	72.5
245.866	71.5
246.099	73.5
246.333	82.5
246.566	61.5
246.8	74.5
247.033	82.5
247.266	73.5
247.5	65.5
247.733	79.5
247.966	83.5
248.2	76.5
248.433	79.5
248.666	72.5
248.899	59.5
249.133	75.5
249.366	77.5
249.599	85.5
249.832	76.5
250.066	88.5
250.299	64.5
250.532	79.5
250.765	72.5
250.998	79.5
251.231	72.5
251.465	83.5
251.698	95.5
251.931	78.5
252.164	71.5
252.397	89.5
252.63	90.5
252.863	80.5
253.096	73.5
253.329	85.5
253.562	79.5
253.795	77.5
254.028	76.5
254.261	89.5
254.494	68.5
254.727	94.5
254.96	71.5
255.193	78.5
255.426	76.5
255.659	69.5
255.892	78.5
256.124	75.5
256.357	93.5
256.59	86.5
256.823	90.5
257.056	71.5
257.289	82.5
257.521	65.5
257.754	74.5
257.987	76.5
258.22	78.5
258.452	91.5
258.685	74.5
258.918	75.5
259.151	92.5
259.383	86.5
259.616	88.5
259.849	76.5
260.081	78.5
260.314	85.5
260.547	58.5
260.779	88.5
261.012	88.5
261.244	75.5
261.477	90.5
261.71	87.5
261.942	85.5
262.175	70.5
262.407	76.5
262.64	73.5
262.872	75.5
263.105	82.5
263.337	89.5
263.57	67.5
263.802	85.5
264.035	85.5
264.267	78.5
264.499	72.5
264.732	88.5
264.964	82.5
265.197	80.5
265.429	90.5
265.661	67.5
265.894	75.5
266.126	72.5
266.358	82.5
266.591	66.5
266.823	91.5
267.055	87.5
267.287	81.5
267.52	86.5
267.752	72.5
267.984	85.5
268.216	83.5
268.448	74.5
268.681	75.5
268.913	79.5
269.145	78.5
269.377	86.5
269.609	70.5
269.841	80.5
270.073	71.5
270.306	68.5
270.538	88.5
270.77	75.5
271.002	63.5
271.234	80.5
271.466	79.5
271.698	86.5
271.93	81.5
272.162	83.5
272.394	75.5
272.626	76.5
272.858	73.5
273.09	89.5
273.322	94.5
273.553	74.5
273.785	87.5
274.017	78.5
274.249	90.5
274.481	81.5
274.713	74.5
274.945	89.5
275.176	80.5
275.408	87.5
275.64	76.5
275.872	79.5
276.104	86.5
276.335	94.5
276.567	81.5
276.799	90.5
277.031	70.5
277.262	75.5
277.494	82.5
277.726	80.5
277.957	91.5
278.189	83.5
278.421	84.5
278.652	100.5
278.884	88.5
279.115	89.5
279.347	85.5
279.579	82.5
279.81	69.5
280.042	89.5
280.273	72.5
280.505	78.5
280.736	79.5
280.968	83.5
281.199	75.5
281.431	81.5
281.662	86.5
281.894	78.5
282.125	84.5
282.356	74.5
282.588	84.5
282.819	79.5
283.051	87.5
283.282	82.5
283.513	98.5
283.745	85.5
283.976	77.5
284.207	82.5
284.439	82.5
284.67	76.5
284.901	86.5
285.132	94.5
285.364	71.5
285.595	76.5
285.826	67.5
286.057	95.5
286.288	96.5
286.52	81.5
286.751	76.5
286.982	95.5
287.213	68.5
287.444	90.5
287.675	76.5
287.906	79.5
288.138	80.5
288.369	84.5
288.6	81.5
288.831	86.5
289.062	80.5
289.293	90.5
289.524	83.5
289.755	90.5
289.986	87.5
290.217	72.5
290.448	81.5
290.679	92.5
290.91	77.5
291.141	93.5
291.371	83.5
291.602	78.5
291.833	78.5
292.064	80.5
292.295	88.5
292.526	86.5
292.757	88.5
292.987	80.5
293.218	78.5
293.449	89.5
293.68	86.5
293.91	87.5
294.141	91.5
294.372	79.5
294.603	92.5
294.833	82.5
295.064	79.5
295.295	85.5
295.525	82.5
295.756	70.5
295.987	91.5
296.217	66.5
296.448	89.5
296.679	73.5
296.909	79.5
297.14	93.5
297.37	100.5
297.601	89.5
297.831	78.5
298.062	82.5
298.292	87.5
298.523	90.5
298.753	74.5
298.984	81.5
299.214	91.5
299.445	79.5
299.675	81.5
299.905	87.5
300.136	68.5
300.366	87.5
300.597	67.5
300.827	85.5
301.057	85.5
301.288	82.5
301.518	84.5
301.748	72.5
301.979	88.5
302.209	89.5
302.439	74.5
302.669	74.5
302.9	75.5
303.13	88.5
303.36	89.5
303.59	89.5
303.82	84.5
304.051	87.5
304.281	78.5
304.511	94.5
304.741	94.5
304.971	83.5
305.201	86.5
305.431	77.5
305.661	78.5
305.891	96.5
306.121	93.5
306.352	76.5
306.582	74.5
306.812	81.5
307.042	81.5
307.272	90.5
307.502	84.5
307.731	81.5
307.961	92.5
308.191	85.5
308.421	79.5
308.651	85.5
308.881	91.5
309.111	79.5
309.341	85.5
309.571	73.5
309.8	95.5
310.03	76.5
310.26	89.5
310.49	70.5
310.72	69.5
310.949	89.5
311.179	87.5
311.409	83.5
311.639	74.5
311.868	77.5
312.098	84.5
312.328	89.5
312.557	67.5
312.787	86.5
313.017	94.5
313.246	85.5
313.476	83.5
313.706	73.5
313.935	79.5
314.165	82.5
314.394	73.5
314.624	75.5
314.853	79.5
315.083	87.5
315.312	85.5
315.542	97.5
315.771	85.5
316.001	76.5
316.23	83.5
316.46	74.5
316.689	74.5
316.919	98.5
317.148	88.5
317.377	77.5
317.607	82.5
317.836	63.5
318.065	88.5
318.295	74.5
318.524	79.5
318.753	87.5
318.983	80.5
319.212	81.5
319.441	81.5
319.67	78.5
319.9	78.5
320.129	74.5
320.358	84.5
320.587	87.5
320.816	94.5
321.046	67.5
321.275	96.5
321.504	74.5
321.733	84.5
321.962	87.5
322.191	89.5
322.42	94.5
322.649	87.5
322.878	64.5
323.108	84.5
323.337	77.5
323.566	72.5
323.795	73.5
324.024	81.5
324.253	83.5
324.482	65.5
324.71	90.5
324.939	80.5
325.168	80.5
325.397	93.5
325.626	93.5
325.855	80.5
326.084	78.5
326.313	78.5
326.542	87.5
326.77	87.5
326.999	88.5
327.228	88.5
327.457	87.5
327.686	89.5
327.914	101.5
328.143	77.5
328.372	81.5
328.6	80.5
328.829	73.5
329.058	81.5
329.287	75.5
329.515	78.5
329.744	95.5
329.972	88.5
330.201	93.5
330.43	92.5
330.658	78.5
330.887	75.5
331.115	75.5
331.344	89.5
331.572	81.5
331.801	80.5
332.03	77.5
332.258	85.5
332.486	84.5
332.715	87.5
332.943	78.5
333.172	81.5
333.4	88.5
333.629	79.5
333.857	84.5
334.085	78.5
334.314	99.5
334.542	86.5
334.771	89.5
334.999	81.5
335.227	88.5
335.455	69.5
335.684	75.5
335.912	81.5
336.14	85.5
336.369	80.5
336.597	79.5
336.825	89.5
337.053	94.5
337.281	73.5
337.51	72.5
337.738	82.5
337.966	74.5
338.194	84.5
338.422	95.5
338.65	82.5
338.878	83.5
339.106	73.5
339.334	73.5
339.562	92.5
339.79	77.5
340.018	74.5
340.246	70.5
340.474	86.5
340.702	94.5
340.93	68.5
341.158	73.5
341.386	65.5
341.614	69.5
341.842	78.5
342.07	82.5
342.298	61.5
342.526	78.5
342.754	79.5
342.981	80.5
343.209	81.5
343.437	83.5
343.665	83.5
343.893	83.5
344.12	85.5
344.348	88.5
344.576	80.5
344.804	74.5
345.031	87.5
345.259	83.5
345.487	92.5
345.714	69.5
345.942	82.5
346.17	83.5
346.397	85.5
346.625	79.5
346.853	85.5
347.08	79.5
347.308	86.5
347.535	81.5
347.763	88.5
347.99	77.5
348.218	71.5
348.445	88.5
348.673	87.5
348.9	80.5
349.128	77.5
349.355	74.5
349.583	67.5
349.81	62.5
350.037	89.5
350.265	79.5
350.492	73.5
350.72	70.5
350.947	69.5
351.174	74.5
351.402	88.5
351.629	85.5
351.856	81.5
352.083	99.5
352.311	97.5
352.538	83.5
352.765	80.5
352.992	77.5
353.22	81.5
353.447	83.5
353.674	82.5
353.901	88.5
354.128	70.5
354.355	59.5
354.583	65.5
354.81	73.5
355.037	90.5
355.264	93.5
355.491	72.5
355.718	85.5
355.945	73.5
356.172	89.5
356.399	81.5
356.626	67.5
356.853	83.5
357.08	79.5
357.307	82.5
357.534	83.5
357.761	81.5
357.988	71.5
358.215	75.5
358.441	84.5
358.668	84.5
358.895	70.5
359.122	84.5
359.349	73.5
359.576	82.5
359.802	89.5
360.029	78.5
360.256	69.5
360.483	79.5
360.709	73.5
360.936	85.5
361.163	88.5
361.39	83.5
361.616	81.5
361.843	82.5
362.07	78.5
362.296	77.5
362.523	89.5
362.749	78.5
362.976	78.5
363.203	79.5
363.429	76.5
363.656	74.5
363.882	64.5
364.109	78.5
364.335	77.5
364.562	93.5
364.788	75.5
365.015	93.5
365.241	76.5
365.468	94.5
365.694	74.5
365.92	75.5
366.147	88.5
366.373	89.5
366.599	81.5
366.826	82.5
367.052	75.5
367.278	82.5
367.505	75.5
367.731	83.5
367.957	80.5
368.184	79.5
368.41	90.5
368.636	98.5
368.862	78.5
369.089	93.5
369.315	77.5
369.541	74.5
369.767	70.5
369.993	85.5
370.219	85.5
370.445	79.5
370.672	67.5
370.898	76.5
371.124	77.5
371.35	90.5
371.576	81.5
371.802	81.5
372.028	81.5
372.254	82.5
372.48	85.5
372.706	85.5
372.932	74.5
373.158	80.5
373.384	78.5
373.61	76.5
373.835	93.5
374.061	84.5
374.287	79.5
374.513	82.5
374.739	81.5
374.965	75.5
375.191	73.5
375.416	65.5
375.642	79.5
375.868	82.5
376.094	75.5
376.319	94.5
376.545	78.5
376.771	71.5
376.997	77.5
377.222	72.5
377.448	97.5
377.674	76.5
377.899	82.5
378.125	77.5
378.35	81.5
378.576	89.5
378.802	88.5
379.027	77.5
379.253	87.5
379.478	85.5
379.704	72.5
379.929	82.5
380.155	80.5
380.38	87.5
380.606	100.5
380.831	81.5
381.057	77.5
381.282	90.5
381.507	72.5
381.733	90.5
381.958	93.5
382.184	74.5
382.409	87.5
382.634	104.5
382.86	79.5
383.085	89.5
383.31	80.5
383.535	84.5
383.761	87.5
383.986	74.5
384.211	86.5
384.436	85.5
384.662	80.5
384.887	72.5
385.112	89.5
385.337	91.5
385.562	89.5
385.787	86.5
386.013	80.5
386.238	88.5
386.463	82.5
386.688	88.5
386.913	82.5
387.138	71.5
387.363	85.5
387.588	89.5
387.813	87.5
388.038	85.5
388.263	75.5
388.488	82.5
388.713	95.5
388.938	84.5
389.163	92.5
389.387	82.5
389.612	89.5
389.837	94.5
390.062	87.5
390.287	85.5
390.512	92.5
390.736	90.5
390.961	103.5
391.186	97.5
391.411	80.5
391.636	84.5
391.86	83.5
392.085	89.5
392.31	90.5
392.534	94.5
392.759	86.5
392.984	87.5
393.208	90.5
393.433	104.5
393.658	87.5
393.882	76.5
394.107	88.5
394.331	83.5
394.556	87.5
394.78	90.5
395.005	94.5
395.229	87.5
395.454	77.5
395.678	95.5
395.903	80.5
396.127	70.5
396.352	75.5
396.576	86.5
396.801	89.5
397.025	80.5
397.249	101.5
397.474	93.5
397.698	88.5
397.922	95.5
398.147	83.5
398.371	94.5
398.595	88.5
398.82	92.5
399.044	97.5
399.268	85.5
399.492	86.5
399.717	94.5
399.941	86.5
400.165	109.5
400.389	82.5
400.613	78.5
400.837	95.5
401.062	86.5
401.286	91.5
401.51	81.5
401.734	86.5
401.958	87.5
402.182	91.5
402.406	94.5
402.63	82.5
402.854	89.5
403.078	87.5
403.302	89.5
403.526	84.5
403.75	100.5
403.974	85.5
404.198	84.5
404.422	103.5
404.645	83.5
404.869	90.5
405.093	99.5
405.317	95.5
405.541	85.5
405.765	83.5
405.988	99.5
406.212	99.5
406.436	89.5
406.66	96.5
406.883	94.5
407.107	93.5
407.331	95.5
407.555	79.5
407.778	97.5
408.002	113.5
408.226	98.5
408.449	94.5
408.673	94.5
408.896	85.5
409.12	76.5
409.344	104.5
409.567	97.5
409.791	103.5
410.014	83.5
410.238	102.5
410.461	87.5
410.685	100.5
410.908	95.5
411.132	92.5
411.355	72.5
411.578	96.5
411.802	103.5
412.025	101.5
412.249	93.5
412.472	87.5
412.695	90.5
412.919	94.5
413.142	100.5
413.365	94.5
413.589	95.5
413.812	86.5
414.035	104.5
414.258	94.5
414.482	98.5
414.705	117.5
414.928	90.5
415.151	116.5
415.374	97.5
415.597	98.5
415.821	97.5
416.044	93.5
416.267	91.5
416.49	87.5
416.713	103.5
416.936	99.5
417.159	112.5
417.382	100.5
417.605	100.5
417.828	104.5
418.051	106.5
418.274	89.5
418.497	98.5
418.72	97.5
418.943	104.5
419.166	113.5
419.389	106.5
419.611	106.5
419.834	90.5
420.057	112.5
420.28	107.5
420.503	100.5
420.726	88.5
420.948	89.5
421.171	88.5
421.394	98.5
421.617	98.5
421.839	107.5
422.062	106.5
422.285	96.5
422.507	101.5
422.73	90.5
422.953	96.5
423.175	103.5
423.398	100.5
423.621	105.5
423.843	96.5
424.066	99.5
424.288	94.5
424.511	96.5
424.733	113.5
424.956	111.5
425.178	99.5
425.401	99.5
425.623	97.5
425.846	95.5
426.068	103.5
426.291	96.5
426.513	103.5
426.735	106.5
426.958	113.5
427.18	89.5
427.402	103.5
427.625	109.5
427.847	111.5
428.069	113.5
428.292	93.5
428.514	114.5
428.736	80.5
428.958	98.5
429.181	101.5
429.403	99.5
429.625	104.5
429.847	107.5
430.069	115.5
430.292	113.5
430.514	94.5
430.736	99.5
430.958	105.5
431.18	95.5
431.402	90.5
431.624	98.5
431.846	85.5
432.068	84.5
432.29	102.5
432.512	90.5
432.734	99.5
432.956	105.5
433.178	106.5
433.4	99.5
433.622	111.5
433.844	113.5
434.066	90.5
434.287	93.5
434.509	91.5
434.731	86.5
434.953	92.5
435.175	93.5
435.397	118.5
435.618	98.5
435.84	82.5
436.062	91.5
436.284	96.5
436.505	98.5
436.727	89.5
436.949	93.5
437.17	105.5
437.392	98.5
437.614	108.5
437.835	94.5
438.057	97.5
438.278	103.5
438.5	102.5
438.721	106.5
438.943	114.5
439.165	111.5
439.386	95.5
439.608	109.5
439.829	110.5
440.05	104.5
440.272	112.5
440.493	96.5
440.715	101.5
440.936	115.5
441.158	111.5
441.379	89.5
441.6	106.5
441.822	122.5
442.043	107.5
442.264	109.5
442.486	93.5
442.707	100.5
442.928	115.5
443.149	102.5
443.371	117.5
443.592	107.5
443.813	109.5
444.034	107.5
444.255	113.5
444.476	111.5
444.698	93.5
444.919	91.5
445.14	223.5
445.361	169.5
445.582	114.5
445.803	111.5
446.024	112.5
446.245	124.5
446.466	110.5
446.687	98.5
446.908	121.5
447.129	106.5
447.35	125.5
447.571	126.5
447.792	103.5
448.013	103.5
448.234	98.5
448.455	90.5
448.675	112.5
448.896	118.5
449.117	110.5
449.338	119.5
449.559	111.5
449.779	111.5
450	95.5
450.221	116.5
450.442	106.5
450.662	94.5
450.883	94.5
451.104	106.5
451.324	102.5
451.545	120.5
451.766	117.5
451.986	102.5
452.207	103.5
452.428	110.5
452.648	98.5
452.869	99.5
453.089	96.5
453.31	86.5
453.53	95.5
453.751	92.5
453.971	82.5
454.192	95.5
454.412	91.5
454.633	97.5
454.853	113.5
455.073	86.5
455.294	95.5
455.514	96.5
455.734	97.5
455.955	84.5
456.175	89.5
456.395	87.5
456.616	74.5
456.836	92.5
457.056	109.5
457.276	98.5
457.497	103.5
457.717	96.5
457.937	101.5
458.157	101.5
458.377	106.5
458.598	99.5
458.818	94.5
459.038	80.5
459.258	105.5
459.478	95.5
459.698	87.5
459.918	89.5
460.138	84.5
460.358	93.5
460.578	98.5
460.798	112.5
461.018	93.5
461.238	79.5
461.458	93.5
461.678	105.5
461.898	120.5
462.118	103.5
462.338	110.5
462.558	94.5
462.777	99.5
462.997	91.5
463.217	95.5
463.437	97.5
463.657	96.5
463.876	95.5
464.096	101.5
464.316	89.5
464.536	84.5
464.755	96.5
464.975	94.5
465.195	103.5
465.414	90.5
465.634	108.5
465.854	111.5
466.073	95.5
466.293	90.5
466.512	94.5
466.732	92.5
466.951	106.5
467.171	99.5
467.391	96.5
467.61	117.5
467.829	105.5
468.049	101.5
468.268	92.5
468.488	90.5
468.707	105.5
468.927	99.5
469.146	102.5
469.365	119.5
469.585	96.5
469.804	101.5
470.023	103.5
470.243	103.5
470.462	124.5
470.681	109.5
470.901	121.5
471.12	117.5
471.339	115.5
471.558	109.5
471.777	94.5
471.997	107.5
472.216	96.5
472.435	98.5
472.654	87.5
472.873	104.5
473.092	105.5
473.311	103.5
473.53	102.5
473.749	96.5
473.968	99.5
474.187	105.5
474.406	100.5
474.625	98.5
474.844	105.5
475.063	114.5
475.282	111.5
475.501	94.5
475.72	101.5
475.939	93.5
476.158	103.5
476.377	109.5
476.596	97.5
476.814	88.5
477.033	91.5
477.252	95.5
477.471	106.5
477.69	107.5
477.908	101.5
478.127	111.5
478.346	91.5
478.564	102.5
478.783	109.5
479.002	98.5
479.22	108.5
479.439	97.5
479.658	100.5
479.876	81.5
480.095	92.5
480.313	94.5
480.532	106.5
480.751	96.5
480.969	79.5
481.188	86.5
481.406	84.5
481.624	98.5
481.843	86.5
482.061	109.5
482.28	100.5
482.498	86.5
482.717	90.5
482.935	88.5
483.153	111.5
483.372	114.5
483.59	114.5
483.808	99.5
484.027	111.5
484.245	98.5
484.463	111.5
484.681	122.5
484.9	126.5
485.118	104.5
485.336	105.5
485.554	90.5
485.772	93.5
485.99	86.5
486.209	86.5
486.427	99.5
486.645	114.5
486.863	103.5
487.081	89.5
487.299	95.5
487.517	117.5
487.735	113.5
487.953	114.5
488.171	136.5
488.389	125.5
488.607	121.5
488.825	95.5
489.043	86.5
489.261	113.5
489.479	120.5
489.696	108.5
489.914	123.5
490.132	107.5
490.35	108.5
490.568	120.5
490.786	125.5
491.003	134.5
491.221	121.5
491.439	135.5
491.657	135.5
491.874	128.5
492.092	133.5
492.31	154.5
492.527	147.5
492.745	148.5
492.963	131.5
493.18	126.5
493.398	137.5
493.615	123.5
493.833	121.5
494.05	126.5
494.268	134.5
494.485	122.5
494.703	130.5
494.92	113.5
495.138	122.5
495.355	126.5
495.573	129.5
495.79	133.5
496.008	146.5
496.225	127.5
496.442	131.5
496.66	121.5
496.877	114.5
497.094	129.5
497.312	116.5
497.529	119.5
497.746	125.5
497.963	113.5
498.181	98.5
498.398	102.5
498.615	103.5
498.832	102.5
499.049	100.5
499.267	107.5
499.484	74.5
499.701	101.5
499.918	123.5
500.135	109.5
500.352	106.5
500.569	127.5
500.786	109.5
501.003	109.5
501.22	101.5
501.437	117.5
501.654	110.5
501.871	100.5
502.088	90.5
502.305	96.5
502.522	104.5
502.739	118.5
502.956	100.5
503.172	90.5
503.389	101.5
503.606	106.5
503.823	115.5
504.04	111.5
504.256	100.5
504.473	97.5
504.69	105.5
504.907	101.5
505.123	102.5
505.34	102.5
505.557	84.5
505.773	104.5
505.99	110.5
506.207	99.5
506.423	97.5
506.64	97.5
506.856	94.5
507.073	93.5
507.289	102.5
507.506	93.5
507.722	99.5
507.939	95.5
508.155	97.5
508.372	106.5
508.588	106.5
508.805	96.5
509.021	103.5
509.238	98.5
509.454	83.5
509.67	79.5
509.887	92.5
510.103	87.5
510.319	86.5
510.536	90.5
510.752	81.5
510.968	70.5
511.184	85.5
511.401	91.5
511.617	98.5
511.833	85.5
512.049	81.5
512.265	87.5
512.481	90.5
512.698	88.5
512.914	90.5
513.13	84.5
513.346	76.5
513.562	86.5
513.778	77.5
513.994	74.5
514.21	91.5
514.426	84.5
514.642	90.5
514.858	91.5
515.074	86.5
515.29	84.5
515.506	97.5
515.721	91.5
515.937	84.5
516.153	89.5
516.369	75.5
516.585	79.5
516.801	88.5
517.016	70.5
517.232	91.5
517.448	91.5
517.664	89.5
517.879	86.5
518.095	93.5
518.311	90.5
518.527	81.5
518.742	99.5
518.958	98.5
519.173	93.5
519.389	98.5
519.605	99.5
519.82	81.5
520.036	102.5
520.251	75.5
520.467	71.5
520.682	100.5
520.898	97.5
521.113	88.5
521.329	85.5
521.544	110.5
521.76	89.5
521.975	90.5
522.19	83.5
522.406	91.5
522.621	107.5
522.836	95.5
523.052	98.5
523.267	101.5
523.482	88.5
523.698	86.5
523.913	94.5
524.128	97.5
524.343	91.5
524.559	103.5
524.774	96.5
524.989	119.5
525.204	109.5
525.419	115.5
525.634	98.5
525.849	100.5
526.064	88.5
526.28	100.5
526.495	86.5
526.71	72.5
526.925	100.5
527.14	93.5
527.355	80.5
527.57	78.5
527.785	82.5
527.999	83.5
528.214	82.5
528.429	91.5
528.644	110.5
528.859	101.5
529.074	115.5
529.289	116.5
529.503	103.5
529.718	115.5
529.933	106.5
530.148	104.5
530.363	96.5
530.577	79.5
530.792	71.5
531.007	74.5
531.221	81.5
531.436	90.5
531.651	74.5
531.865	87.5
532.08	73.5
532.295	88.5
532.509	73.5
532.724	90.5
532.938	89.5
533.153	106.5
533.367	90.5
533.582	103.5
533.796	103.5
534.011	104.5
534.225	102.5
534.44	95.5
534.654	76.5
534.868	89.5
535.083	86.5
535.297	88.5
