Data from Zn(NO3)2Standard.Agarose3%.GreenCap.LampEnergy10E.O_HRD10591_15-08-57-951.txt Node
Date: Mon Jul 22 15:08:57 EDT 2019
User: cochatt
Spectrometer: HR+D1059
Trigger mode: 1
Integration Time (sec): 1.000000E-1
Scans to average: 1
Electric dark correction enabled: true
Nonlinearity correction enabled: false
Boxcar width: 0
XAxis mode: Wavelengths
Number of Pixels in Spectrum: 2048
>>>>>Begin Spectral Data<<<<<
223.165	-14.75
223.4	-14.75
223.635	-14.75
223.869	-13.75
224.104	-15.75
224.338	-13.75
224.573	-1.75
224.808	-14.75
225.042	-10.75
225.277	-7.75
225.511	1.25
225.746	3.25
225.98	5.25
226.215	14.25
226.449	15.25
226.683	5.25
226.918	11.25
227.152	37.25
227.387	40.25
227.621	41.25
227.856	47.25
228.09	48.25
228.324	44.25
228.559	62.25
228.793	61.25
229.027	63.25
229.262	68.25
229.496	71.25
229.73	67.25
229.964	70.25
230.199	77.25
230.433	82.25
230.667	78.25
230.901	85.25
231.136	77.25
231.37	78.25
231.604	82.25
231.838	82.25
232.072	70.25
232.306	87.25
232.541	89.25
232.775	82.25
233.009	88.25
233.243	85.25
233.477	87.25
233.711	86.25
233.945	91.25
234.179	84.25
234.413	87.25
234.647	82.25
234.881	75.25
235.115	82.25
235.349	80.25
235.583	79.25
235.817	77.25
236.051	82.25
236.285	69.25
236.519	56.25
236.753	67.25
236.987	76.25
237.221	77.25
237.455	82.25
237.689	76.25
237.922	70.25
238.156	69.25
238.39	63.25
238.624	68.25
238.858	66.25
239.091	89.25
239.325	79.25
239.559	69.25
239.793	87.25
240.027	72.25
240.26	82.25
240.494	68.25
240.728	80.25
240.961	78.25
241.195	77.25
241.429	72.25
241.662	84.25
241.896	65.25
242.13	85.25
242.363	77.25
242.597	79.25
242.83	84.25
243.064	79.25
243.298	73.25
243.531	80.25
243.765	80.25
243.998	75.25
244.232	70.25
244.465	75.25
244.699	71.25
244.932	68.25
245.166	79.25
245.399	87.25
245.633	77.25
245.866	83.25
246.099	81.25
246.333	69.25
246.566	81.25
246.8	78.25
247.033	81.25
247.266	77.25
247.5	78.25
247.733	73.25
247.966	74.25
248.2	85.25
248.433	85.25
248.666	79.25
248.899	74.25
249.133	71.25
249.366	82.25
249.599	86.25
249.832	86.25
250.066	80.25
250.299	68.25
250.532	81.25
250.765	85.25
250.998	82.25
251.231	87.25
251.465	84.25
251.698	89.25
251.931	83.25
252.164	94.25
252.397	77.25
252.63	80.25
252.863	86.25
253.096	81.25
253.329	75.25
253.562	84.25
253.795	73.25
254.028	88.25
254.261	83.25
254.494	71.25
254.727	92.25
254.96	72.25
255.193	77.25
255.426	79.25
255.659	75.25
255.892	77.25
256.124	102.25
256.357	85.25
256.59	71.25
256.823	88.25
257.056	89.25
257.289	82.25
257.521	71.25
257.754	89.25
257.987	74.25
258.22	77.25
258.452	89.25
258.685	91.25
258.918	91.25
259.151	76.25
259.383	76.25
259.616	73.25
259.849	92.25
260.081	91.25
260.314	81.25
260.547	86.25
260.779	78.25
261.012	82.25
261.244	72.25
261.477	78.25
261.71	75.25
261.942	93.25
262.175	78.25
262.407	95.25
262.64	89.25
262.872	81.25
263.105	77.25
263.337	72.25
263.57	93.25
263.802	91.25
264.035	83.25
264.267	78.25
264.499	90.25
264.732	85.25
264.964	84.25
265.197	75.25
265.429	99.25
265.661	71.25
265.894	74.25
266.126	79.25
266.358	79.25
266.591	78.25
266.823	82.25
267.055	83.25
267.287	69.25
267.52	82.25
267.752	69.25
267.984	78.25
268.216	85.25
268.448	79.25
268.681	79.25
268.913	81.25
269.145	79.25
269.377	73.25
269.609	84.25
269.841	87.25
270.073	82.25
270.306	81.25
270.538	79.25
270.77	89.25
271.002	87.25
271.234	91.25
271.466	88.25
271.698	81.25
271.93	83.25
272.162	85.25
272.394	85.25
272.626	102.25
272.858	91.25
273.09	82.25
273.322	71.25
273.553	77.25
273.785	64.25
274.017	72.25
274.249	65.25
274.481	72.25
274.713	76.25
274.945	103.25
275.176	79.25
275.408	79.25
275.64	88.25
275.872	83.25
276.104	70.25
276.335	79.25
276.567	93.25
276.799	86.25
277.031	74.25
277.262	83.25
277.494	87.25
277.726	86.25
277.957	81.25
278.189	82.25
278.421	84.25
278.652	98.25
278.884	93.25
279.115	78.25
279.347	91.25
279.579	85.25
279.81	80.25
280.042	88.25
280.273	88.25
280.505	89.25
280.736	89.25
280.968	78.25
281.199	91.25
281.431	86.25
281.662	98.25
281.894	73.25
282.125	76.25
282.356	79.25
282.588	74.25
282.819	98.25
283.051	88.25
283.282	86.25
283.513	88.25
283.745	82.25
283.976	64.25
284.207	88.25
284.439	91.25
284.67	76.25
284.901	86.25
285.132	88.25
285.364	88.25
285.595	77.25
285.826	74.25
286.057	81.25
286.288	73.25
286.52	76.25
286.751	82.25
286.982	82.25
287.213	76.25
287.444	85.25
287.675	88.25
287.906	96.25
288.138	77.25
288.369	94.25
288.6	76.25
288.831	88.25
289.062	88.25
289.293	84.25
289.524	83.25
289.755	71.25
289.986	98.25
290.217	87.25
290.448	87.25
290.679	86.25
290.91	81.25
291.141	83.25
291.371	93.25
291.602	97.25
291.833	93.25
292.064	77.25
292.295	88.25
292.526	92.25
292.757	97.25
292.987	80.25
293.218	89.25
293.449	90.25
293.68	84.25
293.91	87.25
294.141	102.25
294.372	77.25
294.603	64.25
294.833	88.25
295.064	86.25
295.295	79.25
295.525	90.25
295.756	85.25
295.987	88.25
296.217	96.25
296.448	83.25
296.679	76.25
296.909	83.25
297.14	73.25
297.37	89.25
297.601	85.25
297.831	85.25
298.062	92.25
298.292	77.25
298.523	87.25
298.753	83.25
298.984	83.25
299.214	95.25
299.445	78.25
299.675	99.25
299.905	86.25
300.136	86.25
300.366	79.25
300.597	75.25
300.827	79.25
301.057	85.25
301.288	87.25
301.518	86.25
301.748	64.25
301.979	74.25
302.209	71.25
302.439	88.25
302.669	77.25
302.9	83.25
303.13	95.25
303.36	82.25
303.59	87.25
303.82	81.25
304.051	86.25
304.281	85.25
304.511	80.25
304.741	83.25
304.971	83.25
305.201	89.25
305.431	83.25
305.661	78.25
305.891	87.25
306.121	70.25
306.352	74.25
306.582	92.25
306.812	83.25
307.042	86.25
307.272	90.25
307.502	76.25
307.731	87.25
307.961	87.25
308.191	83.25
308.421	66.25
308.651	92.25
308.881	89.25
309.111	86.25
309.341	101.25
309.571	73.25
309.8	85.25
310.03	87.25
310.26	84.25
310.49	83.25
310.72	77.25
310.949	85.25
311.179	87.25
311.409	73.25
311.639	90.25
311.868	83.25
312.098	82.25
312.328	76.25
312.557	79.25
312.787	91.25
313.017	94.25
313.246	91.25
313.476	85.25
313.706	79.25
313.935	84.25
314.165	82.25
314.394	83.25
314.624	75.25
314.853	83.25
315.083	88.25
315.312	85.25
315.542	70.25
315.771	81.25
316.001	77.25
316.23	90.25
316.46	84.25
316.689	93.25
316.919	75.25
317.148	77.25
317.377	82.25
317.607	78.25
317.836	80.25
318.065	91.25
318.295	74.25
318.524	91.25
318.753	75.25
318.983	100.25
319.212	76.25
319.441	97.25
319.67	89.25
319.9	99.25
320.129	92.25
320.358	88.25
320.587	98.25
320.816	78.25
321.046	96.25
321.275	88.25
321.504	85.25
321.733	85.25
321.962	89.25
322.191	83.25
322.42	86.25
322.649	80.25
322.878	87.25
323.108	85.25
323.337	89.25
323.566	97.25
323.795	79.25
324.024	99.25
324.253	89.25
324.482	90.25
324.71	78.25
324.939	75.25
325.168	75.25
325.397	70.25
325.626	82.25
325.855	86.25
326.084	86.25
326.313	88.25
326.542	78.25
326.77	90.25
326.999	71.25
327.228	83.25
327.457	72.25
327.686	104.25
327.914	101.25
328.143	84.25
328.372	69.25
328.6	78.25
328.829	75.25
329.058	77.25
329.287	80.25
329.515	85.25
329.744	89.25
329.972	77.25
330.201	77.25
330.43	90.25
330.658	79.25
330.887	91.25
331.115	77.25
331.344	79.25
331.572	82.25
331.801	85.25
332.03	86.25
332.258	91.25
332.486	84.25
332.715	85.25
332.943	90.25
333.172	93.25
333.4	95.25
333.629	80.25
333.857	68.25
334.085	75.25
334.314	97.25
334.542	89.25
334.771	84.25
334.999	91.25
335.227	91.25
335.455	88.25
335.684	69.25
335.912	85.25
336.14	78.25
336.369	89.25
336.597	99.25
336.825	79.25
337.053	81.25
337.281	90.25
337.51	78.25
337.738	100.25
337.966	98.25
338.194	89.25
338.422	79.25
338.65	94.25
338.878	74.25
339.106	83.25
339.334	80.25
339.562	78.25
339.79	97.25
340.018	99.25
340.246	83.25
340.474	83.25
340.702	95.25
340.93	85.25
341.158	100.25
341.386	85.25
341.614	85.25
341.842	93.25
342.07	80.25
342.298	76.25
342.526	79.25
342.754	88.25
342.981	88.25
343.209	85.25
343.437	84.25
343.665	90.25
343.893	74.25
344.12	101.25
344.348	87.25
344.576	102.25
344.804	90.25
345.031	93.25
345.259	85.25
345.487	70.25
345.714	82.25
345.942	95.25
346.17	72.25
346.397	82.25
346.625	78.25
346.853	100.25
347.08	99.25
347.308	91.25
347.535	84.25
347.763	69.25
347.99	88.25
348.218	83.25
348.445	72.25
348.673	84.25
348.9	81.25
349.128	79.25
349.355	78.25
349.583	83.25
349.81	85.25
350.037	84.25
350.265	91.25
350.492	86.25
350.72	94.25
350.947	86.25
351.174	83.25
351.402	83.25
351.629	70.25
351.856	97.25
352.083	84.25
352.311	83.25
352.538	89.25
352.765	94.25
352.992	77.25
353.22	83.25
353.447	91.25
353.674	84.25
353.901	87.25
354.128	76.25
354.355	80.25
354.583	70.25
354.81	83.25
355.037	88.25
355.264	91.25
355.491	89.25
355.718	95.25
355.945	77.25
356.172	82.25
356.399	85.25
356.626	83.25
356.853	74.25
357.08	96.25
357.307	87.25
357.534	69.25
357.761	78.25
357.988	86.25
358.215	85.25
358.441	80.25
358.668	85.25
358.895	83.25
359.122	84.25
359.349	89.25
359.576	72.25
359.802	80.25
360.029	85.25
360.256	91.25
360.483	86.25
360.709	102.25
360.936	101.25
361.163	84.25
361.39	61.25
361.616	89.25
361.843	75.25
362.07	93.25
362.296	101.25
362.523	98.25
362.749	95.25
362.976	78.25
363.203	89.25
363.429	86.25
363.656	79.25
363.882	91.25
364.109	86.25
364.335	82.25
364.562	93.25
364.788	90.25
365.015	84.25
365.241	78.25
365.468	100.25
365.694	86.25
365.92	83.25
366.147	99.25
366.373	82.25
366.599	87.25
366.826	77.25
367.052	78.25
367.278	87.25
367.505	92.25
367.731	87.25
367.957	81.25
368.184	98.25
368.41	89.25
368.636	91.25
368.862	86.25
369.089	63.25
369.315	79.25
369.541	90.25
369.767	77.25
369.993	75.25
370.219	84.25
370.445	81.25
370.672	70.25
370.898	86.25
371.124	83.25
371.35	103.25
371.576	74.25
371.802	93.25
372.028	82.25
372.254	82.25
372.48	84.25
372.706	87.25
372.932	83.25
373.158	75.25
373.384	94.25
373.61	86.25
373.835	87.25
374.061	76.25
374.287	94.25
374.513	82.25
374.739	98.25
374.965	97.25
375.191	85.25
375.416	91.25
375.642	77.25
375.868	101.25
376.094	86.25
376.319	78.25
376.545	90.25
376.771	89.25
376.997	75.25
377.222	95.25
377.448	94.25
377.674	92.25
377.899	93.25
378.125	70.25
378.35	78.25
378.576	101.25
378.802	96.25
379.027	89.25
379.253	95.25
379.478	86.25
379.704	83.25
379.929	83.25
380.155	100.25
380.38	90.25
380.606	85.25
380.831	87.25
381.057	99.25
381.282	93.25
381.507	95.25
381.733	83.25
381.958	83.25
382.184	85.25
382.409	86.25
382.634	107.25
382.86	93.25
383.085	93.25
383.31	102.25
383.535	87.25
383.761	98.25
383.986	96.25
384.211	89.25
384.436	92.25
384.662	91.25
384.887	79.25
385.112	88.25
385.337	93.25
385.562	91.25
385.787	83.25
386.013	97.25
386.238	99.25
386.463	102.25
386.688	91.25
386.913	81.25
387.138	99.25
387.363	77.25
387.588	89.25
387.813	77.25
388.038	100.25
388.263	77.25
388.488	90.25
388.713	102.25
388.938	93.25
389.163	101.25
389.387	93.25
389.612	93.25
389.837	87.25
390.062	83.25
390.287	104.25
390.512	93.25
390.736	80.25
390.961	96.25
391.186	91.25
391.411	87.25
391.636	84.25
391.86	87.25
392.085	99.25
392.31	101.25
392.534	100.25
392.759	92.25
392.984	89.25
393.208	94.25
393.433	92.25
393.658	83.25
393.882	91.25
394.107	91.25
394.331	94.25
394.556	101.25
394.78	105.25
395.005	83.25
395.229	83.25
395.454	79.25
395.678	96.25
395.903	82.25
396.127	84.25
396.352	105.25
396.576	102.25
396.801	86.25
397.025	93.25
397.249	106.25
397.474	102.25
397.698	91.25
397.922	88.25
398.147	92.25
398.371	99.25
398.595	95.25
398.82	109.25
399.044	86.25
399.268	87.25
399.492	94.25
399.717	100.25
399.941	82.25
400.165	93.25
400.389	96.25
400.613	106.25
400.837	82.25
401.062	86.25
401.286	99.25
401.51	70.25
401.734	101.25
401.958	105.25
402.182	88.25
402.406	90.25
402.63	97.25
402.854	107.25
403.078	87.25
403.302	101.25
403.526	88.25
403.75	96.25
403.974	89.25
404.198	111.25
404.422	100.25
404.645	98.25
404.869	107.25
405.093	108.25
405.317	108.25
405.541	92.25
405.765	90.25
405.988	98.25
406.212	103.25
406.436	109.25
406.66	100.25
406.883	95.25
407.107	98.25
407.331	106.25
407.555	99.25
407.778	92.25
408.002	106.25
408.226	104.25
408.449	103.25
408.673	103.25
408.896	92.25
409.12	97.25
409.344	104.25
409.567	98.25
409.791	101.25
410.014	99.25
410.238	99.25
410.461	107.25
410.685	102.25
410.908	92.25
411.132	106.25
411.355	91.25
411.578	105.25
411.802	88.25
412.025	106.25
412.249	102.25
412.472	102.25
412.695	110.25
412.919	88.25
413.142	125.25
413.365	108.25
413.589	110.25
413.812	113.25
414.035	83.25
414.258	93.25
414.482	92.25
414.705	104.25
414.928	101.25
415.151	112.25
415.374	103.25
415.597	98.25
415.821	84.25
416.044	98.25
416.267	94.25
416.49	100.25
416.713	106.25
416.936	107.25
417.159	92.25
417.382	100.25
417.605	91.25
417.828	107.25
418.051	102.25
418.274	98.25
418.497	116.25
418.72	116.25
418.943	110.25
419.166	104.25
419.389	111.25
419.611	110.25
419.834	108.25
420.057	106.25
420.28	109.25
420.503	99.25
420.726	107.25
420.948	120.25
421.171	107.25
421.394	110.25
421.617	102.25
421.839	108.25
422.062	97.25
422.285	107.25
422.507	101.25
422.73	90.25
422.953	97.25
423.175	99.25
423.398	109.25
423.621	115.25
423.843	118.25
424.066	105.25
424.288	126.25
424.511	115.25
424.733	106.25
424.956	108.25
425.178	100.25
425.401	116.25
425.623	106.25
425.846	113.25
426.068	107.25
426.291	97.25
426.513	107.25
426.735	109.25
426.958	102.25
427.18	110.25
427.402	93.25
427.625	109.25
427.847	123.25
428.069	105.25
428.292	117.25
428.514	113.25
428.736	117.25
428.958	108.25
429.181	111.25
429.403	104.25
429.625	107.25
429.847	89.25
430.069	95.25
430.292	114.25
430.514	101.25
430.736	108.25
430.958	101.25
431.18	98.25
431.402	105.25
431.624	96.25
431.846	103.25
432.068	96.25
432.29	106.25
432.512	106.25
432.734	116.25
432.956	102.25
433.178	105.25
433.4	103.25
433.622	104.25
433.844	118.25
434.066	106.25
434.287	115.25
434.509	99.25
434.731	85.25
434.953	121.25
435.175	111.25
435.397	109.25
435.618	100.25
435.84	87.25
436.062	98.25
436.284	109.25
436.505	105.25
436.727	113.25
436.949	105.25
437.17	109.25
437.392	104.25
437.614	109.25
437.835	101.25
438.057	94.25
438.278	99.25
438.5	100.25
438.721	101.25
438.943	105.25
439.165	107.25
439.386	114.25
439.608	104.25
439.829	105.25
440.05	115.25
440.272	106.25
440.493	112.25
440.715	114.25
440.936	118.25
441.158	105.25
441.379	111.25
441.6	105.25
441.822	113.25
442.043	125.25
442.264	114.25
442.486	105.25
442.707	98.25
442.928	106.25
443.149	101.25
443.371	106.25
443.592	89.25
443.813	117.25
444.034	87.25
444.255	109.25
444.476	111.25
444.698	107.25
444.919	117.25
445.14	242.25
445.361	173.25
445.582	121.25
445.803	106.25
446.024	123.25
446.245	130.25
446.466	111.25
446.687	105.25
446.908	113.25
447.129	101.25
447.35	122.25
447.571	111.25
447.792	119.25
448.013	105.25
448.234	119.25
448.455	115.25
448.675	106.25
448.896	117.25
449.117	109.25
449.338	91.25
449.559	120.25
449.779	115.25
450	117.25
450.221	129.25
450.442	109.25
450.662	97.25
450.883	98.25
451.104	94.25
451.324	113.25
451.545	98.25
451.766	116.25
451.986	109.25
452.207	111.25
452.428	109.25
452.648	99.25
452.869	102.25
453.089	102.25
453.31	97.25
453.53	89.25
453.751	87.25
453.971	87.25
454.192	106.25
454.412	94.25
454.633	92.25
454.853	106.25
455.073	100.25
455.294	106.25
455.514	114.25
455.734	104.25
455.955	97.25
456.175	106.25
456.395	105.25
456.616	98.25
456.836	99.25
457.056	90.25
457.276	105.25
457.497	109.25
457.717	99.25
457.937	97.25
458.157	94.25
458.377	103.25
458.598	95.25
458.818	87.25
459.038	79.25
459.258	82.25
459.478	89.25
459.698	89.25
459.918	96.25
460.138	90.25
460.358	113.25
460.578	98.25
460.798	96.25
461.018	104.25
461.238	105.25
461.458	97.25
461.678	96.25
461.898	99.25
462.118	93.25
462.338	89.25
462.558	104.25
462.777	87.25
462.997	101.25
463.217	87.25
463.437	82.25
463.657	101.25
463.876	93.25
464.096	97.25
464.316	93.25
464.536	98.25
464.755	103.25
464.975	85.25
465.195	94.25
465.414	102.25
465.634	92.25
465.854	97.25
466.073	125.25
466.293	115.25
466.512	102.25
466.732	109.25
466.951	100.25
467.171	121.25
467.391	103.25
467.61	101.25
467.829	105.25
468.049	101.25
468.268	96.25
468.488	104.25
468.707	107.25
468.927	121.25
469.146	101.25
469.365	101.25
469.585	118.25
469.804	104.25
470.023	96.25
470.243	115.25
470.462	116.25
470.681	105.25
470.901	127.25
471.12	102.25
471.339	115.25
471.558	103.25
471.777	110.25
471.997	113.25
472.216	104.25
472.435	100.25
472.654	87.25
472.873	91.25
473.092	98.25
473.311	90.25
473.53	108.25
473.749	114.25
473.968	105.25
474.187	105.25
474.406	93.25
474.625	98.25
474.844	107.25
475.063	106.25
475.282	100.25
475.501	93.25
475.72	101.25
475.939	105.25
476.158	102.25
476.377	108.25
476.596	105.25
476.814	78.25
477.033	102.25
477.252	98.25
477.471	87.25
477.69	118.25
477.908	109.25
478.127	115.25
478.346	110.25
478.564	102.25
478.783	91.25
479.002	107.25
479.22	117.25
479.439	113.25
479.658	105.25
479.876	99.25
480.095	88.25
480.313	102.25
480.532	106.25
480.751	97.25
480.969	90.25
481.188	84.25
481.406	92.25
481.624	91.25
481.843	77.25
482.061	86.25
482.28	104.25
482.498	96.25
482.717	92.25
482.935	107.25
483.153	100.25
483.372	125.25
483.59	117.25
483.808	102.25
484.027	113.25
484.245	107.25
484.463	127.25
484.681	121.25
484.9	117.25
485.118	109.25
485.336	108.25
485.554	93.25
485.772	89.25
485.99	85.25
486.209	104.25
486.427	95.25
486.645	103.25
486.863	111.25
487.081	136.25
487.299	115.25
487.517	102.25
487.735	107.25
487.953	116.25
488.171	142.25
488.389	110.25
488.607	119.25
488.825	108.25
489.043	102.25
489.261	107.25
489.479	125.25
489.696	115.25
489.914	125.25
490.132	117.25
490.35	121.25
490.568	111.25
490.786	123.25
491.003	141.25
491.221	138.25
491.439	136.25
491.657	131.25
491.874	133.25
492.092	153.25
492.31	153.25
492.527	143.25
492.745	143.25
492.963	147.25
493.18	131.25
493.398	128.25
493.615	134.25
493.833	133.25
494.05	123.25
494.268	143.25
494.485	139.25
494.703	144.25
494.92	133.25
495.138	129.25
495.355	119.25
495.573	123.25
495.79	127.25
496.008	125.25
496.225	141.25
496.442	114.25
496.66	131.25
496.877	140.25
497.094	118.25
497.312	126.25
497.529	119.25
497.746	113.25
497.963	120.25
498.181	109.25
498.398	100.25
498.615	105.25
498.832	99.25
499.049	94.25
499.267	115.25
499.484	107.25
499.701	99.25
499.918	115.25
500.135	106.25
500.352	114.25
500.569	110.25
500.786	109.25
501.003	107.25
501.22	113.25
501.437	101.25
501.654	103.25
501.871	100.25
502.088	101.25
502.305	103.25
502.522	99.25
502.739	100.25
502.956	89.25
503.172	100.25
503.389	104.25
503.606	91.25
503.823	120.25
504.04	89.25
504.256	106.25
504.473	110.25
504.69	97.25
504.907	97.25
505.123	102.25
505.34	104.25
505.557	108.25
505.773	113.25
505.99	116.25
506.207	109.25
506.423	104.25
506.64	109.25
506.856	99.25
507.073	95.25
507.289	97.25
507.506	104.25
507.722	98.25
507.939	94.25
508.155	107.25
508.372	110.25
508.588	83.25
508.805	105.25
509.021	109.25
509.238	89.25
509.454	101.25
509.67	97.25
509.887	94.25
510.103	74.25
510.319	104.25
510.536	93.25
510.752	92.25
510.968	84.25
511.184	75.25
511.401	88.25
511.617	97.25
511.833	97.25
512.049	107.25
512.265	108.25
512.481	90.25
512.698	98.25
512.914	92.25
513.13	82.25
513.346	102.25
513.562	96.25
513.778	101.25
513.994	86.25
