Data from Zn(NO3)2Standard.Agarose3%.GreenCap.LampEnergy5.5.E.O_HRD10591_15-01-18-768.txt Node
Date: Mon Jul 22 15:01:18 EDT 2019
User: cochatt
Spectrometer: HR+D1059
Trigger mode: 1
Integration Time (sec): 1.000000E-1
Scans to average: 1
Electric dark correction enabled: true
Nonlinearity correction enabled: false
Boxcar width: 0
XAxis mode: Wavelengths
Number of Pixels in Spectrum: 2048
>>>>>Begin Spectral Data<<<<<
223.165	-8.88
223.4	-8.88
223.635	-8.88
223.869	-10.88
224.104	-24.88
224.338	-14.88
224.573	-8.88
224.808	-8.88
225.042	-21.88
225.277	-8.88
225.511	-4.88
225.746	4.12
225.98	17.12
226.215	1.12
226.449	0.12
226.683	16.12
226.918	39.12
227.152	35.12
227.387	40.12
227.621	33.12
227.856	47.12
228.09	40.12
228.324	37.12
228.559	50.12
228.793	49.12
229.027	68.12
229.262	61.12
229.496	58.12
229.73	67.12
229.964	76.12
230.199	70.12
230.433	67.12
230.667	68.12
230.901	68.12
231.136	75.12
231.37	93.12
231.604	85.12
231.838	73.12
232.072	93.12
232.306	87.12
232.541	95.12
232.775	69.12
233.009	70.12
233.243	75.12
233.477	78.12
233.711	73.12
233.945	71.12
234.179	81.12
234.413	88.12
234.647	80.12
234.881	80.12
235.115	82.12
235.349	77.12
235.583	72.12
235.817	82.12
236.051	74.12
236.285	88.12
236.519	71.12
236.753	79.12
236.987	83.12
237.221	78.12
237.455	85.12
237.689	79.12
237.922	85.12
238.156	68.12
238.39	67.12
238.624	66.12
238.858	77.12
239.091	83.12
239.325	85.12
239.559	82.12
239.793	73.12
240.027	81.12
240.26	75.12
240.494	85.12
240.728	50.12
240.961	67.12
241.195	78.12
241.429	75.12
241.662	87.12
241.896	73.12
242.13	72.12
242.363	70.12
242.597	66.12
242.83	74.12
243.064	82.12
243.298	76.12
243.531	75.12
243.765	76.12
243.998	74.12
244.232	72.12
244.465	70.12
244.699	71.12
244.932	77.12
245.166	73.12
245.399	84.12
245.633	83.12
245.866	73.12
246.099	80.12
246.333	82.12
246.566	85.12
246.8	69.12
247.033	80.12
247.266	62.12
247.5	72.12
247.733	78.12
247.966	68.12
248.2	71.12
248.433	80.12
248.666	65.12
248.899	75.12
249.133	87.12
249.366	73.12
249.599	80.12
249.832	70.12
250.066	80.12
250.299	85.12
250.532	74.12
250.765	74.12
250.998	73.12
251.231	81.12
251.465	69.12
251.698	87.12
251.931	81.12
252.164	72.12
252.397	67.12
252.63	82.12
252.863	103.12
253.096	85.12
253.329	80.12
253.562	73.12
253.795	92.12
254.028	82.12
254.261	72.12
254.494	67.12
254.727	83.12
254.96	73.12
255.193	72.12
255.426	85.12
255.659	82.12
255.892	89.12
256.124	84.12
256.357	82.12
256.59	78.12
256.823	87.12
257.056	85.12
257.289	90.12
257.521	83.12
257.754	76.12
257.987	72.12
258.22	76.12
258.452	91.12
258.685	76.12
258.918	90.12
259.151	70.12
259.383	74.12
259.616	68.12
259.849	74.12
260.081	73.12
260.314	80.12
260.547	80.12
260.779	93.12
261.012	86.12
261.244	73.12
261.477	65.12
261.71	90.12
261.942	77.12
262.175	72.12
262.407	81.12
262.64	83.12
262.872	74.12
263.105	90.12
263.337	80.12
263.57	86.12
263.802	89.12
264.035	69.12
264.267	79.12
264.499	85.12
264.732	75.12
264.964	88.12
265.197	79.12
265.429	79.12
265.661	75.12
265.894	87.12
266.126	70.12
266.358	74.12
266.591	81.12
266.823	87.12
267.055	74.12
267.287	73.12
267.52	87.12
267.752	80.12
267.984	64.12
268.216	83.12
268.448	87.12
268.681	80.12
268.913	88.12
269.145	89.12
269.377	92.12
269.609	79.12
269.841	73.12
270.073	84.12
270.306	97.12
270.538	75.12
270.77	89.12
271.002	95.12
271.234	83.12
271.466	87.12
271.698	81.12
271.93	70.12
272.162	89.12
272.394	81.12
272.626	69.12
272.858	70.12
273.09	89.12
273.322	79.12
273.553	72.12
273.785	73.12
274.017	65.12
274.249	66.12
274.481	78.12
274.713	70.12
274.945	84.12
275.176	81.12
275.408	70.12
275.64	79.12
275.872	75.12
276.104	65.12
276.335	65.12
276.567	85.12
276.799	80.12
277.031	85.12
277.262	86.12
277.494	74.12
277.726	78.12
277.957	75.12
278.189	71.12
278.421	77.12
278.652	77.12
278.884	69.12
279.115	86.12
279.347	74.12
279.579	86.12
279.81	79.12
280.042	95.12
280.273	88.12
280.505	107.12
280.736	77.12
280.968	74.12
281.199	90.12
281.431	100.12
281.662	69.12
281.894	80.12
282.125	85.12
282.356	84.12
282.588	77.12
282.819	69.12
283.051	90.12
283.282	88.12
283.513	94.12
283.745	70.12
283.976	80.12
284.207	67.12
284.439	70.12
284.67	70.12
284.901	87.12
285.132	87.12
285.364	82.12
285.595	81.12
285.826	86.12
286.057	82.12
286.288	83.12
286.52	86.12
286.751	70.12
286.982	87.12
287.213	88.12
287.444	78.12
287.675	89.12
287.906	89.12
288.138	77.12
288.369	87.12
288.6	92.12
288.831	68.12
289.062	98.12
289.293	87.12
289.524	82.12
289.755	83.12
289.986	71.12
290.217	85.12
290.448	82.12
290.679	77.12
290.91	83.12
291.141	79.12
291.371	88.12
291.602	81.12
291.833	53.12
292.064	85.12
292.295	79.12
292.526	86.12
292.757	90.12
292.987	87.12
293.218	85.12
293.449	77.12
293.68	75.12
293.91	74.12
294.141	83.12
294.372	79.12
294.603	82.12
294.833	70.12
295.064	73.12
295.295	90.12
295.525	90.12
295.756	88.12
295.987	86.12
296.217	73.12
296.448	83.12
296.679	86.12
296.909	74.12
297.14	88.12
297.37	85.12
297.601	81.12
297.831	82.12
298.062	84.12
298.292	75.12
298.523	88.12
298.753	77.12
298.984	92.12
299.214	89.12
299.445	77.12
299.675	83.12
299.905	87.12
300.136	65.12
300.366	77.12
300.597	81.12
300.827	86.12
301.057	96.12
301.288	86.12
301.518	80.12
301.748	73.12
301.979	68.12
302.209	74.12
302.439	80.12
302.669	84.12
302.9	79.12
303.13	78.12
303.36	88.12
303.59	88.12
303.82	93.12
304.051	83.12
304.281	77.12
304.511	81.12
304.741	81.12
304.971	95.12
305.201	80.12
305.431	79.12
305.661	95.12
305.891	75.12
306.121	78.12
306.352	93.12
306.582	74.12
306.812	77.12
307.042	83.12
307.272	85.12
307.502	91.12
307.731	91.12
307.961	90.12
308.191	86.12
308.421	77.12
308.651	85.12
308.881	83.12
309.111	75.12
309.341	75.12
309.571	78.12
309.8	94.12
310.03	83.12
310.26	74.12
310.49	93.12
310.72	79.12
310.949	69.12
311.179	88.12
311.409	84.12
311.639	81.12
311.868	86.12
312.098	93.12
312.328	83.12
312.557	81.12
312.787	95.12
313.017	83.12
313.246	78.12
313.476	73.12
313.706	78.12
313.935	86.12
314.165	79.12
314.394	84.12
314.624	83.12
314.853	86.12
315.083	73.12
315.312	77.12
315.542	82.12
315.771	84.12
316.001	73.12
316.23	96.12
316.46	79.12
316.689	70.12
316.919	71.12
317.148	104.12
317.377	86.12
317.607	89.12
317.836	79.12
318.065	84.12
318.295	102.12
318.524	90.12
318.753	82.12
318.983	80.12
319.212	81.12
319.441	89.12
319.67	93.12
319.9	78.12
320.129	77.12
320.358	89.12
320.587	75.12
320.816	74.12
321.046	81.12
321.275	79.12
321.504	88.12
321.733	89.12
321.962	79.12
322.191	85.12
322.42	98.12
322.649	71.12
322.878	86.12
323.108	81.12
323.337	75.12
323.566	81.12
323.795	87.12
324.024	98.12
324.253	84.12
324.482	87.12
324.71	86.12
324.939	83.12
325.168	84.12
325.397	79.12
325.626	82.12
325.855	68.12
326.084	93.12
326.313	77.12
326.542	88.12
326.77	80.12
326.999	86.12
327.228	83.12
327.457	75.12
327.686	69.12
327.914	74.12
328.143	88.12
328.372	83.12
328.6	73.12
328.829	65.12
329.058	77.12
329.287	89.12
329.515	86.12
329.744	77.12
329.972	79.12
330.201	95.12
330.43	75.12
330.658	91.12
330.887	75.12
331.115	87.12
331.344	70.12
331.572	93.12
331.801	89.12
332.03	74.12
332.258	89.12
332.486	74.12
332.715	72.12
332.943	87.12
333.172	77.12
333.4	90.12
333.629	70.12
333.857	77.12
334.085	84.12
334.314	83.12
334.542	73.12
334.771	75.12
334.999	84.12
335.227	100.12
335.455	81.12
335.684	81.12
335.912	69.12
336.14	90.12
336.369	94.12
336.597	87.12
336.825	80.12
337.053	82.12
337.281	79.12
337.51	72.12
337.738	83.12
337.966	85.12
338.194	86.12
338.422	77.12
338.65	76.12
338.878	83.12
339.106	77.12
339.334	75.12
339.562	74.12
339.79	72.12
340.018	95.12
340.246	85.12
340.474	82.12
340.702	98.12
340.93	82.12
341.158	78.12
341.386	74.12
341.614	72.12
341.842	65.12
342.07	78.12
342.298	88.12
342.526	80.12
342.754	80.12
342.981	87.12
343.209	68.12
343.437	75.12
343.665	80.12
343.893	84.12
344.12	91.12
344.348	88.12
344.576	81.12
344.804	89.12
345.031	73.12
345.259	69.12
345.487	64.12
345.714	91.12
345.942	92.12
346.17	83.12
346.397	88.12
346.625	78.12
346.853	82.12
347.08	78.12
347.308	80.12
347.535	75.12
347.763	76.12
347.99	86.12
348.218	90.12
348.445	87.12
348.673	73.12
348.9	74.12
349.128	90.12
349.355	84.12
349.583	63.12
349.81	81.12
350.037	79.12
350.265	86.12
350.492	91.12
350.72	80.12
350.947	81.12
351.174	77.12
351.402	74.12
351.629	74.12
351.856	79.12
352.083	81.12
352.311	75.12
352.538	84.12
352.765	82.12
352.992	80.12
353.22	87.12
353.447	76.12
353.674	75.12
353.901	78.12
354.128	80.12
354.355	72.12
354.583	93.12
354.81	90.12
355.037	77.12
355.264	81.12
355.491	85.12
355.718	83.12
355.945	93.12
356.172	81.12
356.399	81.12
356.626	71.12
356.853	80.12
357.08	84.12
357.307	87.12
357.534	67.12
357.761	91.12
357.988	78.12
358.215	89.12
358.441	71.12
358.668	87.12
358.895	83.12
359.122	78.12
359.349	88.12
359.576	83.12
359.802	83.12
360.029	79.12
360.256	71.12
360.483	77.12
360.709	78.12
360.936	83.12
361.163	91.12
361.39	74.12
361.616	81.12
361.843	79.12
362.07	85.12
362.296	78.12
362.523	78.12
362.749	74.12
362.976	72.12
363.203	82.12
363.429	80.12
363.656	83.12
363.882	66.12
364.109	90.12
364.335	84.12
364.562	85.12
364.788	75.12
365.015	86.12
365.241	84.12
365.468	74.12
365.694	73.12
365.92	72.12
366.147	69.12
366.373	88.12
366.599	86.12
366.826	59.12
367.052	81.12
367.278	73.12
367.505	86.12
367.731	91.12
367.957	66.12
368.184	79.12
368.41	75.12
368.636	102.12
368.862	102.12
369.089	106.12
369.315	83.12
369.541	71.12
369.767	81.12
369.993	85.12
370.219	92.12
370.445	70.12
370.672	71.12
370.898	78.12
371.124	86.12
371.35	82.12
371.576	70.12
371.802	73.12
372.028	86.12
372.254	82.12
372.48	92.12
372.706	75.12
372.932	79.12
373.158	72.12
373.384	84.12
373.61	60.12
373.835	64.12
374.061	70.12
374.287	64.12
374.513	82.12
374.739	94.12
374.965	71.12
375.191	77.12
375.416	82.12
375.642	82.12
375.868	72.12
376.094	92.12
376.319	75.12
376.545	75.12
376.771	87.12
376.997	77.12
377.222	78.12
377.448	84.12
377.674	79.12
377.899	81.12
378.125	79.12
378.35	92.12
378.576	78.12
378.802	72.12
379.027	87.12
379.253	80.12
379.478	73.12
379.704	77.12
379.929	58.12
380.155	79.12
380.38	80.12
380.606	88.12
380.831	80.12
381.057	88.12
381.282	74.12
381.507	82.12
381.733	79.12
381.958	83.12
382.184	91.12
382.409	86.12
382.634	78.12
382.86	95.12
383.085	79.12
383.31	81.12
383.535	80.12
383.761	93.12
383.986	84.12
384.211	79.12
384.436	71.12
384.662	85.12
384.887	89.12
385.112	78.12
385.337	83.12
385.562	84.12
385.787	74.12
386.013	73.12
386.238	89.12
386.463	71.12
386.688	90.12
386.913	93.12
387.138	78.12
387.363	74.12
387.588	91.12
387.813	82.12
388.038	77.12
388.263	89.12
388.488	80.12
388.713	77.12
388.938	74.12
389.163	82.12
389.387	72.12
389.612	96.12
389.837	67.12
390.062	69.12
390.287	86.12
390.512	84.12
390.736	73.12
390.961	84.12
391.186	81.12
391.411	71.12
391.636	82.12
391.86	74.12
392.085	73.12
392.31	78.12
392.534	83.12
392.759	95.12
392.984	81.12
393.208	81.12
393.433	76.12
393.658	81.12
393.882	84.12
394.107	76.12
394.331	77.12
394.556	78.12
394.78	74.12
395.005	83.12
395.229	93.12
395.454	82.12
395.678	86.12
395.903	89.12
396.127	90.12
396.352	83.12
396.576	66.12
396.801	93.12
397.025	77.12
397.249	75.12
397.474	65.12
397.698	93.12
397.922	87.12
398.147	80.12
398.371	77.12
398.595	82.12
398.82	76.12
399.044	86.12
399.268	85.12
399.492	82.12
399.717	94.12
399.941	80.12
400.165	75.12
400.389	92.12
400.613	77.12
400.837	83.12
401.062	83.12
401.286	88.12
401.51	75.12
401.734	70.12
401.958	78.12
402.182	73.12
402.406	85.12
402.63	94.12
402.854	80.12
403.078	82.12
403.302	63.12
403.526	78.12
403.75	89.12
403.974	89.12
404.198	81.12
404.422	84.12
404.645	89.12
404.869	86.12
405.093	81.12
405.317	94.12
405.541	73.12
405.765	66.12
405.988	84.12
406.212	85.12
406.436	88.12
406.66	91.12
406.883	75.12
407.107	78.12
407.331	79.12
407.555	78.12
407.778	71.12
408.002	80.12
408.226	84.12
408.449	85.12
408.673	82.12
408.896	82.12
409.12	74.12
409.344	74.12
409.567	72.12
409.791	82.12
410.014	77.12
410.238	79.12
410.461	76.12
410.685	93.12
410.908	89.12
411.132	92.12
411.355	85.12
411.578	88.12
411.802	80.12
412.025	78.12
412.249	75.12
412.472	61.12
412.695	80.12
412.919	65.12
413.142	76.12
413.365	94.12
413.589	77.12
413.812	90.12
414.035	85.12
414.258	101.12
414.482	74.12
414.705	85.12
414.928	84.12
415.151	87.12
415.374	76.12
415.597	69.12
415.821	74.12
416.044	79.12
416.267	78.12
416.49	101.12
416.713	84.12
416.936	84.12
417.159	81.12
417.382	89.12
417.605	87.12
417.828	87.12
418.051	76.12
418.274	99.12
418.497	77.12
418.72	81.12
418.943	96.12
419.166	87.12
419.389	85.12
419.611	86.12
419.834	82.12
420.057	84.12
420.28	81.12
420.503	74.12
420.726	87.12
420.948	88.12
421.171	81.12
421.394	80.12
421.617	79.12
421.839	82.12
422.062	97.12
422.285	80.12
422.507	93.12
422.73	94.12
422.953	81.12
423.175	87.12
423.398	83.12
423.621	78.12
423.843	93.12
424.066	84.12
424.288	78.12
424.511	87.12
424.733	83.12
424.956	96.12
425.178	92.12
425.401	79.12
425.623	81.12
425.846	67.12
426.068	79.12
426.291	80.12
426.513	82.12
426.735	81.12
426.958	83.12
427.18	88.12
427.402	86.12
427.625	86.12
427.847	82.12
428.069	87.12
428.292	87.12
428.514	85.12
428.736	82.12
428.958	79.12
429.181	83.12
429.403	84.12
429.625	88.12
429.847	84.12
430.069	94.12
430.292	85.12
430.514	89.12
430.736	81.12
430.958	75.12
431.18	82.12
431.402	82.12
431.624	87.12
431.846	86.12
432.068	65.12
432.29	83.12
432.512	95.12
432.734	83.12
432.956	79.12
433.178	90.12
433.4	89.12
433.622	81.12
433.844	90.12
434.066	104.12
434.287	86.12
434.509	75.12
434.731	88.12
434.953	96.12
435.175	82.12
435.397	76.12
435.618	89.12
435.84	82.12
436.062	85.12
436.284	86.12
436.505	92.12
436.727	78.12
436.949	75.12
437.17	76.12
437.392	80.12
437.614	85.12
437.835	90.12
438.057	84.12
438.278	78.12
438.5	84.12
438.721	74.12
438.943	79.12
439.165	76.12
439.386	84.12
439.608	90.12
439.829	93.12
440.05	100.12
440.272	96.12
440.493	89.12
440.715	96.12
440.936	107.12
441.158	91.12
441.379	85.12
441.6	95.12
441.822	97.12
442.043	94.12
442.264	91.12
442.486	94.12
442.707	89.12
442.928	91.12
443.149	79.12
443.371	79.12
443.592	81.12
443.813	74.12
444.034	92.12
444.255	79.12
444.476	78.12
444.698	81.12
444.919	88.12
445.14	189.12
445.361	137.12
445.582	92.12
445.803	86.12
446.024	86.12
446.245	101.12
446.466	88.12
446.687	89.12
446.908	85.12
447.129	87.12
447.35	88.12
447.571	93.12
447.792	85.12
448.013	86.12
448.234	107.12
448.455	90.12
448.675	84.12
448.896	73.12
449.117	77.12
449.338	95.12
449.559	87.12
449.779	69.12
450	79.12
450.221	96.12
450.442	86.12
450.662	89.12
450.883	80.12
451.104	73.12
451.324	77.12
451.545	88.12
451.766	99.12
451.986	89.12
452.207	96.12
452.428	88.12
452.648	74.12
452.869	87.12
453.089	78.12
453.31	84.12
453.53	76.12
453.751	91.12
453.971	79.12
454.192	78.12
454.412	71.12
454.633	71.12
454.853	84.12
455.073	84.12
455.294	80.12
455.514	79.12
455.734	94.12
455.955	78.12
456.175	81.12
456.395	78.12
456.616	79.12
456.836	87.12
457.056	77.12
457.276	55.12
457.497	65.12
457.717	79.12
457.937	85.12
458.157	82.12
458.377	87.12
458.598	83.12
458.818	90.12
459.038	84.12
459.258	69.12
459.478	74.12
459.698	77.12
459.918	100.12
460.138	90.12
460.358	73.12
460.578	80.12
460.798	75.12
461.018	87.12
461.238	102.12
461.458	95.12
461.678	88.12
461.898	79.12
462.118	78.12
462.338	78.12
462.558	92.12
462.777	82.12
462.997	81.12
463.217	69.12
463.437	89.12
463.657	76.12
463.876	74.12
464.096	83.12
464.316	90.12
464.536	83.12
464.755	95.12
464.975	79.12
465.195	68.12
465.414	83.12
465.634	76.12
465.854	77.12
466.073	93.12
466.293	85.12
466.512	81.12
466.732	84.12
466.951	85.12
467.171	87.12
467.391	94.12
467.61	88.12
467.829	88.12
468.049	91.12
468.268	87.12
468.488	90.12
468.707	78.12
468.927	92.12
469.146	87.12
469.365	103.12
469.585	71.12
469.804	92.12
470.023	81.12
470.243	85.12
470.462	100.12
470.681	85.12
470.901	67.12
471.12	76.12
471.339	85.12
471.558	90.12
471.777	91.12
471.997	83.12
472.216	75.12
472.435	73.12
472.654	85.12
472.873	88.12
473.092	91.12
473.311	87.12
473.53	95.12
473.749	83.12
473.968	80.12
474.187	84.12
474.406	87.12
474.625	85.12
474.844	82.12
475.063	82.12
475.282	88.12
475.501	78.12
475.72	91.12
475.939	80.12
476.158	81.12
476.377	84.12
476.596	84.12
476.814	71.12
477.033	77.12
477.252	82.12
477.471	85.12
477.69	79.12
477.908	83.12
478.127	97.12
478.346	91.12
478.564	94.12
478.783	88.12
479.002	67.12
479.22	83.12
479.439	94.12
479.658	78.12
479.876	74.12
480.095	76.12
480.313	86.12
480.532	81.12
480.751	79.12
480.969	75.12
481.188	85.12
481.406	83.12
481.624	79.12
481.843	86.12
482.061	86.12
482.28	91.12
482.498	96.12
482.717	91.12
482.935	88.12
483.153	97.12
483.372	91.12
483.59	89.12
483.808	87.12
484.027	95.12
484.245	95.12
484.463	102.12
484.681	99.12
484.9	97.12
485.118	100.12
485.336	79.12
485.554	81.12
485.772	73.12
485.99	83.12
486.209	78.12
486.427	74.12
486.645	81.12
486.863	86.12
487.081	94.12
487.299	81.12
487.517	83.12
487.735	89.12
487.953	87.12
488.171	84.12
488.389	100.12
488.607	71.12
488.825	90.12
489.043	94.12
489.261	83.12
489.479	82.12
489.696	87.12
489.914	86.12
490.132	92.12
490.35	109.12
490.568	89.12
490.786	98.12
491.003	90.12
491.221	98.12
491.439	85.12
491.657	96.12
491.874	109.12
492.092	104.12
492.31	113.12
492.527	101.12
492.745	75.12
492.963	99.12
493.18	101.12
493.398	104.12
493.615	86.12
493.833	87.12
494.05	94.12
494.268	98.12
494.485	92.12
494.703	96.12
494.92	86.12
495.138	81.12
495.355	79.12
495.573	94.12
495.79	90.12
496.008	105.12
496.225	87.12
496.442	102.12
496.66	110.12
496.877	99.12
497.094	89.12
497.312	99.12
497.529	81.12
497.746	97.12
497.963	87.12
498.181	89.12
498.398	82.12
498.615	98.12
498.832	84.12
499.049	89.12
499.267	87.12
499.484	87.12
499.701	105.12
499.918	94.12
500.135	84.12
500.352	94.12
500.569	99.12
500.786	81.12
501.003	79.12
501.22	79.12
501.437	74.12
501.654	81.12
501.871	85.12
502.088	85.12
502.305	77.12
502.522	94.12
502.739	92.12
502.956	82.12
503.172	93.12
503.389	88.12
503.606	88.12
503.823	90.12
504.04	94.12
504.256	84.12
504.473	85.12
504.69	94.12
504.907	79.12
505.123	86.12
505.34	74.12
505.557	98.12
505.773	85.12
505.99	83.12
506.207	85.12
506.423	97.12
506.64	92.12
506.856	74.12
507.073	82.12
507.289	75.12
507.506	87.12
507.722	90.12
507.939	89.12
508.155	89.12
508.372	86.12
508.588	96.12
508.805	87.12
509.021	89.12
509.238	80.12
509.454	82.12
509.67	76.12
509.887	82.12
510.103	82.12
510.319	80.12
510.536	81.12
510.752	87.12
510.968	71.12
511.184	77.12
511.401	93.12
511.617	87.12
511.833	85.12
512.049	80.12
512.265	87.12
512.481	78.12
512.698	74.12
512.914	85.12
513.13	78.12
513.346	85.12
513.562	91.12
513.778	78.12
513.994	91.12
514.21	85.12
514.426	84.12
514.642	88.12
514.858	92.12
515.074	73.12
515.29	73.12
515.506	88.12
515.721	75.12
515.937	91.12
516.153	87.12
516.369	82.12
516.585	78.12
516.801	86.12
517.016	60.12
517.232	81.12
517.448	88.12
517.664	84.12
517.879	78.12
518.095	87.12
518.311	89.12
518.527	71.12
518.742	76.12
518.958	75.12
