Data from Zn(NO3)2Standard.Agarose3%.GreenCap.LampEnergy10E.O_HRD10591_15-07-25-944.txt Node
Date: Mon Jul 22 15:07:25 EDT 2019
User: cochatt
Spectrometer: HR+D1059
Trigger mode: 1
Integration Time (sec): 1.000000E-1
Scans to average: 1
Electric dark correction enabled: true
Nonlinearity correction enabled: false
Boxcar width: 0
XAxis mode: Wavelengths
Number of Pixels in Spectrum: 2048
>>>>>Begin Spectral Data<<<<<
223.165	-19.5
223.4	-19.5
223.635	-19.5
223.869	-10.5
224.104	-19.5
224.338	-3.5
224.573	-22.5
224.808	-25.5
225.042	-12.5
225.277	-7.5
225.511	-3.5
225.746	1.5
225.98	3.5
226.215	5.5
226.449	23.5
226.683	17.5
226.918	33.5
227.152	39.5
227.387	45.5
227.621	51.5
227.856	39.5
228.09	44.5
228.324	48.5
228.559	69.5
228.793	55.5
229.027	67.5
229.262	69.5
229.496	59.5
229.73	58.5
229.964	68.5
230.199	79.5
230.433	76.5
230.667	71.5
230.901	83.5
231.136	83.5
231.37	76.5
231.604	72.5
231.838	61.5
232.072	72.5
232.306	87.5
232.541	80.5
232.775	68.5
233.009	80.5
233.243	73.5
233.477	85.5
233.711	95.5
233.945	79.5
234.179	72.5
234.413	90.5
234.647	90.5
234.881	71.5
235.115	74.5
235.349	80.5
235.583	77.5
235.817	84.5
236.051	76.5
236.285	75.5
236.519	80.5
236.753	89.5
236.987	71.5
237.221	85.5
237.455	72.5
237.689	80.5
237.922	64.5
238.156	68.5
238.39	83.5
238.624	87.5
238.858	69.5
239.091	69.5
239.325	76.5
239.559	70.5
239.793	75.5
240.027	69.5
240.26	72.5
240.494	76.5
240.728	68.5
240.961	83.5
241.195	60.5
241.429	59.5
241.662	70.5
241.896	77.5
242.13	75.5
242.363	79.5
242.597	81.5
242.83	83.5
243.064	71.5
243.298	74.5
243.531	88.5
243.765	66.5
243.998	74.5
244.232	69.5
244.465	77.5
244.699	66.5
244.932	81.5
245.166	79.5
245.399	82.5
245.633	55.5
245.866	70.5
246.099	70.5
246.333	75.5
246.566	86.5
246.8	80.5
247.033	72.5
247.266	79.5
247.5	83.5
247.733	78.5
247.966	78.5
248.2	77.5
248.433	83.5
248.666	79.5
248.899	84.5
249.133	83.5
249.366	81.5
249.599	72.5
249.832	89.5
250.066	68.5
250.299	77.5
250.532	78.5
250.765	75.5
250.998	76.5
251.231	76.5
251.465	72.5
251.698	69.5
251.931	86.5
252.164	78.5
252.397	67.5
252.63	74.5
252.863	67.5
253.096	80.5
253.329	95.5
253.562	78.5
253.795	85.5
254.028	79.5
254.261	76.5
254.494	71.5
254.727	90.5
254.96	80.5
255.193	67.5
255.426	96.5
255.659	71.5
255.892	84.5
256.124	90.5
256.357	84.5
256.59	72.5
256.823	65.5
257.056	72.5
257.289	74.5
257.521	86.5
257.754	87.5
257.987	78.5
258.22	81.5
258.452	75.5
258.685	72.5
258.918	75.5
259.151	77.5
259.383	81.5
259.616	63.5
259.849	80.5
260.081	70.5
260.314	75.5
260.547	85.5
260.779	86.5
261.012	92.5
261.244	75.5
261.477	73.5
261.71	77.5
261.942	71.5
262.175	80.5
262.407	80.5
262.64	89.5
262.872	72.5
263.105	89.5
263.337	72.5
263.57	86.5
263.802	79.5
264.035	80.5
264.267	77.5
264.499	83.5
264.732	81.5
264.964	86.5
265.197	78.5
265.429	82.5
265.661	91.5
265.894	83.5
266.126	79.5
266.358	84.5
266.591	83.5
266.823	80.5
267.055	55.5
267.287	78.5
267.52	77.5
267.752	78.5
267.984	93.5
268.216	94.5
268.448	83.5
268.681	77.5
268.913	87.5
269.145	85.5
269.377	91.5
269.609	90.5
269.841	71.5
270.073	89.5
270.306	92.5
270.538	93.5
270.77	80.5
271.002	97.5
271.234	67.5
271.466	74.5
271.698	78.5
271.93	80.5
272.162	76.5
272.394	71.5
272.626	93.5
272.858	83.5
273.09	80.5
273.322	83.5
273.553	61.5
273.785	79.5
274.017	75.5
274.249	83.5
274.481	83.5
274.713	90.5
274.945	92.5
275.176	81.5
275.408	77.5
275.64	65.5
275.872	87.5
276.104	90.5
276.335	74.5
276.567	87.5
276.799	83.5
277.031	100.5
277.262	90.5
277.494	79.5
277.726	76.5
277.957	76.5
278.189	88.5
278.421	83.5
278.652	82.5
278.884	83.5
279.115	96.5
279.347	78.5
279.579	85.5
279.81	91.5
280.042	87.5
280.273	99.5
280.505	78.5
280.736	98.5
280.968	87.5
281.199	79.5
281.431	82.5
281.662	80.5
281.894	71.5
282.125	85.5
282.356	79.5
282.588	89.5
282.819	92.5
283.051	101.5
283.282	89.5
283.513	95.5
283.745	95.5
283.976	81.5
284.207	93.5
284.439	93.5
284.67	76.5
284.901	81.5
285.132	75.5
285.364	91.5
285.595	80.5
285.826	78.5
286.057	99.5
286.288	83.5
286.52	72.5
286.751	83.5
286.982	84.5
287.213	86.5
287.444	87.5
287.675	92.5
287.906	81.5
288.138	72.5
288.369	81.5
288.6	79.5
288.831	84.5
289.062	104.5
289.293	86.5
289.524	84.5
289.755	78.5
289.986	73.5
290.217	79.5
290.448	71.5
290.679	79.5
290.91	94.5
291.141	83.5
291.371	82.5
291.602	82.5
291.833	82.5
292.064	81.5
292.295	82.5
292.526	59.5
292.757	73.5
292.987	76.5
293.218	83.5
293.449	78.5
293.68	95.5
293.91	83.5
294.141	85.5
294.372	82.5
294.603	74.5
294.833	88.5
295.064	95.5
295.295	75.5
295.525	67.5
295.756	86.5
295.987	87.5
296.217	80.5
296.448	84.5
296.679	81.5
296.909	88.5
297.14	85.5
297.37	87.5
297.601	85.5
297.831	78.5
298.062	84.5
298.292	80.5
298.523	101.5
298.753	82.5
298.984	79.5
299.214	83.5
299.445	97.5
299.675	85.5
299.905	71.5
300.136	92.5
300.366	89.5
300.597	101.5
300.827	82.5
301.057	83.5
301.288	89.5
301.518	89.5
301.748	84.5
301.979	71.5
302.209	93.5
302.439	76.5
302.669	86.5
302.9	99.5
303.13	96.5
303.36	86.5
303.59	86.5
303.82	94.5
304.051	86.5
304.281	99.5
304.511	89.5
304.741	81.5
304.971	109.5
305.201	89.5
305.431	91.5
305.661	99.5
305.891	104.5
306.121	73.5
306.352	85.5
306.582	88.5
306.812	81.5
307.042	74.5
307.272	77.5
307.502	79.5
307.731	97.5
307.961	90.5
308.191	83.5
308.421	78.5
308.651	90.5
308.881	95.5
309.111	94.5
309.341	85.5
309.571	87.5
309.8	74.5
310.03	84.5
310.26	77.5
310.49	102.5
310.72	84.5
310.949	86.5
311.179	79.5
311.409	90.5
311.639	81.5
311.868	85.5
312.098	83.5
312.328	93.5
312.557	88.5
312.787	90.5
313.017	89.5
313.246	87.5
313.476	90.5
313.706	85.5
313.935	92.5
314.165	85.5
314.394	90.5
314.624	83.5
314.853	95.5
315.083	85.5
315.312	89.5
315.542	91.5
315.771	79.5
316.001	89.5
316.23	87.5
316.46	90.5
316.689	91.5
316.919	73.5
317.148	106.5
317.377	82.5
317.607	78.5
317.836	85.5
318.065	86.5
318.295	78.5
318.524	90.5
318.753	87.5
318.983	86.5
319.212	69.5
319.441	89.5
319.67	77.5
319.9	94.5
320.129	89.5
320.358	96.5
320.587	81.5
320.816	90.5
321.046	87.5
321.275	97.5
321.504	75.5
321.733	88.5
321.962	85.5
322.191	80.5
322.42	89.5
322.649	90.5
322.878	78.5
323.108	89.5
323.337	77.5
323.566	103.5
323.795	93.5
324.024	84.5
324.253	72.5
324.482	84.5
324.71	84.5
324.939	100.5
325.168	103.5
325.397	89.5
325.626	69.5
325.855	82.5
326.084	86.5
326.313	90.5
326.542	92.5
326.77	89.5
326.999	82.5
327.228	84.5
327.457	89.5
327.686	97.5
327.914	87.5
328.143	84.5
328.372	85.5
328.6	88.5
328.829	83.5
329.058	84.5
329.287	79.5
329.515	82.5
329.744	71.5
329.972	84.5
330.201	95.5
330.43	84.5
330.658	87.5
330.887	100.5
331.115	94.5
331.344	85.5
331.572	79.5
331.801	94.5
332.03	90.5
332.258	89.5
332.486	75.5
332.715	82.5
332.943	83.5
333.172	92.5
333.4	72.5
333.629	88.5
333.857	92.5
334.085	78.5
334.314	81.5
334.542	74.5
334.771	90.5
334.999	91.5
335.227	86.5
335.455	101.5
335.684	89.5
335.912	84.5
336.14	68.5
336.369	94.5
336.597	80.5
336.825	82.5
337.053	75.5
337.281	73.5
337.51	74.5
337.738	85.5
337.966	96.5
338.194	91.5
338.422	93.5
338.65	89.5
338.878	86.5
339.106	77.5
339.334	87.5
339.562	73.5
339.79	80.5
340.018	91.5
340.246	83.5
340.474	87.5
340.702	72.5
340.93	89.5
341.158	85.5
341.386	81.5
341.614	82.5
341.842	101.5
342.07	86.5
342.298	92.5
342.526	88.5
342.754	88.5
342.981	94.5
343.209	102.5
343.437	88.5
343.665	91.5
343.893	79.5
344.12	92.5
344.348	69.5
344.576	82.5
344.804	84.5
345.031	92.5
345.259	95.5
345.487	83.5
345.714	76.5
345.942	102.5
346.17	90.5
346.397	85.5
346.625	90.5
346.853	74.5
347.08	83.5
347.308	89.5
347.535	96.5
347.763	89.5
347.99	89.5
348.218	84.5
348.445	83.5
348.673	90.5
348.9	83.5
349.128	87.5
349.355	84.5
349.583	95.5
349.81	86.5
350.037	98.5
350.265	104.5
350.492	86.5
350.72	97.5
350.947	70.5
351.174	90.5
351.402	88.5
351.629	80.5
351.856	85.5
352.083	81.5
352.311	74.5
352.538	83.5
352.765	86.5
352.992	85.5
353.22	85.5
353.447	80.5
353.674	82.5
353.901	77.5
354.128	86.5
354.355	75.5
354.583	92.5
354.81	94.5
355.037	83.5
355.264	94.5
355.491	90.5
355.718	88.5
355.945	73.5
356.172	80.5
356.399	88.5
356.626	83.5
356.853	75.5
357.08	93.5
357.307	86.5
357.534	76.5
357.761	89.5
357.988	86.5
358.215	95.5
358.441	84.5
358.668	72.5
358.895	97.5
359.122	86.5
359.349	85.5
359.576	78.5
359.802	80.5
360.029	73.5
360.256	91.5
360.483	84.5
360.709	95.5
360.936	98.5
361.163	80.5
361.39	88.5
361.616	83.5
361.843	75.5
362.07	81.5
362.296	98.5
362.523	81.5
362.749	99.5
362.976	90.5
363.203	90.5
363.429	92.5
363.656	81.5
363.882	73.5
364.109	89.5
364.335	83.5
364.562	83.5
364.788	75.5
365.015	87.5
365.241	90.5
365.468	87.5
365.694	95.5
365.92	91.5
366.147	88.5
366.373	83.5
366.599	76.5
366.826	69.5
367.052	85.5
367.278	88.5
367.505	83.5
367.731	85.5
367.957	95.5
368.184	89.5
368.41	93.5
368.636	80.5
368.862	89.5
369.089	102.5
369.315	92.5
369.541	87.5
369.767	95.5
369.993	78.5
370.219	102.5
370.445	90.5
370.672	86.5
370.898	89.5
371.124	85.5
371.35	73.5
371.576	83.5
371.802	82.5
372.028	86.5
372.254	83.5
372.48	89.5
372.706	83.5
372.932	91.5
373.158	87.5
373.384	88.5
373.61	91.5
373.835	87.5
374.061	85.5
374.287	87.5
374.513	89.5
374.739	80.5
374.965	83.5
375.191	85.5
375.416	93.5
375.642	95.5
375.868	100.5
376.094	83.5
376.319	73.5
376.545	84.5
376.771	101.5
376.997	90.5
377.222	103.5
377.448	98.5
377.674	95.5
377.899	83.5
378.125	91.5
378.35	84.5
378.576	91.5
378.802	95.5
379.027	73.5
379.253	81.5
379.478	96.5
379.704	84.5
379.929	91.5
380.155	85.5
380.38	106.5
380.606	87.5
380.831	100.5
381.057	105.5
381.282	90.5
381.507	80.5
381.733	91.5
381.958	89.5
382.184	94.5
382.409	80.5
382.634	85.5
382.86	91.5
383.085	85.5
383.31	95.5
383.535	82.5
383.761	100.5
383.986	91.5
384.211	107.5
384.436	98.5
384.662	85.5
384.887	90.5
385.112	79.5
385.337	75.5
385.562	89.5
385.787	93.5
386.013	105.5
386.238	82.5
386.463	83.5
386.688	84.5
386.913	88.5
387.138	102.5
387.363	93.5
387.588	95.5
387.813	98.5
388.038	90.5
388.263	88.5
388.488	90.5
388.713	73.5
388.938	95.5
389.163	98.5
389.387	84.5
389.612	99.5
389.837	96.5
390.062	98.5
390.287	105.5
390.512	93.5
390.736	94.5
390.961	100.5
391.186	83.5
391.411	87.5
391.636	81.5
391.86	88.5
392.085	91.5
392.31	100.5
392.534	84.5
392.759	84.5
392.984	92.5
393.208	92.5
393.433	94.5
393.658	83.5
393.882	94.5
394.107	96.5
394.331	100.5
394.556	87.5
394.78	88.5
395.005	94.5
395.229	80.5
395.454	102.5
395.678	89.5
395.903	94.5
396.127	100.5
396.352	89.5
396.576	100.5
396.801	86.5
397.025	92.5
397.249	97.5
397.474	109.5
397.698	99.5
397.922	93.5
398.147	84.5
398.371	85.5
398.595	88.5
398.82	94.5
399.044	98.5
399.268	96.5
399.492	107.5
399.717	102.5
399.941	83.5
400.165	83.5
400.389	87.5
400.613	96.5
400.837	80.5
401.062	93.5
401.286	101.5
401.51	87.5
401.734	99.5
401.958	100.5
402.182	97.5
402.406	106.5
402.63	81.5
402.854	77.5
403.078	109.5
403.302	96.5
403.526	97.5
403.75	97.5
403.974	94.5
404.198	100.5
404.422	103.5
404.645	115.5
404.869	88.5
405.093	95.5
405.317	95.5
405.541	101.5
405.765	99.5
405.988	90.5
406.212	96.5
406.436	96.5
406.66	101.5
406.883	90.5
407.107	84.5
407.331	92.5
407.555	103.5
407.778	111.5
408.002	106.5
408.226	99.5
408.449	93.5
408.673	88.5
408.896	93.5
409.12	111.5
409.344	104.5
409.567	103.5
409.791	94.5
410.014	105.5
410.238	95.5
410.461	100.5
410.685	101.5
410.908	101.5
411.132	105.5
411.355	102.5
411.578	87.5
411.802	97.5
412.025	100.5
412.249	99.5
412.472	103.5
412.695	98.5
412.919	88.5
413.142	130.5
413.365	103.5
413.589	101.5
413.812	95.5
414.035	105.5
414.258	98.5
414.482	81.5
414.705	91.5
414.928	108.5
415.151	98.5
415.374	104.5
415.597	91.5
415.821	105.5
416.044	102.5
416.267	111.5
416.49	107.5
416.713	110.5
416.936	92.5
417.159	97.5
417.382	101.5
417.605	116.5
417.828	94.5
418.051	106.5
418.274	109.5
418.497	113.5
418.72	104.5
418.943	99.5
419.166	100.5
419.389	101.5
419.611	112.5
419.834	111.5
420.057	98.5
420.28	101.5
420.503	112.5
420.726	121.5
420.948	110.5
421.171	108.5
421.394	117.5
421.617	106.5
421.839	94.5
422.062	105.5
422.285	101.5
422.507	103.5
422.73	112.5
422.953	107.5
423.175	107.5
423.398	103.5
423.621	114.5
423.843	117.5
424.066	96.5
424.288	107.5
424.511	106.5
424.733	104.5
424.956	109.5
425.178	113.5
425.401	121.5
425.623	96.5
425.846	117.5
426.068	103.5
426.291	106.5
426.513	98.5
426.735	117.5
426.958	107.5
427.18	99.5
427.402	101.5
427.625	100.5
427.847	106.5
428.069	103.5
428.292	100.5
428.514	105.5
428.736	96.5
428.958	100.5
429.181	98.5
429.403	103.5
429.625	93.5
429.847	99.5
430.069	124.5
430.292	111.5
430.514	85.5
430.736	101.5
430.958	100.5
431.18	105.5
431.402	97.5
431.624	107.5
431.846	107.5
432.068	97.5
432.29	83.5
432.512	122.5
432.734	94.5
432.956	100.5
433.178	118.5
433.4	92.5
433.622	100.5
433.844	92.5
434.066	112.5
434.287	81.5
434.509	85.5
434.731	93.5
434.953	91.5
435.175	99.5
435.397	95.5
435.618	102.5
435.84	80.5
436.062	99.5
436.284	108.5
436.505	97.5
436.727	96.5
436.949	106.5
437.17	108.5
437.392	115.5
437.614	98.5
437.835	97.5
438.057	98.5
438.278	92.5
438.5	99.5
438.721	104.5
438.943	123.5
439.165	112.5
439.386	102.5
439.608	127.5
439.829	98.5
440.05	114.5
440.272	105.5
440.493	103.5
440.715	123.5
440.936	120.5
441.158	100.5
441.379	113.5
441.6	103.5
441.822	101.5
442.043	100.5
442.264	95.5
442.486	92.5
442.707	101.5
442.928	127.5
443.149	119.5
443.371	114.5
443.592	124.5
443.813	116.5
444.034	125.5
444.255	107.5
444.476	109.5
444.698	98.5
444.919	115.5
445.14	223.5
445.361	160.5
445.582	114.5
445.803	111.5
446.024	108.5
446.245	116.5
446.466	116.5
446.687	112.5
446.908	120.5
447.129	124.5
447.35	113.5
447.571	129.5
447.792	106.5
448.013	112.5
448.234	97.5
448.455	119.5
448.675	113.5
448.896	120.5
449.117	116.5
449.338	105.5
449.559	100.5
449.779	100.5
450	113.5
450.221	119.5
450.442	105.5
450.662	108.5
450.883	113.5
451.104	115.5
451.324	101.5
451.545	123.5
451.766	102.5
451.986	105.5
452.207	99.5
452.428	91.5
452.648	83.5
452.869	88.5
453.089	99.5
453.31	93.5
453.53	100.5
453.751	98.5
453.971	101.5
454.192	102.5
454.412	91.5
454.633	95.5
454.853	107.5
455.073	99.5
455.294	92.5
455.514	98.5
455.734	105.5
455.955	86.5
456.175	84.5
456.395	100.5
456.616	78.5
456.836	104.5
457.056	97.5
457.276	89.5
457.497	87.5
457.717	83.5
457.937	107.5
458.157	98.5
458.377	82.5
458.598	92.5
458.818	89.5
459.038	79.5
459.258	92.5
459.478	83.5
459.698	82.5
459.918	83.5
460.138	100.5
460.358	107.5
460.578	97.5
460.798	88.5
461.018	87.5
461.238	105.5
461.458	103.5
461.678	98.5
461.898	92.5
462.118	101.5
462.338	96.5
462.558	101.5
462.777	100.5
462.997	97.5
463.217	99.5
463.437	103.5
463.657	84.5
463.876	81.5
464.096	83.5
464.316	97.5
464.536	89.5
464.755	93.5
464.975	109.5
465.195	104.5
465.414	103.5
465.634	97.5
465.854	101.5
466.073	90.5
466.293	96.5
466.512	114.5
466.732	121.5
466.951	121.5
467.171	124.5
467.391	110.5
467.61	105.5
467.829	95.5
468.049	106.5
468.268	111.5
468.488	100.5
468.707	107.5
468.927	115.5
469.146	101.5
469.365	102.5
469.585	117.5
469.804	124.5
470.023	118.5
470.243	119.5
470.462	107.5
470.681	96.5
470.901	111.5
471.12	103.5
471.339	111.5
471.558	111.5
471.777	91.5
471.997	103.5
472.216	115.5
472.435	101.5
472.654	97.5
472.873	97.5
473.092	87.5
473.311	101.5
473.53	89.5
473.749	105.5
473.968	98.5
474.187	105.5
474.406	93.5
474.625	120.5
474.844	108.5
475.063	99.5
475.282	102.5
475.501	102.5
475.72	86.5
475.939	91.5
476.158	104.5
476.377	101.5
476.596	99.5
476.814	102.5
477.033	87.5
477.252	104.5
477.471	87.5
477.69	95.5
477.908	112.5
478.127	102.5
478.346	86.5
478.564	103.5
478.783	113.5
479.002	107.5
479.22	115.5
479.439	111.5
479.658	93.5
479.876	96.5
480.095	103.5
480.313	80.5
480.532	96.5
480.751	85.5
480.969	92.5
481.188	78.5
481.406	87.5
481.624	90.5
481.843	87.5
482.061	98.5
482.28	101.5
482.498	100.5
482.717	99.5
482.935	104.5
483.153	109.5
483.372	116.5
483.59	111.5
483.808	106.5
484.027	111.5
484.245	116.5
484.463	113.5
484.681	119.5
484.9	112.5
485.118	105.5
485.336	105.5
485.554	85.5
485.772	104.5
485.99	105.5
486.209	87.5
486.427	103.5
486.645	103.5
486.863	121.5
487.081	106.5
487.299	106.5
487.517	120.5
487.735	121.5
487.953	125.5
488.171	147.5
488.389	120.5
488.607	99.5
488.825	113.5
489.043	95.5
489.261	114.5
489.479	98.5
489.696	84.5
489.914	104.5
490.132	118.5
490.35	116.5
490.568	113.5
490.786	119.5
491.003	124.5
491.221	114.5
491.439	130.5
491.657	135.5
491.874	156.5
492.092	150.5
492.31	149.5
492.527	160.5
492.745	155.5
492.963	133.5
493.18	130.5
493.398	127.5
493.615	120.5
493.833	125.5
494.05	125.5
494.268	122.5
494.485	133.5
494.703	135.5
494.92	129.5
495.138	127.5
495.355	128.5
495.573	130.5
495.79	112.5
496.008	127.5
496.225	125.5
496.442	138.5
496.66	122.5
496.877	113.5
497.094	112.5
497.312	112.5
497.529	119.5
497.746	115.5
497.963	91.5
498.181	99.5
498.398	108.5
498.615	97.5
498.832	117.5
499.049	104.5
499.267	116.5
499.484	89.5
499.701	95.5
499.918	109.5
500.135	111.5
500.352	123.5
500.569	107.5
500.786	105.5
501.003	122.5
501.22	106.5
501.437	121.5
501.654	103.5
501.871	95.5
502.088	112.5
502.305	109.5
502.522	112.5
502.739	102.5
502.956	107.5
503.172	91.5
503.389	100.5
503.606	113.5
503.823	96.5
504.04	105.5
504.256	105.5
504.473	84.5
504.69	103.5
504.907	111.5
505.123	104.5
505.34	103.5
505.557	98.5
505.773	117.5
505.99	85.5
506.207	101.5
506.423	115.5
506.64	106.5
506.856	95.5
507.073	103.5
507.289	97.5
507.506	95.5
507.722	104.5
507.939	89.5
508.155	91.5
508.372	99.5
508.588	87.5
508.805	103.5
509.021	103.5
509.238	108.5
509.454	91.5
509.67	91.5
509.887	88.5
510.103	82.5
510.319	83.5
510.536	81.5
510.752	74.5
510.968	78.5
511.184	91.5
511.401	81.5
511.617	69.5
511.833	99.5
512.049	84.5
512.265	76.5
512.481	86.5
512.698	94.5
512.914	89.5
513.13	85.5
513.346	95.5
513.562	74.5
513.778	100.5
513.994	80.5
514.21	91.5
514.426	96.5
514.642	105.5
514.858	91.5
515.074	88.5
515.29	89.5
515.506	83.5
515.721	89.5
515.937	84.5
516.153	97.5
516.369	96.5
516.585	84.5
516.801	90.5
517.016	81.5
517.232	107.5
517.448	95.5
517.664	100.5
517.879	95.5
518.095	88.5
518.311	85.5
518.527	82.5
518.742	86.5
518.958	85.5
519.173	100.5
519.389	92.5
519.605	103.5
519.82	96.5
520.036	92.5
520.251	97.5
520.467	103.5
520.682	91.5
520.898	96.5
521.113	92.5
521.329	90.5
521.544	88.5
521.76	92.5
521.975	97.5
522.19	87.5
522.406	96.5
522.621	84.5
522.836	90.5
523.052	105.5
523.267	96.5
523.482	97.5
523.698	105.5
523.913	109.5
524.128	103.5
524.343	98.5
524.559	113.5
524.774	93.5
524.989	107.5
525.204	104.5
525.419	109.5
525.634	90.5
525.849	108.5
526.064	98.5
526.28	98.5
526.495	89.5
526.71	87.5
526.925	82.5
527.14	89.5
527.355	84.5
527.57	81.5
527.785	82.5
527.999	100.5
528.214	86.5
528.429	88.5
528.644	107.5
528.859	103.5
529.074	105.5
529.289	134.5
529.503	115.5
529.718	108.5
529.933	91.5
530.148	93.5
530.363	86.5
530.577	80.5
530.792	83.5
531.007	76.5
531.221	74.5
531.436	76.5
531.651	92.5
531.865	85.5
532.08	84.5
532.295	74.5
532.509	67.5
532.724	82.5
532.938	94.5
533.153	90.5
533.367	107.5
533.582	101.5
533.796	95.5
534.011	103.5
