Data from Zn(NO3)2Standard.Agarose3%.GreenCap.LampEnergy5.5.E.O_HRD10591_15-03-41-767.txt Node
Date: Mon Jul 22 15:03:41 EDT 2019
User: cochatt
Spectrometer: HR+D1059
Trigger mode: 1
Integration Time (sec): 1.000000E-1
Scans to average: 1
Electric dark correction enabled: true
Nonlinearity correction enabled: false
Boxcar width: 0
XAxis mode: Wavelengths
Number of Pixels in Spectrum: 2048
>>>>>Begin Spectral Data<<<<<
223.165	-16.31
223.4	-16.31
223.635	-16.31
223.869	-18.31
224.104	-8.31
224.338	-0.31
224.573	-7.31
224.808	-18.31
225.042	-7.31
225.277	-12.31
225.511	-15.31
225.746	11.69
225.98	3.69
226.215	3.69
226.449	10.69
226.683	24.69
226.918	18.69
227.152	30.69
227.387	39.69
227.621	43.69
227.856	29.69
228.09	55.69
228.324	52.69
228.559	45.69
228.793	47.69
229.027	69.69
229.262	76.69
229.496	75.69
229.73	69.69
229.964	65.69
230.199	68.69
230.433	70.69
230.667	75.69
230.901	82.69
231.136	80.69
231.37	88.69
231.604	80.69
231.838	88.69
232.072	82.69
232.306	85.69
232.541	72.69
232.775	72.69
233.009	87.69
233.243	88.69
233.477	95.69
233.711	90.69
233.945	60.69
234.179	93.69
234.413	96.69
234.647	77.69
234.881	83.69
235.115	80.69
235.349	80.69
235.583	68.69
235.817	83.69
236.051	81.69
236.285	81.69
236.519	104.69
236.753	80.69
236.987	73.69
237.221	70.69
237.455	70.69
237.689	81.69
237.922	85.69
238.156	84.69
238.39	78.69
238.624	80.69
238.858	74.69
239.091	80.69
239.325	91.69
239.559	77.69
239.793	86.69
240.027	85.69
240.26	74.69
240.494	69.69
240.728	78.69
240.961	90.69
241.195	81.69
241.429	71.69
241.662	91.69
241.896	68.69
242.13	75.69
242.363	71.69
242.597	90.69
242.83	77.69
243.064	70.69
243.298	67.69
243.531	85.69
243.765	90.69
243.998	67.69
244.232	82.69
244.465	92.69
244.699	81.69
244.932	65.69
245.166	70.69
245.399	78.69
245.633	93.69
245.866	72.69
246.099	85.69
246.333	82.69
246.566	84.69
246.8	80.69
247.033	87.69
247.266	71.69
247.5	85.69
247.733	91.69
247.966	80.69
248.2	69.69
248.433	80.69
248.666	91.69
248.899	81.69
249.133	76.69
249.366	81.69
249.599	80.69
249.832	72.69
250.066	88.69
250.299	83.69
250.532	77.69
250.765	73.69
250.998	77.69
251.231	87.69
251.465	80.69
251.698	77.69
251.931	88.69
252.164	90.69
252.397	76.69
252.63	88.69
252.863	77.69
253.096	71.69
253.329	93.69
253.562	88.69
253.795	80.69
254.028	76.69
254.261	88.69
254.494	73.69
254.727	86.69
254.96	74.69
255.193	84.69
255.426	90.69
255.659	86.69
255.892	86.69
256.124	92.69
256.357	85.69
256.59	79.69
256.823	84.69
257.056	91.69
257.289	79.69
257.521	79.69
257.754	80.69
257.987	69.69
258.22	80.69
258.452	86.69
258.685	74.69
258.918	82.69
259.151	91.69
259.383	79.69
259.616	87.69
259.849	76.69
260.081	85.69
260.314	71.69
260.547	84.69
260.779	73.69
261.012	84.69
261.244	83.69
261.477	90.69
261.71	84.69
261.942	76.69
262.175	82.69
262.407	73.69
262.64	75.69
262.872	76.69
263.105	92.69
263.337	91.69
263.57	80.69
263.802	81.69
264.035	98.69
264.267	78.69
264.499	85.69
264.732	83.69
264.964	67.69
265.197	81.69
265.429	76.69
265.661	89.69
265.894	91.69
266.126	83.69
266.358	85.69
266.591	70.69
266.823	82.69
267.055	90.69
267.287	89.69
267.52	81.69
267.752	99.69
267.984	87.69
268.216	82.69
268.448	93.69
268.681	86.69
268.913	78.69
269.145	86.69
269.377	75.69
269.609	97.69
269.841	80.69
270.073	85.69
270.306	99.69
270.538	75.69
270.77	69.69
271.002	83.69
271.234	91.69
271.466	97.69
271.698	97.69
271.93	86.69
272.162	80.69
272.394	80.69
272.626	82.69
272.858	84.69
273.09	81.69
273.322	102.69
273.553	74.69
273.785	85.69
274.017	89.69
274.249	87.69
274.481	95.69
274.713	80.69
274.945	91.69
275.176	83.69
275.408	76.69
275.64	92.69
275.872	88.69
276.104	87.69
276.335	88.69
276.567	84.69
276.799	96.69
277.031	83.69
277.262	75.69
277.494	83.69
277.726	71.69
277.957	77.69
278.189	78.69
278.421	95.69
278.652	97.69
278.884	77.69
279.115	78.69
279.347	79.69
279.579	91.69
279.81	67.69
280.042	79.69
280.273	85.69
280.505	77.69
280.736	99.69
280.968	92.69
281.199	92.69
281.431	79.69
281.662	81.69
281.894	81.69
282.125	85.69
282.356	76.69
282.588	83.69
282.819	93.69
283.051	94.69
283.282	93.69
283.513	93.69
283.745	86.69
283.976	95.69
284.207	88.69
284.439	86.69
284.67	79.69
284.901	87.69
285.132	84.69
285.364	85.69
285.595	89.69
285.826	91.69
286.057	93.69
286.288	85.69
286.52	94.69
286.751	95.69
286.982	71.69
287.213	90.69
287.444	75.69
287.675	93.69
287.906	81.69
288.138	76.69
288.369	101.69
288.6	84.69
288.831	93.69
289.062	87.69
289.293	89.69
289.524	86.69
289.755	90.69
289.986	92.69
290.217	92.69
290.448	85.69
290.679	84.69
290.91	92.69
291.141	79.69
291.371	99.69
291.602	86.69
291.833	91.69
292.064	80.69
292.295	79.69
292.526	91.69
292.757	97.69
292.987	99.69
293.218	97.69
293.449	82.69
293.68	102.69
293.91	79.69
294.141	87.69
294.372	76.69
294.603	78.69
294.833	75.69
295.064	77.69
295.295	92.69
295.525	91.69
295.756	89.69
295.987	87.69
296.217	89.69
296.448	89.69
296.679	84.69
296.909	83.69
297.14	68.69
297.37	86.69
297.601	93.69
297.831	93.69
298.062	91.69
298.292	93.69
298.523	91.69
298.753	91.69
298.984	95.69
299.214	94.69
299.445	90.69
299.675	91.69
299.905	76.69
300.136	86.69
300.366	86.69
300.597	93.69
300.827	85.69
301.057	99.69
301.288	91.69
301.518	86.69
301.748	89.69
301.979	85.69
302.209	93.69
302.439	89.69
302.669	86.69
302.9	95.69
303.13	88.69
303.36	91.69
303.59	88.69
303.82	94.69
304.051	85.69
304.281	95.69
304.511	90.69
304.741	100.69
304.971	94.69
305.201	85.69
305.431	74.69
305.661	94.69
305.891	102.69
306.121	74.69
306.352	96.69
306.582	92.69
306.812	81.69
307.042	80.69
307.272	81.69
307.502	86.69
307.731	72.69
307.961	75.69
308.191	79.69
308.421	92.69
308.651	82.69
308.881	83.69
309.111	83.69
309.341	87.69
309.571	99.69
309.8	88.69
310.03	91.69
310.26	77.69
310.49	87.69
310.72	90.69
310.949	103.69
311.179	80.69
311.409	96.69
311.639	96.69
311.868	88.69
312.098	86.69
312.328	97.69
312.557	77.69
312.787	81.69
313.017	89.69
313.246	79.69
313.476	86.69
313.706	84.69
313.935	83.69
314.165	88.69
314.394	96.69
314.624	81.69
314.853	85.69
315.083	91.69
315.312	85.69
315.542	88.69
315.771	95.69
316.001	95.69
316.23	98.69
316.46	86.69
316.689	89.69
316.919	87.69
317.148	96.69
317.377	78.69
317.607	93.69
317.836	89.69
318.065	91.69
318.295	84.69
318.524	90.69
318.753	85.69
318.983	88.69
319.212	87.69
319.441	88.69
319.67	70.69
319.9	92.69
320.129	103.69
320.358	89.69
320.587	93.69
320.816	86.69
321.046	85.69
321.275	97.69
321.504	86.69
321.733	80.69
321.962	84.69
322.191	96.69
322.42	78.69
322.649	87.69
322.878	96.69
323.108	80.69
323.337	88.69
323.566	84.69
323.795	106.69
324.024	77.69
324.253	78.69
324.482	95.69
324.71	89.69
324.939	95.69
325.168	106.69
325.397	93.69
325.626	83.69
325.855	80.69
326.084	92.69
326.313	91.69
326.542	96.69
326.77	99.69
326.999	71.69
327.228	90.69
327.457	75.69
327.686	79.69
327.914	97.69
328.143	91.69
328.372	78.69
328.6	82.69
328.829	95.69
329.058	75.69
329.287	97.69
329.515	88.69
329.744	78.69
329.972	104.69
330.201	81.69
330.43	94.69
330.658	99.69
330.887	82.69
331.115	99.69
331.344	74.69
331.572	91.69
331.801	93.69
332.03	97.69
332.258	87.69
332.486	93.69
332.715	89.69
332.943	72.69
333.172	88.69
333.4	89.69
333.629	95.69
333.857	81.69
334.085	87.69
334.314	94.69
334.542	89.69
334.771	81.69
334.999	85.69
335.227	90.69
335.455	90.69
335.684	88.69
335.912	101.69
336.14	68.69
336.369	79.69
336.597	86.69
336.825	79.69
337.053	80.69
337.281	75.69
337.51	83.69
337.738	94.69
337.966	86.69
338.194	90.69
338.422	69.69
338.65	78.69
338.878	72.69
339.106	84.69
339.334	85.69
339.562	86.69
339.79	92.69
340.018	74.69
340.246	82.69
340.474	77.69
340.702	77.69
340.93	87.69
341.158	80.69
341.386	83.69
341.614	75.69
341.842	87.69
342.07	84.69
342.298	80.69
342.526	77.69
342.754	81.69
342.981	77.69
343.209	67.69
343.437	78.69
343.665	95.69
343.893	92.69
344.12	83.69
344.348	85.69
344.576	72.69
344.804	85.69
345.031	95.69
345.259	93.69
345.487	102.69
345.714	89.69
345.942	92.69
346.17	81.69
346.397	87.69
346.625	79.69
346.853	85.69
347.08	84.69
347.308	99.69
347.535	79.69
347.763	87.69
347.99	90.69
348.218	91.69
348.445	101.69
348.673	92.69
348.9	86.69
349.128	84.69
349.355	91.69
349.583	95.69
349.81	88.69
350.037	81.69
350.265	101.69
350.492	92.69
350.72	97.69
350.947	90.69
351.174	75.69
351.402	80.69
351.629	79.69
351.856	83.69
352.083	99.69
352.311	92.69
352.538	82.69
352.765	93.69
352.992	83.69
353.22	76.69
353.447	88.69
353.674	84.69
353.901	80.69
354.128	87.69
354.355	83.69
354.583	93.69
354.81	78.69
355.037	82.69
355.264	95.69
355.491	90.69
355.718	88.69
355.945	86.69
356.172	81.69
356.399	89.69
356.626	100.69
356.853	77.69
357.08	91.69
357.307	83.69
357.534	87.69
357.761	72.69
357.988	77.69
358.215	97.69
358.441	77.69
358.668	66.69
358.895	94.69
359.122	89.69
359.349	90.69
359.576	79.69
359.802	89.69
360.029	88.69
360.256	89.69
360.483	86.69
360.709	76.69
360.936	87.69
361.163	72.69
361.39	80.69
361.616	88.69
361.843	78.69
362.07	80.69
362.296	85.69
362.523	83.69
362.749	102.69
362.976	82.69
363.203	97.69
363.429	75.69
363.656	96.69
363.882	88.69
364.109	93.69
364.335	86.69
364.562	71.69
364.788	87.69
365.015	83.69
365.241	80.69
365.468	83.69
365.694	92.69
365.92	85.69
366.147	81.69
366.373	85.69
366.599	85.69
366.826	96.69
367.052	98.69
367.278	87.69
367.505	81.69
367.731	89.69
367.957	86.69
368.184	84.69
368.41	99.69
368.636	80.69
368.862	87.69
369.089	79.69
369.315	77.69
369.541	85.69
369.767	80.69
369.993	99.69
370.219	80.69
370.445	88.69
370.672	83.69
370.898	85.69
371.124	82.69
371.35	92.69
371.576	89.69
371.802	90.69
372.028	85.69
372.254	93.69
372.48	75.69
372.706	79.69
372.932	67.69
373.158	75.69
373.384	97.69
373.61	84.69
373.835	79.69
374.061	75.69
374.287	89.69
374.513	82.69
374.739	94.69
374.965	75.69
375.191	88.69
375.416	91.69
375.642	88.69
375.868	81.69
376.094	96.69
376.319	78.69
376.545	79.69
376.771	79.69
376.997	84.69
377.222	84.69
377.448	74.69
377.674	77.69
377.899	76.69
378.125	75.69
378.35	93.69
378.576	88.69
378.802	89.69
379.027	85.69
379.253	87.69
379.478	90.69
379.704	83.69
379.929	75.69
380.155	91.69
380.38	85.69
380.606	83.69
380.831	77.69
381.057	92.69
381.282	79.69
381.507	99.69
381.733	90.69
381.958	87.69
382.184	82.69
382.409	83.69
382.634	101.69
382.86	88.69
383.085	77.69
383.31	79.69
383.535	81.69
383.761	101.69
383.986	84.69
384.211	98.69
384.436	94.69
384.662	82.69
384.887	87.69
385.112	76.69
385.337	94.69
385.562	80.69
385.787	91.69
386.013	79.69
386.238	88.69
386.463	79.69
386.688	76.69
386.913	93.69
387.138	98.69
387.363	94.69
387.588	92.69
387.813	92.69
388.038	68.69
388.263	87.69
388.488	85.69
388.713	86.69
388.938	84.69
389.163	73.69
389.387	74.69
389.612	84.69
389.837	92.69
390.062	93.69
390.287	104.69
390.512	107.69
390.736	89.69
390.961	86.69
391.186	87.69
391.411	80.69
391.636	85.69
391.86	92.69
392.085	84.69
392.31	78.69
392.534	80.69
392.759	93.69
392.984	91.69
393.208	82.69
393.433	92.69
393.658	99.69
393.882	82.69
394.107	78.69
394.331	88.69
394.556	87.69
394.78	72.69
395.005	92.69
395.229	97.69
395.454	89.69
395.678	84.69
395.903	92.69
396.127	95.69
396.352	91.69
396.576	86.69
396.801	88.69
397.025	88.69
397.249	95.69
397.474	94.69
397.698	88.69
397.922	96.69
398.147	82.69
398.371	89.69
398.595	75.69
398.82	64.69
399.044	76.69
399.268	93.69
399.492	92.69
399.717	90.69
399.941	83.69
400.165	89.69
400.389	93.69
400.613	84.69
400.837	85.69
401.062	100.69
401.286	94.69
401.51	85.69
401.734	82.69
401.958	66.69
402.182	93.69
402.406	81.69
402.63	93.69
402.854	84.69
403.078	85.69
403.302	90.69
403.526	91.69
403.75	90.69
403.974	93.69
404.198	76.69
404.422	88.69
404.645	96.69
404.869	80.69
405.093	87.69
405.317	111.69
405.541	82.69
405.765	87.69
405.988	86.69
406.212	95.69
406.436	97.69
406.66	97.69
406.883	81.69
407.107	90.69
407.331	85.69
407.555	84.69
407.778	82.69
408.002	89.69
408.226	84.69
408.449	91.69
408.673	85.69
408.896	92.69
409.12	84.69
409.344	91.69
409.567	87.69
409.791	82.69
410.014	104.69
410.238	87.69
410.461	93.69
410.685	80.69
410.908	96.69
411.132	99.69
411.355	100.69
411.578	92.69
411.802	83.69
412.025	91.69
412.249	86.69
412.472	92.69
412.695	98.69
412.919	107.69
413.142	77.69
413.365	92.69
413.589	91.69
413.812	89.69
414.035	107.69
414.258	81.69
414.482	83.69
414.705	86.69
414.928	95.69
415.151	94.69
415.374	88.69
415.597	89.69
415.821	92.69
416.044	82.69
416.267	82.69
416.49	88.69
416.713	92.69
416.936	84.69
417.159	90.69
417.382	89.69
417.605	99.69
417.828	94.69
418.051	83.69
418.274	98.69
418.497	99.69
418.72	90.69
418.943	72.69
419.166	97.69
419.389	95.69
419.611	93.69
419.834	99.69
420.057	95.69
420.28	80.69
420.503	107.69
420.726	92.69
420.948	78.69
421.171	86.69
421.394	91.69
421.617	99.69
421.839	89.69
422.062	103.69
422.285	93.69
422.507	88.69
422.73	101.69
422.953	81.69
423.175	80.69
423.398	89.69
423.621	94.69
423.843	76.69
424.066	95.69
424.288	86.69
424.511	91.69
424.733	97.69
424.956	82.69
425.178	92.69
425.401	96.69
425.623	92.69
425.846	93.69
426.068	88.69
426.291	95.69
426.513	88.69
426.735	84.69
426.958	102.69
427.18	78.69
427.402	84.69
427.625	87.69
427.847	102.69
428.069	103.69
428.292	86.69
428.514	84.69
428.736	78.69
428.958	90.69
429.181	98.69
429.403	105.69
429.625	72.69
429.847	84.69
430.069	89.69
430.292	87.69
430.514	88.69
430.736	94.69
430.958	88.69
431.18	97.69
431.402	89.69
431.624	102.69
431.846	84.69
432.068	87.69
432.29	92.69
432.512	103.69
432.734	87.69
432.956	83.69
433.178	101.69
433.4	94.69
433.622	100.69
433.844	90.69
434.066	97.69
434.287	81.69
434.509	93.69
434.731	81.69
434.953	84.69
435.175	101.69
435.397	88.69
435.618	92.69
435.84	99.69
436.062	111.69
436.284	87.69
436.505	86.69
436.727	111.69
436.949	101.69
437.17	86.69
437.392	103.69
437.614	93.69
437.835	96.69
438.057	96.69
438.278	94.69
438.5	85.69
438.721	95.69
438.943	104.69
439.165	93.69
439.386	84.69
439.608	85.69
439.829	103.69
440.05	96.69
440.272	89.69
440.493	87.69
440.715	96.69
440.936	79.69
441.158	103.69
441.379	100.69
441.6	95.69
441.822	87.69
442.043	93.69
442.264	110.69
442.486	90.69
442.707	78.69
442.928	96.69
443.149	99.69
443.371	92.69
443.592	109.69
443.813	88.69
444.034	104.69
444.255	94.69
444.476	90.69
444.698	95.69
444.919	116.69
445.14	230.69
445.361	163.69
445.582	104.69
445.803	96.69
446.024	94.69
446.245	105.69
446.466	99.69
446.687	102.69
446.908	88.69
447.129	101.69
447.35	101.69
447.571	86.69
447.792	86.69
448.013	96.69
448.234	104.69
448.455	93.69
448.675	86.69
448.896	91.69
449.117	88.69
449.338	100.69
449.559	108.69
449.779	97.69
450	87.69
450.221	94.69
450.442	92.69
450.662	92.69
450.883	84.69
451.104	107.69
451.324	97.69
451.545	87.69
451.766	78.69
451.986	91.69
452.207	98.69
452.428	92.69
452.648	97.69
452.869	91.69
453.089	82.69
453.31	94.69
453.53	90.69
453.751	76.69
453.971	104.69
454.192	84.69
454.412	87.69
454.633	95.69
454.853	91.69
455.073	92.69
455.294	89.69
455.514	101.69
455.734	83.69
455.955	80.69
456.175	86.69
456.395	80.69
456.616	84.69
456.836	92.69
457.056	97.69
457.276	85.69
457.497	105.69
457.717	82.69
457.937	95.69
458.157	77.69
458.377	92.69
458.598	79.69
458.818	91.69
459.038	89.69
459.258	94.69
459.478	85.69
459.698	83.69
459.918	86.69
460.138	85.69
460.358	94.69
460.578	94.69
460.798	96.69
461.018	88.69
461.238	89.69
461.458	94.69
461.678	93.69
461.898	86.69
462.118	85.69
462.338	94.69
462.558	87.69
462.777	85.69
462.997	94.69
463.217	89.69
463.437	90.69
463.657	102.69
463.876	93.69
464.096	94.69
464.316	78.69
464.536	100.69
464.755	81.69
464.975	86.69
465.195	91.69
465.414	98.69
465.634	89.69
465.854	65.69
466.073	81.69
466.293	80.69
466.512	92.69
466.732	80.69
466.951	91.69
467.171	84.69
467.391	88.69
467.61	115.69
467.829	91.69
468.049	92.69
468.268	105.69
468.488	79.69
468.707	94.69
468.927	115.69
469.146	82.69
469.365	90.69
469.585	97.69
469.804	89.69
470.023	103.69
470.243	99.69
470.462	100.69
470.681	85.69
470.901	96.69
471.12	81.69
471.339	110.69
471.558	93.69
471.777	100.69
471.997	101.69
472.216	86.69
472.435	99.69
472.654	97.69
472.873	86.69
473.092	95.69
473.311	93.69
473.53	82.69
473.749	75.69
473.968	89.69
474.187	90.69
474.406	87.69
474.625	94.69
474.844	91.69
475.063	79.69
475.282	88.69
475.501	92.69
475.72	80.69
475.939	104.69
476.158	80.69
476.377	89.69
476.596	89.69
476.814	86.69
477.033	99.69
477.252	91.69
477.471	94.69
477.69	103.69
477.908	96.69
478.127	106.69
478.346	95.69
478.564	99.69
478.783	90.69
479.002	81.69
479.22	94.69
479.439	93.69
479.658	86.69
479.876	87.69
480.095	92.69
480.313	88.69
480.532	90.69
480.751	94.69
480.969	78.69
481.188	77.69
481.406	85.69
481.624	76.69
481.843	87.69
482.061	65.69
482.28	91.69
482.498	96.69
482.717	82.69
482.935	86.69
483.153	98.69
483.372	91.69
483.59	77.69
483.808	82.69
484.027	100.69
484.245	98.69
484.463	83.69
484.681	113.69
484.9	90.69
485.118	89.69
485.336	93.69
485.554	89.69
485.772	81.69
485.99	82.69
486.209	82.69
486.427	85.69
486.645	99.69
486.863	91.69
487.081	80.69
487.299	80.69
487.517	89.69
487.735	97.69
487.953	110.69
488.171	116.69
488.389	101.69
488.607	96.69
488.825	110.69
489.043	84.69
489.261	85.69
489.479	87.69
489.696	94.69
489.914	98.69
490.132	101.69
490.35	99.69
490.568	91.69
490.786	99.69
491.003	104.69
491.221	92.69
491.439	104.69
491.657	98.69
491.874	113.69
492.092	101.69
492.31	105.69
492.527	128.69
492.745	120.69
492.963	104.69
493.18	83.69
493.398	104.69
493.615	101.69
493.833	90.69
494.05	98.69
494.268	109.69
494.485	105.69
494.703	101.69
494.92	95.69
495.138	87.69
495.355	93.69
495.573	100.69
495.79	102.69
496.008	108.69
496.225	101.69
496.442	107.69
496.66	104.69
496.877	95.69
497.094	96.69
497.312	115.69
497.529	115.69
497.746	104.69
497.963	108.69
498.181	80.69
498.398	92.69
498.615	95.69
498.832	82.69
499.049	83.69
499.267	81.69
499.484	94.69
499.701	112.69
499.918	103.69
500.135	76.69
500.352	90.69
500.569	88.69
500.786	90.69
501.003	101.69
501.22	103.69
501.437	89.69
501.654	81.69
501.871	91.69
502.088	92.69
502.305	104.69
502.522	101.69
502.739	97.69
502.956	111.69
503.172	87.69
503.389	81.69
503.606	103.69
503.823	91.69
504.04	83.69
504.256	109.69
504.473	93.69
504.69	85.69
504.907	95.69
505.123	92.69
505.34	99.69
505.557	107.69
505.773	94.69
505.99	102.69
506.207	86.69
506.423	96.69
506.64	84.69
506.856	79.69
507.073	87.69
507.289	85.69
507.506	95.69
507.722	89.69
507.939	80.69
508.155	93.69
508.372	97.69
508.588	75.69
508.805	87.69
509.021	96.69
509.238	93.69
509.454	84.69
509.67	81.69
509.887	91.69
510.103	84.69
510.319	89.69
510.536	92.69
510.752	92.69
510.968	90.69
511.184	78.69
511.401	77.69
511.617	96.69
511.833	90.69
512.049	82.69
512.265	81.69
512.481	86.69
512.698	74.69
512.914	87.69
513.13	87.69
513.346	86.69
513.562	95.69
513.778	90.69
513.994	87.69
514.21	83.69
514.426	73.69
514.642	78.69
514.858	77.69
515.074	80.69
515.29	91.69
515.506	78.69
515.721	91.69
515.937	84.69
516.153	97.69
516.369	85.69
516.585	67.69
516.801	85.69
517.016	82.69
517.232	92.69
517.448	70.69
517.664	78.69
517.879	80.69
