Data from Zn(NO3)2Standard.Agarose3%.GreenCap.LampEnergy10E.O_HRD10591_15-06-13-941.txt Node
Date: Mon Jul 22 15:06:13 EDT 2019
User: cochatt
Spectrometer: HR+D1059
Trigger mode: 1
Integration Time (sec): 1.000000E-1
Scans to average: 1
Electric dark correction enabled: true
Nonlinearity correction enabled: false
Boxcar width: 0
XAxis mode: Wavelengths
Number of Pixels in Spectrum: 2048
>>>>>Begin Spectral Data<<<<<
223.165	-27.75
223.4	-27.75
223.635	-27.75
223.869	-23.75
224.104	-20.75
224.338	-10.75
224.573	-29.75
224.808	-14.75
225.042	-14.75
225.277	5.25
225.511	3.25
225.746	4.25
225.98	14.25
226.215	23.25
226.449	13.25
226.683	22.25
226.918	34.25
227.152	22.25
227.387	48.25
227.621	46.25
227.856	40.25
228.09	46.25
228.324	60.25
228.559	57.25
228.793	69.25
229.027	52.25
229.262	66.25
229.496	63.25
229.73	70.25
229.964	78.25
230.199	72.25
230.433	77.25
230.667	82.25
230.901	84.25
231.136	82.25
231.37	80.25
231.604	83.25
231.838	79.25
232.072	82.25
232.306	75.25
232.541	84.25
232.775	89.25
233.009	88.25
233.243	81.25
233.477	72.25
233.711	90.25
233.945	87.25
234.179	86.25
234.413	92.25
234.647	80.25
234.881	96.25
235.115	52.25
235.349	74.25
235.583	80.25
235.817	88.25
236.051	72.25
236.285	77.25
236.519	83.25
236.753	88.25
236.987	81.25
237.221	73.25
237.455	73.25
237.689	89.25
237.922	81.25
238.156	77.25
238.39	77.25
238.624	85.25
238.858	58.25
239.091	64.25
239.325	71.25
239.559	68.25
239.793	64.25
240.027	78.25
240.26	94.25
240.494	79.25
240.728	73.25
240.961	72.25
241.195	68.25
241.429	59.25
241.662	61.25
241.896	75.25
242.13	78.25
242.363	73.25
242.597	88.25
242.83	57.25
243.064	74.25
243.298	69.25
243.531	80.25
243.765	62.25
243.998	73.25
244.232	74.25
244.465	86.25
244.699	81.25
244.932	75.25
245.166	74.25
245.399	83.25
245.633	78.25
245.866	73.25
246.099	75.25
246.333	63.25
246.566	68.25
246.8	80.25
247.033	85.25
247.266	78.25
247.5	79.25
247.733	75.25
247.966	77.25
248.2	73.25
248.433	82.25
248.666	89.25
248.899	76.25
249.133	77.25
249.366	83.25
249.599	75.25
249.832	95.25
250.066	86.25
250.299	80.25
250.532	81.25
250.765	74.25
250.998	92.25
251.231	73.25
251.465	92.25
251.698	83.25
251.931	88.25
252.164	82.25
252.397	74.25
252.63	79.25
252.863	74.25
253.096	88.25
253.329	72.25
253.562	81.25
253.795	77.25
254.028	90.25
254.261	82.25
254.494	83.25
254.727	82.25
254.96	73.25
255.193	85.25
255.426	76.25
255.659	78.25
255.892	78.25
256.124	79.25
256.357	77.25
256.59	75.25
256.823	74.25
257.056	80.25
257.289	80.25
257.521	86.25
257.754	82.25
257.987	74.25
258.22	93.25
258.452	75.25
258.685	78.25
258.918	85.25
259.151	87.25
259.383	85.25
259.616	86.25
259.849	73.25
260.081	84.25
260.314	86.25
260.547	82.25
260.779	69.25
261.012	92.25
261.244	76.25
261.477	85.25
261.71	71.25
261.942	69.25
262.175	68.25
262.407	80.25
262.64	96.25
262.872	85.25
263.105	85.25
263.337	83.25
263.57	60.25
263.802	86.25
264.035	78.25
264.267	87.25
264.499	85.25
264.732	72.25
264.964	86.25
265.197	96.25
265.429	85.25
265.661	79.25
265.894	85.25
266.126	71.25
266.358	94.25
266.591	85.25
266.823	84.25
267.055	79.25
267.287	90.25
267.52	82.25
267.752	70.25
267.984	89.25
268.216	88.25
268.448	82.25
268.681	78.25
268.913	72.25
269.145	89.25
269.377	84.25
269.609	84.25
269.841	83.25
270.073	78.25
270.306	72.25
270.538	71.25
270.77	88.25
271.002	80.25
271.234	85.25
271.466	88.25
271.698	85.25
271.93	78.25
272.162	79.25
272.394	77.25
272.626	78.25
272.858	70.25
273.09	76.25
273.322	84.25
273.553	95.25
273.785	89.25
274.017	83.25
274.249	69.25
274.481	61.25
274.713	84.25
274.945	81.25
275.176	82.25
275.408	77.25
275.64	87.25
275.872	66.25
276.104	77.25
276.335	85.25
276.567	93.25
276.799	83.25
277.031	76.25
277.262	84.25
277.494	76.25
277.726	84.25
277.957	79.25
278.189	68.25
278.421	75.25
278.652	79.25
278.884	95.25
279.115	85.25
279.347	79.25
279.579	74.25
279.81	86.25
280.042	82.25
280.273	84.25
280.505	73.25
280.736	81.25
280.968	86.25
281.199	86.25
281.431	72.25
281.662	89.25
281.894	69.25
282.125	72.25
282.356	73.25
282.588	72.25
282.819	80.25
283.051	73.25
283.282	79.25
283.513	69.25
283.745	85.25
283.976	79.25
284.207	89.25
284.439	84.25
284.67	88.25
284.901	81.25
285.132	79.25
285.364	73.25
285.595	88.25
285.826	78.25
286.057	89.25
286.288	75.25
286.52	69.25
286.751	84.25
286.982	84.25
287.213	86.25
287.444	79.25
287.675	83.25
287.906	82.25
288.138	86.25
288.369	77.25
288.6	92.25
288.831	83.25
289.062	75.25
289.293	91.25
289.524	84.25
289.755	82.25
289.986	91.25
290.217	77.25
290.448	86.25
290.679	81.25
290.91	89.25
291.141	73.25
291.371	88.25
291.602	80.25
291.833	93.25
292.064	91.25
292.295	82.25
292.526	87.25
292.757	80.25
292.987	77.25
293.218	76.25
293.449	96.25
293.68	86.25
293.91	76.25
294.141	83.25
294.372	85.25
294.603	77.25
294.833	88.25
295.064	95.25
295.295	78.25
295.525	88.25
295.756	84.25
295.987	103.25
296.217	79.25
296.448	84.25
296.679	77.25
296.909	91.25
297.14	101.25
297.37	83.25
297.601	80.25
297.831	85.25
298.062	79.25
298.292	77.25
298.523	64.25
298.753	72.25
298.984	89.25
299.214	74.25
299.445	86.25
299.675	71.25
299.905	85.25
300.136	100.25
300.366	81.25
300.597	101.25
300.827	81.25
301.057	68.25
301.288	82.25
301.518	77.25
301.748	72.25
301.979	72.25
302.209	82.25
302.439	71.25
302.669	80.25
302.9	94.25
303.13	82.25
303.36	77.25
303.59	75.25
303.82	96.25
304.051	94.25
304.281	83.25
304.511	85.25
304.741	88.25
304.971	73.25
305.201	84.25
305.431	99.25
305.661	65.25
305.891	74.25
306.121	76.25
306.352	80.25
306.582	77.25
306.812	89.25
307.042	82.25
307.272	78.25
307.502	77.25
307.731	84.25
307.961	72.25
308.191	91.25
308.421	83.25
308.651	84.25
308.881	85.25
309.111	100.25
309.341	95.25
309.571	83.25
309.8	81.25
310.03	84.25
310.26	86.25
310.49	85.25
310.72	87.25
310.949	77.25
311.179	77.25
311.409	96.25
311.639	87.25
311.868	84.25
312.098	79.25
312.328	82.25
312.557	76.25
312.787	87.25
313.017	77.25
313.246	93.25
313.476	86.25
313.706	81.25
313.935	85.25
314.165	83.25
314.394	87.25
314.624	86.25
314.853	82.25
315.083	94.25
315.312	83.25
315.542	84.25
315.771	81.25
316.001	80.25
316.23	78.25
316.46	96.25
316.689	86.25
316.919	78.25
317.148	82.25
317.377	93.25
317.607	87.25
317.836	81.25
318.065	79.25
318.295	73.25
318.524	91.25
318.753	99.25
318.983	74.25
319.212	70.25
319.441	77.25
319.67	86.25
319.9	86.25
320.129	90.25
320.358	107.25
320.587	77.25
320.816	81.25
321.046	101.25
321.275	81.25
321.504	92.25
321.733	84.25
321.962	83.25
322.191	94.25
322.42	84.25
322.649	78.25
322.878	85.25
323.108	84.25
323.337	81.25
323.566	80.25
323.795	88.25
324.024	90.25
324.253	87.25
324.482	88.25
324.71	66.25
324.939	91.25
325.168	98.25
325.397	87.25
325.626	89.25
325.855	84.25
326.084	86.25
326.313	76.25
326.542	73.25
326.77	93.25
326.999	96.25
327.228	71.25
327.457	76.25
327.686	89.25
327.914	59.25
328.143	102.25
328.372	85.25
328.6	81.25
328.829	84.25
329.058	72.25
329.287	80.25
329.515	83.25
329.744	89.25
329.972	80.25
330.201	68.25
330.43	76.25
330.658	86.25
330.887	88.25
331.115	76.25
331.344	73.25
331.572	72.25
331.801	77.25
332.03	79.25
332.258	84.25
332.486	79.25
332.715	76.25
332.943	85.25
333.172	86.25
333.4	95.25
333.629	96.25
333.857	87.25
334.085	72.25
334.314	68.25
334.542	81.25
334.771	87.25
334.999	85.25
335.227	85.25
335.455	86.25
335.684	81.25
335.912	101.25
336.14	79.25
336.369	84.25
336.597	85.25
336.825	67.25
337.053	77.25
337.281	72.25
337.51	89.25
337.738	88.25
337.966	94.25
338.194	88.25
338.422	76.25
338.65	76.25
338.878	74.25
339.106	69.25
339.334	83.25
339.562	78.25
339.79	78.25
340.018	78.25
340.246	79.25
340.474	92.25
340.702	89.25
340.93	88.25
341.158	85.25
341.386	94.25
341.614	84.25
341.842	77.25
342.07	86.25
342.298	85.25
342.526	78.25
342.754	91.25
342.981	97.25
343.209	88.25
343.437	74.25
343.665	79.25
343.893	73.25
344.12	79.25
344.348	68.25
344.576	80.25
344.804	69.25
345.031	75.25
345.259	89.25
345.487	87.25
345.714	72.25
345.942	87.25
346.17	65.25
346.397	79.25
346.625	82.25
346.853	90.25
347.08	88.25
347.308	72.25
347.535	85.25
347.763	71.25
347.99	82.25
348.218	63.25
348.445	75.25
348.673	76.25
348.9	72.25
349.128	88.25
349.355	85.25
349.583	78.25
349.81	66.25
350.037	80.25
350.265	93.25
350.492	89.25
350.72	93.25
350.947	88.25
351.174	89.25
351.402	89.25
351.629	94.25
351.856	92.25
352.083	75.25
352.311	96.25
352.538	85.25
352.765	86.25
352.992	87.25
353.22	88.25
353.447	100.25
353.674	82.25
353.901	76.25
354.128	93.25
354.355	88.25
354.583	72.25
354.81	84.25
355.037	77.25
355.264	80.25
355.491	85.25
355.718	80.25
355.945	97.25
356.172	60.25
356.399	82.25
356.626	81.25
356.853	89.25
357.08	91.25
357.307	82.25
357.534	67.25
357.761	82.25
357.988	83.25
358.215	83.25
358.441	83.25
358.668	85.25
358.895	90.25
359.122	74.25
359.349	93.25
359.576	89.25
359.802	77.25
360.029	83.25
360.256	84.25
360.483	77.25
360.709	89.25
360.936	85.25
361.163	99.25
361.39	89.25
361.616	88.25
361.843	87.25
362.07	91.25
362.296	72.25
362.523	75.25
362.749	75.25
362.976	90.25
363.203	92.25
363.429	86.25
363.656	72.25
363.882	84.25
364.109	89.25
364.335	97.25
364.562	79.25
364.788	81.25
365.015	87.25
365.241	97.25
365.468	77.25
365.694	84.25
365.92	77.25
366.147	83.25
366.373	88.25
366.599	86.25
366.826	70.25
367.052	89.25
367.278	82.25
367.505	99.25
367.731	72.25
367.957	87.25
368.184	96.25
368.41	77.25
368.636	84.25
368.862	79.25
369.089	62.25
369.315	84.25
369.541	85.25
369.767	70.25
369.993	73.25
370.219	81.25
370.445	77.25
370.672	93.25
370.898	84.25
371.124	67.25
371.35	83.25
371.576	83.25
371.802	78.25
372.028	83.25
372.254	90.25
372.48	96.25
372.706	80.25
372.932	91.25
373.158	93.25
373.384	90.25
373.61	91.25
373.835	79.25
374.061	87.25
374.287	82.25
374.513	85.25
374.739	85.25
374.965	76.25
375.191	93.25
375.416	88.25
375.642	76.25
375.868	84.25
376.094	94.25
376.319	98.25
376.545	94.25
376.771	83.25
376.997	84.25
377.222	78.25
377.448	89.25
377.674	82.25
377.899	79.25
378.125	69.25
378.35	82.25
378.576	85.25
378.802	90.25
379.027	102.25
379.253	93.25
379.478	94.25
379.704	88.25
379.929	79.25
380.155	93.25
380.38	92.25
380.606	83.25
380.831	95.25
381.057	82.25
381.282	92.25
381.507	86.25
381.733	81.25
381.958	85.25
382.184	84.25
382.409	79.25
382.634	88.25
382.86	89.25
383.085	90.25
383.31	71.25
383.535	85.25
383.761	85.25
383.986	90.25
384.211	88.25
384.436	86.25
384.662	84.25
384.887	81.25
385.112	100.25
385.337	89.25
385.562	74.25
385.787	88.25
386.013	109.25
386.238	71.25
386.463	88.25
386.688	82.25
386.913	81.25
387.138	85.25
387.363	99.25
387.588	88.25
387.813	89.25
388.038	96.25
388.263	96.25
388.488	87.25
388.713	80.25
388.938	93.25
389.163	84.25
389.387	97.25
389.612	88.25
389.837	97.25
390.062	91.25
390.287	88.25
390.512	75.25
390.736	93.25
390.961	101.25
391.186	92.25
391.411	83.25
391.636	88.25
391.86	87.25
392.085	97.25
392.31	97.25
392.534	87.25
392.759	99.25
392.984	73.25
393.208	87.25
393.433	93.25
393.658	92.25
393.882	96.25
394.107	93.25
394.331	88.25
394.556	89.25
394.78	84.25
395.005	95.25
395.229	87.25
395.454	92.25
395.678	77.25
395.903	88.25
396.127	91.25
396.352	98.25
396.576	83.25
396.801	88.25
397.025	94.25
397.249	97.25
397.474	92.25
397.698	86.25
397.922	94.25
398.147	89.25
398.371	91.25
398.595	92.25
398.82	86.25
399.044	74.25
399.268	87.25
399.492	80.25
399.717	104.25
399.941	90.25
400.165	96.25
400.389	94.25
400.613	92.25
400.837	84.25
401.062	92.25
401.286	95.25
401.51	92.25
401.734	84.25
401.958	94.25
402.182	98.25
402.406	88.25
402.63	78.25
402.854	78.25
403.078	96.25
403.302	84.25
403.526	92.25
403.75	109.25
403.974	90.25
404.198	106.25
404.422	84.25
404.645	86.25
404.869	88.25
405.093	101.25
405.317	91.25
405.541	88.25
405.765	115.25
405.988	104.25
406.212	102.25
406.436	102.25
406.66	93.25
406.883	81.25
407.107	93.25
407.331	102.25
407.555	83.25
407.778	92.25
408.002	95.25
408.226	84.25
408.449	101.25
408.673	101.25
408.896	98.25
409.12	108.25
409.344	110.25
409.567	110.25
409.791	94.25
410.014	107.25
410.238	98.25
410.461	106.25
410.685	88.25
410.908	92.25
411.132	114.25
411.355	102.25
411.578	94.25
411.802	91.25
412.025	86.25
412.249	97.25
412.472	89.25
412.695	96.25
412.919	92.25
413.142	96.25
413.365	92.25
413.589	109.25
413.812	107.25
414.035	96.25
414.258	105.25
414.482	80.25
414.705	88.25
414.928	98.25
415.151	95.25
415.374	107.25
415.597	107.25
415.821	99.25
416.044	96.25
416.267	96.25
416.49	118.25
416.713	108.25
416.936	94.25
417.159	106.25
417.382	97.25
417.605	95.25
417.828	98.25
418.051	96.25
418.274	112.25
418.497	107.25
418.72	105.25
418.943	118.25
419.166	104.25
419.389	97.25
419.611	117.25
419.834	103.25
420.057	101.25
420.28	114.25
420.503	93.25
420.726	109.25
420.948	112.25
421.171	112.25
421.394	81.25
421.617	107.25
421.839	102.25
422.062	104.25
422.285	98.25
422.507	100.25
422.73	93.25
422.953	119.25
423.175	113.25
423.398	107.25
423.621	111.25
423.843	96.25
424.066	104.25
424.288	109.25
424.511	109.25
424.733	98.25
424.956	117.25
425.178	92.25
425.401	104.25
425.623	105.25
425.846	109.25
426.068	108.25
426.291	100.25
426.513	106.25
426.735	106.25
426.958	107.25
427.18	108.25
427.402	102.25
427.625	117.25
427.847	92.25
428.069	101.25
428.292	106.25
428.514	121.25
428.736	94.25
428.958	99.25
429.181	119.25
429.403	113.25
429.625	105.25
429.847	105.25
430.069	97.25
430.292	104.25
430.514	105.25
430.736	101.25
430.958	99.25
431.18	106.25
431.402	99.25
431.624	106.25
431.846	89.25
432.068	78.25
432.29	89.25
432.512	93.25
432.734	101.25
432.956	104.25
433.178	107.25
433.4	113.25
433.622	109.25
433.844	108.25
434.066	96.25
434.287	84.25
434.509	89.25
434.731	82.25
434.953	92.25
435.175	103.25
435.397	109.25
435.618	88.25
435.84	97.25
436.062	97.25
436.284	103.25
436.505	111.25
436.727	112.25
436.949	89.25
437.17	97.25
437.392	98.25
437.614	91.25
437.835	83.25
438.057	98.25
438.278	99.25
438.5	107.25
438.721	106.25
438.943	92.25
439.165	110.25
439.386	99.25
439.608	101.25
439.829	125.25
440.05	122.25
440.272	108.25
440.493	114.25
440.715	115.25
440.936	114.25
441.158	118.25
441.379	118.25
441.6	110.25
441.822	107.25
442.043	108.25
442.264	88.25
442.486	105.25
442.707	104.25
442.928	100.25
443.149	99.25
443.371	107.25
443.592	103.25
443.813	117.25
444.034	109.25
444.255	108.25
444.476	108.25
444.698	105.25
444.919	109.25
445.14	216.25
445.361	157.25
445.582	113.25
445.803	126.25
446.024	111.25
446.245	124.25
446.466	117.25
446.687	114.25
446.908	104.25
447.129	105.25
447.35	118.25
447.571	115.25
447.792	116.25
448.013	108.25
448.234	113.25
448.455	106.25
448.675	110.25
448.896	90.25
449.117	100.25
449.338	118.25
449.559	112.25
449.779	101.25
450	108.25
450.221	99.25
450.442	96.25
450.662	105.25
450.883	102.25
451.104	117.25
451.324	105.25
451.545	98.25
451.766	97.25
451.986	108.25
452.207	112.25
452.428	108.25
452.648	114.25
452.869	93.25
453.089	91.25
453.31	93.25
453.53	91.25
453.751	90.25
453.971	82.25
454.192	89.25
454.412	98.25
454.633	100.25
454.853	84.25
455.073	106.25
455.294	92.25
455.514	104.25
455.734	91.25
455.955	98.25
456.175	92.25
456.395	87.25
456.616	86.25
456.836	94.25
457.056	98.25
457.276	95.25
457.497	91.25
457.717	100.25
457.937	92.25
458.157	90.25
458.377	83.25
458.598	86.25
458.818	81.25
459.038	90.25
459.258	84.25
459.478	77.25
459.698	83.25
459.918	85.25
460.138	93.25
460.358	107.25
460.578	91.25
460.798	91.25
461.018	91.25
461.238	107.25
461.458	93.25
461.678	95.25
461.898	110.25
462.118	95.25
462.338	98.25
462.558	100.25
462.777	102.25
462.997	86.25
463.217	99.25
463.437	88.25
463.657	93.25
463.876	96.25
464.096	103.25
464.316	119.25
464.536	95.25
464.755	105.25
464.975	99.25
465.195	94.25
465.414	91.25
465.634	84.25
465.854	106.25
466.073	106.25
466.293	102.25
466.512	99.25
466.732	86.25
466.951	90.25
467.171	104.25
467.391	106.25
467.61	99.25
467.829	107.25
468.049	106.25
468.268	96.25
468.488	91.25
468.707	98.25
468.927	109.25
469.146	120.25
469.365	98.25
469.585	103.25
469.804	109.25
470.023	120.25
470.243	104.25
470.462	105.25
470.681	102.25
470.901	106.25
471.12	105.25
471.339	106.25
471.558	114.25
471.777	112.25
471.997	108.25
472.216	103.25
472.435	101.25
472.654	101.25
472.873	94.25
473.092	104.25
473.311	98.25
473.53	106.25
473.749	107.25
473.968	108.25
474.187	102.25
474.406	101.25
474.625	99.25
474.844	120.25
475.063	100.25
475.282	102.25
475.501	100.25
475.72	110.25
475.939	104.25
476.158	95.25
476.377	103.25
476.596	104.25
476.814	99.25
477.033	98.25
477.252	80.25
477.471	93.25
477.69	102.25
477.908	116.25
478.127	109.25
478.346	107.25
478.564	92.25
478.783	100.25
479.002	105.25
479.22	118.25
479.439	96.25
479.658	106.25
479.876	105.25
480.095	98.25
480.313	94.25
480.532	89.25
480.751	95.25
480.969	98.25
481.188	84.25
481.406	86.25
481.624	87.25
481.843	83.25
482.061	91.25
482.28	100.25
482.498	96.25
482.717	91.25
482.935	112.25
483.153	116.25
483.372	119.25
483.59	124.25
483.808	118.25
484.027	103.25
484.245	117.25
484.463	105.25
484.681	128.25
484.9	117.25
485.118	115.25
485.336	109.25
485.554	86.25
485.772	104.25
485.99	97.25
486.209	116.25
486.427	105.25
486.645	100.25
486.863	116.25
487.081	103.25
487.299	109.25
487.517	121.25
487.735	105.25
487.953	108.25
488.171	126.25
488.389	123.25
488.607	118.25
488.825	110.25
489.043	97.25
489.261	101.25
489.479	114.25
489.696	114.25
489.914	97.25
490.132	117.25
490.35	106.25
490.568	110.25
490.786	133.25
491.003	123.25
491.221	145.25
491.439	132.25
491.657	142.25
491.874	137.25
492.092	146.25
492.31	139.25
492.527	147.25
492.745	154.25
492.963	140.25
493.18	142.25
493.398	142.25
493.615	138.25
493.833	153.25
494.05	137.25
494.268	113.25
494.485	108.25
494.703	121.25
494.92	130.25
495.138	118.25
495.355	131.25
495.573	133.25
495.79	127.25
496.008	105.25
496.225	119.25
496.442	113.25
496.66	134.25
496.877	122.25
497.094	108.25
497.312	124.25
497.529	125.25
497.746	103.25
497.963	118.25
498.181	103.25
498.398	112.25
498.615	96.25
498.832	98.25
499.049	107.25
499.267	107.25
499.484	102.25
499.701	98.25
499.918	113.25
500.135	114.25
500.352	103.25
500.569	123.25
500.786	130.25
501.003	115.25
501.22	104.25
501.437	107.25
501.654	100.25
501.871	104.25
502.088	98.25
502.305	107.25
502.522	112.25
502.739	100.25
502.956	97.25
503.172	117.25
503.389	106.25
503.606	110.25
503.823	93.25
504.04	96.25
504.256	108.25
504.473	97.25
504.69	114.25
504.907	106.25
505.123	105.25
505.34	96.25
505.557	91.25
505.773	103.25
505.99	93.25
506.207	104.25
506.423	96.25
506.64	95.25
506.856	97.25
507.073	121.25
507.289	102.25
507.506	105.25
507.722	97.25
507.939	103.25
508.155	96.25
508.372	99.25
508.588	102.25
508.805	108.25
509.021	88.25
509.238	100.25
509.454	93.25
509.67	86.25
509.887	93.25
510.103	88.25
510.319	90.25
510.536	89.25
510.752	75.25
510.968	72.25
511.184	71.25
511.401	82.25
511.617	104.25
511.833	87.25
512.049	86.25
512.265	94.25
512.481	86.25
512.698	76.25
512.914	86.25
513.13	87.25
513.346	89.25
513.562	84.25
513.778	80.25
513.994	84.25
514.21	75.25
514.426	88.25
514.642	91.25
514.858	89.25
515.074	94.25
