Data from Zn(NO3)2Standard.Agarose3%.GreenCap.LampEnergy5.5.E.O_HRD10591_15-01-20-767.txt Node
Date: Mon Jul 22 15:01:20 EDT 2019
User: cochatt
Spectrometer: HR+D1059
Trigger mode: 1
Integration Time (sec): 1.000000E-1
Scans to average: 1
Electric dark correction enabled: true
Nonlinearity correction enabled: false
Boxcar width: 0
XAxis mode: Wavelengths
Number of Pixels in Spectrum: 2048
>>>>>Begin Spectral Data<<<<<
223.165	-8.31
223.4	-8.31
223.635	-8.31
223.869	-19.31
224.104	-22.31
224.338	-13.31
224.573	-12.31
224.808	-14.31
225.042	-7.31
225.277	-14.31
225.511	2.69
225.746	7.69
225.98	1.69
226.215	19.69
226.449	13.69
226.683	7.69
226.918	34.69
227.152	23.69
227.387	32.69
227.621	37.69
227.856	36.69
228.09	41.69
228.324	53.69
228.559	51.69
228.793	54.69
229.027	65.69
229.262	53.69
229.496	61.69
229.73	55.69
229.964	80.69
230.199	77.69
230.433	72.69
230.667	76.69
230.901	82.69
231.136	77.69
231.37	74.69
231.604	63.69
231.838	72.69
232.072	72.69
232.306	80.69
232.541	71.69
232.775	84.69
233.009	83.69
233.243	80.69
233.477	81.69
233.711	77.69
233.945	82.69
234.179	76.69
234.413	84.69
234.647	74.69
234.881	73.69
235.115	74.69
235.349	84.69
235.583	76.69
235.817	64.69
236.051	75.69
236.285	70.69
236.519	90.69
236.753	83.69
236.987	71.69
237.221	79.69
237.455	95.69
237.689	71.69
237.922	73.69
238.156	75.69
238.39	73.69
238.624	71.69
238.858	68.69
239.091	69.69
239.325	78.69
239.559	73.69
239.793	84.69
240.027	76.69
240.26	80.69
240.494	77.69
240.728	72.69
240.961	71.69
241.195	82.69
241.429	89.69
241.662	79.69
241.896	73.69
242.13	73.69
242.363	81.69
242.597	77.69
242.83	81.69
243.064	70.69
243.298	63.69
243.531	64.69
243.765	76.69
243.998	86.69
244.232	94.69
244.465	73.69
244.699	71.69
244.932	78.69
245.166	66.69
245.399	62.69
245.633	67.69
245.866	77.69
246.099	58.69
246.333	69.69
246.566	74.69
246.8	64.69
247.033	73.69
247.266	76.69
247.5	86.69
247.733	77.69
247.966	75.69
248.2	83.69
248.433	60.69
248.666	80.69
248.899	73.69
249.133	69.69
249.366	83.69
249.599	84.69
249.832	69.69
250.066	72.69
250.299	81.69
250.532	79.69
250.765	77.69
250.998	67.69
251.231	73.69
251.465	92.69
251.698	81.69
251.931	54.69
252.164	74.69
252.397	90.69
252.63	68.69
252.863	83.69
253.096	81.69
253.329	83.69
253.562	86.69
253.795	93.69
254.028	84.69
254.261	62.69
254.494	86.69
254.727	87.69
254.96	76.69
255.193	67.69
255.426	83.69
255.659	84.69
255.892	81.69
256.124	83.69
256.357	81.69
256.59	73.69
256.823	88.69
257.056	100.69
257.289	89.69
257.521	79.69
257.754	77.69
257.987	89.69
258.22	86.69
258.452	61.69
258.685	70.69
258.918	65.69
259.151	83.69
259.383	92.69
259.616	87.69
259.849	83.69
260.081	81.69
260.314	92.69
260.547	91.69
260.779	84.69
261.012	73.69
261.244	90.69
261.477	89.69
261.71	67.69
261.942	76.69
262.175	84.69
262.407	90.69
262.64	95.69
262.872	87.69
263.105	70.69
263.337	75.69
263.57	82.69
263.802	71.69
264.035	80.69
264.267	84.69
264.499	67.69
264.732	86.69
264.964	73.69
265.197	92.69
265.429	71.69
265.661	85.69
265.894	81.69
266.126	71.69
266.358	98.69
266.591	79.69
266.823	80.69
267.055	93.69
267.287	68.69
267.52	79.69
267.752	88.69
267.984	81.69
268.216	82.69
268.448	74.69
268.681	77.69
268.913	81.69
269.145	91.69
269.377	73.69
269.609	92.69
269.841	103.69
270.073	82.69
270.306	91.69
270.538	89.69
270.77	84.69
271.002	81.69
271.234	87.69
271.466	76.69
271.698	78.69
271.93	84.69
272.162	82.69
272.394	86.69
272.626	84.69
272.858	78.69
273.09	63.69
273.322	88.69
273.553	77.69
273.785	87.69
274.017	81.69
274.249	90.69
274.481	80.69
274.713	81.69
274.945	78.69
275.176	90.69
275.408	85.69
275.64	82.69
275.872	77.69
276.104	102.69
276.335	89.69
276.567	78.69
276.799	81.69
277.031	86.69
277.262	64.69
277.494	87.69
277.726	81.69
277.957	69.69
278.189	65.69
278.421	69.69
278.652	83.69
278.884	81.69
279.115	72.69
279.347	76.69
279.579	75.69
279.81	79.69
280.042	80.69
280.273	80.69
280.505	73.69
280.736	76.69
280.968	94.69
281.199	90.69
281.431	75.69
281.662	76.69
281.894	80.69
282.125	69.69
282.356	79.69
282.588	77.69
282.819	75.69
283.051	73.69
283.282	87.69
283.513	79.69
283.745	78.69
283.976	80.69
284.207	90.69
284.439	94.69
284.67	83.69
284.901	92.69
285.132	90.69
285.364	89.69
285.595	87.69
285.826	96.69
286.057	81.69
286.288	76.69
286.52	89.69
286.751	86.69
286.982	86.69
287.213	85.69
287.444	81.69
287.675	89.69
287.906	67.69
288.138	84.69
288.369	68.69
288.6	82.69
288.831	86.69
289.062	88.69
289.293	73.69
289.524	81.69
289.755	82.69
289.986	90.69
290.217	89.69
290.448	84.69
290.679	88.69
290.91	82.69
291.141	79.69
291.371	94.69
291.602	87.69
291.833	74.69
292.064	84.69
292.295	96.69
292.526	83.69
292.757	91.69
292.987	85.69
293.218	88.69
293.449	77.69
293.68	69.69
293.91	88.69
294.141	79.69
294.372	83.69
294.603	78.69
294.833	86.69
295.064	75.69
295.295	81.69
295.525	81.69
295.756	87.69
295.987	84.69
296.217	79.69
296.448	73.69
296.679	90.69
296.909	87.69
297.14	76.69
297.37	87.69
297.601	84.69
297.831	84.69
298.062	74.69
298.292	84.69
298.523	99.69
298.753	84.69
298.984	85.69
299.214	81.69
299.445	91.69
299.675	87.69
299.905	70.69
300.136	77.69
300.366	89.69
300.597	82.69
300.827	85.69
301.057	78.69
301.288	86.69
301.518	91.69
301.748	94.69
301.979	87.69
302.209	68.69
302.439	73.69
302.669	90.69
302.9	76.69
303.13	76.69
303.36	79.69
303.59	89.69
303.82	77.69
304.051	88.69
304.281	74.69
304.511	90.69
304.741	68.69
304.971	75.69
305.201	77.69
305.431	86.69
305.661	87.69
305.891	90.69
306.121	80.69
306.352	70.69
306.582	73.69
306.812	80.69
307.042	84.69
307.272	84.69
307.502	81.69
307.731	86.69
307.961	91.69
308.191	89.69
308.421	62.69
308.651	87.69
308.881	92.69
309.111	76.69
309.341	82.69
309.571	85.69
309.8	75.69
310.03	87.69
310.26	79.69
310.49	96.69
310.72	67.69
310.949	82.69
311.179	96.69
311.409	90.69
311.639	92.69
311.868	87.69
312.098	83.69
312.328	103.69
312.557	86.69
312.787	83.69
313.017	87.69
313.246	88.69
313.476	84.69
313.706	72.69
313.935	78.69
314.165	65.69
314.394	82.69
314.624	82.69
314.853	82.69
315.083	93.69
315.312	88.69
315.542	87.69
315.771	87.69
316.001	82.69
316.23	90.69
316.46	81.69
316.689	94.69
316.919	83.69
317.148	76.69
317.377	85.69
317.607	87.69
317.836	85.69
318.065	98.69
318.295	82.69
318.524	73.69
318.753	101.69
318.983	80.69
319.212	89.69
319.441	85.69
319.67	78.69
319.9	77.69
320.129	74.69
320.358	53.69
320.587	90.69
320.816	82.69
321.046	87.69
321.275	85.69
321.504	84.69
321.733	74.69
321.962	82.69
322.191	85.69
322.42	86.69
322.649	90.69
322.878	77.69
323.108	93.69
323.337	85.69
323.566	86.69
323.795	74.69
324.024	75.69
324.253	99.69
324.482	79.69
324.71	87.69
324.939	68.69
325.168	72.69
325.397	98.69
325.626	71.69
325.855	80.69
326.084	88.69
326.313	85.69
326.542	85.69
326.77	88.69
326.999	77.69
327.228	90.69
327.457	90.69
327.686	85.69
327.914	88.69
328.143	85.69
328.372	73.69
328.6	75.69
328.829	82.69
329.058	79.69
329.287	91.69
329.515	85.69
329.744	100.69
329.972	86.69
330.201	76.69
330.43	85.69
330.658	82.69
330.887	90.69
331.115	89.69
331.344	92.69
331.572	89.69
331.801	82.69
332.03	83.69
332.258	92.69
332.486	91.69
332.715	76.69
332.943	75.69
333.172	84.69
333.4	88.69
333.629	96.69
333.857	89.69
334.085	73.69
334.314	80.69
334.542	85.69
334.771	81.69
334.999	92.69
335.227	99.69
335.455	75.69
335.684	79.69
335.912	84.69
336.14	88.69
336.369	86.69
336.597	83.69
336.825	94.69
337.053	76.69
337.281	66.69
337.51	94.69
337.738	74.69
337.966	87.69
338.194	90.69
338.422	84.69
338.65	79.69
338.878	83.69
339.106	76.69
339.334	79.69
339.562	92.69
339.79	80.69
340.018	84.69
340.246	74.69
340.474	75.69
340.702	94.69
340.93	73.69
341.158	75.69
341.386	73.69
341.614	88.69
341.842	79.69
342.07	91.69
342.298	96.69
342.526	87.69
342.754	83.69
342.981	82.69
343.209	89.69
343.437	90.69
343.665	82.69
343.893	83.69
344.12	95.69
344.348	90.69
344.576	73.69
344.804	90.69
345.031	91.69
345.259	84.69
345.487	78.69
345.714	80.69
345.942	84.69
346.17	81.69
346.397	88.69
346.625	73.69
346.853	81.69
347.08	74.69
347.308	94.69
347.535	93.69
347.763	88.69
347.99	92.69
348.218	72.69
348.445	81.69
348.673	91.69
348.9	80.69
349.128	87.69
349.355	81.69
349.583	80.69
349.81	84.69
350.037	91.69
350.265	85.69
350.492	93.69
350.72	83.69
350.947	75.69
351.174	88.69
351.402	65.69
351.629	87.69
351.856	97.69
352.083	89.69
352.311	86.69
352.538	80.69
352.765	87.69
352.992	84.69
353.22	87.69
353.447	90.69
353.674	77.69
353.901	82.69
354.128	84.69
354.355	84.69
354.583	92.69
354.81	78.69
355.037	80.69
355.264	81.69
355.491	71.69
355.718	94.69
355.945	107.69
356.172	85.69
356.399	74.69
356.626	79.69
356.853	69.69
357.08	83.69
357.307	72.69
357.534	79.69
357.761	84.69
357.988	85.69
358.215	73.69
358.441	84.69
358.668	86.69
358.895	78.69
359.122	78.69
359.349	83.69
359.576	77.69
359.802	85.69
360.029	82.69
360.256	87.69
360.483	88.69
360.709	71.69
360.936	75.69
361.163	85.69
361.39	72.69
361.616	92.69
361.843	75.69
362.07	89.69
362.296	85.69
362.523	80.69
362.749	82.69
362.976	83.69
363.203	91.69
363.429	82.69
363.656	74.69
363.882	87.69
364.109	88.69
364.335	93.69
364.562	83.69
364.788	89.69
365.015	86.69
365.241	77.69
365.468	84.69
365.694	73.69
365.92	103.69
366.147	76.69
366.373	89.69
366.599	77.69
366.826	83.69
367.052	79.69
367.278	87.69
367.505	84.69
367.731	75.69
367.957	80.69
368.184	76.69
368.41	87.69
368.636	86.69
368.862	80.69
369.089	67.69
369.315	83.69
369.541	89.69
369.767	87.69
369.993	75.69
370.219	83.69
370.445	84.69
370.672	96.69
370.898	78.69
371.124	75.69
371.35	89.69
371.576	102.69
371.802	77.69
372.028	83.69
372.254	92.69
372.48	81.69
372.706	77.69
372.932	75.69
373.158	77.69
373.384	95.69
373.61	83.69
373.835	76.69
374.061	87.69
374.287	103.69
374.513	84.69
374.739	91.69
374.965	87.69
375.191	79.69
375.416	83.69
375.642	80.69
375.868	84.69
376.094	80.69
376.319	93.69
376.545	81.69
376.771	85.69
376.997	73.69
377.222	78.69
377.448	79.69
377.674	86.69
377.899	89.69
378.125	77.69
378.35	84.69
378.576	87.69
378.802	82.69
379.027	79.69
379.253	82.69
379.478	79.69
379.704	91.69
379.929	88.69
380.155	85.69
380.38	80.69
380.606	87.69
380.831	77.69
381.057	83.69
381.282	87.69
381.507	93.69
381.733	91.69
381.958	71.69
382.184	92.69
382.409	86.69
382.634	79.69
382.86	79.69
383.085	89.69
383.31	88.69
383.535	73.69
383.761	65.69
383.986	91.69
384.211	83.69
384.436	76.69
384.662	82.69
384.887	79.69
385.112	91.69
385.337	82.69
385.562	74.69
385.787	75.69
386.013	79.69
386.238	72.69
386.463	100.69
386.688	83.69
386.913	79.69
387.138	94.69
387.363	91.69
387.588	91.69
387.813	77.69
388.038	83.69
388.263	79.69
388.488	85.69
388.713	82.69
388.938	77.69
389.163	96.69
389.387	84.69
389.612	83.69
389.837	90.69
390.062	88.69
390.287	89.69
390.512	92.69
390.736	83.69
390.961	64.69
391.186	81.69
391.411	83.69
391.636	91.69
391.86	61.69
392.085	81.69
392.31	85.69
392.534	84.69
392.759	82.69
392.984	74.69
393.208	82.69
393.433	76.69
393.658	86.69
393.882	101.69
394.107	84.69
394.331	89.69
394.556	80.69
394.78	77.69
395.005	74.69
395.229	77.69
395.454	98.69
395.678	77.69
395.903	62.69
396.127	83.69
396.352	81.69
396.576	80.69
396.801	103.69
397.025	79.69
397.249	88.69
397.474	78.69
397.698	71.69
397.922	85.69
398.147	87.69
398.371	92.69
398.595	75.69
398.82	81.69
399.044	96.69
399.268	81.69
399.492	95.69
399.717	93.69
399.941	66.69
400.165	82.69
400.389	69.69
400.613	90.69
400.837	71.69
401.062	87.69
401.286	83.69
401.51	77.69
401.734	94.69
401.958	78.69
402.182	84.69
402.406	87.69
402.63	71.69
402.854	87.69
403.078	82.69
403.302	78.69
403.526	92.69
403.75	81.69
403.974	91.69
404.198	80.69
404.422	90.69
404.645	92.69
404.869	84.69
405.093	90.69
405.317	80.69
405.541	87.69
405.765	71.69
405.988	77.69
406.212	100.69
406.436	79.69
406.66	81.69
406.883	96.69
407.107	89.69
407.331	78.69
407.555	89.69
407.778	85.69
408.002	93.69
408.226	91.69
408.449	99.69
408.673	77.69
408.896	76.69
409.12	96.69
409.344	92.69
409.567	93.69
409.791	91.69
410.014	83.69
410.238	79.69
410.461	79.69
410.685	72.69
410.908	86.69
411.132	87.69
411.355	74.69
411.578	94.69
411.802	82.69
412.025	87.69
412.249	89.69
412.472	77.69
412.695	96.69
412.919	76.69
413.142	93.69
413.365	77.69
413.589	85.69
413.812	86.69
414.035	90.69
414.258	91.69
414.482	80.69
414.705	71.69
414.928	88.69
415.151	96.69
415.374	96.69
415.597	91.69
415.821	78.69
416.044	85.69
416.267	82.69
416.49	83.69
416.713	81.69
416.936	71.69
417.159	90.69
417.382	85.69
417.605	70.69
417.828	98.69
418.051	96.69
418.274	83.69
418.497	99.69
418.72	69.69
418.943	75.69
419.166	70.69
419.389	84.69
419.611	82.69
419.834	93.69
420.057	85.69
420.28	104.69
420.503	95.69
420.726	88.69
420.948	99.69
421.171	75.69
421.394	81.69
421.617	81.69
421.839	81.69
422.062	91.69
422.285	96.69
422.507	93.69
422.73	74.69
422.953	89.69
423.175	92.69
423.398	90.69
423.621	76.69
423.843	82.69
424.066	86.69
424.288	80.69
424.511	99.69
424.733	76.69
424.956	91.69
425.178	82.69
425.401	88.69
425.623	86.69
425.846	76.69
426.068	89.69
426.291	77.69
426.513	86.69
426.735	94.69
426.958	80.69
427.18	95.69
427.402	94.69
427.625	90.69
427.847	89.69
428.069	87.69
428.292	90.69
428.514	80.69
428.736	88.69
428.958	96.69
429.181	87.69
429.403	87.69
429.625	82.69
429.847	92.69
430.069	81.69
430.292	75.69
430.514	90.69
430.736	84.69
430.958	87.69
431.18	89.69
431.402	83.69
431.624	102.69
431.846	77.69
432.068	85.69
432.29	82.69
432.512	91.69
432.734	79.69
432.956	80.69
433.178	88.69
433.4	106.69
433.622	95.69
433.844	79.69
434.066	82.69
434.287	86.69
434.509	78.69
434.731	78.69
434.953	85.69
435.175	95.69
435.397	89.69
435.618	76.69
435.84	77.69
436.062	89.69
436.284	73.69
436.505	83.69
436.727	76.69
436.949	100.69
437.17	87.69
437.392	88.69
437.614	93.69
437.835	77.69
438.057	79.69
438.278	79.69
438.5	92.69
438.721	84.69
438.943	86.69
439.165	84.69
439.386	82.69
439.608	81.69
439.829	87.69
440.05	83.69
440.272	73.69
440.493	96.69
440.715	87.69
440.936	95.69
441.158	86.69
441.379	76.69
441.6	81.69
441.822	83.69
442.043	83.69
442.264	89.69
442.486	99.69
442.707	85.69
442.928	79.69
443.149	86.69
443.371	81.69
443.592	92.69
443.813	77.69
444.034	83.69
444.255	77.69
444.476	79.69
444.698	88.69
444.919	106.69
445.14	194.69
445.361	121.69
445.582	85.69
445.803	71.69
446.024	98.69
446.245	81.69
446.466	98.69
446.687	88.69
446.908	87.69
447.129	96.69
447.35	83.69
447.571	84.69
447.792	92.69
448.013	76.69
448.234	86.69
448.455	86.69
448.675	92.69
448.896	94.69
449.117	87.69
449.338	94.69
449.559	88.69
449.779	88.69
450	85.69
450.221	88.69
450.442	94.69
450.662	87.69
450.883	76.69
451.104	83.69
451.324	88.69
451.545	70.69
451.766	78.69
451.986	91.69
452.207	85.69
452.428	82.69
452.648	91.69
452.869	88.69
453.089	87.69
453.31	84.69
453.53	75.69
453.751	84.69
453.971	73.69
454.192	72.69
454.412	94.69
454.633	86.69
454.853	80.69
455.073	85.69
455.294	69.69
455.514	92.69
455.734	84.69
455.955	84.69
456.175	88.69
456.395	76.69
456.616	87.69
456.836	91.69
457.056	92.69
457.276	79.69
457.497	85.69
457.717	75.69
457.937	89.69
458.157	75.69
458.377	74.69
458.598	91.69
458.818	78.69
459.038	80.69
459.258	92.69
459.478	82.69
459.698	90.69
459.918	86.69
460.138	96.69
460.358	87.69
460.578	80.69
460.798	70.69
461.018	86.69
461.238	80.69
461.458	92.69
461.678	95.69
461.898	92.69
462.118	82.69
462.338	74.69
462.558	84.69
462.777	88.69
462.997	80.69
463.217	92.69
463.437	82.69
463.657	71.69
463.876	82.69
464.096	83.69
464.316	79.69
464.536	81.69
464.755	93.69
464.975	86.69
465.195	81.69
465.414	84.69
465.634	82.69
465.854	86.69
466.073	75.69
466.293	86.69
466.512	75.69
466.732	75.69
466.951	87.69
467.171	104.69
467.391	90.69
467.61	77.69
467.829	99.69
468.049	91.69
468.268	88.69
468.488	85.69
468.707	91.69
468.927	87.69
469.146	91.69
469.365	87.69
469.585	96.69
469.804	86.69
470.023	95.69
470.243	116.69
470.462	100.69
470.681	88.69
470.901	75.69
471.12	83.69
471.339	83.69
471.558	81.69
471.777	88.69
471.997	75.69
472.216	85.69
472.435	95.69
472.654	78.69
472.873	85.69
473.092	89.69
473.311	97.69
473.53	76.69
473.749	80.69
473.968	99.69
474.187	85.69
474.406	95.69
474.625	84.69
474.844	91.69
475.063	78.69
475.282	95.69
475.501	81.69
475.72	83.69
475.939	78.69
476.158	87.69
476.377	95.69
476.596	93.69
476.814	98.69
477.033	85.69
477.252	77.69
477.471	85.69
477.69	84.69
477.908	99.69
478.127	81.69
478.346	98.69
478.564	98.69
478.783	83.69
479.002	84.69
479.22	77.69
479.439	102.69
479.658	91.69
479.876	92.69
480.095	88.69
480.313	90.69
480.532	82.69
480.751	83.69
480.969	81.69
481.188	101.69
481.406	81.69
481.624	83.69
481.843	88.69
482.061	77.69
482.28	102.69
482.498	90.69
482.717	74.69
482.935	88.69
483.153	98.69
483.372	96.69
483.59	100.69
483.808	95.69
484.027	92.69
484.245	78.69
484.463	87.69
484.681	98.69
484.9	99.69
485.118	89.69
485.336	93.69
485.554	78.69
485.772	83.69
485.99	87.69
486.209	72.69
486.427	100.69
486.645	90.69
486.863	96.69
487.081	106.69
487.299	98.69
487.517	96.69
487.735	95.69
487.953	95.69
488.171	99.69
488.389	96.69
488.607	91.69
488.825	86.69
489.043	91.69
489.261	85.69
489.479	91.69
489.696	88.69
489.914	91.69
490.132	98.69
490.35	98.69
490.568	85.69
490.786	108.69
491.003	94.69
491.221	90.69
491.439	103.69
491.657	108.69
491.874	117.69
492.092	109.69
492.31	106.69
492.527	106.69
492.745	96.69
492.963	101.69
493.18	85.69
493.398	90.69
493.615	99.69
493.833	102.69
494.05	100.69
494.268	107.69
494.485	101.69
494.703	89.69
494.92	95.69
495.138	100.69
495.355	106.69
495.573	85.69
495.79	99.69
496.008	87.69
496.225	104.69
496.442	87.69
496.66	102.69
496.877	99.69
497.094	112.69
497.312	96.69
497.529	100.69
497.746	101.69
497.963	93.69
498.181	79.69
498.398	92.69
498.615	84.69
498.832	88.69
499.049	81.69
499.267	103.69
499.484	82.69
499.701	100.69
499.918	88.69
500.135	92.69
500.352	102.69
500.569	87.69
500.786	97.69
501.003	76.69
501.22	92.69
501.437	100.69
501.654	93.69
501.871	90.69
502.088	87.69
502.305	98.69
502.522	80.69
502.739	84.69
502.956	85.69
503.172	90.69
503.389	80.69
503.606	89.69
503.823	83.69
504.04	99.69
504.256	85.69
504.473	85.69
504.69	86.69
504.907	103.69
505.123	94.69
505.34	94.69
505.557	87.69
505.773	99.69
505.99	84.69
506.207	89.69
506.423	97.69
506.64	80.69
506.856	95.69
507.073	88.69
507.289	82.69
507.506	97.69
507.722	90.69
507.939	83.69
508.155	98.69
508.372	89.69
508.588	91.69
508.805	81.69
509.021	89.69
509.238	86.69
509.454	80.69
509.67	80.69
509.887	84.69
510.103	86.69
510.319	75.69
510.536	84.69
510.752	95.69
510.968	85.69
511.184	89.69
511.401	87.69
511.617	92.69
511.833	95.69
512.049	77.69
512.265	79.69
512.481	82.69
512.698	93.69
512.914	85.69
513.13	86.69
513.346	94.69
513.562	92.69
513.778	77.69
513.994	98.69
514.21	75.69
514.426	98.69
514.642	88.69
514.858	87.69
515.074	91.69
515.29	90.69
515.506	89.69
515.721	76.69
515.937	91.69
516.153	82.69
516.369	89.69
516.585	80.69
516.801	92.69
517.016	75.69
517.232	91.69
517.448	85.69
517.664	80.69
517.879	88.69
518.095	87.69
518.311	85.69
518.527	90.69
518.742	73.69
