Data from Zn(NO3)2Standard.Agarose3%.GreenCap.LampEnergy5.5.E.O_HRD10591_15-01-50-768.txt Node
Date: Mon Jul 22 15:01:50 EDT 2019
User: cochatt
Spectrometer: HR+D1059
Trigger mode: 1
Integration Time (sec): 1.000000E-1
Scans to average: 1
Electric dark correction enabled: true
Nonlinearity correction enabled: false
Boxcar width: 0
XAxis mode: Wavelengths
Number of Pixels in Spectrum: 2048
>>>>>Begin Spectral Data<<<<<
223.165	-3.38
223.4	-3.38
223.635	-3.38
223.869	-28.38
224.104	-26.38
224.338	-27.38
224.573	-17.38
224.808	-4.38
225.042	3.62
225.277	-3.38
225.511	2.62
225.746	8.62
225.98	7.62
226.215	5.62
226.449	13.62
226.683	14.62
226.918	25.62
227.152	28.62
227.387	34.62
227.621	40.62
227.856	36.62
228.09	32.62
228.324	28.62
228.559	47.62
228.793	62.62
229.027	57.62
229.262	71.62
229.496	57.62
229.73	67.62
229.964	67.62
230.199	79.62
230.433	71.62
230.667	67.62
230.901	84.62
231.136	73.62
231.37	72.62
231.604	84.62
231.838	79.62
232.072	56.62
232.306	65.62
232.541	87.62
232.775	75.62
233.009	83.62
233.243	70.62
233.477	76.62
233.711	82.62
233.945	81.62
234.179	75.62
234.413	79.62
234.647	70.62
234.881	79.62
235.115	64.62
235.349	71.62
235.583	85.62
235.817	82.62
236.051	72.62
236.285	67.62
236.519	64.62
236.753	65.62
236.987	75.62
237.221	76.62
237.455	70.62
237.689	85.62
237.922	73.62
238.156	70.62
238.39	72.62
238.624	66.62
238.858	82.62
239.091	78.62
239.325	67.62
239.559	80.62
239.793	75.62
240.027	72.62
240.26	83.62
240.494	79.62
240.728	73.62
240.961	79.62
241.195	82.62
241.429	67.62
241.662	73.62
241.896	66.62
242.13	77.62
242.363	65.62
242.597	87.62
242.83	62.62
243.064	71.62
243.298	72.62
243.531	71.62
243.765	79.62
243.998	65.62
244.232	73.62
244.465	88.62
244.699	78.62
244.932	77.62
245.166	71.62
245.399	81.62
245.633	67.62
245.866	73.62
246.099	79.62
246.333	72.62
246.566	55.62
246.8	71.62
247.033	76.62
247.266	75.62
247.5	71.62
247.733	71.62
247.966	69.62
248.2	71.62
248.433	85.62
248.666	61.62
248.899	71.62
249.133	82.62
249.366	77.62
249.599	69.62
249.832	68.62
250.066	79.62
250.299	75.62
250.532	67.62
250.765	83.62
250.998	77.62
251.231	86.62
251.465	72.62
251.698	61.62
251.931	75.62
252.164	71.62
252.397	80.62
252.63	75.62
252.863	71.62
253.096	71.62
253.329	73.62
253.562	64.62
253.795	60.62
254.028	76.62
254.261	77.62
254.494	85.62
254.727	77.62
254.96	87.62
255.193	97.62
255.426	79.62
255.659	66.62
255.892	74.62
256.124	62.62
256.357	79.62
256.59	89.62
256.823	70.62
257.056	67.62
257.289	77.62
257.521	67.62
257.754	76.62
257.987	81.62
258.22	85.62
258.452	75.62
258.685	70.62
258.918	79.62
259.151	64.62
259.383	79.62
259.616	78.62
259.849	73.62
260.081	89.62
260.314	79.62
260.547	67.62
260.779	71.62
261.012	86.62
261.244	77.62
261.477	88.62
261.71	71.62
261.942	66.62
262.175	87.62
262.407	85.62
262.64	80.62
262.872	67.62
263.105	79.62
263.337	79.62
263.57	74.62
263.802	71.62
264.035	81.62
264.267	70.62
264.499	90.62
264.732	73.62
264.964	73.62
265.197	73.62
265.429	80.62
265.661	67.62
265.894	70.62
266.126	77.62
266.358	72.62
266.591	74.62
266.823	75.62
267.055	60.62
267.287	77.62
267.52	73.62
267.752	73.62
267.984	85.62
268.216	70.62
268.448	65.62
268.681	94.62
268.913	72.62
269.145	90.62
269.377	76.62
269.609	83.62
269.841	87.62
270.073	79.62
270.306	81.62
270.538	74.62
270.77	75.62
271.002	88.62
271.234	71.62
271.466	77.62
271.698	82.62
271.93	85.62
272.162	75.62
272.394	82.62
272.626	70.62
272.858	78.62
273.09	68.62
273.322	78.62
273.553	69.62
273.785	71.62
274.017	84.62
274.249	71.62
274.481	76.62
274.713	81.62
274.945	84.62
275.176	76.62
275.408	69.62
275.64	93.62
275.872	77.62
276.104	76.62
276.335	66.62
276.567	87.62
276.799	76.62
277.031	80.62
277.262	73.62
277.494	82.62
277.726	79.62
277.957	83.62
278.189	76.62
278.421	82.62
278.652	80.62
278.884	85.62
279.115	94.62
279.347	78.62
279.579	85.62
279.81	81.62
280.042	69.62
280.273	83.62
280.505	74.62
280.736	68.62
280.968	88.62
281.199	88.62
281.431	86.62
281.662	79.62
281.894	79.62
282.125	83.62
282.356	85.62
282.588	86.62
282.819	86.62
283.051	79.62
283.282	78.62
283.513	79.62
283.745	87.62
283.976	80.62
284.207	86.62
284.439	79.62
284.67	91.62
284.901	65.62
285.132	86.62
285.364	92.62
285.595	85.62
285.826	94.62
286.057	84.62
286.288	73.62
286.52	76.62
286.751	85.62
286.982	75.62
287.213	80.62
287.444	77.62
287.675	78.62
287.906	87.62
288.138	79.62
288.369	80.62
288.6	74.62
288.831	70.62
289.062	88.62
289.293	70.62
289.524	83.62
289.755	94.62
289.986	79.62
290.217	73.62
290.448	82.62
290.679	75.62
290.91	92.62
291.141	92.62
291.371	77.62
291.602	86.62
291.833	78.62
292.064	73.62
292.295	84.62
292.526	78.62
292.757	71.62
292.987	89.62
293.218	98.62
293.449	80.62
293.68	91.62
293.91	76.62
294.141	88.62
294.372	76.62
294.603	98.62
294.833	93.62
295.064	76.62
295.295	81.62
295.525	73.62
295.756	75.62
295.987	82.62
296.217	87.62
296.448	78.62
296.679	74.62
296.909	85.62
297.14	87.62
297.37	82.62
297.601	77.62
297.831	76.62
298.062	84.62
298.292	62.62
298.523	74.62
298.753	84.62
298.984	84.62
299.214	81.62
299.445	78.62
299.675	82.62
299.905	67.62
300.136	75.62
300.366	63.62
300.597	97.62
300.827	91.62
301.057	84.62
301.288	77.62
301.518	73.62
301.748	76.62
301.979	86.62
302.209	79.62
302.439	82.62
302.669	72.62
302.9	85.62
303.13	83.62
303.36	76.62
303.59	83.62
303.82	77.62
304.051	80.62
304.281	84.62
304.511	68.62
304.741	78.62
304.971	66.62
305.201	76.62
305.431	83.62
305.661	81.62
305.891	68.62
306.121	75.62
306.352	78.62
306.582	65.62
306.812	84.62
307.042	83.62
307.272	71.62
307.502	79.62
307.731	82.62
307.961	65.62
308.191	69.62
308.421	75.62
308.651	74.62
308.881	80.62
309.111	72.62
309.341	78.62
309.571	76.62
309.8	85.62
310.03	85.62
310.26	65.62
310.49	94.62
310.72	76.62
310.949	73.62
311.179	95.62
311.409	86.62
311.639	83.62
311.868	82.62
312.098	85.62
312.328	82.62
312.557	78.62
312.787	92.62
313.017	80.62
313.246	91.62
313.476	80.62
313.706	75.62
313.935	73.62
314.165	82.62
314.394	80.62
314.624	76.62
314.853	88.62
315.083	67.62
315.312	67.62
315.542	95.62
315.771	79.62
316.001	89.62
316.23	84.62
316.46	79.62
316.689	76.62
316.919	83.62
317.148	79.62
317.377	85.62
317.607	88.62
317.836	83.62
318.065	73.62
318.295	83.62
318.524	83.62
318.753	91.62
318.983	81.62
319.212	70.62
319.441	72.62
319.67	77.62
319.9	79.62
320.129	88.62
320.358	76.62
320.587	69.62
320.816	79.62
321.046	61.62
321.275	87.62
321.504	82.62
321.733	78.62
321.962	70.62
322.191	71.62
322.42	80.62
322.649	70.62
322.878	73.62
323.108	76.62
323.337	65.62
323.566	68.62
323.795	76.62
324.024	76.62
324.253	73.62
324.482	78.62
324.71	73.62
324.939	82.62
325.168	83.62
325.397	79.62
325.626	73.62
325.855	81.62
326.084	77.62
326.313	76.62
326.542	87.62
326.77	77.62
326.999	79.62
327.228	78.62
327.457	76.62
327.686	95.62
327.914	70.62
328.143	80.62
328.372	75.62
328.6	72.62
328.829	56.62
329.058	65.62
329.287	73.62
329.515	79.62
329.744	73.62
329.972	73.62
330.201	73.62
330.43	80.62
330.658	79.62
330.887	71.62
331.115	76.62
331.344	78.62
331.572	88.62
331.801	81.62
332.03	86.62
332.258	88.62
332.486	69.62
332.715	85.62
332.943	61.62
333.172	71.62
333.4	80.62
333.629	85.62
333.857	95.62
334.085	76.62
334.314	83.62
334.542	80.62
334.771	94.62
334.999	73.62
335.227	71.62
335.455	72.62
335.684	86.62
335.912	84.62
336.14	82.62
336.369	92.62
336.597	76.62
336.825	85.62
337.053	88.62
337.281	88.62
337.51	85.62
337.738	78.62
337.966	77.62
338.194	73.62
338.422	89.62
338.65	70.62
338.878	72.62
339.106	76.62
339.334	77.62
339.562	87.62
339.79	79.62
340.018	77.62
340.246	81.62
340.474	80.62
340.702	80.62
340.93	81.62
341.158	63.62
341.386	74.62
341.614	83.62
341.842	69.62
342.07	79.62
342.298	78.62
342.526	76.62
342.754	90.62
342.981	84.62
343.209	73.62
343.437	86.62
343.665	73.62
343.893	68.62
344.12	88.62
344.348	79.62
344.576	71.62
344.804	97.62
345.031	80.62
345.259	77.62
345.487	73.62
345.714	79.62
345.942	74.62
346.17	69.62
346.397	91.62
346.625	72.62
346.853	70.62
347.08	76.62
347.308	77.62
347.535	82.62
347.763	83.62
347.99	76.62
348.218	84.62
348.445	78.62
348.673	84.62
348.9	86.62
349.128	76.62
349.355	77.62
349.583	68.62
349.81	61.62
350.037	89.62
350.265	79.62
350.492	78.62
350.72	72.62
350.947	64.62
351.174	80.62
351.402	81.62
351.629	75.62
351.856	71.62
352.083	76.62
352.311	61.62
352.538	75.62
352.765	73.62
352.992	81.62
353.22	96.62
353.447	69.62
353.674	76.62
353.901	75.62
354.128	81.62
354.355	86.62
354.583	79.62
354.81	82.62
355.037	70.62
355.264	87.62
355.491	79.62
355.718	80.62
355.945	87.62
356.172	83.62
356.399	80.62
356.626	79.62
356.853	68.62
357.08	91.62
357.307	76.62
357.534	75.62
357.761	70.62
357.988	89.62
358.215	82.62
358.441	76.62
358.668	73.62
358.895	71.62
359.122	76.62
359.349	79.62
359.576	64.62
359.802	87.62
360.029	83.62
360.256	69.62
360.483	78.62
360.709	78.62
360.936	66.62
361.163	69.62
361.39	86.62
361.616	78.62
361.843	89.62
362.07	89.62
362.296	81.62
362.523	87.62
362.749	81.62
362.976	77.62
363.203	85.62
363.429	81.62
363.656	83.62
363.882	85.62
364.109	76.62
364.335	80.62
364.562	61.62
364.788	90.62
365.015	77.62
365.241	72.62
365.468	87.62
365.694	67.62
365.92	67.62
366.147	74.62
366.373	75.62
366.599	74.62
366.826	76.62
367.052	77.62
367.278	79.62
367.505	78.62
367.731	78.62
367.957	81.62
368.184	73.62
368.41	71.62
368.636	84.62
368.862	79.62
369.089	91.62
369.315	79.62
369.541	76.62
369.767	64.62
369.993	69.62
370.219	76.62
370.445	78.62
370.672	77.62
370.898	83.62
371.124	83.62
371.35	76.62
371.576	74.62
371.802	79.62
372.028	91.62
372.254	97.62
372.48	74.62
372.706	79.62
372.932	69.62
373.158	76.62
373.384	74.62
373.61	87.62
373.835	87.62
374.061	77.62
374.287	76.62
374.513	81.62
374.739	76.62
374.965	85.62
375.191	76.62
375.416	64.62
375.642	69.62
375.868	73.62
376.094	79.62
376.319	75.62
376.545	71.62
376.771	78.62
376.997	65.62
377.222	77.62
377.448	70.62
377.674	66.62
377.899	67.62
378.125	80.62
378.35	75.62
378.576	90.62
378.802	70.62
379.027	56.62
379.253	69.62
379.478	87.62
379.704	72.62
379.929	69.62
380.155	83.62
380.38	83.62
380.606	73.62
380.831	71.62
381.057	82.62
381.282	83.62
381.507	72.62
381.733	81.62
381.958	75.62
382.184	69.62
382.409	74.62
382.634	73.62
382.86	69.62
383.085	78.62
383.31	83.62
383.535	73.62
383.761	78.62
383.986	71.62
384.211	80.62
384.436	82.62
384.662	75.62
384.887	75.62
385.112	74.62
385.337	69.62
385.562	69.62
385.787	78.62
386.013	93.62
386.238	72.62
386.463	91.62
386.688	83.62
386.913	73.62
387.138	78.62
387.363	82.62
387.588	92.62
387.813	84.62
388.038	72.62
388.263	78.62
388.488	87.62
388.713	72.62
388.938	75.62
389.163	67.62
389.387	80.62
389.612	79.62
389.837	76.62
390.062	82.62
390.287	82.62
390.512	78.62
390.736	84.62
390.961	79.62
391.186	78.62
391.411	73.62
391.636	90.62
391.86	78.62
392.085	82.62
392.31	88.62
392.534	91.62
392.759	77.62
392.984	86.62
393.208	69.62
393.433	64.62
393.658	88.62
393.882	75.62
394.107	67.62
394.331	71.62
394.556	71.62
394.78	79.62
395.005	84.62
395.229	82.62
395.454	77.62
395.678	72.62
395.903	87.62
396.127	86.62
396.352	84.62
396.576	80.62
396.801	64.62
397.025	76.62
397.249	69.62
397.474	84.62
397.698	68.62
397.922	94.62
398.147	78.62
398.371	71.62
398.595	85.62
398.82	76.62
399.044	77.62
399.268	71.62
399.492	83.62
399.717	71.62
399.941	83.62
400.165	92.62
400.389	87.62
400.613	78.62
400.837	69.62
401.062	83.62
401.286	72.62
401.51	89.62
401.734	79.62
401.958	82.62
402.182	93.62
402.406	85.62
402.63	84.62
402.854	69.62
403.078	73.62
403.302	71.62
403.526	79.62
403.75	78.62
403.974	82.62
404.198	71.62
404.422	72.62
404.645	71.62
404.869	82.62
405.093	74.62
405.317	84.62
405.541	78.62
405.765	89.62
405.988	80.62
406.212	78.62
406.436	94.62
406.66	73.62
406.883	76.62
407.107	77.62
407.331	82.62
407.555	78.62
407.778	78.62
408.002	92.62
408.226	67.62
408.449	83.62
408.673	64.62
408.896	72.62
409.12	66.62
409.344	77.62
409.567	82.62
409.791	64.62
410.014	77.62
410.238	79.62
410.461	74.62
410.685	67.62
410.908	78.62
411.132	79.62
411.355	98.62
411.578	79.62
411.802	78.62
412.025	92.62
412.249	88.62
412.472	95.62
412.695	106.62
412.919	81.62
413.142	84.62
413.365	80.62
413.589	92.62
413.812	84.62
414.035	73.62
414.258	75.62
414.482	93.62
414.705	86.62
414.928	70.62
415.151	88.62
415.374	65.62
415.597	96.62
415.821	84.62
416.044	64.62
416.267	96.62
416.49	75.62
416.713	87.62
416.936	86.62
417.159	75.62
417.382	82.62
417.605	79.62
417.828	82.62
418.051	78.62
418.274	92.62
418.497	92.62
418.72	76.62
418.943	84.62
419.166	70.62
419.389	87.62
419.611	90.62
419.834	90.62
420.057	78.62
420.28	82.62
420.503	87.62
420.726	72.62
420.948	76.62
421.171	80.62
421.394	91.62
421.617	84.62
421.839	99.62
422.062	91.62
422.285	77.62
422.507	86.62
422.73	84.62
422.953	75.62
423.175	83.62
423.398	78.62
423.621	97.62
423.843	90.62
424.066	84.62
424.288	82.62
424.511	97.62
424.733	93.62
424.956	81.62
425.178	77.62
425.401	85.62
425.623	82.62
425.846	93.62
426.068	91.62
426.291	89.62
426.513	76.62
426.735	88.62
426.958	75.62
427.18	83.62
427.402	97.62
427.625	77.62
427.847	77.62
428.069	80.62
428.292	78.62
428.514	84.62
428.736	81.62
428.958	83.62
429.181	84.62
429.403	86.62
429.625	69.62
429.847	71.62
430.069	79.62
430.292	84.62
430.514	77.62
430.736	92.62
430.958	78.62
431.18	83.62
431.402	92.62
431.624	94.62
431.846	79.62
432.068	72.62
432.29	76.62
432.512	83.62
432.734	72.62
432.956	85.62
433.178	79.62
433.4	86.62
433.622	98.62
433.844	92.62
434.066	82.62
434.287	86.62
434.509	73.62
434.731	86.62
434.953	85.62
435.175	74.62
435.397	88.62
435.618	81.62
435.84	83.62
436.062	72.62
436.284	69.62
436.505	63.62
436.727	90.62
436.949	82.62
437.17	85.62
437.392	78.62
437.614	75.62
437.835	75.62
438.057	92.62
438.278	74.62
438.5	85.62
438.721	85.62
438.943	93.62
439.165	101.62
439.386	83.62
439.608	87.62
439.829	79.62
440.05	93.62
440.272	83.62
440.493	79.62
440.715	93.62
440.936	72.62
441.158	94.62
441.379	95.62
441.6	86.62
441.822	77.62
442.043	81.62
442.264	73.62
442.486	86.62
442.707	86.62
442.928	83.62
443.149	82.62
443.371	84.62
443.592	95.62
443.813	88.62
444.034	91.62
444.255	92.62
444.476	92.62
444.698	83.62
444.919	82.62
445.14	207.62
445.361	139.62
445.582	97.62
445.803	87.62
446.024	80.62
446.245	100.62
446.466	86.62
446.687	73.62
446.908	95.62
447.129	97.62
447.35	78.62
447.571	89.62
447.792	89.62
448.013	93.62
448.234	83.62
448.455	79.62
448.675	84.62
448.896	90.62
449.117	91.62
449.338	76.62
449.559	93.62
449.779	91.62
450	90.62
450.221	95.62
450.442	81.62
450.662	91.62
450.883	75.62
451.104	80.62
451.324	83.62
451.545	77.62
451.766	79.62
451.986	75.62
452.207	76.62
452.428	73.62
452.648	81.62
452.869	75.62
453.089	86.62
453.31	86.62
453.53	80.62
453.751	89.62
453.971	83.62
454.192	68.62
454.412	72.62
454.633	83.62
454.853	80.62
455.073	77.62
455.294	93.62
455.514	72.62
455.734	81.62
455.955	93.62
456.175	84.62
456.395	68.62
456.616	75.62
456.836	84.62
457.056	72.62
457.276	86.62
457.497	77.62
457.717	80.62
457.937	84.62
458.157	89.62
458.377	76.62
458.598	78.62
458.818	93.62
459.038	82.62
459.258	71.62
459.478	74.62
459.698	74.62
459.918	87.62
460.138	70.62
460.358	70.62
460.578	82.62
460.798	61.62
461.018	93.62
461.238	78.62
461.458	101.62
461.678	95.62
461.898	81.62
462.118	96.62
462.338	83.62
462.558	71.62
462.777	79.62
462.997	84.62
463.217	80.62
463.437	76.62
463.657	73.62
463.876	80.62
464.096	86.62
464.316	76.62
464.536	75.62
464.755	95.62
464.975	93.62
465.195	92.62
465.414	76.62
465.634	89.62
465.854	88.62
466.073	87.62
466.293	77.62
466.512	71.62
466.732	95.62
466.951	87.62
467.171	84.62
467.391	80.62
467.61	76.62
467.829	87.62
468.049	95.62
468.268	79.62
468.488	84.62
468.707	88.62
468.927	86.62
469.146	69.62
469.365	84.62
469.585	86.62
469.804	97.62
470.023	86.62
470.243	76.62
470.462	85.62
470.681	109.62
470.901	85.62
471.12	65.62
471.339	78.62
471.558	86.62
471.777	87.62
471.997	80.62
472.216	88.62
472.435	91.62
472.654	85.62
472.873	84.62
473.092	83.62
473.311	78.62
473.53	84.62
473.749	85.62
473.968	86.62
474.187	80.62
474.406	78.62
474.625	78.62
474.844	82.62
475.063	86.62
475.282	89.62
475.501	80.62
475.72	94.62
475.939	93.62
476.158	78.62
476.377	94.62
476.596	95.62
476.814	97.62
477.033	93.62
477.252	84.62
477.471	102.62
477.69	76.62
477.908	84.62
478.127	80.62
478.346	101.62
478.564	84.62
478.783	76.62
479.002	84.62
479.22	88.62
479.439	93.62
479.658	86.62
479.876	75.62
480.095	74.62
480.313	96.62
480.532	86.62
480.751	87.62
480.969	75.62
481.188	78.62
481.406	89.62
481.624	86.62
481.843	70.62
482.061	79.62
482.28	83.62
482.498	81.62
482.717	88.62
482.935	85.62
483.153	95.62
483.372	94.62
483.59	89.62
483.808	75.62
484.027	99.62
484.245	83.62
484.463	80.62
484.681	94.62
484.9	93.62
485.118	87.62
485.336	64.62
485.554	90.62
485.772	76.62
485.99	80.62
486.209	73.62
486.427	85.62
486.645	88.62
486.863	85.62
487.081	74.62
487.299	76.62
487.517	88.62
487.735	81.62
487.953	98.62
488.171	95.62
488.389	92.62
488.607	86.62
488.825	102.62
489.043	92.62
489.261	70.62
489.479	83.62
489.696	70.62
489.914	88.62
490.132	96.62
490.35	80.62
490.568	86.62
490.786	86.62
491.003	88.62
491.221	102.62
491.439	110.62
491.657	94.62
491.874	96.62
492.092	82.62
492.31	121.62
492.527	114.62
492.745	98.62
492.963	97.62
493.18	89.62
493.398	84.62
493.615	88.62
493.833	88.62
494.05	102.62
494.268	87.62
494.485	108.62
494.703	103.62
494.92	95.62
495.138	101.62
495.355	97.62
495.573	97.62
495.79	87.62
496.008	100.62
496.225	88.62
496.442	79.62
496.66	92.62
496.877	87.62
497.094	92.62
497.312	83.62
497.529	104.62
497.746	85.62
497.963	82.62
498.181	75.62
498.398	79.62
498.615	82.62
498.832	71.62
499.049	83.62
499.267	86.62
499.484	93.62
499.701	78.62
499.918	82.62
500.135	84.62
500.352	103.62
500.569	81.62
500.786	101.62
501.003	67.62
501.22	94.62
501.437	95.62
501.654	88.62
501.871	78.62
502.088	85.62
502.305	93.62
502.522	82.62
502.739	91.62
502.956	94.62
503.172	87.62
503.389	91.62
503.606	81.62
503.823	98.62
504.04	73.62
504.256	78.62
504.473	85.62
504.69	85.62
504.907	84.62
505.123	91.62
505.34	103.62
505.557	94.62
505.773	90.62
505.99	97.62
506.207	89.62
506.423	89.62
506.64	91.62
506.856	62.62
507.073	81.62
507.289	71.62
507.506	94.62
507.722	77.62
507.939	72.62
508.155	83.62
508.372	71.62
508.588	93.62
508.805	78.62
509.021	93.62
509.238	63.62
509.454	78.62
509.67	80.62
509.887	71.62
510.103	77.62
510.319	79.62
510.536	66.62
510.752	79.62
510.968	74.62
511.184	83.62
511.401	87.62
511.617	64.62
511.833	66.62
512.049	86.62
512.265	75.62
512.481	64.62
512.698	87.62
512.914	76.62
513.13	73.62
513.346	81.62
513.562	77.62
513.778	74.62
513.994	67.62
514.21	80.62
514.426	70.62
514.642	75.62
514.858	85.62
515.074	83.62
515.29	72.62
515.506	79.62
515.721	84.62
515.937	99.62
516.153	93.62
516.369	92.62
516.585	81.62
516.801	85.62
517.016	88.62
517.232	85.62
517.448	78.62
517.664	83.62
517.879	74.62
518.095	86.62
518.311	67.62
518.527	83.62
518.742	78.62
518.958	73.62
519.173	80.62
