Data from Zn(NO3)2Standard.Agarose3%.GreenCap.LampEnergy5.5.E.O_HRD10591_15-02-55-768.txt Node
Date: Mon Jul 22 15:02:55 EDT 2019
User: cochatt
Spectrometer: HR+D1059
Trigger mode: 1
Integration Time (sec): 1.000000E-1
Scans to average: 1
Electric dark correction enabled: true
Nonlinearity correction enabled: false
Boxcar width: 0
XAxis mode: Wavelengths
Number of Pixels in Spectrum: 2048
>>>>>Begin Spectral Data<<<<<
223.165	-14.19
223.4	-14.19
223.635	-14.19
223.869	-20.19
224.104	-6.19
224.338	-25.19
224.573	-3.19
224.808	-17.19
225.042	-15.19
225.277	3.81
225.511	-6.19
225.746	0.81
225.98	16.81
226.215	5.81
226.449	28.81
226.683	4.81
226.918	15.81
227.152	30.81
227.387	40.81
227.621	37.81
227.856	52.81
228.09	45.81
228.324	48.81
228.559	63.81
228.793	46.81
229.027	64.81
229.262	65.81
229.496	74.81
229.73	69.81
229.964	65.81
230.199	74.81
230.433	83.81
230.667	79.81
230.901	72.81
231.136	71.81
231.37	62.81
231.604	73.81
231.838	72.81
232.072	77.81
232.306	85.81
232.541	79.81
232.775	74.81
233.009	72.81
233.243	73.81
233.477	79.81
233.711	85.81
233.945	83.81
234.179	83.81
234.413	82.81
234.647	78.81
234.881	69.81
235.115	85.81
235.349	85.81
235.583	78.81
235.817	74.81
236.051	73.81
236.285	78.81
236.519	65.81
236.753	76.81
236.987	68.81
237.221	72.81
237.455	80.81
237.689	84.81
237.922	81.81
238.156	78.81
238.39	92.81
238.624	76.81
238.858	84.81
239.091	77.81
239.325	74.81
239.559	77.81
239.793	84.81
240.027	80.81
240.26	68.81
240.494	79.81
240.728	73.81
240.961	70.81
241.195	78.81
241.429	80.81
241.662	72.81
241.896	67.81
242.13	72.81
242.363	80.81
242.597	72.81
242.83	80.81
243.064	67.81
243.298	72.81
243.531	82.81
243.765	79.81
243.998	83.81
244.232	77.81
244.465	77.81
244.699	86.81
244.932	85.81
245.166	78.81
245.399	93.81
245.633	82.81
245.866	75.81
246.099	77.81
246.333	79.81
246.566	74.81
246.8	65.81
247.033	69.81
247.266	76.81
247.5	76.81
247.733	81.81
247.966	77.81
248.2	78.81
248.433	87.81
248.666	70.81
248.899	61.81
249.133	83.81
249.366	77.81
249.599	89.81
249.832	84.81
250.066	87.81
250.299	81.81
250.532	70.81
250.765	71.81
250.998	64.81
251.231	88.81
251.465	83.81
251.698	77.81
251.931	74.81
252.164	74.81
252.397	91.81
252.63	82.81
252.863	74.81
253.096	77.81
253.329	82.81
253.562	70.81
253.795	72.81
254.028	96.81
254.261	77.81
254.494	91.81
254.727	88.81
254.96	74.81
255.193	67.81
255.426	77.81
255.659	83.81
255.892	73.81
256.124	81.81
256.357	80.81
256.59	78.81
256.823	85.81
257.056	82.81
257.289	90.81
257.521	87.81
257.754	85.81
257.987	79.81
258.22	80.81
258.452	57.81
258.685	81.81
258.918	70.81
259.151	89.81
259.383	71.81
259.616	59.81
259.849	87.81
260.081	76.81
260.314	83.81
260.547	82.81
260.779	75.81
261.012	72.81
261.244	73.81
261.477	77.81
261.71	86.81
261.942	75.81
262.175	84.81
262.407	74.81
262.64	87.81
262.872	86.81
263.105	89.81
263.337	82.81
263.57	89.81
263.802	93.81
264.035	80.81
264.267	82.81
264.499	93.81
264.732	82.81
264.964	85.81
265.197	73.81
265.429	81.81
265.661	80.81
265.894	92.81
266.126	81.81
266.358	94.81
266.591	89.81
266.823	75.81
267.055	77.81
267.287	84.81
267.52	71.81
267.752	78.81
267.984	79.81
268.216	70.81
268.448	96.81
268.681	65.81
268.913	78.81
269.145	74.81
269.377	87.81
269.609	77.81
269.841	72.81
270.073	75.81
270.306	86.81
270.538	90.81
270.77	89.81
271.002	87.81
271.234	88.81
271.466	78.81
271.698	79.81
271.93	76.81
272.162	81.81
272.394	101.81
272.626	88.81
272.858	78.81
273.09	81.81
273.322	80.81
273.553	90.81
273.785	84.81
274.017	77.81
274.249	73.81
274.481	76.81
274.713	82.81
274.945	80.81
275.176	87.81
275.408	98.81
275.64	85.81
275.872	82.81
276.104	80.81
276.335	91.81
276.567	83.81
276.799	88.81
277.031	85.81
277.262	89.81
277.494	72.81
277.726	80.81
277.957	85.81
278.189	77.81
278.421	87.81
278.652	96.81
278.884	70.81
279.115	86.81
279.347	88.81
279.579	86.81
279.81	88.81
280.042	82.81
280.273	76.81
280.505	89.81
280.736	82.81
280.968	79.81
281.199	91.81
281.431	77.81
281.662	83.81
281.894	92.81
282.125	84.81
282.356	90.81
282.588	89.81
282.819	86.81
283.051	82.81
283.282	76.81
283.513	86.81
283.745	92.81
283.976	71.81
284.207	72.81
284.439	80.81
284.67	93.81
284.901	79.81
285.132	83.81
285.364	81.81
285.595	86.81
285.826	85.81
286.057	90.81
286.288	84.81
286.52	93.81
286.751	86.81
286.982	97.81
287.213	77.81
287.444	74.81
287.675	67.81
287.906	85.81
288.138	82.81
288.369	88.81
288.6	81.81
288.831	68.81
289.062	80.81
289.293	80.81
289.524	75.81
289.755	76.81
289.986	92.81
290.217	85.81
290.448	82.81
290.679	77.81
290.91	80.81
291.141	75.81
291.371	85.81
291.602	80.81
291.833	76.81
292.064	68.81
292.295	73.81
292.526	97.81
292.757	71.81
292.987	81.81
293.218	88.81
293.449	77.81
293.68	83.81
293.91	84.81
294.141	93.81
294.372	83.81
294.603	86.81
294.833	73.81
295.064	93.81
295.295	94.81
295.525	81.81
295.756	84.81
295.987	90.81
296.217	78.81
296.448	87.81
296.679	73.81
296.909	89.81
297.14	79.81
297.37	88.81
297.601	74.81
297.831	86.81
298.062	79.81
298.292	87.81
298.523	85.81
298.753	91.81
298.984	84.81
299.214	73.81
299.445	82.81
299.675	112.81
299.905	80.81
300.136	82.81
300.366	85.81
300.597	89.81
300.827	71.81
301.057	86.81
301.288	77.81
301.518	89.81
301.748	78.81
301.979	77.81
302.209	90.81
302.439	82.81
302.669	90.81
302.9	68.81
303.13	77.81
303.36	84.81
303.59	78.81
303.82	82.81
304.051	80.81
304.281	76.81
304.511	92.81
304.741	87.81
304.971	91.81
305.201	90.81
305.431	80.81
305.661	90.81
305.891	88.81
306.121	82.81
306.352	82.81
306.582	91.81
306.812	98.81
307.042	83.81
307.272	95.81
307.502	74.81
307.731	78.81
307.961	82.81
308.191	70.81
308.421	73.81
308.651	79.81
308.881	74.81
309.111	93.81
309.341	89.81
309.571	84.81
309.8	72.81
310.03	90.81
310.26	77.81
310.49	89.81
310.72	83.81
310.949	84.81
311.179	76.81
311.409	84.81
311.639	89.81
311.868	96.81
312.098	94.81
312.328	78.81
312.557	77.81
312.787	84.81
313.017	75.81
313.246	89.81
313.476	73.81
313.706	76.81
313.935	70.81
314.165	87.81
314.394	81.81
314.624	84.81
314.853	100.81
315.083	78.81
315.312	103.81
315.542	78.81
315.771	82.81
316.001	88.81
316.23	76.81
316.46	77.81
316.689	72.81
316.919	88.81
317.148	85.81
317.377	83.81
317.607	78.81
317.836	78.81
318.065	74.81
318.295	90.81
318.524	87.81
318.753	86.81
318.983	90.81
319.212	87.81
319.441	88.81
319.67	91.81
319.9	93.81
320.129	81.81
320.358	78.81
320.587	60.81
320.816	80.81
321.046	74.81
321.275	83.81
321.504	85.81
321.733	82.81
321.962	82.81
322.191	99.81
322.42	94.81
322.649	82.81
322.878	78.81
323.108	85.81
323.337	88.81
323.566	75.81
323.795	82.81
324.024	100.81
324.253	78.81
324.482	86.81
324.71	62.81
324.939	83.81
325.168	92.81
325.397	89.81
325.626	93.81
325.855	89.81
326.084	81.81
326.313	88.81
326.542	83.81
326.77	78.81
326.999	89.81
327.228	85.81
327.457	85.81
327.686	75.81
327.914	81.81
328.143	82.81
328.372	84.81
328.6	76.81
328.829	78.81
329.058	96.81
329.287	90.81
329.515	100.81
329.744	83.81
329.972	91.81
330.201	93.81
330.43	81.81
330.658	85.81
330.887	77.81
331.115	88.81
331.344	78.81
331.572	84.81
331.801	78.81
332.03	86.81
332.258	85.81
332.486	85.81
332.715	76.81
332.943	97.81
333.172	86.81
333.4	84.81
333.629	73.81
333.857	93.81
334.085	79.81
334.314	99.81
334.542	91.81
334.771	75.81
334.999	82.81
335.227	82.81
335.455	71.81
335.684	85.81
335.912	92.81
336.14	84.81
336.369	80.81
336.597	89.81
336.825	88.81
337.053	79.81
337.281	78.81
337.51	94.81
337.738	84.81
337.966	93.81
338.194	82.81
338.422	91.81
338.65	100.81
338.878	88.81
339.106	81.81
339.334	85.81
339.562	82.81
339.79	88.81
340.018	68.81
340.246	80.81
340.474	81.81
340.702	73.81
340.93	72.81
341.158	81.81
341.386	81.81
341.614	70.81
341.842	88.81
342.07	94.81
342.298	81.81
342.526	76.81
342.754	82.81
342.981	73.81
343.209	83.81
343.437	84.81
343.665	89.81
343.893	88.81
344.12	94.81
344.348	93.81
344.576	72.81
344.804	77.81
345.031	89.81
345.259	82.81
345.487	77.81
345.714	62.81
345.942	88.81
346.17	85.81
346.397	84.81
346.625	79.81
346.853	80.81
347.08	81.81
347.308	82.81
347.535	78.81
347.763	86.81
347.99	83.81
348.218	70.81
348.445	80.81
348.673	88.81
348.9	90.81
349.128	82.81
349.355	79.81
349.583	83.81
349.81	84.81
350.037	82.81
350.265	84.81
350.492	78.81
350.72	90.81
350.947	79.81
351.174	91.81
351.402	82.81
351.629	79.81
351.856	73.81
352.083	89.81
352.311	77.81
352.538	84.81
352.765	78.81
352.992	78.81
353.22	80.81
353.447	91.81
353.674	82.81
353.901	84.81
354.128	82.81
354.355	81.81
354.583	95.81
354.81	77.81
355.037	95.81
355.264	87.81
355.491	76.81
355.718	83.81
355.945	90.81
356.172	87.81
356.399	81.81
356.626	72.81
356.853	89.81
357.08	84.81
357.307	80.81
357.534	72.81
357.761	68.81
357.988	81.81
358.215	76.81
358.441	88.81
358.668	83.81
358.895	72.81
359.122	77.81
359.349	83.81
359.576	84.81
359.802	78.81
360.029	88.81
360.256	92.81
360.483	83.81
360.709	94.81
360.936	79.81
361.163	77.81
361.39	96.81
361.616	76.81
361.843	86.81
362.07	70.81
362.296	94.81
362.523	76.81
362.749	84.81
362.976	92.81
363.203	89.81
363.429	85.81
363.656	86.81
363.882	85.81
364.109	95.81
364.335	92.81
364.562	84.81
364.788	86.81
365.015	82.81
365.241	89.81
365.468	87.81
365.694	84.81
365.92	84.81
366.147	92.81
366.373	97.81
366.599	80.81
366.826	90.81
367.052	100.81
367.278	72.81
367.505	73.81
367.731	90.81
367.957	83.81
368.184	88.81
368.41	78.81
368.636	77.81
368.862	94.81
369.089	83.81
369.315	85.81
369.541	86.81
369.767	72.81
369.993	77.81
370.219	84.81
370.445	90.81
370.672	82.81
370.898	78.81
371.124	94.81
371.35	90.81
371.576	89.81
371.802	76.81
372.028	84.81
372.254	82.81
372.48	78.81
372.706	85.81
372.932	83.81
373.158	88.81
373.384	92.81
373.61	74.81
373.835	75.81
374.061	87.81
374.287	61.81
374.513	74.81
374.739	69.81
374.965	69.81
375.191	84.81
375.416	77.81
375.642	94.81
375.868	100.81
376.094	80.81
376.319	86.81
376.545	90.81
376.771	78.81
376.997	73.81
377.222	73.81
377.448	69.81
377.674	81.81
377.899	71.81
378.125	84.81
378.35	98.81
378.576	84.81
378.802	84.81
379.027	85.81
379.253	86.81
379.478	86.81
379.704	83.81
379.929	74.81
380.155	74.81
380.38	91.81
380.606	93.81
380.831	84.81
381.057	89.81
381.282	100.81
381.507	82.81
381.733	78.81
381.958	87.81
382.184	99.81
382.409	76.81
382.634	78.81
382.86	85.81
383.085	81.81
383.31	72.81
383.535	90.81
383.761	75.81
383.986	82.81
384.211	91.81
384.436	91.81
384.662	88.81
384.887	86.81
385.112	68.81
385.337	83.81
385.562	82.81
385.787	81.81
386.013	88.81
386.238	89.81
386.463	66.81
386.688	74.81
386.913	75.81
387.138	83.81
387.363	77.81
387.588	87.81
387.813	78.81
388.038	87.81
388.263	94.81
388.488	91.81
388.713	68.81
388.938	68.81
389.163	64.81
389.387	71.81
389.612	83.81
389.837	74.81
390.062	80.81
390.287	83.81
390.512	83.81
390.736	76.81
390.961	86.81
391.186	79.81
391.411	82.81
391.636	83.81
391.86	84.81
392.085	87.81
392.31	92.81
392.534	84.81
392.759	94.81
392.984	94.81
393.208	64.81
393.433	82.81
393.658	82.81
393.882	83.81
394.107	76.81
394.331	90.81
394.556	71.81
394.78	86.81
395.005	76.81
395.229	93.81
395.454	93.81
395.678	74.81
395.903	82.81
396.127	74.81
396.352	78.81
396.576	76.81
396.801	73.81
397.025	96.81
397.249	92.81
397.474	85.81
397.698	84.81
397.922	90.81
398.147	82.81
398.371	84.81
398.595	71.81
398.82	92.81
399.044	85.81
399.268	87.81
399.492	72.81
399.717	88.81
399.941	74.81
400.165	84.81
400.389	89.81
400.613	91.81
400.837	90.81
401.062	85.81
401.286	87.81
401.51	73.81
401.734	88.81
401.958	76.81
402.182	72.81
402.406	84.81
402.63	84.81
402.854	77.81
403.078	86.81
403.302	85.81
403.526	86.81
403.75	96.81
403.974	87.81
404.198	77.81
404.422	89.81
404.645	82.81
404.869	90.81
405.093	96.81
405.317	85.81
405.541	85.81
405.765	99.81
405.988	82.81
406.212	80.81
406.436	83.81
406.66	91.81
406.883	97.81
407.107	87.81
407.331	87.81
407.555	80.81
407.778	91.81
408.002	87.81
408.226	80.81
408.449	77.81
408.673	84.81
408.896	85.81
409.12	110.81
409.344	94.81
409.567	96.81
409.791	96.81
410.014	98.81
410.238	93.81
410.461	93.81
410.685	87.81
410.908	88.81
411.132	85.81
411.355	77.81
411.578	102.81
411.802	87.81
412.025	84.81
412.249	93.81
412.472	84.81
412.695	93.81
412.919	99.81
413.142	91.81
413.365	79.81
413.589	77.81
413.812	93.81
414.035	80.81
414.258	87.81
414.482	72.81
414.705	89.81
414.928	91.81
415.151	90.81
415.374	88.81
415.597	82.81
415.821	86.81
416.044	75.81
416.267	84.81
416.49	97.81
416.713	89.81
416.936	93.81
417.159	90.81
417.382	80.81
417.605	77.81
417.828	87.81
418.051	92.81
418.274	91.81
418.497	86.81
418.72	84.81
418.943	83.81
419.166	96.81
419.389	89.81
419.611	98.81
419.834	61.81
420.057	80.81
420.28	86.81
420.503	75.81
420.726	100.81
420.948	98.81
421.171	86.81
421.394	95.81
421.617	87.81
421.839	84.81
422.062	90.81
422.285	95.81
422.507	90.81
422.73	83.81
422.953	60.81
423.175	80.81
423.398	98.81
423.621	83.81
423.843	82.81
424.066	96.81
424.288	91.81
424.511	92.81
424.733	62.81
424.956	70.81
425.178	81.81
425.401	92.81
425.623	101.81
425.846	84.81
426.068	90.81
426.291	92.81
426.513	85.81
426.735	98.81
426.958	76.81
427.18	90.81
427.402	87.81
427.625	91.81
427.847	93.81
428.069	90.81
428.292	84.81
428.514	93.81
428.736	93.81
428.958	86.81
429.181	87.81
429.403	102.81
429.625	82.81
429.847	83.81
430.069	97.81
430.292	97.81
430.514	102.81
430.736	100.81
430.958	91.81
431.18	85.81
431.402	97.81
431.624	86.81
431.846	90.81
432.068	75.81
432.29	88.81
432.512	91.81
432.734	92.81
432.956	98.81
433.178	92.81
433.4	79.81
433.622	76.81
433.844	88.81
434.066	91.81
434.287	79.81
434.509	87.81
434.731	91.81
434.953	81.81
435.175	104.81
435.397	94.81
435.618	86.81
435.84	75.81
436.062	85.81
436.284	88.81
436.505	85.81
436.727	70.81
436.949	78.81
437.17	80.81
437.392	76.81
437.614	86.81
437.835	75.81
438.057	89.81
438.278	94.81
438.5	87.81
438.721	88.81
438.943	73.81
439.165	90.81
439.386	87.81
439.608	98.81
439.829	94.81
440.05	96.81
440.272	80.81
440.493	93.81
440.715	99.81
440.936	96.81
441.158	85.81
441.379	76.81
441.6	97.81
441.822	99.81
442.043	88.81
442.264	91.81
442.486	85.81
442.707	101.81
442.928	98.81
443.149	97.81
443.371	85.81
443.592	84.81
443.813	89.81
444.034	90.81
444.255	84.81
444.476	92.81
444.698	107.81
444.919	84.81
445.14	194.81
445.361	144.81
445.582	98.81
445.803	86.81
446.024	99.81
446.245	88.81
446.466	93.81
446.687	90.81
446.908	101.81
447.129	82.81
447.35	79.81
447.571	101.81
447.792	98.81
448.013	90.81
448.234	95.81
448.455	90.81
448.675	90.81
448.896	81.81
449.117	84.81
449.338	87.81
449.559	90.81
449.779	85.81
450	94.81
450.221	100.81
450.442	91.81
450.662	80.81
450.883	88.81
451.104	98.81
451.324	96.81
451.545	96.81
451.766	94.81
451.986	88.81
452.207	95.81
452.428	83.81
452.648	109.81
452.869	97.81
453.089	80.81
453.31	88.81
453.53	83.81
453.751	91.81
453.971	83.81
454.192	93.81
454.412	87.81
454.633	84.81
454.853	94.81
455.073	100.81
455.294	94.81
455.514	76.81
455.734	91.81
455.955	84.81
456.175	88.81
456.395	72.81
456.616	78.81
456.836	76.81
457.056	94.81
457.276	98.81
457.497	73.81
457.717	77.81
457.937	88.81
458.157	82.81
458.377	64.81
458.598	81.81
458.818	73.81
459.038	77.81
459.258	92.81
459.478	75.81
459.698	93.81
459.918	91.81
460.138	96.81
460.358	67.81
460.578	75.81
460.798	80.81
461.018	87.81
461.238	86.81
461.458	83.81
461.678	94.81
461.898	88.81
462.118	97.81
462.338	91.81
462.558	95.81
462.777	92.81
462.997	62.81
463.217	88.81
463.437	78.81
463.657	77.81
463.876	68.81
464.096	82.81
464.316	81.81
464.536	68.81
464.755	95.81
464.975	90.81
465.195	89.81
465.414	87.81
465.634	74.81
465.854	93.81
466.073	83.81
466.293	84.81
466.512	98.81
466.732	86.81
466.951	96.81
467.171	92.81
467.391	93.81
467.61	93.81
467.829	89.81
468.049	105.81
468.268	85.81
468.488	89.81
468.707	94.81
468.927	76.81
469.146	94.81
469.365	92.81
469.585	83.81
469.804	98.81
470.023	87.81
470.243	84.81
470.462	97.81
470.681	84.81
470.901	88.81
471.12	92.81
471.339	84.81
471.558	96.81
471.777	80.81
471.997	84.81
472.216	83.81
472.435	85.81
472.654	92.81
472.873	77.81
473.092	86.81
473.311	92.81
473.53	94.81
473.749	90.81
473.968	79.81
474.187	77.81
474.406	85.81
474.625	96.81
474.844	97.81
475.063	90.81
475.282	93.81
475.501	86.81
475.72	90.81
475.939	73.81
476.158	90.81
476.377	98.81
476.596	85.81
476.814	84.81
477.033	85.81
477.252	77.81
477.471	79.81
477.69	89.81
477.908	85.81
478.127	87.81
478.346	81.81
478.564	80.81
478.783	99.81
479.002	92.81
479.22	105.81
479.439	90.81
479.658	85.81
479.876	82.81
480.095	90.81
480.313	83.81
480.532	92.81
480.751	91.81
480.969	78.81
481.188	77.81
481.406	90.81
481.624	82.81
481.843	93.81
482.061	81.81
482.28	91.81
482.498	97.81
482.717	83.81
482.935	89.81
483.153	96.81
483.372	101.81
483.59	87.81
483.808	91.81
484.027	93.81
484.245	82.81
484.463	87.81
484.681	91.81
484.9	85.81
485.118	96.81
485.336	89.81
485.554	84.81
485.772	82.81
485.99	77.81
486.209	93.81
486.427	91.81
486.645	83.81
486.863	97.81
487.081	96.81
487.299	103.81
487.517	99.81
487.735	89.81
487.953	97.81
488.171	100.81
488.389	97.81
488.607	81.81
488.825	74.81
489.043	95.81
489.261	91.81
489.479	91.81
489.696	96.81
489.914	95.81
490.132	96.81
490.35	93.81
490.568	100.81
490.786	91.81
491.003	99.81
491.221	100.81
491.439	102.81
491.657	95.81
491.874	102.81
492.092	110.81
492.31	115.81
492.527	115.81
492.745	106.81
492.963	116.81
493.18	106.81
493.398	91.81
493.615	80.81
493.833	89.81
494.05	97.81
494.268	116.81
494.485	109.81
494.703	112.81
494.92	108.81
495.138	101.81
495.355	96.81
495.573	94.81
495.79	93.81
496.008	86.81
496.225	87.81
496.442	84.81
496.66	113.81
496.877	86.81
497.094	84.81
497.312	103.81
497.529	82.81
497.746	105.81
497.963	101.81
498.181	86.81
498.398	78.81
498.615	92.81
498.832	75.81
499.049	86.81
499.267	89.81
499.484	80.81
499.701	98.81
499.918	84.81
500.135	81.81
500.352	93.81
500.569	82.81
500.786	88.81
501.003	93.81
501.22	85.81
501.437	97.81
501.654	92.81
501.871	105.81
502.088	83.81
502.305	88.81
502.522	90.81
502.739	91.81
502.956	82.81
503.172	85.81
503.389	83.81
503.606	93.81
503.823	89.81
504.04	84.81
504.256	98.81
504.473	100.81
504.69	93.81
504.907	77.81
505.123	80.81
505.34	91.81
505.557	79.81
505.773	76.81
505.99	88.81
506.207	83.81
506.423	87.81
506.64	101.81
506.856	94.81
507.073	83.81
507.289	84.81
507.506	80.81
507.722	84.81
507.939	75.81
508.155	90.81
508.372	64.81
508.588	88.81
508.805	93.81
509.021	95.81
509.238	86.81
509.454	85.81
509.67	91.81
509.887	66.81
510.103	86.81
510.319	75.81
510.536	96.81
510.752	78.81
510.968	87.81
511.184	86.81
511.401	103.81
511.617	81.81
511.833	86.81
512.049	73.81
512.265	85.81
512.481	90.81
512.698	91.81
512.914	71.81
513.13	88.81
513.346	79.81
513.562	93.81
513.778	97.81
513.994	80.81
514.21	76.81
514.426	76.81
514.642	77.81
514.858	91.81
515.074	86.81
515.29	100.81
515.506	93.81
515.721	82.81
515.937	92.81
516.153	77.81
516.369	90.81
516.585	91.81
516.801	81.81
517.016	81.81
517.232	97.81
517.448	92.81
517.664	85.81
517.879	89.81
518.095	95.81
518.311	75.81
518.527	88.81
518.742	86.81
