Data from Zn(NO3)2Standard.Agarose3%.GreenCap.LampEnergy5.5.E.O_HRD10591_15-01-11-767.txt Node
Date: Mon Jul 22 15:01:11 EDT 2019
User: cochatt
Spectrometer: HR+D1059
Trigger mode: 1
Integration Time (sec): 1.000000E-1
Scans to average: 1
Electric dark correction enabled: true
Nonlinearity correction enabled: false
Boxcar width: 0
XAxis mode: Wavelengths
Number of Pixels in Spectrum: 2048
>>>>>Begin Spectral Data<<<<<
223.165	-11.62
223.4	-11.62
223.635	-11.62
223.869	-20.62
224.104	-22.62
224.338	-5.62
224.573	-17.62
224.808	-21.62
225.042	-13.62
225.277	-5.62
225.511	-4.62
225.746	10.38
225.98	7.38
226.215	9.38
226.449	21.38
226.683	11.38
226.918	29.38
227.152	34.38
227.387	36.38
227.621	44.38
227.856	31.38
228.09	55.38
228.324	47.38
228.559	62.38
228.793	57.38
229.027	67.38
229.262	74.38
229.496	70.38
229.73	76.38
229.964	84.38
230.199	58.38
230.433	82.38
230.667	70.38
230.901	75.38
231.136	80.38
231.37	80.38
231.604	86.38
231.838	74.38
232.072	80.38
232.306	89.38
232.541	87.38
232.775	71.38
233.009	92.38
233.243	81.38
233.477	97.38
233.711	92.38
233.945	85.38
234.179	94.38
234.413	83.38
234.647	86.38
234.881	86.38
235.115	79.38
235.349	83.38
235.583	87.38
235.817	83.38
236.051	94.38
236.285	87.38
236.519	69.38
236.753	72.38
236.987	75.38
237.221	81.38
237.455	82.38
237.689	68.38
237.922	79.38
238.156	87.38
238.39	73.38
238.624	77.38
238.858	80.38
239.091	80.38
239.325	74.38
239.559	79.38
239.793	88.38
240.027	86.38
240.26	81.38
240.494	92.38
240.728	70.38
240.961	71.38
241.195	83.38
241.429	82.38
241.662	75.38
241.896	91.38
242.13	76.38
242.363	86.38
242.597	99.38
242.83	90.38
243.064	71.38
243.298	94.38
243.531	84.38
243.765	79.38
243.998	87.38
244.232	74.38
244.465	79.38
244.699	73.38
244.932	73.38
245.166	82.38
245.399	78.38
245.633	88.38
245.866	88.38
246.099	77.38
246.333	82.38
246.566	81.38
246.8	88.38
247.033	77.38
247.266	81.38
247.5	87.38
247.733	90.38
247.966	78.38
248.2	76.38
248.433	85.38
248.666	78.38
248.899	83.38
249.133	71.38
249.366	88.38
249.599	88.38
249.832	81.38
250.066	86.38
250.299	82.38
250.532	77.38
250.765	85.38
250.998	79.38
251.231	74.38
251.465	75.38
251.698	76.38
251.931	65.38
252.164	71.38
252.397	92.38
252.63	96.38
252.863	76.38
253.096	85.38
253.329	77.38
253.562	97.38
253.795	77.38
254.028	92.38
254.261	71.38
254.494	89.38
254.727	81.38
254.96	78.38
255.193	77.38
255.426	78.38
255.659	86.38
255.892	88.38
256.124	72.38
256.357	71.38
256.59	72.38
256.823	77.38
257.056	90.38
257.289	84.38
257.521	76.38
257.754	82.38
257.987	89.38
258.22	90.38
258.452	84.38
258.685	87.38
258.918	82.38
259.151	95.38
259.383	90.38
259.616	88.38
259.849	90.38
260.081	80.38
260.314	95.38
260.547	89.38
260.779	89.38
261.012	98.38
261.244	81.38
261.477	81.38
261.71	75.38
261.942	90.38
262.175	86.38
262.407	82.38
262.64	82.38
262.872	82.38
263.105	63.38
263.337	74.38
263.57	81.38
263.802	98.38
264.035	86.38
264.267	76.38
264.499	97.38
264.732	97.38
264.964	81.38
265.197	84.38
265.429	86.38
265.661	88.38
265.894	85.38
266.126	70.38
266.358	83.38
266.591	95.38
266.823	74.38
267.055	93.38
267.287	82.38
267.52	91.38
267.752	86.38
267.984	92.38
268.216	83.38
268.448	87.38
268.681	90.38
268.913	88.38
269.145	93.38
269.377	92.38
269.609	77.38
269.841	95.38
270.073	96.38
270.306	85.38
270.538	88.38
270.77	84.38
271.002	75.38
271.234	89.38
271.466	81.38
271.698	85.38
271.93	83.38
272.162	82.38
272.394	82.38
272.626	77.38
272.858	87.38
273.09	96.38
273.322	79.38
273.553	82.38
273.785	91.38
274.017	92.38
274.249	71.38
274.481	74.38
274.713	80.38
274.945	97.38
275.176	86.38
275.408	89.38
275.64	89.38
275.872	85.38
276.104	105.38
276.335	75.38
276.567	73.38
276.799	94.38
277.031	93.38
277.262	84.38
277.494	85.38
277.726	78.38
277.957	95.38
278.189	78.38
278.421	82.38
278.652	86.38
278.884	101.38
279.115	83.38
279.347	87.38
279.579	72.38
279.81	86.38
280.042	92.38
280.273	89.38
280.505	87.38
280.736	96.38
280.968	94.38
281.199	91.38
281.431	80.38
281.662	83.38
281.894	82.38
282.125	80.38
282.356	85.38
282.588	90.38
282.819	76.38
283.051	88.38
283.282	86.38
283.513	94.38
283.745	90.38
283.976	86.38
284.207	80.38
284.439	90.38
284.67	82.38
284.901	101.38
285.132	101.38
285.364	88.38
285.595	86.38
285.826	89.38
286.057	104.38
286.288	84.38
286.52	73.38
286.751	93.38
286.982	85.38
287.213	83.38
287.444	105.38
287.675	94.38
287.906	75.38
288.138	86.38
288.369	92.38
288.6	90.38
288.831	79.38
289.062	91.38
289.293	86.38
289.524	82.38
289.755	99.38
289.986	96.38
290.217	86.38
290.448	85.38
290.679	78.38
290.91	97.38
291.141	102.38
291.371	81.38
291.602	101.38
291.833	102.38
292.064	97.38
292.295	72.38
292.526	84.38
292.757	87.38
292.987	93.38
293.218	94.38
293.449	90.38
293.68	89.38
293.91	96.38
294.141	90.38
294.372	78.38
294.603	80.38
294.833	91.38
295.064	97.38
295.295	93.38
295.525	76.38
295.756	91.38
295.987	91.38
296.217	101.38
296.448	91.38
296.679	74.38
296.909	96.38
297.14	103.38
297.37	88.38
297.601	93.38
297.831	90.38
298.062	81.38
298.292	86.38
298.523	88.38
298.753	83.38
298.984	84.38
299.214	99.38
299.445	84.38
299.675	93.38
299.905	88.38
300.136	90.38
300.366	89.38
300.597	85.38
300.827	88.38
301.057	100.38
301.288	94.38
301.518	92.38
301.748	91.38
301.979	93.38
302.209	82.38
302.439	98.38
302.669	80.38
302.9	86.38
303.13	89.38
303.36	105.38
303.59	89.38
303.82	93.38
304.051	82.38
304.281	83.38
304.511	92.38
304.741	105.38
304.971	97.38
305.201	83.38
305.431	95.38
305.661	91.38
305.891	88.38
306.121	92.38
306.352	87.38
306.582	90.38
306.812	93.38
307.042	82.38
307.272	85.38
307.502	80.38
307.731	98.38
307.961	77.38
308.191	83.38
308.421	84.38
308.651	77.38
308.881	85.38
309.111	79.38
309.341	93.38
309.571	98.38
309.8	80.38
310.03	77.38
310.26	87.38
310.49	102.38
310.72	77.38
310.949	87.38
311.179	89.38
311.409	92.38
311.639	96.38
311.868	89.38
312.098	78.38
312.328	76.38
312.557	94.38
312.787	84.38
313.017	104.38
313.246	109.38
313.476	105.38
313.706	94.38
313.935	87.38
314.165	96.38
314.394	97.38
314.624	83.38
314.853	74.38
315.083	85.38
315.312	77.38
315.542	88.38
315.771	87.38
316.001	81.38
316.23	87.38
316.46	88.38
316.689	89.38
316.919	97.38
317.148	93.38
317.377	82.38
317.607	85.38
317.836	86.38
318.065	84.38
318.295	86.38
318.524	85.38
318.753	99.38
318.983	64.38
319.212	84.38
319.441	90.38
319.67	102.38
319.9	95.38
320.129	87.38
320.358	84.38
320.587	85.38
320.816	90.38
321.046	81.38
321.275	81.38
321.504	88.38
321.733	98.38
321.962	84.38
322.191	89.38
322.42	96.38
322.649	101.38
322.878	87.38
323.108	89.38
323.337	88.38
323.566	94.38
323.795	102.38
324.024	88.38
324.253	95.38
324.482	92.38
324.71	96.38
324.939	89.38
325.168	86.38
325.397	96.38
325.626	82.38
325.855	73.38
326.084	78.38
326.313	96.38
326.542	85.38
326.77	97.38
326.999	91.38
327.228	98.38
327.457	105.38
327.686	80.38
327.914	91.38
328.143	95.38
328.372	88.38
328.6	90.38
328.829	89.38
329.058	81.38
329.287	97.38
329.515	90.38
329.744	94.38
329.972	81.38
330.201	93.38
330.43	106.38
330.658	81.38
330.887	92.38
331.115	95.38
331.344	82.38
331.572	96.38
331.801	98.38
332.03	109.38
332.258	88.38
332.486	90.38
332.715	75.38
332.943	90.38
333.172	86.38
333.4	78.38
333.629	77.38
333.857	96.38
334.085	80.38
334.314	85.38
334.542	86.38
334.771	91.38
334.999	100.38
335.227	87.38
335.455	89.38
335.684	97.38
335.912	97.38
336.14	81.38
336.369	89.38
336.597	94.38
336.825	102.38
337.053	95.38
337.281	82.38
337.51	77.38
337.738	103.38
337.966	95.38
338.194	87.38
338.422	87.38
338.65	106.38
338.878	88.38
339.106	75.38
339.334	92.38
339.562	102.38
339.79	82.38
340.018	81.38
340.246	89.38
340.474	88.38
340.702	97.38
340.93	87.38
341.158	94.38
341.386	90.38
341.614	87.38
341.842	102.38
342.07	94.38
342.298	92.38
342.526	84.38
342.754	96.38
342.981	96.38
343.209	82.38
343.437	88.38
343.665	94.38
343.893	88.38
344.12	108.38
344.348	95.38
344.576	89.38
344.804	72.38
345.031	92.38
345.259	91.38
345.487	93.38
345.714	79.38
345.942	82.38
346.17	82.38
346.397	81.38
346.625	75.38
346.853	81.38
347.08	80.38
347.308	89.38
347.535	86.38
347.763	83.38
347.99	78.38
348.218	97.38
348.445	96.38
348.673	101.38
348.9	88.38
349.128	80.38
349.355	77.38
349.583	99.38
349.81	92.38
350.037	90.38
350.265	94.38
350.492	89.38
350.72	82.38
350.947	96.38
351.174	93.38
351.402	90.38
351.629	95.38
351.856	93.38
352.083	92.38
352.311	79.38
352.538	92.38
352.765	110.38
352.992	95.38
353.22	86.38
353.447	86.38
353.674	89.38
353.901	93.38
354.128	98.38
354.355	97.38
354.583	95.38
354.81	87.38
355.037	89.38
355.264	85.38
355.491	82.38
355.718	78.38
355.945	80.38
356.172	100.38
356.399	93.38
356.626	80.38
356.853	90.38
357.08	88.38
357.307	88.38
357.534	85.38
357.761	73.38
357.988	88.38
358.215	90.38
358.441	92.38
358.668	86.38
358.895	92.38
359.122	77.38
359.349	90.38
359.576	100.38
359.802	90.38
360.029	91.38
360.256	82.38
360.483	79.38
360.709	88.38
360.936	92.38
361.163	90.38
361.39	78.38
361.616	94.38
361.843	94.38
362.07	86.38
362.296	79.38
362.523	90.38
362.749	93.38
362.976	96.38
363.203	102.38
363.429	78.38
363.656	90.38
363.882	91.38
364.109	100.38
364.335	101.38
364.562	83.38
364.788	96.38
365.015	95.38
365.241	83.38
365.468	86.38
365.694	89.38
365.92	86.38
366.147	90.38
366.373	80.38
366.599	89.38
366.826	94.38
367.052	86.38
367.278	89.38
367.505	95.38
367.731	83.38
367.957	88.38
368.184	97.38
368.41	89.38
368.636	85.38
368.862	93.38
369.089	88.38
369.315	87.38
369.541	95.38
369.767	88.38
369.993	82.38
370.219	89.38
370.445	79.38
370.672	92.38
370.898	90.38
371.124	81.38
371.35	98.38
371.576	81.38
371.802	92.38
372.028	82.38
372.254	83.38
372.48	92.38
372.706	76.38
372.932	95.38
373.158	87.38
373.384	93.38
373.61	81.38
373.835	86.38
374.061	81.38
374.287	88.38
374.513	82.38
374.739	100.38
374.965	96.38
375.191	74.38
375.416	78.38
375.642	91.38
375.868	81.38
376.094	74.38
376.319	85.38
376.545	90.38
376.771	88.38
376.997	84.38
377.222	89.38
377.448	95.38
377.674	85.38
377.899	105.38
378.125	82.38
378.35	85.38
378.576	76.38
378.802	95.38
379.027	103.38
379.253	79.38
379.478	78.38
379.704	86.38
379.929	85.38
380.155	94.38
380.38	89.38
380.606	84.38
380.831	86.38
381.057	88.38
381.282	89.38
381.507	82.38
381.733	95.38
381.958	89.38
382.184	84.38
382.409	92.38
382.634	99.38
382.86	82.38
383.085	89.38
383.31	77.38
383.535	92.38
383.761	90.38
383.986	83.38
384.211	74.38
384.436	88.38
384.662	97.38
384.887	85.38
385.112	95.38
385.337	86.38
385.562	107.38
385.787	97.38
386.013	106.38
386.238	91.38
386.463	92.38
386.688	92.38
386.913	94.38
387.138	86.38
387.363	93.38
387.588	84.38
387.813	95.38
388.038	89.38
388.263	82.38
388.488	82.38
388.713	96.38
388.938	90.38
389.163	100.38
389.387	78.38
389.612	80.38
389.837	86.38
390.062	98.38
390.287	72.38
390.512	87.38
390.736	95.38
390.961	81.38
391.186	73.38
391.411	90.38
391.636	85.38
391.86	92.38
392.085	92.38
392.31	83.38
392.534	77.38
392.759	88.38
392.984	75.38
393.208	90.38
393.433	94.38
393.658	91.38
393.882	88.38
394.107	94.38
394.331	98.38
394.556	94.38
394.78	81.38
395.005	89.38
395.229	82.38
395.454	83.38
395.678	81.38
395.903	83.38
396.127	79.38
396.352	87.38
396.576	92.38
396.801	84.38
397.025	81.38
397.249	74.38
397.474	86.38
397.698	95.38
397.922	96.38
398.147	93.38
398.371	80.38
398.595	78.38
398.82	94.38
399.044	81.38
399.268	103.38
399.492	91.38
399.717	78.38
399.941	89.38
400.165	88.38
400.389	100.38
400.613	83.38
400.837	88.38
401.062	85.38
401.286	93.38
401.51	90.38
401.734	79.38
401.958	79.38
402.182	88.38
402.406	79.38
402.63	91.38
402.854	87.38
403.078	86.38
403.302	95.38
403.526	82.38
403.75	90.38
403.974	88.38
404.198	100.38
404.422	97.38
404.645	74.38
404.869	99.38
405.093	94.38
405.317	93.38
405.541	89.38
405.765	90.38
405.988	82.38
406.212	86.38
406.436	85.38
406.66	99.38
406.883	84.38
407.107	77.38
407.331	101.38
407.555	86.38
407.778	85.38
408.002	96.38
408.226	104.38
408.449	92.38
408.673	88.38
408.896	89.38
409.12	82.38
409.344	77.38
409.567	93.38
409.791	92.38
410.014	86.38
410.238	87.38
410.461	86.38
410.685	93.38
410.908	88.38
411.132	88.38
411.355	86.38
411.578	94.38
411.802	71.38
412.025	90.38
412.249	109.38
412.472	89.38
412.695	85.38
412.919	88.38
413.142	90.38
413.365	75.38
413.589	88.38
413.812	97.38
414.035	95.38
414.258	81.38
414.482	99.38
414.705	86.38
414.928	88.38
415.151	102.38
415.374	80.38
415.597	93.38
415.821	86.38
416.044	88.38
416.267	82.38
416.49	82.38
416.713	95.38
416.936	97.38
417.159	98.38
417.382	84.38
417.605	96.38
417.828	91.38
418.051	86.38
418.274	88.38
418.497	67.38
418.72	85.38
418.943	87.38
419.166	95.38
419.389	80.38
419.611	86.38
419.834	86.38
420.057	99.38
420.28	86.38
420.503	86.38
420.726	78.38
420.948	91.38
421.171	90.38
421.394	91.38
421.617	80.38
421.839	73.38
422.062	80.38
422.285	86.38
422.507	96.38
422.73	99.38
422.953	92.38
423.175	81.38
423.398	92.38
423.621	80.38
423.843	76.38
424.066	79.38
424.288	95.38
424.511	89.38
424.733	94.38
424.956	90.38
425.178	92.38
425.401	77.38
425.623	102.38
425.846	91.38
426.068	104.38
426.291	87.38
426.513	105.38
426.735	96.38
426.958	87.38
427.18	94.38
427.402	85.38
427.625	96.38
427.847	90.38
428.069	79.38
428.292	88.38
428.514	97.38
428.736	85.38
428.958	83.38
429.181	92.38
429.403	95.38
429.625	93.38
429.847	82.38
430.069	92.38
430.292	100.38
430.514	89.38
430.736	93.38
430.958	89.38
431.18	90.38
431.402	90.38
431.624	101.38
431.846	96.38
432.068	97.38
432.29	90.38
432.512	95.38
432.734	91.38
432.956	89.38
433.178	89.38
433.4	94.38
433.622	96.38
433.844	104.38
434.066	96.38
434.287	85.38
434.509	84.38
434.731	89.38
434.953	90.38
435.175	86.38
435.397	94.38
435.618	94.38
435.84	95.38
436.062	90.38
436.284	88.38
436.505	90.38
436.727	84.38
436.949	89.38
437.17	89.38
437.392	82.38
437.614	88.38
437.835	77.38
438.057	86.38
438.278	90.38
438.5	87.38
438.721	93.38
438.943	87.38
439.165	89.38
439.386	102.38
439.608	90.38
439.829	87.38
440.05	98.38
440.272	84.38
440.493	101.38
440.715	79.38
440.936	101.38
441.158	89.38
441.379	94.38
441.6	107.38
441.822	104.38
442.043	98.38
442.264	112.38
442.486	91.38
442.707	96.38
442.928	83.38
443.149	100.38
443.371	91.38
443.592	97.38
443.813	89.38
444.034	91.38
444.255	100.38
444.476	90.38
444.698	77.38
444.919	86.38
445.14	191.38
445.361	134.38
445.582	97.38
445.803	88.38
446.024	97.38
446.245	100.38
446.466	89.38
446.687	90.38
446.908	101.38
447.129	89.38
447.35	97.38
447.571	93.38
447.792	98.38
448.013	94.38
448.234	88.38
448.455	96.38
448.675	99.38
448.896	104.38
449.117	91.38
449.338	79.38
449.559	88.38
449.779	88.38
450	88.38
450.221	90.38
450.442	87.38
450.662	93.38
450.883	99.38
451.104	95.38
451.324	77.38
451.545	91.38
451.766	93.38
451.986	94.38
452.207	95.38
452.428	96.38
452.648	87.38
452.869	90.38
453.089	100.38
453.31	94.38
453.53	93.38
453.751	89.38
453.971	81.38
454.192	78.38
454.412	81.38
454.633	88.38
454.853	92.38
455.073	85.38
455.294	90.38
455.514	92.38
455.734	86.38
455.955	69.38
456.175	91.38
456.395	77.38
456.616	80.38
456.836	77.38
457.056	99.38
457.276	93.38
457.497	97.38
457.717	81.38
457.937	81.38
458.157	92.38
458.377	91.38
458.598	83.38
458.818	79.38
459.038	91.38
459.258	78.38
459.478	86.38
459.698	82.38
459.918	88.38
460.138	77.38
460.358	85.38
460.578	84.38
460.798	97.38
461.018	106.38
461.238	93.38
461.458	100.38
461.678	82.38
461.898	88.38
462.118	85.38
462.338	78.38
462.558	81.38
462.777	79.38
462.997	93.38
463.217	97.38
463.437	86.38
463.657	86.38
463.876	84.38
464.096	103.38
464.316	79.38
464.536	93.38
464.755	92.38
464.975	89.38
465.195	97.38
465.414	96.38
465.634	98.38
465.854	101.38
466.073	82.38
466.293	92.38
466.512	95.38
466.732	98.38
466.951	89.38
467.171	89.38
467.391	92.38
467.61	96.38
467.829	90.38
468.049	86.38
468.268	100.38
468.488	81.38
468.707	103.38
468.927	106.38
469.146	96.38
469.365	94.38
469.585	81.38
469.804	80.38
470.023	102.38
470.243	99.38
470.462	83.38
470.681	120.38
470.901	101.38
471.12	102.38
471.339	85.38
471.558	92.38
471.777	86.38
471.997	92.38
472.216	79.38
472.435	98.38
472.654	80.38
472.873	93.38
473.092	86.38
473.311	87.38
473.53	81.38
473.749	93.38
473.968	103.38
474.187	84.38
474.406	93.38
474.625	88.38
474.844	99.38
475.063	109.38
475.282	94.38
475.501	107.38
475.72	102.38
475.939	88.38
476.158	82.38
476.377	80.38
476.596	88.38
476.814	102.38
477.033	94.38
477.252	98.38
477.471	91.38
477.69	88.38
477.908	92.38
478.127	93.38
478.346	88.38
478.564	83.38
478.783	87.38
479.002	89.38
479.22	92.38
479.439	105.38
479.658	95.38
479.876	96.38
480.095	72.38
480.313	97.38
480.532	105.38
480.751	90.38
480.969	79.38
481.188	76.38
481.406	69.38
481.624	77.38
481.843	89.38
482.061	76.38
482.28	89.38
482.498	92.38
482.717	101.38
482.935	91.38
483.153	109.38
483.372	97.38
483.59	110.38
483.808	99.38
484.027	85.38
484.245	88.38
484.463	99.38
484.681	103.38
484.9	81.38
485.118	94.38
485.336	95.38
485.554	99.38
485.772	91.38
485.99	79.38
486.209	102.38
486.427	92.38
486.645	82.38
486.863	94.38
487.081	86.38
487.299	81.38
487.517	103.38
487.735	106.38
487.953	112.38
488.171	95.38
488.389	104.38
488.607	87.38
488.825	98.38
489.043	107.38
489.261	96.38
489.479	95.38
489.696	108.38
489.914	104.38
490.132	92.38
490.35	88.38
490.568	87.38
490.786	83.38
491.003	101.38
491.221	111.38
491.439	109.38
491.657	120.38
491.874	116.38
492.092	100.38
492.31	108.38
492.527	112.38
492.745	108.38
492.963	98.38
493.18	83.38
493.398	100.38
493.615	100.38
493.833	88.38
494.05	85.38
494.268	95.38
494.485	102.38
494.703	85.38
494.92	106.38
495.138	97.38
495.355	110.38
495.573	108.38
495.79	110.38
496.008	99.38
496.225	104.38
496.442	108.38
496.66	95.38
496.877	106.38
497.094	90.38
497.312	87.38
497.529	84.38
497.746	103.38
497.963	97.38
498.181	96.38
498.398	87.38
498.615	92.38
498.832	84.38
499.049	91.38
499.267	82.38
499.484	98.38
499.701	105.38
499.918	78.38
500.135	97.38
500.352	88.38
500.569	95.38
500.786	98.38
501.003	99.38
501.22	93.38
501.437	101.38
501.654	88.38
501.871	92.38
502.088	99.38
502.305	97.38
502.522	94.38
502.739	87.38
502.956	82.38
503.172	99.38
503.389	95.38
503.606	98.38
503.823	84.38
504.04	96.38
504.256	96.38
504.473	93.38
504.69	102.38
504.907	98.38
505.123	89.38
505.34	88.38
505.557	86.38
505.773	98.38
505.99	90.38
506.207	87.38
506.423	95.38
506.64	93.38
506.856	92.38
507.073	99.38
507.289	103.38
507.506	97.38
507.722	93.38
507.939	90.38
508.155	86.38
508.372	87.38
508.588	84.38
508.805	96.38
509.021	84.38
509.238	93.38
509.454	96.38
509.67	88.38
509.887	88.38
510.103	97.38
510.319	85.38
510.536	78.38
510.752	88.38
510.968	94.38
511.184	94.38
511.401	90.38
511.617	78.38
511.833	82.38
512.049	92.38
512.265	86.38
512.481	86.38
512.698	86.38
512.914	96.38
513.13	86.38
513.346	82.38
513.562	97.38
513.778	85.38
513.994	81.38
514.21	88.38
514.426	88.38
514.642	87.38
514.858	86.38
515.074	72.38
515.29	96.38
515.506	90.38
515.721	77.38
515.937	88.38
516.153	73.38
516.369	87.38
516.585	89.38
516.801	85.38
517.016	79.38
517.232	94.38
517.448	95.38
517.664	84.38
