Data from Zn(NO3)2Standard.Agarose3%.GreenCap.LampEnergy5.5.E.O_HRD10591_15-01-55-767.txt Node
Date: Mon Jul 22 15:01:55 EDT 2019
User: cochatt
Spectrometer: HR+D1059
Trigger mode: 1
Integration Time (sec): 1.000000E-1
Scans to average: 1
Electric dark correction enabled: true
Nonlinearity correction enabled: false
Boxcar width: 0
XAxis mode: Wavelengths
Number of Pixels in Spectrum: 2048
>>>>>Begin Spectral Data<<<<<
223.165	-9.69
223.4	-9.69
223.635	-9.69
223.869	-25.69
224.104	-12.69
224.338	-27.69
224.573	-30.69
224.808	3.31
225.042	-9.69
225.277	-14.69
225.511	2.31
225.746	4.31
225.98	11.31
226.215	17.31
226.449	17.31
226.683	19.31
226.918	23.31
227.152	32.31
227.387	31.31
227.621	43.31
227.856	45.31
228.09	48.31
228.324	50.31
228.559	52.31
228.793	61.31
229.027	46.31
229.262	56.31
229.496	67.31
229.73	74.31
229.964	74.31
230.199	64.31
230.433	70.31
230.667	86.31
230.901	71.31
231.136	78.31
231.37	72.31
231.604	78.31
231.838	90.31
232.072	83.31
232.306	72.31
232.541	85.31
232.775	76.31
233.009	86.31
233.243	96.31
233.477	94.31
233.711	76.31
233.945	64.31
234.179	73.31
234.413	72.31
234.647	94.31
234.881	87.31
235.115	79.31
235.349	73.31
235.583	79.31
235.817	63.31
236.051	75.31
236.285	81.31
236.519	87.31
236.753	83.31
236.987	89.31
237.221	79.31
237.455	74.31
237.689	76.31
237.922	78.31
238.156	75.31
238.39	91.31
238.624	80.31
238.858	72.31
239.091	73.31
239.325	69.31
239.559	79.31
239.793	75.31
240.027	75.31
240.26	80.31
240.494	72.31
240.728	76.31
240.961	78.31
241.195	66.31
241.429	65.31
241.662	73.31
241.896	72.31
242.13	68.31
242.363	82.31
242.597	79.31
242.83	67.31
243.064	65.31
243.298	79.31
243.531	74.31
243.765	89.31
243.998	80.31
244.232	66.31
244.465	91.31
244.699	83.31
244.932	78.31
245.166	81.31
245.399	70.31
245.633	84.31
245.866	77.31
246.099	69.31
246.333	81.31
246.566	73.31
246.8	75.31
247.033	66.31
247.266	75.31
247.5	70.31
247.733	75.31
247.966	76.31
248.2	75.31
248.433	71.31
248.666	64.31
248.899	75.31
249.133	87.31
249.366	79.31
249.599	81.31
249.832	65.31
250.066	68.31
250.299	94.31
250.532	79.31
250.765	86.31
250.998	77.31
251.231	75.31
251.465	76.31
251.698	67.31
251.931	86.31
252.164	62.31
252.397	89.31
252.63	84.31
252.863	81.31
253.096	72.31
253.329	74.31
253.562	74.31
253.795	85.31
254.028	79.31
254.261	77.31
254.494	72.31
254.727	69.31
254.96	81.31
255.193	92.31
255.426	85.31
255.659	79.31
255.892	94.31
256.124	82.31
256.357	98.31
256.59	76.31
256.823	85.31
257.056	71.31
257.289	78.31
257.521	92.31
257.754	74.31
257.987	67.31
258.22	87.31
258.452	65.31
258.685	79.31
258.918	86.31
259.151	86.31
259.383	75.31
259.616	72.31
259.849	76.31
260.081	78.31
260.314	83.31
260.547	76.31
260.779	71.31
261.012	84.31
261.244	57.31
261.477	87.31
261.71	72.31
261.942	85.31
262.175	79.31
262.407	88.31
262.64	78.31
262.872	86.31
263.105	75.31
263.337	79.31
263.57	78.31
263.802	75.31
264.035	80.31
264.267	85.31
264.499	80.31
264.732	76.31
264.964	75.31
265.197	68.31
265.429	71.31
265.661	82.31
265.894	76.31
266.126	70.31
266.358	76.31
266.591	85.31
266.823	81.31
267.055	81.31
267.287	86.31
267.52	65.31
267.752	78.31
267.984	77.31
268.216	82.31
268.448	88.31
268.681	81.31
268.913	97.31
269.145	78.31
269.377	85.31
269.609	66.31
269.841	80.31
270.073	84.31
270.306	72.31
270.538	75.31
270.77	79.31
271.002	72.31
271.234	88.31
271.466	83.31
271.698	74.31
271.93	84.31
272.162	77.31
272.394	90.31
272.626	83.31
272.858	86.31
273.09	60.31
273.322	78.31
273.553	91.31
273.785	83.31
274.017	69.31
274.249	88.31
274.481	80.31
274.713	75.31
274.945	87.31
275.176	68.31
275.408	86.31
275.64	74.31
275.872	68.31
276.104	75.31
276.335	83.31
276.567	67.31
276.799	81.31
277.031	73.31
277.262	73.31
277.494	83.31
277.726	86.31
277.957	68.31
278.189	80.31
278.421	99.31
278.652	95.31
278.884	73.31
279.115	80.31
279.347	74.31
279.579	77.31
279.81	91.31
280.042	75.31
280.273	83.31
280.505	77.31
280.736	76.31
280.968	97.31
281.199	86.31
281.431	79.31
281.662	66.31
281.894	91.31
282.125	77.31
282.356	79.31
282.588	80.31
282.819	77.31
283.051	81.31
283.282	80.31
283.513	74.31
283.745	76.31
283.976	82.31
284.207	74.31
284.439	66.31
284.67	78.31
284.901	86.31
285.132	70.31
285.364	88.31
285.595	81.31
285.826	78.31
286.057	80.31
286.288	66.31
286.52	74.31
286.751	78.31
286.982	77.31
287.213	67.31
287.444	81.31
287.675	84.31
287.906	77.31
288.138	74.31
288.369	63.31
288.6	81.31
288.831	82.31
289.062	95.31
289.293	71.31
289.524	89.31
289.755	71.31
289.986	83.31
290.217	90.31
290.448	86.31
290.679	82.31
290.91	77.31
291.141	79.31
291.371	75.31
291.602	74.31
291.833	77.31
292.064	73.31
292.295	80.31
292.526	65.31
292.757	95.31
292.987	84.31
293.218	76.31
293.449	89.31
293.68	84.31
293.91	80.31
294.141	76.31
294.372	75.31
294.603	82.31
294.833	89.31
295.064	71.31
295.295	77.31
295.525	86.31
295.756	72.31
295.987	82.31
296.217	81.31
296.448	76.31
296.679	85.31
296.909	90.31
297.14	92.31
297.37	86.31
297.601	84.31
297.831	84.31
298.062	80.31
298.292	74.31
298.523	82.31
298.753	79.31
298.984	73.31
299.214	84.31
299.445	93.31
299.675	95.31
299.905	84.31
300.136	67.31
300.366	62.31
300.597	83.31
300.827	85.31
301.057	99.31
301.288	83.31
301.518	86.31
301.748	78.31
301.979	81.31
302.209	95.31
302.439	80.31
302.669	77.31
302.9	76.31
303.13	81.31
303.36	64.31
303.59	70.31
303.82	79.31
304.051	88.31
304.281	101.31
304.511	86.31
304.741	84.31
304.971	95.31
305.201	79.31
305.431	87.31
305.661	73.31
305.891	63.31
306.121	83.31
306.352	91.31
306.582	76.31
306.812	80.31
307.042	85.31
307.272	71.31
307.502	85.31
307.731	82.31
307.961	77.31
308.191	79.31
308.421	80.31
308.651	85.31
308.881	86.31
309.111	80.31
309.341	73.31
309.571	84.31
309.8	73.31
310.03	81.31
310.26	79.31
310.49	79.31
310.72	70.31
310.949	70.31
311.179	83.31
311.409	73.31
311.639	73.31
311.868	84.31
312.098	74.31
312.328	87.31
312.557	88.31
312.787	85.31
313.017	82.31
313.246	77.31
313.476	79.31
313.706	85.31
313.935	82.31
314.165	85.31
314.394	86.31
314.624	82.31
314.853	69.31
315.083	62.31
315.312	80.31
315.542	89.31
315.771	77.31
316.001	78.31
316.23	82.31
316.46	73.31
316.689	75.31
316.919	76.31
317.148	88.31
317.377	89.31
317.607	96.31
317.836	90.31
318.065	78.31
318.295	78.31
318.524	77.31
318.753	82.31
318.983	89.31
319.212	85.31
319.441	81.31
319.67	83.31
319.9	81.31
320.129	86.31
320.358	86.31
320.587	85.31
320.816	90.31
321.046	88.31
321.275	84.31
321.504	91.31
321.733	81.31
321.962	93.31
322.191	79.31
322.42	78.31
322.649	76.31
322.878	85.31
323.108	83.31
323.337	93.31
323.566	74.31
323.795	79.31
324.024	89.31
324.253	68.31
324.482	79.31
324.71	80.31
324.939	86.31
325.168	68.31
325.397	78.31
325.626	92.31
325.855	87.31
326.084	76.31
326.313	65.31
326.542	91.31
326.77	88.31
326.999	86.31
327.228	68.31
327.457	90.31
327.686	82.31
327.914	86.31
328.143	78.31
328.372	79.31
328.6	73.31
328.829	82.31
329.058	85.31
329.287	78.31
329.515	75.31
329.744	84.31
329.972	82.31
330.201	84.31
330.43	86.31
330.658	94.31
330.887	75.31
331.115	84.31
331.344	102.31
331.572	71.31
331.801	78.31
332.03	75.31
332.258	97.31
332.486	77.31
332.715	77.31
332.943	86.31
333.172	80.31
333.4	72.31
333.629	89.31
333.857	74.31
334.085	73.31
334.314	74.31
334.542	91.31
334.771	84.31
334.999	81.31
335.227	87.31
335.455	81.31
335.684	90.31
335.912	89.31
336.14	78.31
336.369	78.31
336.597	79.31
336.825	86.31
337.053	77.31
337.281	85.31
337.51	74.31
337.738	84.31
337.966	78.31
338.194	74.31
338.422	79.31
338.65	71.31
338.878	73.31
339.106	63.31
339.334	87.31
339.562	69.31
339.79	79.31
340.018	83.31
340.246	82.31
340.474	74.31
340.702	79.31
340.93	81.31
341.158	82.31
341.386	80.31
341.614	80.31
341.842	81.31
342.07	97.31
342.298	75.31
342.526	75.31
342.754	81.31
342.981	84.31
343.209	63.31
343.437	74.31
343.665	91.31
343.893	89.31
344.12	84.31
344.348	76.31
344.576	70.31
344.804	80.31
345.031	82.31
345.259	83.31
345.487	78.31
345.714	83.31
345.942	86.31
346.17	86.31
346.397	90.31
346.625	81.31
346.853	68.31
347.08	75.31
347.308	76.31
347.535	81.31
347.763	92.31
347.99	78.31
348.218	83.31
348.445	79.31
348.673	94.31
348.9	85.31
349.128	85.31
349.355	72.31
349.583	94.31
349.81	81.31
350.037	95.31
350.265	88.31
350.492	87.31
350.72	82.31
350.947	90.31
351.174	93.31
351.402	73.31
351.629	76.31
351.856	83.31
352.083	78.31
352.311	88.31
352.538	81.31
352.765	89.31
352.992	80.31
353.22	84.31
353.447	83.31
353.674	83.31
353.901	86.31
354.128	74.31
354.355	89.31
354.583	82.31
354.81	74.31
355.037	67.31
355.264	83.31
355.491	88.31
355.718	84.31
355.945	85.31
356.172	87.31
356.399	88.31
356.626	87.31
356.853	83.31
357.08	72.31
357.307	96.31
357.534	75.31
357.761	83.31
357.988	73.31
358.215	90.31
358.441	77.31
358.668	86.31
358.895	84.31
359.122	78.31
359.349	86.31
359.576	75.31
359.802	76.31
360.029	79.31
360.256	89.31
360.483	70.31
360.709	89.31
360.936	95.31
361.163	72.31
361.39	86.31
361.616	82.31
361.843	79.31
362.07	84.31
362.296	85.31
362.523	77.31
362.749	95.31
362.976	83.31
363.203	77.31
363.429	79.31
363.656	86.31
363.882	81.31
364.109	76.31
364.335	87.31
364.562	90.31
364.788	79.31
365.015	69.31
365.241	75.31
365.468	88.31
365.694	93.31
365.92	89.31
366.147	74.31
366.373	81.31
366.599	83.31
366.826	79.31
367.052	79.31
367.278	85.31
367.505	77.31
367.731	78.31
367.957	90.31
368.184	80.31
368.41	95.31
368.636	99.31
368.862	93.31
369.089	71.31
369.315	81.31
369.541	79.31
369.767	84.31
369.993	77.31
370.219	80.31
370.445	79.31
370.672	73.31
370.898	84.31
371.124	81.31
371.35	89.31
371.576	92.31
371.802	76.31
372.028	90.31
372.254	74.31
372.48	81.31
372.706	75.31
372.932	74.31
373.158	81.31
373.384	77.31
373.61	77.31
373.835	81.31
374.061	84.31
374.287	86.31
374.513	88.31
374.739	83.31
374.965	75.31
375.191	92.31
375.416	75.31
375.642	86.31
375.868	95.31
376.094	89.31
376.319	88.31
376.545	67.31
376.771	92.31
376.997	79.31
377.222	84.31
377.448	75.31
377.674	82.31
377.899	96.31
378.125	89.31
378.35	81.31
378.576	82.31
378.802	74.31
379.027	81.31
379.253	82.31
379.478	81.31
379.704	81.31
379.929	72.31
380.155	75.31
380.38	80.31
380.606	79.31
380.831	98.31
381.057	81.31
381.282	92.31
381.507	75.31
381.733	85.31
381.958	84.31
382.184	79.31
382.409	71.31
382.634	86.31
382.86	87.31
383.085	81.31
383.31	80.31
383.535	85.31
383.761	86.31
383.986	83.31
384.211	98.31
384.436	84.31
384.662	66.31
384.887	78.31
385.112	77.31
385.337	81.31
385.562	79.31
385.787	75.31
386.013	99.31
386.238	87.31
386.463	82.31
386.688	86.31
386.913	87.31
387.138	70.31
387.363	78.31
387.588	81.31
387.813	85.31
388.038	83.31
388.263	99.31
388.488	61.31
388.713	67.31
388.938	80.31
389.163	71.31
389.387	65.31
389.612	77.31
389.837	83.31
390.062	97.31
390.287	68.31
390.512	79.31
390.736	70.31
390.961	70.31
391.186	74.31
391.411	81.31
391.636	80.31
391.86	70.31
392.085	89.31
392.31	80.31
392.534	95.31
392.759	104.31
392.984	84.31
393.208	85.31
393.433	78.31
393.658	81.31
393.882	70.31
394.107	71.31
394.331	85.31
394.556	78.31
394.78	89.31
395.005	72.31
395.229	69.31
395.454	82.31
395.678	63.31
395.903	83.31
396.127	85.31
396.352	79.31
396.576	80.31
396.801	94.31
397.025	78.31
397.249	86.31
397.474	74.31
397.698	74.31
397.922	73.31
398.147	71.31
398.371	75.31
398.595	69.31
398.82	91.31
399.044	79.31
399.268	81.31
399.492	75.31
399.717	87.31
399.941	83.31
400.165	78.31
400.389	80.31
400.613	82.31
400.837	86.31
401.062	86.31
401.286	74.31
401.51	70.31
401.734	87.31
401.958	92.31
402.182	72.31
402.406	74.31
402.63	83.31
402.854	82.31
403.078	86.31
403.302	83.31
403.526	95.31
403.75	81.31
403.974	78.31
404.198	73.31
404.422	81.31
404.645	86.31
404.869	93.31
405.093	88.31
405.317	75.31
405.541	91.31
405.765	71.31
405.988	72.31
406.212	88.31
406.436	74.31
406.66	97.31
406.883	104.31
407.107	75.31
407.331	82.31
407.555	76.31
407.778	83.31
408.002	63.31
408.226	81.31
408.449	91.31
408.673	86.31
408.896	81.31
409.12	82.31
409.344	102.31
409.567	88.31
409.791	89.31
410.014	84.31
410.238	78.31
410.461	91.31
410.685	91.31
410.908	82.31
411.132	76.31
411.355	80.31
411.578	78.31
411.802	89.31
412.025	87.31
412.249	89.31
412.472	76.31
412.695	85.31
412.919	81.31
413.142	74.31
413.365	87.31
413.589	81.31
413.812	74.31
414.035	86.31
414.258	98.31
414.482	91.31
414.705	86.31
414.928	83.31
415.151	75.31
415.374	80.31
415.597	110.31
415.821	95.31
416.044	84.31
416.267	95.31
416.49	91.31
416.713	81.31
416.936	87.31
417.159	85.31
417.382	96.31
417.605	83.31
417.828	89.31
418.051	101.31
418.274	89.31
418.497	86.31
418.72	91.31
418.943	80.31
419.166	76.31
419.389	72.31
419.611	73.31
419.834	82.31
420.057	81.31
420.28	89.31
420.503	90.31
420.726	87.31
420.948	94.31
421.171	90.31
421.394	63.31
421.617	78.31
421.839	82.31
422.062	81.31
422.285	98.31
422.507	93.31
422.73	86.31
422.953	88.31
423.175	74.31
423.398	79.31
423.621	86.31
423.843	88.31
424.066	82.31
424.288	93.31
424.511	83.31
424.733	89.31
424.956	74.31
425.178	75.31
425.401	74.31
425.623	88.31
425.846	100.31
426.068	86.31
426.291	70.31
426.513	75.31
426.735	77.31
426.958	81.31
427.18	75.31
427.402	80.31
427.625	71.31
427.847	86.31
428.069	81.31
428.292	90.31
428.514	99.31
428.736	83.31
428.958	71.31
429.181	89.31
429.403	87.31
429.625	83.31
429.847	79.31
430.069	85.31
430.292	89.31
430.514	93.31
430.736	74.31
430.958	96.31
431.18	84.31
431.402	75.31
431.624	83.31
431.846	79.31
432.068	87.31
432.29	91.31
432.512	86.31
432.734	84.31
432.956	70.31
433.178	92.31
433.4	86.31
433.622	87.31
433.844	93.31
434.066	93.31
434.287	85.31
434.509	92.31
434.731	90.31
434.953	73.31
435.175	113.31
435.397	93.31
435.618	91.31
435.84	81.31
436.062	90.31
436.284	78.31
436.505	85.31
436.727	89.31
436.949	81.31
437.17	88.31
437.392	96.31
437.614	83.31
437.835	80.31
438.057	92.31
438.278	85.31
438.5	74.31
438.721	79.31
438.943	83.31
439.165	88.31
439.386	94.31
439.608	83.31
439.829	82.31
440.05	86.31
440.272	77.31
440.493	86.31
440.715	87.31
440.936	78.31
441.158	80.31
441.379	87.31
441.6	102.31
441.822	111.31
442.043	90.31
442.264	95.31
442.486	86.31
442.707	83.31
442.928	90.31
443.149	97.31
443.371	92.31
443.592	79.31
443.813	90.31
444.034	92.31
444.255	80.31
444.476	85.31
444.698	87.31
444.919	90.31
445.14	231.31
445.361	144.31
445.582	99.31
445.803	104.31
446.024	91.31
446.245	87.31
446.466	89.31
446.687	91.31
446.908	93.31
447.129	95.31
447.35	95.31
447.571	90.31
447.792	84.31
448.013	98.31
448.234	98.31
448.455	80.31
448.675	97.31
448.896	79.31
449.117	93.31
449.338	81.31
449.559	77.31
449.779	78.31
450	91.31
450.221	90.31
450.442	83.31
450.662	85.31
450.883	78.31
451.104	94.31
451.324	88.31
451.545	74.31
451.766	75.31
451.986	70.31
452.207	81.31
452.428	86.31
452.648	79.31
452.869	93.31
453.089	86.31
453.31	74.31
453.53	94.31
453.751	77.31
453.971	71.31
454.192	79.31
454.412	92.31
454.633	81.31
454.853	85.31
455.073	69.31
455.294	96.31
455.514	78.31
455.734	86.31
455.955	82.31
456.175	93.31
456.395	94.31
456.616	73.31
456.836	89.31
457.056	79.31
457.276	93.31
457.497	71.31
457.717	77.31
457.937	78.31
458.157	87.31
458.377	69.31
458.598	89.31
458.818	67.31
459.038	84.31
459.258	87.31
459.478	97.31
459.698	74.31
459.918	73.31
460.138	68.31
460.358	75.31
460.578	90.31
460.798	73.31
461.018	88.31
461.238	85.31
461.458	70.31
461.678	86.31
461.898	89.31
462.118	99.31
462.338	77.31
462.558	97.31
462.777	92.31
462.997	97.31
463.217	80.31
463.437	81.31
463.657	84.31
463.876	75.31
464.096	88.31
464.316	102.31
464.536	84.31
464.755	91.31
464.975	75.31
465.195	79.31
465.414	75.31
465.634	91.31
465.854	86.31
466.073	92.31
466.293	66.31
466.512	77.31
466.732	82.31
466.951	84.31
467.171	90.31
467.391	77.31
467.61	95.31
467.829	86.31
468.049	92.31
468.268	86.31
468.488	89.31
468.707	83.31
468.927	96.31
469.146	85.31
469.365	84.31
469.585	85.31
469.804	91.31
470.023	90.31
470.243	87.31
470.462	100.31
470.681	78.31
470.901	87.31
471.12	102.31
471.339	89.31
471.558	101.31
471.777	82.31
471.997	97.31
472.216	83.31
472.435	68.31
472.654	86.31
472.873	86.31
473.092	79.31
473.311	82.31
473.53	94.31
473.749	81.31
473.968	93.31
474.187	87.31
474.406	91.31
474.625	102.31
474.844	75.31
475.063	94.31
475.282	99.31
475.501	93.31
475.72	86.31
475.939	86.31
476.158	91.31
476.377	99.31
476.596	87.31
476.814	82.31
477.033	85.31
477.252	90.31
477.471	85.31
477.69	87.31
477.908	89.31
478.127	90.31
478.346	89.31
478.564	79.31
478.783	86.31
479.002	96.31
479.22	104.31
479.439	81.31
479.658	84.31
479.876	92.31
480.095	86.31
480.313	87.31
480.532	74.31
480.751	85.31
480.969	81.31
481.188	79.31
481.406	82.31
481.624	84.31
481.843	90.31
482.061	95.31
482.28	82.31
482.498	85.31
482.717	79.31
482.935	88.31
483.153	84.31
483.372	85.31
483.59	100.31
483.808	78.31
484.027	87.31
484.245	79.31
484.463	78.31
484.681	97.31
484.9	94.31
485.118	91.31
485.336	80.31
485.554	77.31
485.772	72.31
485.99	87.31
486.209	79.31
486.427	83.31
486.645	86.31
486.863	84.31
487.081	89.31
487.299	93.31
487.517	99.31
487.735	88.31
487.953	91.31
488.171	106.31
488.389	98.31
488.607	100.31
488.825	100.31
489.043	98.31
489.261	93.31
489.479	88.31
489.696	78.31
489.914	85.31
490.132	96.31
490.35	114.31
490.568	91.31
490.786	109.31
491.003	113.31
491.221	96.31
491.439	86.31
491.657	77.31
491.874	101.31
492.092	101.31
492.31	118.31
492.527	85.31
492.745	98.31
492.963	107.31
493.18	116.31
493.398	95.31
493.615	116.31
493.833	90.31
494.05	93.31
494.268	97.31
494.485	93.31
494.703	102.31
494.92	89.31
495.138	99.31
495.355	82.31
495.573	98.31
495.79	103.31
496.008	95.31
496.225	93.31
496.442	100.31
496.66	94.31
496.877	89.31
497.094	82.31
497.312	90.31
497.529	79.31
497.746	94.31
497.963	78.31
498.181	83.31
498.398	93.31
498.615	86.31
498.832	72.31
499.049	95.31
499.267	92.31
499.484	87.31
499.701	80.31
499.918	81.31
500.135	96.31
500.352	84.31
500.569	89.31
500.786	89.31
501.003	91.31
501.22	89.31
501.437	98.31
501.654	90.31
501.871	94.31
502.088	98.31
502.305	92.31
502.522	94.31
502.739	93.31
502.956	86.31
503.172	80.31
503.389	93.31
503.606	74.31
503.823	83.31
504.04	101.31
504.256	91.31
504.473	78.31
504.69	79.31
504.907	102.31
505.123	88.31
505.34	98.31
505.557	92.31
505.773	97.31
505.99	81.31
506.207	87.31
506.423	84.31
506.64	82.31
506.856	99.31
507.073	83.31
507.289	81.31
507.506	90.31
507.722	81.31
507.939	82.31
508.155	90.31
508.372	83.31
508.588	81.31
508.805	72.31
509.021	87.31
509.238	95.31
509.454	100.31
509.67	82.31
509.887	81.31
510.103	85.31
510.319	87.31
510.536	76.31
510.752	81.31
510.968	79.31
511.184	77.31
511.401	71.31
511.617	85.31
511.833	89.31
512.049	75.31
512.265	84.31
512.481	66.31
512.698	75.31
512.914	74.31
513.13	83.31
513.346	81.31
513.562	97.31
513.778	81.31
513.994	86.31
514.21	79.31
514.426	82.31
514.642	82.31
514.858	81.31
515.074	75.31
515.29	95.31
515.506	87.31
515.721	76.31
515.937	76.31
516.153	78.31
516.369	72.31
516.585	83.31
516.801	87.31
517.016	82.31
517.232	88.31
517.448	89.31
517.664	78.31
517.879	87.31
518.095	75.31
518.311	86.31
518.527	84.31
518.742	93.31
518.958	74.31
