Data from Zn(NO3)2Standard.Agarose3%.GreenCap.LampEnergy5.5.E.O_HRD10591_15-01-59-767.txt Node
Date: Mon Jul 22 15:01:59 EDT 2019
User: cochatt
Spectrometer: HR+D1059
Trigger mode: 1
Integration Time (sec): 1.000000E-1
Scans to average: 1
Electric dark correction enabled: true
Nonlinearity correction enabled: false
Boxcar width: 0
XAxis mode: Wavelengths
Number of Pixels in Spectrum: 2048
>>>>>Begin Spectral Data<<<<<
223.165	-9.56
223.4	-9.56
223.635	-9.56
223.869	-11.56
224.104	-9.56
224.338	-12.56
224.573	-8.56
224.808	-11.56
225.042	4.44
225.277	-0.56
225.511	-19.56
225.746	-12.56
225.98	12.44
226.215	17.44
226.449	7.44
226.683	16.44
226.918	23.44
227.152	14.44
227.387	49.44
227.621	28.44
227.856	37.44
228.09	42.44
228.324	44.44
228.559	54.44
228.793	55.44
229.027	64.44
229.262	60.44
229.496	67.44
229.73	71.44
229.964	67.44
230.199	74.44
230.433	74.44
230.667	79.44
230.901	89.44
231.136	72.44
231.37	75.44
231.604	86.44
231.838	94.44
232.072	74.44
232.306	71.44
232.541	71.44
232.775	78.44
233.009	80.44
233.243	81.44
233.477	87.44
233.711	83.44
233.945	90.44
234.179	81.44
234.413	79.44
234.647	86.44
234.881	79.44
235.115	79.44
235.349	86.44
235.583	75.44
235.817	75.44
236.051	76.44
236.285	81.44
236.519	57.44
236.753	64.44
236.987	60.44
237.221	85.44
237.455	73.44
237.689	89.44
237.922	79.44
238.156	73.44
238.39	88.44
238.624	77.44
238.858	67.44
239.091	74.44
239.325	75.44
239.559	87.44
239.793	70.44
240.027	77.44
240.26	81.44
240.494	87.44
240.728	82.44
240.961	63.44
241.195	79.44
241.429	72.44
241.662	74.44
241.896	83.44
242.13	71.44
242.363	77.44
242.597	82.44
242.83	101.44
243.064	76.44
243.298	76.44
243.531	83.44
243.765	70.44
243.998	83.44
244.232	75.44
244.465	78.44
244.699	87.44
244.932	71.44
245.166	79.44
245.399	84.44
245.633	81.44
245.866	73.44
246.099	72.44
246.333	74.44
246.566	82.44
246.8	62.44
247.033	75.44
247.266	81.44
247.5	85.44
247.733	90.44
247.966	92.44
248.2	83.44
248.433	61.44
248.666	68.44
248.899	86.44
249.133	92.44
249.366	83.44
249.599	68.44
249.832	75.44
250.066	85.44
250.299	75.44
250.532	83.44
250.765	84.44
250.998	90.44
251.231	96.44
251.465	86.44
251.698	72.44
251.931	85.44
252.164	77.44
252.397	79.44
252.63	88.44
252.863	70.44
253.096	69.44
253.329	79.44
253.562	85.44
253.795	76.44
254.028	81.44
254.261	78.44
254.494	73.44
254.727	75.44
254.96	75.44
255.193	85.44
255.426	70.44
255.659	66.44
255.892	87.44
256.124	80.44
256.357	82.44
256.59	77.44
256.823	94.44
257.056	82.44
257.289	79.44
257.521	78.44
257.754	79.44
257.987	91.44
258.22	82.44
258.452	79.44
258.685	63.44
258.918	83.44
259.151	73.44
259.383	78.44
259.616	84.44
259.849	83.44
260.081	78.44
260.314	95.44
260.547	78.44
260.779	87.44
261.012	103.44
261.244	73.44
261.477	86.44
261.71	82.44
261.942	82.44
262.175	99.44
262.407	84.44
262.64	75.44
262.872	76.44
263.105	86.44
263.337	93.44
263.57	84.44
263.802	91.44
264.035	85.44
264.267	76.44
264.499	85.44
264.732	82.44
264.964	75.44
265.197	79.44
265.429	79.44
265.661	89.44
265.894	85.44
266.126	81.44
266.358	81.44
266.591	89.44
266.823	83.44
267.055	79.44
267.287	80.44
267.52	78.44
267.752	86.44
267.984	96.44
268.216	71.44
268.448	97.44
268.681	82.44
268.913	87.44
269.145	86.44
269.377	81.44
269.609	90.44
269.841	82.44
270.073	81.44
270.306	89.44
270.538	92.44
270.77	75.44
271.002	87.44
271.234	74.44
271.466	75.44
271.698	74.44
271.93	92.44
272.162	79.44
272.394	71.44
272.626	102.44
272.858	93.44
273.09	87.44
273.322	74.44
273.553	83.44
273.785	77.44
274.017	72.44
274.249	81.44
274.481	76.44
274.713	77.44
274.945	89.44
275.176	88.44
275.408	83.44
275.64	68.44
275.872	87.44
276.104	88.44
276.335	81.44
276.567	77.44
276.799	88.44
277.031	91.44
277.262	79.44
277.494	75.44
277.726	78.44
277.957	87.44
278.189	79.44
278.421	75.44
278.652	88.44
278.884	87.44
279.115	93.44
279.347	97.44
279.579	95.44
279.81	95.44
280.042	87.44
280.273	83.44
280.505	93.44
280.736	80.44
280.968	80.44
281.199	84.44
281.431	96.44
281.662	84.44
281.894	75.44
282.125	81.44
282.356	87.44
282.588	80.44
282.819	78.44
283.051	80.44
283.282	68.44
283.513	93.44
283.745	77.44
283.976	82.44
284.207	91.44
284.439	82.44
284.67	87.44
284.901	84.44
285.132	91.44
285.364	82.44
285.595	77.44
285.826	88.44
286.057	85.44
286.288	84.44
286.52	91.44
286.751	94.44
286.982	77.44
287.213	73.44
287.444	72.44
287.675	77.44
287.906	73.44
288.138	83.44
288.369	100.44
288.6	80.44
288.831	78.44
289.062	96.44
289.293	92.44
289.524	85.44
289.755	79.44
289.986	86.44
290.217	78.44
290.448	79.44
290.679	85.44
290.91	84.44
291.141	75.44
291.371	77.44
291.602	86.44
291.833	93.44
292.064	88.44
292.295	87.44
292.526	83.44
292.757	79.44
292.987	92.44
293.218	80.44
293.449	97.44
293.68	74.44
293.91	91.44
294.141	97.44
294.372	77.44
294.603	83.44
294.833	98.44
295.064	81.44
295.295	86.44
295.525	72.44
295.756	87.44
295.987	83.44
296.217	85.44
296.448	79.44
296.679	90.44
296.909	85.44
297.14	84.44
297.37	84.44
297.601	90.44
297.831	71.44
298.062	82.44
298.292	91.44
298.523	86.44
298.753	80.44
298.984	97.44
299.214	73.44
299.445	86.44
299.675	87.44
299.905	74.44
300.136	84.44
300.366	85.44
300.597	87.44
300.827	85.44
301.057	83.44
301.288	97.44
301.518	85.44
301.748	95.44
301.979	95.44
302.209	78.44
302.439	97.44
302.669	104.44
302.9	89.44
303.13	84.44
303.36	74.44
303.59	77.44
303.82	89.44
304.051	83.44
304.281	83.44
304.511	94.44
304.741	83.44
304.971	79.44
305.201	93.44
305.431	85.44
305.661	82.44
305.891	75.44
306.121	78.44
306.352	102.44
306.582	79.44
306.812	69.44
307.042	76.44
307.272	92.44
307.502	73.44
307.731	91.44
307.961	75.44
308.191	93.44
308.421	100.44
308.651	84.44
308.881	87.44
309.111	90.44
309.341	82.44
309.571	76.44
309.8	93.44
310.03	91.44
310.26	67.44
310.49	79.44
310.72	92.44
310.949	82.44
311.179	103.44
311.409	82.44
311.639	103.44
311.868	98.44
312.098	78.44
312.328	88.44
312.557	79.44
312.787	99.44
313.017	93.44
313.246	98.44
313.476	71.44
313.706	70.44
313.935	83.44
314.165	86.44
314.394	87.44
314.624	80.44
314.853	75.44
315.083	87.44
315.312	77.44
315.542	74.44
315.771	88.44
316.001	87.44
316.23	94.44
316.46	85.44
316.689	86.44
316.919	89.44
317.148	95.44
317.377	94.44
317.607	92.44
317.836	85.44
318.065	74.44
318.295	84.44
318.524	75.44
318.753	78.44
318.983	90.44
319.212	83.44
319.441	90.44
319.67	91.44
319.9	91.44
320.129	78.44
320.358	75.44
320.587	77.44
320.816	79.44
321.046	75.44
321.275	85.44
321.504	94.44
321.733	80.44
321.962	69.44
322.191	70.44
322.42	69.44
322.649	78.44
322.878	72.44
323.108	98.44
323.337	81.44
323.566	86.44
323.795	76.44
324.024	89.44
324.253	78.44
324.482	94.44
324.71	70.44
324.939	93.44
325.168	85.44
325.397	94.44
325.626	82.44
325.855	85.44
326.084	79.44
326.313	90.44
326.542	94.44
326.77	69.44
326.999	82.44
327.228	75.44
327.457	94.44
327.686	72.44
327.914	75.44
328.143	92.44
328.372	76.44
328.6	86.44
328.829	73.44
329.058	70.44
329.287	82.44
329.515	75.44
329.744	84.44
329.972	85.44
330.201	99.44
330.43	77.44
330.658	73.44
330.887	83.44
331.115	82.44
331.344	74.44
331.572	87.44
331.801	83.44
332.03	83.44
332.258	75.44
332.486	83.44
332.715	88.44
332.943	92.44
333.172	84.44
333.4	82.44
333.629	88.44
333.857	79.44
334.085	88.44
334.314	95.44
334.542	90.44
334.771	83.44
334.999	89.44
335.227	86.44
335.455	82.44
335.684	89.44
335.912	101.44
336.14	86.44
336.369	90.44
336.597	75.44
336.825	86.44
337.053	83.44
337.281	78.44
337.51	97.44
337.738	90.44
337.966	89.44
338.194	79.44
338.422	93.44
338.65	87.44
338.878	77.44
339.106	81.44
339.334	83.44
339.562	75.44
339.79	84.44
340.018	81.44
340.246	82.44
340.474	82.44
340.702	81.44
340.93	78.44
341.158	77.44
341.386	83.44
341.614	81.44
341.842	81.44
342.07	80.44
342.298	88.44
342.526	90.44
342.754	62.44
342.981	87.44
343.209	84.44
343.437	86.44
343.665	76.44
343.893	76.44
344.12	92.44
344.348	83.44
344.576	93.44
344.804	97.44
345.031	95.44
345.259	91.44
345.487	90.44
345.714	85.44
345.942	74.44
346.17	76.44
346.397	90.44
346.625	87.44
346.853	83.44
347.08	75.44
347.308	90.44
347.535	86.44
347.763	78.44
347.99	81.44
348.218	87.44
348.445	79.44
348.673	72.44
348.9	84.44
349.128	77.44
349.355	88.44
349.583	83.44
349.81	80.44
350.037	78.44
350.265	85.44
350.492	85.44
350.72	79.44
350.947	88.44
351.174	78.44
351.402	91.44
351.629	79.44
351.856	85.44
352.083	77.44
352.311	70.44
352.538	71.44
352.765	92.44
352.992	85.44
353.22	93.44
353.447	94.44
353.674	84.44
353.901	75.44
354.128	87.44
354.355	92.44
354.583	85.44
354.81	88.44
355.037	97.44
355.264	71.44
355.491	74.44
355.718	78.44
355.945	103.44
356.172	89.44
356.399	90.44
356.626	77.44
356.853	82.44
357.08	89.44
357.307	90.44
357.534	83.44
357.761	93.44
357.988	90.44
358.215	68.44
358.441	79.44
358.668	86.44
358.895	83.44
359.122	79.44
359.349	77.44
359.576	75.44
359.802	87.44
360.029	80.44
360.256	84.44
360.483	80.44
360.709	81.44
360.936	90.44
361.163	85.44
361.39	90.44
361.616	84.44
361.843	83.44
362.07	88.44
362.296	86.44
362.523	82.44
362.749	90.44
362.976	87.44
363.203	97.44
363.429	83.44
363.656	82.44
363.882	85.44
364.109	102.44
364.335	81.44
364.562	94.44
364.788	73.44
365.015	87.44
365.241	87.44
365.468	101.44
365.694	75.44
365.92	92.44
366.147	85.44
366.373	102.44
366.599	93.44
366.826	77.44
367.052	78.44
367.278	85.44
367.505	79.44
367.731	93.44
367.957	84.44
368.184	74.44
368.41	94.44
368.636	86.44
368.862	87.44
369.089	91.44
369.315	84.44
369.541	93.44
369.767	82.44
369.993	86.44
370.219	79.44
370.445	85.44
370.672	84.44
370.898	79.44
371.124	108.44
371.35	85.44
371.576	86.44
371.802	86.44
372.028	90.44
372.254	83.44
372.48	86.44
372.706	89.44
372.932	81.44
373.158	98.44
373.384	88.44
373.61	80.44
373.835	91.44
374.061	95.44
374.287	87.44
374.513	75.44
374.739	76.44
374.965	78.44
375.191	72.44
375.416	93.44
375.642	92.44
375.868	86.44
376.094	89.44
376.319	82.44
376.545	93.44
376.771	79.44
376.997	85.44
377.222	77.44
377.448	82.44
377.674	80.44
377.899	82.44
378.125	99.44
378.35	87.44
378.576	86.44
378.802	93.44
379.027	105.44
379.253	94.44
379.478	81.44
379.704	90.44
379.929	82.44
380.155	88.44
380.38	80.44
380.606	77.44
380.831	90.44
381.057	85.44
381.282	82.44
381.507	86.44
381.733	89.44
381.958	87.44
382.184	90.44
382.409	82.44
382.634	69.44
382.86	65.44
383.085	83.44
383.31	89.44
383.535	85.44
383.761	101.44
383.986	74.44
384.211	79.44
384.436	88.44
384.662	84.44
384.887	74.44
385.112	86.44
385.337	89.44
385.562	82.44
385.787	86.44
386.013	79.44
386.238	97.44
386.463	86.44
386.688	76.44
386.913	76.44
387.138	83.44
387.363	70.44
387.588	92.44
387.813	75.44
388.038	83.44
388.263	76.44
388.488	81.44
388.713	88.44
388.938	85.44
389.163	95.44
389.387	84.44
389.612	66.44
389.837	89.44
390.062	82.44
390.287	72.44
390.512	88.44
390.736	75.44
390.961	79.44
391.186	69.44
391.411	85.44
391.636	86.44
391.86	83.44
392.085	85.44
392.31	92.44
392.534	79.44
392.759	79.44
392.984	75.44
393.208	82.44
393.433	89.44
393.658	101.44
393.882	85.44
394.107	89.44
394.331	91.44
394.556	84.44
394.78	79.44
395.005	83.44
395.229	79.44
395.454	77.44
395.678	89.44
395.903	88.44
396.127	94.44
396.352	93.44
396.576	79.44
396.801	77.44
397.025	74.44
397.249	77.44
397.474	88.44
397.698	81.44
397.922	89.44
398.147	84.44
398.371	96.44
398.595	92.44
398.82	83.44
399.044	86.44
399.268	85.44
399.492	87.44
399.717	88.44
399.941	83.44
400.165	86.44
400.389	82.44
400.613	84.44
400.837	82.44
401.062	75.44
401.286	87.44
401.51	85.44
401.734	93.44
401.958	72.44
402.182	83.44
402.406	69.44
402.63	73.44
402.854	84.44
403.078	78.44
403.302	91.44
403.526	97.44
403.75	73.44
403.974	84.44
404.198	79.44
404.422	87.44
404.645	72.44
404.869	79.44
405.093	88.44
405.317	90.44
405.541	89.44
405.765	82.44
405.988	78.44
406.212	88.44
406.436	72.44
406.66	108.44
406.883	83.44
407.107	85.44
407.331	93.44
407.555	84.44
407.778	92.44
408.002	88.44
408.226	82.44
408.449	77.44
408.673	100.44
408.896	85.44
409.12	88.44
409.344	82.44
409.567	86.44
409.791	83.44
410.014	83.44
410.238	85.44
410.461	75.44
410.685	73.44
410.908	82.44
411.132	91.44
411.355	95.44
411.578	102.44
411.802	101.44
412.025	77.44
412.249	83.44
412.472	91.44
412.695	70.44
412.919	65.44
413.142	84.44
413.365	98.44
413.589	82.44
413.812	78.44
414.035	89.44
414.258	79.44
414.482	85.44
414.705	80.44
414.928	82.44
415.151	89.44
415.374	99.44
415.597	86.44
415.821	80.44
416.044	80.44
416.267	94.44
416.49	88.44
416.713	84.44
416.936	83.44
417.159	83.44
417.382	90.44
417.605	74.44
417.828	84.44
418.051	85.44
418.274	82.44
418.497	94.44
418.72	95.44
418.943	102.44
419.166	84.44
419.389	83.44
419.611	88.44
419.834	91.44
420.057	82.44
420.28	89.44
420.503	83.44
420.726	78.44
420.948	91.44
421.171	88.44
421.394	95.44
421.617	95.44
421.839	90.44
422.062	91.44
422.285	75.44
422.507	84.44
422.73	87.44
422.953	86.44
423.175	87.44
423.398	80.44
423.621	79.44
423.843	87.44
424.066	92.44
424.288	84.44
424.511	87.44
424.733	81.44
424.956	90.44
425.178	87.44
425.401	84.44
425.623	95.44
425.846	97.44
426.068	83.44
426.291	91.44
426.513	88.44
426.735	92.44
426.958	108.44
427.18	87.44
427.402	87.44
427.625	93.44
427.847	91.44
428.069	77.44
428.292	88.44
428.514	84.44
428.736	85.44
428.958	97.44
429.181	79.44
429.403	92.44
429.625	106.44
429.847	98.44
430.069	90.44
430.292	94.44
430.514	99.44
430.736	86.44
430.958	97.44
431.18	78.44
431.402	79.44
431.624	88.44
431.846	88.44
432.068	78.44
432.29	76.44
432.512	90.44
432.734	94.44
432.956	95.44
433.178	75.44
433.4	90.44
433.622	100.44
433.844	90.44
434.066	87.44
434.287	88.44
434.509	85.44
434.731	94.44
434.953	77.44
435.175	93.44
435.397	100.44
435.618	86.44
435.84	82.44
436.062	89.44
436.284	104.44
436.505	86.44
436.727	79.44
436.949	89.44
437.17	94.44
437.392	79.44
437.614	89.44
437.835	75.44
438.057	89.44
438.278	97.44
438.5	80.44
438.721	77.44
438.943	85.44
439.165	84.44
439.386	84.44
439.608	90.44
439.829	100.44
440.05	75.44
440.272	81.44
440.493	89.44
440.715	84.44
440.936	92.44
441.158	80.44
441.379	99.44
441.6	95.44
441.822	85.44
442.043	98.44
442.264	93.44
442.486	88.44
442.707	85.44
442.928	92.44
443.149	106.44
443.371	90.44
443.592	91.44
443.813	92.44
444.034	104.44
444.255	83.44
444.476	93.44
444.698	75.44
444.919	93.44
445.14	220.44
445.361	157.44
445.582	101.44
445.803	101.44
446.024	82.44
446.245	92.44
446.466	90.44
446.687	86.44
446.908	101.44
447.129	94.44
447.35	87.44
447.571	97.44
447.792	92.44
448.013	91.44
448.234	91.44
448.455	91.44
448.675	98.44
448.896	80.44
449.117	96.44
449.338	102.44
449.559	104.44
449.779	99.44
450	84.44
450.221	95.44
450.442	91.44
450.662	99.44
450.883	93.44
451.104	98.44
451.324	90.44
451.545	93.44
451.766	93.44
451.986	102.44
452.207	105.44
452.428	94.44
452.648	97.44
452.869	96.44
453.089	97.44
453.31	101.44
453.53	79.44
453.751	72.44
453.971	78.44
454.192	74.44
454.412	81.44
454.633	97.44
454.853	80.44
455.073	92.44
455.294	92.44
455.514	88.44
455.734	87.44
455.955	80.44
456.175	83.44
456.395	76.44
456.616	87.44
456.836	61.44
457.056	80.44
457.276	77.44
457.497	86.44
457.717	90.44
457.937	89.44
458.157	93.44
458.377	90.44
458.598	98.44
458.818	96.44
459.038	92.44
459.258	87.44
459.478	76.44
459.698	86.44
459.918	85.44
460.138	76.44
460.358	95.44
460.578	84.44
460.798	93.44
461.018	83.44
461.238	85.44
461.458	91.44
461.678	102.44
461.898	97.44
462.118	69.44
462.338	84.44
462.558	83.44
462.777	86.44
462.997	85.44
463.217	90.44
463.437	90.44
463.657	91.44
463.876	82.44
464.096	76.44
464.316	94.44
464.536	88.44
464.755	93.44
464.975	82.44
465.195	80.44
465.414	90.44
465.634	84.44
465.854	74.44
466.073	87.44
466.293	81.44
466.512	81.44
466.732	90.44
466.951	100.44
467.171	93.44
467.391	104.44
467.61	91.44
467.829	90.44
468.049	95.44
468.268	82.44
468.488	89.44
468.707	84.44
468.927	86.44
469.146	84.44
469.365	90.44
469.585	86.44
469.804	94.44
470.023	100.44
470.243	81.44
470.462	107.44
470.681	93.44
470.901	95.44
471.12	92.44
471.339	90.44
471.558	102.44
471.777	86.44
471.997	89.44
472.216	70.44
472.435	79.44
472.654	114.44
472.873	89.44
473.092	90.44
473.311	86.44
473.53	79.44
473.749	94.44
473.968	92.44
474.187	94.44
474.406	94.44
474.625	87.44
474.844	95.44
475.063	80.44
475.282	88.44
475.501	97.44
475.72	86.44
475.939	89.44
476.158	97.44
476.377	84.44
476.596	85.44
476.814	89.44
477.033	96.44
477.252	79.44
477.471	81.44
477.69	78.44
477.908	91.44
478.127	100.44
478.346	82.44
478.564	111.44
478.783	107.44
479.002	84.44
479.22	78.44
479.439	95.44
479.658	93.44
479.876	78.44
480.095	91.44
480.313	80.44
480.532	75.44
480.751	82.44
480.969	69.44
481.188	64.44
481.406	90.44
481.624	85.44
481.843	83.44
482.061	83.44
482.28	100.44
482.498	80.44
482.717	87.44
482.935	69.44
483.153	88.44
483.372	94.44
483.59	99.44
483.808	86.44
484.027	103.44
484.245	89.44
484.463	102.44
484.681	100.44
484.9	91.44
485.118	100.44
485.336	88.44
485.554	86.44
485.772	74.44
485.99	79.44
486.209	86.44
486.427	83.44
486.645	77.44
486.863	90.44
487.081	83.44
487.299	86.44
487.517	101.44
487.735	93.44
487.953	103.44
488.171	92.44
488.389	106.44
488.607	70.44
488.825	104.44
489.043	89.44
489.261	101.44
489.479	90.44
489.696	86.44
489.914	93.44
490.132	103.44
490.35	104.44
490.568	104.44
490.786	92.44
491.003	88.44
491.221	96.44
491.439	96.44
491.657	107.44
491.874	98.44
492.092	101.44
492.31	117.44
492.527	95.44
492.745	94.44
492.963	102.44
493.18	98.44
493.398	101.44
493.615	81.44
493.833	87.44
494.05	100.44
494.268	91.44
494.485	108.44
494.703	95.44
494.92	105.44
495.138	94.44
495.355	99.44
495.573	106.44
495.79	109.44
496.008	99.44
496.225	103.44
496.442	95.44
496.66	102.44
496.877	94.44
497.094	94.44
497.312	105.44
497.529	92.44
497.746	96.44
497.963	95.44
498.181	97.44
498.398	96.44
498.615	102.44
498.832	83.44
499.049	84.44
499.267	78.44
499.484	74.44
499.701	96.44
499.918	87.44
500.135	87.44
500.352	92.44
500.569	75.44
500.786	84.44
501.003	109.44
501.22	92.44
501.437	70.44
501.654	96.44
501.871	91.44
502.088	89.44
502.305	83.44
502.522	95.44
502.739	87.44
502.956	89.44
503.172	98.44
503.389	104.44
503.606	90.44
503.823	95.44
504.04	81.44
504.256	90.44
504.473	73.44
504.69	84.44
504.907	95.44
505.123	81.44
505.34	91.44
505.557	93.44
505.773	97.44
505.99	89.44
506.207	91.44
506.423	107.44
506.64	77.44
506.856	91.44
507.073	89.44
507.289	85.44
507.506	88.44
507.722	100.44
507.939	87.44
508.155	102.44
508.372	97.44
508.588	84.44
508.805	80.44
509.021	96.44
509.238	87.44
509.454	77.44
509.67	87.44
509.887	85.44
510.103	80.44
510.319	101.44
510.536	83.44
510.752	86.44
510.968	91.44
511.184	78.44
511.401	89.44
511.617	87.44
511.833	84.44
512.049	63.44
512.265	74.44
512.481	80.44
512.698	105.44
512.914	90.44
513.13	87.44
513.346	87.44
513.562	91.44
513.778	82.44
513.994	78.44
514.21	78.44
514.426	89.44
514.642	98.44
514.858	89.44
515.074	74.44
515.29	90.44
515.506	75.44
515.721	83.44
515.937	65.44
516.153	81.44
516.369	78.44
516.585	86.44
516.801	71.44
517.016	86.44
517.232	77.44
517.448	80.44
517.664	81.44
517.879	72.44
518.095	91.44
518.311	95.44
