Data from Zn(NO3)2Standard.Agarose3%.GreenCap.LampEnergy10E.O_HRD10591_15-08-08-947.txt Node
Date: Mon Jul 22 15:08:08 EDT 2019
User: cochatt
Spectrometer: HR+D1059
Trigger mode: 1
Integration Time (sec): 1.000000E-1
Scans to average: 1
Electric dark correction enabled: true
Nonlinearity correction enabled: false
Boxcar width: 0
XAxis mode: Wavelengths
Number of Pixels in Spectrum: 2048
>>>>>Begin Spectral Data<<<<<
223.165	-20.06
223.4	-20.06
223.635	-20.06
223.869	-22.06
224.104	-10.06
224.338	-20.06
224.573	-32.06
224.808	-17.06
225.042	-6.06
225.277	-3.06
225.511	6.94
225.746	1.94
225.98	7.94
226.215	23.94
226.449	10.94
226.683	18.94
226.918	36.94
227.152	22.94
227.387	44.94
227.621	21.94
227.856	39.94
228.09	38.94
228.324	63.94
228.559	51.94
228.793	61.94
229.027	70.94
229.262	58.94
229.496	56.94
229.73	76.94
229.964	74.94
230.199	70.94
230.433	85.94
230.667	77.94
230.901	75.94
231.136	91.94
231.37	84.94
231.604	85.94
231.838	88.94
232.072	79.94
232.306	83.94
232.541	84.94
232.775	90.94
233.009	85.94
233.243	77.94
233.477	76.94
233.711	79.94
233.945	76.94
234.179	73.94
234.413	88.94
234.647	85.94
234.881	84.94
235.115	99.94
235.349	80.94
235.583	87.94
235.817	76.94
236.051	75.94
236.285	62.94
236.519	73.94
236.753	84.94
236.987	69.94
237.221	84.94
237.455	76.94
237.689	83.94
237.922	73.94
238.156	77.94
238.39	83.94
238.624	78.94
238.858	92.94
239.091	59.94
239.325	72.94
239.559	90.94
239.793	72.94
240.027	73.94
240.26	78.94
240.494	72.94
240.728	78.94
240.961	77.94
241.195	80.94
241.429	87.94
241.662	61.94
241.896	72.94
242.13	83.94
242.363	79.94
242.597	69.94
242.83	78.94
243.064	77.94
243.298	73.94
243.531	69.94
243.765	82.94
243.998	79.94
244.232	82.94
244.465	83.94
244.699	61.94
244.932	76.94
245.166	82.94
245.399	85.94
245.633	71.94
245.866	88.94
246.099	76.94
246.333	69.94
246.566	83.94
246.8	76.94
247.033	75.94
247.266	79.94
247.5	72.94
247.733	71.94
247.966	94.94
248.2	82.94
248.433	83.94
248.666	86.94
248.899	72.94
249.133	69.94
249.366	85.94
249.599	71.94
249.832	83.94
250.066	76.94
250.299	81.94
250.532	67.94
250.765	81.94
250.998	83.94
251.231	77.94
251.465	77.94
251.698	72.94
251.931	82.94
252.164	79.94
252.397	78.94
252.63	75.94
252.863	70.94
253.096	84.94
253.329	89.94
253.562	86.94
253.795	87.94
254.028	71.94
254.261	96.94
254.494	85.94
254.727	67.94
254.96	79.94
255.193	74.94
255.426	74.94
255.659	88.94
255.892	77.94
256.124	72.94
256.357	83.94
256.59	83.94
256.823	74.94
257.056	83.94
257.289	71.94
257.521	77.94
257.754	93.94
257.987	94.94
258.22	92.94
258.452	90.94
258.685	73.94
258.918	74.94
259.151	79.94
259.383	74.94
259.616	94.94
259.849	84.94
260.081	77.94
260.314	70.94
260.547	76.94
260.779	86.94
261.012	82.94
261.244	70.94
261.477	85.94
261.71	73.94
261.942	91.94
262.175	79.94
262.407	81.94
262.64	79.94
262.872	70.94
263.105	67.94
263.337	84.94
263.57	74.94
263.802	84.94
264.035	82.94
264.267	78.94
264.499	79.94
264.732	84.94
264.964	87.94
265.197	89.94
265.429	86.94
265.661	82.94
265.894	96.94
266.126	90.94
266.358	85.94
266.591	78.94
266.823	84.94
267.055	71.94
267.287	79.94
267.52	92.94
267.752	85.94
267.984	88.94
268.216	91.94
268.448	93.94
268.681	94.94
268.913	85.94
269.145	98.94
269.377	85.94
269.609	84.94
269.841	76.94
270.073	89.94
270.306	93.94
270.538	83.94
270.77	86.94
271.002	69.94
271.234	87.94
271.466	86.94
271.698	76.94
271.93	86.94
272.162	91.94
272.394	103.94
272.626	81.94
272.858	69.94
273.09	91.94
273.322	79.94
273.553	84.94
273.785	81.94
274.017	73.94
274.249	82.94
274.481	91.94
274.713	88.94
274.945	98.94
275.176	93.94
275.408	73.94
275.64	60.94
275.872	93.94
276.104	92.94
276.335	86.94
276.567	89.94
276.799	81.94
277.031	83.94
277.262	72.94
277.494	83.94
277.726	86.94
277.957	86.94
278.189	70.94
278.421	85.94
278.652	75.94
278.884	94.94
279.115	88.94
279.347	85.94
279.579	82.94
279.81	74.94
280.042	74.94
280.273	84.94
280.505	81.94
280.736	92.94
280.968	79.94
281.199	91.94
281.431	94.94
281.662	84.94
281.894	73.94
282.125	100.94
282.356	80.94
282.588	87.94
282.819	91.94
283.051	75.94
283.282	89.94
283.513	103.94
283.745	81.94
283.976	70.94
284.207	82.94
284.439	94.94
284.67	82.94
284.901	106.94
285.132	86.94
285.364	69.94
285.595	79.94
285.826	74.94
286.057	70.94
286.288	81.94
286.52	87.94
286.751	84.94
286.982	83.94
287.213	87.94
287.444	94.94
287.675	82.94
287.906	75.94
288.138	81.94
288.369	77.94
288.6	93.94
288.831	80.94
289.062	82.94
289.293	85.94
289.524	72.94
289.755	93.94
289.986	82.94
290.217	87.94
290.448	83.94
290.679	89.94
290.91	91.94
291.141	80.94
291.371	88.94
291.602	76.94
291.833	70.94
292.064	79.94
292.295	79.94
292.526	73.94
292.757	86.94
292.987	97.94
293.218	78.94
293.449	95.94
293.68	74.94
293.91	98.94
294.141	92.94
294.372	79.94
294.603	100.94
294.833	79.94
295.064	85.94
295.295	79.94
295.525	90.94
295.756	82.94
295.987	81.94
296.217	80.94
296.448	77.94
296.679	77.94
296.909	77.94
297.14	85.94
297.37	96.94
297.601	92.94
297.831	75.94
298.062	73.94
298.292	88.94
298.523	75.94
298.753	79.94
298.984	81.94
299.214	92.94
299.445	86.94
299.675	81.94
299.905	87.94
300.136	85.94
300.366	107.94
300.597	89.94
300.827	86.94
301.057	101.94
301.288	97.94
301.518	62.94
301.748	81.94
301.979	83.94
302.209	90.94
302.439	86.94
302.669	65.94
302.9	83.94
303.13	91.94
303.36	89.94
303.59	78.94
303.82	77.94
304.051	74.94
304.281	82.94
304.511	89.94
304.741	86.94
304.971	84.94
305.201	101.94
305.431	90.94
305.661	89.94
305.891	101.94
306.121	74.94
306.352	94.94
306.582	93.94
306.812	71.94
307.042	83.94
307.272	89.94
307.502	90.94
307.731	78.94
307.961	87.94
308.191	87.94
308.421	95.94
308.651	79.94
308.881	94.94
309.111	92.94
309.341	94.94
309.571	86.94
309.8	99.94
310.03	90.94
310.26	85.94
310.49	90.94
310.72	86.94
310.949	95.94
311.179	82.94
311.409	99.94
311.639	90.94
311.868	78.94
312.098	73.94
312.328	85.94
312.557	94.94
312.787	84.94
313.017	95.94
313.246	79.94
313.476	95.94
313.706	92.94
313.935	98.94
314.165	97.94
314.394	82.94
314.624	72.94
314.853	83.94
315.083	94.94
315.312	85.94
315.542	91.94
315.771	85.94
316.001	93.94
316.23	75.94
316.46	85.94
316.689	88.94
316.919	87.94
317.148	93.94
317.377	77.94
317.607	89.94
317.836	90.94
318.065	85.94
318.295	89.94
318.524	91.94
318.753	76.94
318.983	85.94
319.212	94.94
319.441	81.94
319.67	88.94
319.9	89.94
320.129	87.94
320.358	95.94
320.587	98.94
320.816	74.94
321.046	81.94
321.275	73.94
321.504	91.94
321.733	77.94
321.962	83.94
322.191	91.94
322.42	85.94
322.649	97.94
322.878	80.94
323.108	90.94
323.337	94.94
323.566	82.94
323.795	88.94
324.024	90.94
324.253	73.94
324.482	84.94
324.71	75.94
324.939	87.94
325.168	84.94
325.397	98.94
325.626	86.94
325.855	90.94
326.084	85.94
326.313	80.94
326.542	87.94
326.77	91.94
326.999	79.94
327.228	81.94
327.457	89.94
327.686	103.94
327.914	82.94
328.143	98.94
328.372	87.94
328.6	74.94
328.829	70.94
329.058	85.94
329.287	80.94
329.515	83.94
329.744	81.94
329.972	83.94
330.201	83.94
330.43	86.94
330.658	97.94
330.887	80.94
331.115	83.94
331.344	92.94
331.572	76.94
331.801	82.94
332.03	81.94
332.258	69.94
332.486	95.94
332.715	82.94
332.943	88.94
333.172	73.94
333.4	89.94
333.629	83.94
333.857	91.94
334.085	81.94
334.314	92.94
334.542	77.94
334.771	87.94
334.999	90.94
335.227	87.94
335.455	81.94
335.684	86.94
335.912	84.94
336.14	90.94
336.369	86.94
336.597	96.94
336.825	77.94
337.053	91.94
337.281	68.94
337.51	79.94
337.738	83.94
337.966	83.94
338.194	90.94
338.422	82.94
338.65	86.94
338.878	98.94
339.106	90.94
339.334	86.94
339.562	67.94
339.79	79.94
340.018	94.94
340.246	73.94
340.474	75.94
340.702	73.94
340.93	70.94
341.158	77.94
341.386	92.94
341.614	92.94
341.842	95.94
342.07	88.94
342.298	83.94
342.526	83.94
342.754	80.94
342.981	80.94
343.209	75.94
343.437	83.94
343.665	78.94
343.893	82.94
344.12	94.94
344.348	81.94
344.576	89.94
344.804	82.94
345.031	73.94
345.259	71.94
345.487	89.94
345.714	80.94
345.942	80.94
346.17	95.94
346.397	82.94
346.625	87.94
346.853	82.94
347.08	84.94
347.308	97.94
347.535	81.94
347.763	68.94
347.99	89.94
348.218	82.94
348.445	101.94
348.673	81.94
348.9	79.94
349.128	91.94
349.355	89.94
349.583	94.94
349.81	98.94
350.037	82.94
350.265	86.94
350.492	76.94
350.72	71.94
350.947	76.94
351.174	80.94
351.402	76.94
351.629	89.94
351.856	77.94
352.083	92.94
352.311	83.94
352.538	70.94
352.765	80.94
352.992	88.94
353.22	68.94
353.447	77.94
353.674	100.94
353.901	89.94
354.128	98.94
354.355	89.94
354.583	87.94
354.81	108.94
355.037	93.94
355.264	85.94
355.491	82.94
355.718	91.94
355.945	84.94
356.172	78.94
356.399	86.94
356.626	95.94
356.853	85.94
357.08	87.94
357.307	90.94
357.534	71.94
357.761	80.94
357.988	87.94
358.215	84.94
358.441	89.94
358.668	78.94
358.895	71.94
359.122	84.94
359.349	99.94
359.576	85.94
359.802	88.94
360.029	91.94
360.256	87.94
360.483	94.94
360.709	79.94
360.936	78.94
361.163	97.94
361.39	70.94
361.616	84.94
361.843	86.94
362.07	81.94
362.296	86.94
362.523	81.94
362.749	93.94
362.976	85.94
363.203	94.94
363.429	83.94
363.656	93.94
363.882	77.94
364.109	83.94
364.335	84.94
364.562	81.94
364.788	75.94
365.015	84.94
365.241	75.94
365.468	77.94
365.694	96.94
365.92	91.94
366.147	94.94
366.373	76.94
366.599	93.94
366.826	76.94
367.052	77.94
367.278	86.94
367.505	84.94
367.731	75.94
367.957	68.94
368.184	88.94
368.41	81.94
368.636	89.94
368.862	85.94
369.089	87.94
369.315	81.94
369.541	89.94
369.767	89.94
369.993	88.94
370.219	78.94
370.445	70.94
370.672	76.94
370.898	87.94
371.124	93.94
371.35	83.94
371.576	82.94
371.802	86.94
372.028	78.94
372.254	80.94
372.48	78.94
372.706	78.94
372.932	85.94
373.158	81.94
373.384	89.94
373.61	90.94
373.835	94.94
374.061	80.94
374.287	85.94
374.513	90.94
374.739	94.94
374.965	88.94
375.191	87.94
375.416	101.94
375.642	96.94
375.868	102.94
376.094	101.94
376.319	88.94
376.545	75.94
376.771	76.94
376.997	80.94
377.222	98.94
377.448	93.94
377.674	94.94
377.899	92.94
378.125	95.94
378.35	86.94
378.576	103.94
378.802	97.94
379.027	108.94
379.253	86.94
379.478	94.94
379.704	79.94
379.929	98.94
380.155	74.94
380.38	100.94
380.606	92.94
380.831	89.94
381.057	93.94
381.282	69.94
381.507	89.94
381.733	75.94
381.958	96.94
382.184	96.94
382.409	100.94
382.634	81.94
382.86	95.94
383.085	85.94
383.31	92.94
383.535	98.94
383.761	83.94
383.986	86.94
384.211	86.94
384.436	84.94
384.662	94.94
384.887	87.94
385.112	85.94
385.337	87.94
385.562	88.94
385.787	80.94
386.013	89.94
386.238	94.94
386.463	90.94
386.688	84.94
386.913	92.94
387.138	98.94
387.363	89.94
387.588	97.94
387.813	84.94
388.038	83.94
388.263	87.94
388.488	96.94
388.713	94.94
388.938	85.94
389.163	83.94
389.387	78.94
389.612	95.94
389.837	97.94
390.062	101.94
390.287	80.94
390.512	81.94
390.736	85.94
390.961	100.94
391.186	81.94
391.411	81.94
391.636	90.94
391.86	100.94
392.085	98.94
392.31	86.94
392.534	100.94
392.759	83.94
392.984	98.94
393.208	91.94
393.433	99.94
393.658	92.94
393.882	101.94
394.107	92.94
394.331	101.94
394.556	97.94
394.78	94.94
395.005	90.94
395.229	83.94
395.454	83.94
395.678	87.94
395.903	102.94
396.127	96.94
396.352	78.94
396.576	90.94
396.801	91.94
397.025	90.94
397.249	92.94
397.474	99.94
397.698	98.94
397.922	94.94
398.147	95.94
398.371	105.94
398.595	92.94
398.82	98.94
399.044	93.94
399.268	92.94
399.492	95.94
399.717	106.94
399.941	97.94
400.165	101.94
400.389	99.94
400.613	118.94
400.837	98.94
401.062	99.94
401.286	98.94
401.51	91.94
401.734	86.94
401.958	101.94
402.182	106.94
402.406	90.94
402.63	89.94
402.854	93.94
403.078	102.94
403.302	101.94
403.526	102.94
403.75	98.94
403.974	96.94
404.198	116.94
404.422	91.94
404.645	96.94
404.869	92.94
405.093	102.94
405.317	100.94
405.541	95.94
405.765	91.94
405.988	95.94
406.212	107.94
406.436	104.94
406.66	105.94
406.883	108.94
407.107	96.94
407.331	103.94
407.555	76.94
407.778	101.94
408.002	90.94
408.226	94.94
408.449	94.94
408.673	99.94
408.896	99.94
409.12	94.94
409.344	107.94
409.567	100.94
409.791	102.94
410.014	98.94
410.238	105.94
410.461	93.94
410.685	103.94
410.908	98.94
411.132	120.94
411.355	87.94
411.578	95.94
411.802	98.94
412.025	96.94
412.249	102.94
412.472	94.94
412.695	100.94
412.919	108.94
413.142	114.94
413.365	108.94
413.589	95.94
413.812	102.94
414.035	104.94
414.258	102.94
414.482	95.94
414.705	91.94
414.928	97.94
415.151	87.94
415.374	113.94
415.597	108.94
415.821	114.94
416.044	95.94
416.267	108.94
416.49	94.94
416.713	97.94
416.936	99.94
417.159	97.94
417.382	92.94
417.605	96.94
417.828	117.94
418.051	97.94
418.274	96.94
418.497	109.94
418.72	102.94
418.943	114.94
419.166	99.94
419.389	111.94
419.611	106.94
419.834	95.94
420.057	115.94
420.28	115.94
420.503	116.94
420.726	104.94
420.948	100.94
421.171	93.94
421.394	114.94
421.617	113.94
421.839	106.94
422.062	98.94
422.285	89.94
422.507	91.94
422.73	106.94
422.953	101.94
423.175	106.94
423.398	109.94
423.621	87.94
423.843	95.94
424.066	100.94
424.288	98.94
424.511	103.94
424.733	117.94
424.956	111.94
425.178	111.94
425.401	116.94
425.623	113.94
425.846	91.94
426.068	97.94
426.291	99.94
426.513	106.94
426.735	109.94
426.958	96.94
427.18	98.94
427.402	114.94
427.625	107.94
427.847	121.94
428.069	108.94
428.292	108.94
428.514	120.94
428.736	88.94
428.958	99.94
429.181	112.94
429.403	92.94
429.625	91.94
429.847	105.94
430.069	94.94
430.292	98.94
430.514	100.94
430.736	121.94
430.958	107.94
431.18	89.94
431.402	89.94
431.624	98.94
431.846	94.94
432.068	93.94
432.29	93.94
432.512	98.94
432.734	100.94
432.956	103.94
433.178	96.94
433.4	117.94
433.622	111.94
433.844	112.94
434.066	109.94
434.287	77.94
434.509	85.94
434.731	92.94
434.953	94.94
435.175	101.94
435.397	120.94
435.618	110.94
435.84	106.94
436.062	95.94
436.284	114.94
436.505	101.94
436.727	111.94
436.949	120.94
437.17	103.94
437.392	102.94
437.614	111.94
437.835	99.94
438.057	100.94
438.278	100.94
438.5	86.94
438.721	108.94
438.943	116.94
439.165	106.94
439.386	105.94
439.608	104.94
439.829	113.94
440.05	121.94
440.272	111.94
440.493	123.94
440.715	119.94
440.936	123.94
441.158	101.94
441.379	113.94
441.6	123.94
441.822	111.94
442.043	127.94
442.264	110.94
442.486	127.94
442.707	93.94
442.928	101.94
443.149	110.94
443.371	116.94
443.592	99.94
443.813	104.94
444.034	124.94
444.255	110.94
444.476	119.94
444.698	101.94
444.919	105.94
445.14	187.94
445.361	153.94
445.582	112.94
445.803	109.94
446.024	113.94
446.245	125.94
446.466	119.94
446.687	115.94
446.908	117.94
447.129	122.94
447.35	120.94
447.571	129.94
447.792	114.94
448.013	100.94
448.234	112.94
448.455	122.94
448.675	116.94
448.896	108.94
449.117	97.94
449.338	98.94
449.559	102.94
449.779	111.94
450	110.94
450.221	109.94
450.442	108.94
450.662	106.94
450.883	103.94
451.104	113.94
451.324	117.94
451.545	101.94
451.766	103.94
451.986	96.94
452.207	118.94
452.428	102.94
452.648	114.94
452.869	110.94
453.089	97.94
453.31	95.94
453.53	104.94
453.751	87.94
453.971	82.94
454.192	103.94
454.412	99.94
454.633	87.94
454.853	110.94
455.073	106.94
455.294	100.94
455.514	113.94
455.734	102.94
455.955	109.94
456.175	102.94
456.395	104.94
456.616	107.94
456.836	93.94
457.056	113.94
457.276	110.94
457.497	102.94
457.717	110.94
457.937	99.94
458.157	101.94
458.377	83.94
458.598	90.94
458.818	83.94
459.038	75.94
459.258	91.94
459.478	98.94
459.698	91.94
459.918	97.94
460.138	104.94
460.358	95.94
460.578	102.94
460.798	106.94
461.018	87.94
461.238	108.94
461.458	109.94
461.678	94.94
461.898	110.94
462.118	99.94
462.338	93.94
462.558	85.94
462.777	74.94
462.997	79.94
463.217	101.94
463.437	92.94
463.657	93.94
463.876	102.94
464.096	87.94
464.316	93.94
464.536	109.94
464.755	99.94
464.975	92.94
465.195	88.94
465.414	105.94
465.634	99.94
465.854	115.94
466.073	102.94
466.293	99.94
466.512	102.94
466.732	109.94
466.951	96.94
467.171	110.94
467.391	108.94
467.61	105.94
467.829	102.94
468.049	106.94
468.268	106.94
468.488	110.94
468.707	101.94
468.927	100.94
469.146	126.94
469.365	129.94
469.585	109.94
469.804	117.94
470.023	105.94
470.243	107.94
470.462	100.94
470.681	113.94
470.901	119.94
471.12	124.94
471.339	115.94
471.558	121.94
471.777	90.94
471.997	111.94
472.216	125.94
472.435	100.94
472.654	93.94
472.873	80.94
473.092	114.94
473.311	99.94
473.53	112.94
473.749	111.94
473.968	107.94
474.187	98.94
474.406	92.94
474.625	90.94
474.844	113.94
475.063	110.94
475.282	103.94
475.501	106.94
475.72	103.94
475.939	99.94
476.158	106.94
476.377	102.94
476.596	86.94
476.814	94.94
477.033	95.94
477.252	95.94
477.471	111.94
477.69	91.94
477.908	93.94
478.127	103.94
478.346	118.94
478.564	97.94
478.783	97.94
479.002	102.94
479.22	118.94
479.439	111.94
479.658	101.94
479.876	101.94
480.095	85.94
480.313	83.94
480.532	101.94
480.751	100.94
480.969	83.94
481.188	93.94
481.406	84.94
481.624	89.94
481.843	87.94
482.061	85.94
482.28	98.94
482.498	107.94
482.717	110.94
482.935	107.94
483.153	124.94
483.372	119.94
483.59	129.94
483.808	109.94
484.027	125.94
484.245	99.94
484.463	121.94
484.681	119.94
484.9	122.94
485.118	104.94
485.336	104.94
485.554	91.94
485.772	93.94
485.99	99.94
486.209	110.94
486.427	103.94
486.645	95.94
486.863	125.94
487.081	121.94
487.299	116.94
487.517	119.94
487.735	114.94
487.953	121.94
488.171	130.94
488.389	142.94
488.607	117.94
488.825	111.94
489.043	104.94
489.261	97.94
489.479	109.94
489.696	121.94
489.914	106.94
490.132	105.94
490.35	126.94
490.568	113.94
490.786	131.94
491.003	121.94
491.221	121.94
491.439	130.94
491.657	148.94
491.874	150.94
492.092	147.94
492.31	151.94
492.527	164.94
492.745	142.94
492.963	164.94
493.18	151.94
493.398	154.94
493.615	134.94
493.833	127.94
494.05	117.94
494.268	130.94
494.485	137.94
494.703	135.94
494.92	126.94
495.138	123.94
495.355	137.94
495.573	119.94
495.79	129.94
496.008	128.94
496.225	123.94
496.442	125.94
496.66	129.94
496.877	140.94
497.094	127.94
497.312	123.94
497.529	109.94
497.746	124.94
497.963	109.94
498.181	116.94
498.398	116.94
498.615	101.94
498.832	107.94
499.049	103.94
499.267	103.94
499.484	98.94
499.701	93.94
499.918	102.94
500.135	108.94
500.352	98.94
500.569	104.94
500.786	111.94
501.003	108.94
501.22	108.94
501.437	116.94
501.654	113.94
501.871	121.94
502.088	94.94
502.305	109.94
502.522	119.94
502.739	125.94
502.956	105.94
503.172	121.94
503.389	94.94
503.606	93.94
503.823	103.94
504.04	120.94
504.256	88.94
504.473	108.94
504.69	98.94
504.907	123.94
505.123	103.94
505.34	112.94
505.557	97.94
505.773	110.94
505.99	115.94
506.207	106.94
506.423	99.94
506.64	94.94
506.856	118.94
507.073	115.94
507.289	90.94
507.506	111.94
507.722	100.94
507.939	105.94
508.155	117.94
508.372	106.94
508.588	89.94
508.805	99.94
509.021	88.94
509.238	105.94
509.454	105.94
509.67	87.94
509.887	103.94
510.103	89.94
510.319	89.94
510.536	86.94
510.752	100.94
510.968	90.94
511.184	78.94
511.401	88.94
511.617	86.94
511.833	90.94
512.049	73.94
512.265	94.94
512.481	85.94
512.698	106.94
512.914	105.94
513.13	86.94
513.346	91.94
513.562	84.94
513.778	90.94
513.994	81.94
514.21	90.94
