Data from Zn(NO3)2Standard.Agarose3%.GreenCap.LampEnergy10E.O_HRD10591_15-07-44-946.txt Node
Date: Mon Jul 22 15:07:44 EDT 2019
User: cochatt
Spectrometer: HR+D1059
Trigger mode: 1
Integration Time (sec): 1.000000E-1
Scans to average: 1
Electric dark correction enabled: true
Nonlinearity correction enabled: false
Boxcar width: 0
XAxis mode: Wavelengths
Number of Pixels in Spectrum: 2048
>>>>>Begin Spectral Data<<<<<
223.165	-21.88
223.4	-21.88
223.635	-21.88
223.869	-11.88
224.104	-21.88
224.338	-3.88
224.573	-8.88
224.808	-8.88
225.042	-11.88
225.277	1.12
225.511	4.12
225.746	7.12
225.98	6.12
226.215	-3.88
226.449	15.12
226.683	16.12
226.918	18.12
227.152	25.12
227.387	26.12
227.621	40.12
227.856	40.12
228.09	41.12
228.324	46.12
228.559	48.12
228.793	52.12
229.027	76.12
229.262	72.12
229.496	62.12
229.73	69.12
229.964	76.12
230.199	63.12
230.433	74.12
230.667	82.12
230.901	68.12
231.136	78.12
231.37	76.12
231.604	58.12
231.838	82.12
232.072	69.12
232.306	86.12
232.541	76.12
232.775	87.12
233.009	65.12
233.243	82.12
233.477	79.12
233.711	74.12
233.945	74.12
234.179	83.12
234.413	85.12
234.647	86.12
234.881	79.12
235.115	75.12
235.349	76.12
235.583	87.12
235.817	72.12
236.051	88.12
236.285	89.12
236.519	83.12
236.753	81.12
236.987	72.12
237.221	75.12
237.455	84.12
237.689	53.12
237.922	72.12
238.156	87.12
238.39	83.12
238.624	73.12
238.858	55.12
239.091	60.12
239.325	67.12
239.559	67.12
239.793	85.12
240.027	79.12
240.26	75.12
240.494	76.12
240.728	74.12
240.961	65.12
241.195	85.12
241.429	90.12
241.662	95.12
241.896	70.12
242.13	81.12
242.363	67.12
242.597	77.12
242.83	68.12
243.064	74.12
243.298	86.12
243.531	75.12
243.765	76.12
243.998	71.12
244.232	66.12
244.465	68.12
244.699	70.12
244.932	72.12
245.166	72.12
245.399	73.12
245.633	86.12
245.866	72.12
246.099	72.12
246.333	67.12
246.566	69.12
246.8	63.12
247.033	66.12
247.266	78.12
247.5	84.12
247.733	73.12
247.966	62.12
248.2	89.12
248.433	74.12
248.666	71.12
248.899	81.12
249.133	89.12
249.366	75.12
249.599	76.12
249.832	83.12
250.066	73.12
250.299	87.12
250.532	89.12
250.765	71.12
250.998	79.12
251.231	87.12
251.465	82.12
251.698	87.12
251.931	82.12
252.164	84.12
252.397	72.12
252.63	77.12
252.863	75.12
253.096	67.12
253.329	79.12
253.562	69.12
253.795	91.12
254.028	87.12
254.261	85.12
254.494	83.12
254.727	80.12
254.96	71.12
255.193	79.12
255.426	95.12
255.659	70.12
255.892	76.12
256.124	73.12
256.357	73.12
256.59	79.12
256.823	89.12
257.056	70.12
257.289	68.12
257.521	66.12
257.754	82.12
257.987	87.12
258.22	83.12
258.452	75.12
258.685	78.12
258.918	91.12
259.151	72.12
259.383	70.12
259.616	83.12
259.849	74.12
260.081	68.12
260.314	79.12
260.547	78.12
260.779	71.12
261.012	74.12
261.244	87.12
261.477	82.12
261.71	89.12
261.942	82.12
262.175	68.12
262.407	88.12
262.64	67.12
262.872	83.12
263.105	76.12
263.337	82.12
263.57	76.12
263.802	72.12
264.035	82.12
264.267	84.12
264.499	84.12
264.732	68.12
264.964	72.12
265.197	88.12
265.429	76.12
265.661	82.12
265.894	97.12
266.126	74.12
266.358	91.12
266.591	86.12
266.823	82.12
267.055	94.12
267.287	81.12
267.52	73.12
267.752	81.12
267.984	94.12
268.216	68.12
268.448	82.12
268.681	75.12
268.913	80.12
269.145	80.12
269.377	87.12
269.609	89.12
269.841	92.12
270.073	70.12
270.306	82.12
270.538	76.12
270.77	75.12
271.002	77.12
271.234	68.12
271.466	83.12
271.698	86.12
271.93	64.12
272.162	71.12
272.394	66.12
272.626	73.12
272.858	79.12
273.09	70.12
273.322	78.12
273.553	86.12
273.785	60.12
274.017	65.12
274.249	82.12
274.481	75.12
274.713	66.12
274.945	83.12
275.176	78.12
275.408	83.12
275.64	64.12
275.872	70.12
276.104	82.12
276.335	83.12
276.567	81.12
276.799	83.12
277.031	83.12
277.262	83.12
277.494	69.12
277.726	89.12
277.957	91.12
278.189	76.12
278.421	92.12
278.652	83.12
278.884	88.12
279.115	76.12
279.347	70.12
279.579	87.12
279.81	85.12
280.042	93.12
280.273	82.12
280.505	83.12
280.736	73.12
280.968	84.12
281.199	83.12
281.431	84.12
281.662	88.12
281.894	81.12
282.125	84.12
282.356	74.12
282.588	88.12
282.819	83.12
283.051	80.12
283.282	66.12
283.513	80.12
283.745	86.12
283.976	86.12
284.207	86.12
284.439	83.12
284.67	87.12
284.901	91.12
285.132	74.12
285.364	86.12
285.595	70.12
285.826	64.12
286.057	79.12
286.288	75.12
286.52	92.12
286.751	83.12
286.982	81.12
287.213	87.12
287.444	79.12
287.675	92.12
287.906	84.12
288.138	73.12
288.369	85.12
288.6	75.12
288.831	90.12
289.062	75.12
289.293	85.12
289.524	79.12
289.755	81.12
289.986	80.12
290.217	79.12
290.448	83.12
290.679	75.12
290.91	84.12
291.141	90.12
291.371	84.12
291.602	79.12
291.833	75.12
292.064	80.12
292.295	78.12
292.526	86.12
292.757	71.12
292.987	67.12
293.218	83.12
293.449	84.12
293.68	84.12
293.91	77.12
294.141	69.12
294.372	74.12
294.603	74.12
294.833	99.12
295.064	81.12
295.295	86.12
295.525	81.12
295.756	59.12
295.987	88.12
296.217	82.12
296.448	73.12
296.679	70.12
296.909	83.12
297.14	77.12
297.37	87.12
297.601	67.12
297.831	91.12
298.062	83.12
298.292	98.12
298.523	97.12
298.753	82.12
298.984	81.12
299.214	87.12
299.445	94.12
299.675	82.12
299.905	91.12
300.136	78.12
300.366	85.12
300.597	83.12
300.827	87.12
301.057	79.12
301.288	82.12
301.518	86.12
301.748	91.12
301.979	82.12
302.209	83.12
302.439	83.12
302.669	77.12
302.9	75.12
303.13	84.12
303.36	81.12
303.59	86.12
303.82	79.12
304.051	71.12
304.281	79.12
304.511	88.12
304.741	85.12
304.971	86.12
305.201	89.12
305.431	84.12
305.661	92.12
305.891	82.12
306.121	84.12
306.352	95.12
306.582	77.12
306.812	90.12
307.042	81.12
307.272	78.12
307.502	91.12
307.731	89.12
307.961	95.12
308.191	94.12
308.421	74.12
308.651	95.12
308.881	79.12
309.111	90.12
309.341	83.12
309.571	84.12
309.8	79.12
310.03	81.12
310.26	82.12
310.49	77.12
310.72	78.12
310.949	76.12
311.179	88.12
311.409	76.12
311.639	86.12
311.868	78.12
312.098	101.12
312.328	89.12
312.557	75.12
312.787	90.12
313.017	82.12
313.246	75.12
313.476	98.12
313.706	77.12
313.935	75.12
314.165	73.12
314.394	91.12
314.624	71.12
314.853	72.12
315.083	75.12
315.312	83.12
315.542	76.12
315.771	83.12
316.001	87.12
316.23	82.12
316.46	77.12
316.689	94.12
316.919	83.12
317.148	93.12
317.377	94.12
317.607	76.12
317.836	81.12
318.065	90.12
318.295	88.12
318.524	87.12
318.753	88.12
318.983	81.12
319.212	76.12
319.441	90.12
319.67	86.12
319.9	86.12
320.129	77.12
320.358	93.12
320.587	81.12
320.816	90.12
321.046	89.12
321.275	84.12
321.504	69.12
321.733	82.12
321.962	88.12
322.191	75.12
322.42	82.12
322.649	84.12
322.878	82.12
323.108	81.12
323.337	81.12
323.566	87.12
323.795	82.12
324.024	86.12
324.253	71.12
324.482	82.12
324.71	81.12
324.939	89.12
325.168	79.12
325.397	85.12
325.626	69.12
325.855	79.12
326.084	75.12
326.313	86.12
326.542	80.12
326.77	85.12
326.999	82.12
327.228	78.12
327.457	81.12
327.686	80.12
327.914	85.12
328.143	77.12
328.372	79.12
328.6	76.12
328.829	77.12
329.058	78.12
329.287	84.12
329.515	67.12
329.744	91.12
329.972	75.12
330.201	74.12
330.43	87.12
330.658	78.12
330.887	87.12
331.115	64.12
331.344	86.12
331.572	70.12
331.801	68.12
332.03	88.12
332.258	80.12
332.486	86.12
332.715	78.12
332.943	78.12
333.172	71.12
333.4	77.12
333.629	81.12
333.857	97.12
334.085	93.12
334.314	62.12
334.542	76.12
334.771	83.12
334.999	90.12
335.227	90.12
335.455	78.12
335.684	72.12
335.912	87.12
336.14	69.12
336.369	83.12
336.597	79.12
336.825	84.12
337.053	91.12
337.281	82.12
337.51	83.12
337.738	85.12
337.966	86.12
338.194	82.12
338.422	79.12
338.65	76.12
338.878	71.12
339.106	86.12
339.334	66.12
339.562	72.12
339.79	87.12
340.018	90.12
340.246	87.12
340.474	72.12
340.702	81.12
340.93	86.12
341.158	82.12
341.386	71.12
341.614	68.12
341.842	82.12
342.07	87.12
342.298	69.12
342.526	80.12
342.754	83.12
342.981	83.12
343.209	76.12
343.437	76.12
343.665	75.12
343.893	75.12
344.12	81.12
344.348	80.12
344.576	90.12
344.804	85.12
345.031	86.12
345.259	79.12
345.487	92.12
345.714	79.12
345.942	84.12
346.17	85.12
346.397	74.12
346.625	75.12
346.853	66.12
347.08	82.12
347.308	89.12
347.535	73.12
347.763	84.12
347.99	72.12
348.218	76.12
348.445	80.12
348.673	74.12
348.9	86.12
349.128	75.12
349.355	80.12
349.583	85.12
349.81	76.12
350.037	71.12
350.265	78.12
350.492	74.12
350.72	70.12
350.947	78.12
351.174	82.12
351.402	75.12
351.629	75.12
351.856	68.12
352.083	88.12
352.311	72.12
352.538	78.12
352.765	82.12
352.992	88.12
353.22	93.12
353.447	85.12
353.674	86.12
353.901	90.12
354.128	74.12
354.355	82.12
354.583	75.12
354.81	79.12
355.037	86.12
355.264	86.12
355.491	77.12
355.718	90.12
355.945	89.12
356.172	68.12
356.399	82.12
356.626	90.12
356.853	88.12
357.08	83.12
357.307	93.12
357.534	77.12
357.761	67.12
357.988	82.12
358.215	85.12
358.441	89.12
358.668	73.12
358.895	83.12
359.122	80.12
359.349	66.12
359.576	90.12
359.802	91.12
360.029	89.12
360.256	87.12
360.483	78.12
360.709	72.12
360.936	76.12
361.163	80.12
361.39	80.12
361.616	84.12
361.843	75.12
362.07	95.12
362.296	71.12
362.523	80.12
362.749	69.12
362.976	79.12
363.203	75.12
363.429	70.12
363.656	80.12
363.882	78.12
364.109	82.12
364.335	96.12
364.562	88.12
364.788	73.12
365.015	76.12
365.241	101.12
365.468	86.12
365.694	73.12
365.92	82.12
366.147	86.12
366.373	78.12
366.599	80.12
366.826	82.12
367.052	80.12
367.278	77.12
367.505	91.12
367.731	84.12
367.957	82.12
368.184	80.12
368.41	90.12
368.636	86.12
368.862	89.12
369.089	86.12
369.315	97.12
369.541	82.12
369.767	91.12
369.993	76.12
370.219	75.12
370.445	82.12
370.672	73.12
370.898	90.12
371.124	93.12
371.35	83.12
371.576	89.12
371.802	83.12
372.028	85.12
372.254	78.12
372.48	89.12
372.706	73.12
372.932	83.12
373.158	94.12
373.384	84.12
373.61	92.12
373.835	87.12
374.061	75.12
374.287	93.12
374.513	77.12
374.739	72.12
374.965	91.12
375.191	80.12
375.416	77.12
375.642	89.12
375.868	94.12
376.094	91.12
376.319	88.12
376.545	73.12
376.771	88.12
376.997	84.12
377.222	70.12
377.448	85.12
377.674	81.12
377.899	78.12
378.125	76.12
378.35	92.12
378.576	66.12
378.802	87.12
379.027	84.12
379.253	70.12
379.478	92.12
379.704	72.12
379.929	97.12
380.155	95.12
380.38	89.12
380.606	90.12
380.831	98.12
381.057	91.12
381.282	94.12
381.507	94.12
381.733	88.12
381.958	91.12
382.184	94.12
382.409	90.12
382.634	101.12
382.86	86.12
383.085	90.12
383.31	93.12
383.535	93.12
383.761	94.12
383.986	89.12
384.211	78.12
384.436	78.12
384.662	81.12
384.887	79.12
385.112	85.12
385.337	78.12
385.562	87.12
385.787	89.12
386.013	81.12
386.238	88.12
386.463	82.12
386.688	90.12
386.913	80.12
387.138	88.12
387.363	82.12
387.588	76.12
387.813	79.12
388.038	84.12
388.263	86.12
388.488	67.12
388.713	84.12
388.938	72.12
389.163	84.12
389.387	86.12
389.612	84.12
389.837	102.12
390.062	89.12
390.287	98.12
390.512	83.12
390.736	82.12
390.961	81.12
391.186	91.12
391.411	94.12
391.636	86.12
391.86	79.12
392.085	84.12
392.31	89.12
392.534	83.12
392.759	86.12
392.984	98.12
393.208	112.12
393.433	87.12
393.658	85.12
393.882	83.12
394.107	91.12
394.331	83.12
394.556	75.12
394.78	91.12
395.005	86.12
395.229	80.12
395.454	91.12
395.678	87.12
395.903	86.12
396.127	92.12
396.352	78.12
396.576	87.12
396.801	94.12
397.025	97.12
397.249	86.12
397.474	96.12
397.698	80.12
397.922	83.12
398.147	83.12
398.371	91.12
398.595	90.12
398.82	94.12
399.044	90.12
399.268	86.12
399.492	81.12
399.717	111.12
399.941	80.12
400.165	102.12
400.389	84.12
400.613	92.12
400.837	108.12
401.062	96.12
401.286	82.12
401.51	96.12
401.734	90.12
401.958	86.12
402.182	97.12
402.406	91.12
402.63	98.12
402.854	103.12
403.078	101.12
403.302	85.12
403.526	80.12
403.75	88.12
403.974	84.12
404.198	105.12
404.422	91.12
404.645	97.12
404.869	108.12
405.093	83.12
405.317	91.12
405.541	91.12
405.765	95.12
405.988	100.12
406.212	88.12
406.436	90.12
406.66	96.12
406.883	81.12
407.107	91.12
407.331	96.12
407.555	101.12
407.778	80.12
408.002	90.12
408.226	100.12
408.449	111.12
408.673	104.12
408.896	96.12
409.12	101.12
409.344	89.12
409.567	87.12
409.791	98.12
410.014	86.12
410.238	117.12
410.461	93.12
410.685	84.12
410.908	99.12
411.132	90.12
411.355	91.12
411.578	91.12
411.802	108.12
412.025	87.12
412.249	92.12
412.472	95.12
412.695	99.12
412.919	84.12
413.142	101.12
413.365	107.12
413.589	87.12
413.812	110.12
414.035	99.12
414.258	101.12
414.482	88.12
414.705	107.12
414.928	97.12
415.151	89.12
415.374	84.12
415.597	85.12
415.821	102.12
416.044	89.12
416.267	99.12
416.49	95.12
416.713	90.12
416.936	106.12
417.159	99.12
417.382	93.12
417.605	116.12
417.828	114.12
418.051	91.12
418.274	108.12
418.497	106.12
418.72	117.12
418.943	99.12
419.166	94.12
419.389	92.12
419.611	94.12
419.834	114.12
420.057	114.12
420.28	107.12
420.503	101.12
420.726	95.12
420.948	98.12
421.171	108.12
421.394	101.12
421.617	106.12
421.839	129.12
422.062	97.12
422.285	100.12
422.507	99.12
422.73	103.12
422.953	97.12
423.175	85.12
423.398	94.12
423.621	108.12
423.843	110.12
424.066	112.12
424.288	110.12
424.511	116.12
424.733	114.12
424.956	108.12
425.178	113.12
425.401	111.12
425.623	92.12
425.846	96.12
426.068	104.12
426.291	115.12
426.513	101.12
426.735	107.12
426.958	105.12
427.18	100.12
427.402	95.12
427.625	107.12
427.847	114.12
428.069	119.12
428.292	84.12
428.514	118.12
428.736	103.12
428.958	104.12
429.181	111.12
429.403	100.12
429.625	90.12
429.847	99.12
430.069	95.12
430.292	105.12
430.514	97.12
430.736	109.12
430.958	89.12
431.18	93.12
431.402	105.12
431.624	101.12
431.846	102.12
432.068	88.12
432.29	86.12
432.512	72.12
432.734	102.12
432.956	109.12
433.178	106.12
433.4	107.12
433.622	98.12
433.844	94.12
434.066	100.12
434.287	101.12
434.509	90.12
434.731	89.12
434.953	88.12
435.175	89.12
435.397	95.12
435.618	88.12
435.84	96.12
436.062	95.12
436.284	96.12
436.505	106.12
436.727	95.12
436.949	95.12
437.17	86.12
437.392	100.12
437.614	79.12
437.835	90.12
438.057	104.12
438.278	97.12
438.5	97.12
438.721	104.12
438.943	112.12
439.165	97.12
439.386	110.12
439.608	95.12
439.829	114.12
440.05	107.12
440.272	104.12
440.493	108.12
440.715	102.12
440.936	122.12
441.158	102.12
441.379	120.12
441.6	107.12
441.822	100.12
442.043	107.12
442.264	117.12
442.486	103.12
442.707	100.12
442.928	102.12
443.149	102.12
443.371	94.12
443.592	102.12
443.813	115.12
444.034	116.12
444.255	104.12
444.476	96.12
444.698	115.12
444.919	108.12
445.14	231.12
445.361	168.12
445.582	99.12
445.803	104.12
446.024	118.12
446.245	130.12
446.466	107.12
446.687	118.12
446.908	120.12
447.129	104.12
447.35	130.12
447.571	112.12
447.792	115.12
448.013	106.12
448.234	105.12
448.455	110.12
448.675	117.12
448.896	104.12
449.117	91.12
449.338	98.12
449.559	85.12
449.779	103.12
450	112.12
450.221	104.12
450.442	105.12
450.662	99.12
450.883	107.12
451.104	83.12
451.324	117.12
451.545	113.12
451.766	112.12
451.986	91.12
452.207	102.12
452.428	89.12
452.648	107.12
452.869	85.12
453.089	103.12
453.31	100.12
453.53	98.12
453.751	90.12
453.971	105.12
454.192	84.12
454.412	98.12
454.633	102.12
454.853	98.12
455.073	100.12
455.294	111.12
455.514	118.12
455.734	97.12
455.955	96.12
456.175	98.12
456.395	82.12
456.616	90.12
456.836	101.12
457.056	83.12
457.276	104.12
457.497	95.12
457.717	98.12
457.937	90.12
458.157	111.12
458.377	90.12
458.598	96.12
458.818	76.12
459.038	70.12
459.258	81.12
459.478	78.12
459.698	95.12
459.918	95.12
460.138	101.12
460.358	98.12
460.578	87.12
460.798	99.12
461.018	102.12
461.238	97.12
461.458	99.12
461.678	100.12
461.898	103.12
462.118	90.12
462.338	111.12
462.558	90.12
462.777	95.12
462.997	79.12
463.217	81.12
463.437	94.12
463.657	94.12
463.876	96.12
464.096	74.12
464.316	78.12
464.536	87.12
464.755	102.12
464.975	103.12
465.195	87.12
465.414	94.12
465.634	111.12
465.854	107.12
466.073	100.12
466.293	100.12
466.512	86.12
466.732	105.12
466.951	102.12
467.171	118.12
467.391	112.12
467.61	101.12
467.829	103.12
468.049	100.12
468.268	103.12
468.488	97.12
468.707	108.12
468.927	101.12
469.146	118.12
469.365	113.12
469.585	107.12
469.804	102.12
470.023	103.12
470.243	112.12
470.462	116.12
470.681	111.12
470.901	94.12
471.12	100.12
471.339	114.12
471.558	105.12
471.777	101.12
471.997	104.12
472.216	104.12
472.435	103.12
472.654	100.12
472.873	89.12
473.092	101.12
473.311	94.12
473.53	99.12
473.749	86.12
473.968	87.12
474.187	96.12
474.406	91.12
474.625	108.12
474.844	95.12
475.063	105.12
475.282	97.12
475.501	107.12
475.72	101.12
475.939	87.12
476.158	101.12
476.377	101.12
476.596	106.12
476.814	104.12
477.033	99.12
477.252	100.12
477.471	99.12
477.69	97.12
477.908	104.12
478.127	110.12
478.346	106.12
478.564	109.12
478.783	83.12
479.002	108.12
479.22	110.12
479.439	100.12
479.658	104.12
479.876	90.12
480.095	97.12
480.313	84.12
480.532	97.12
480.751	91.12
480.969	97.12
481.188	84.12
481.406	91.12
481.624	77.12
481.843	92.12
482.061	82.12
482.28	94.12
482.498	113.12
482.717	95.12
482.935	104.12
483.153	109.12
483.372	107.12
483.59	110.12
483.808	118.12
484.027	110.12
484.245	103.12
484.463	110.12
484.681	120.12
484.9	113.12
485.118	96.12
485.336	110.12
485.554	92.12
485.772	90.12
485.99	84.12
486.209	98.12
486.427	100.12
486.645	94.12
486.863	102.12
487.081	111.12
487.299	109.12
487.517	103.12
487.735	115.12
487.953	128.12
488.171	141.12
488.389	108.12
488.607	108.12
488.825	91.12
489.043	110.12
489.261	106.12
489.479	101.12
489.696	118.12
489.914	114.12
490.132	122.12
490.35	119.12
490.568	122.12
490.786	114.12
491.003	127.12
491.221	124.12
491.439	131.12
491.657	130.12
491.874	148.12
492.092	152.12
492.31	165.12
492.527	146.12
492.745	149.12
492.963	126.12
493.18	126.12
493.398	121.12
493.615	136.12
493.833	129.12
494.05	123.12
494.268	110.12
494.485	135.12
494.703	129.12
494.92	133.12
495.138	119.12
495.355	123.12
495.573	109.12
495.79	104.12
496.008	114.12
496.225	124.12
496.442	132.12
496.66	114.12
496.877	128.12
497.094	137.12
497.312	114.12
497.529	123.12
497.746	104.12
497.963	113.12
498.181	97.12
498.398	94.12
498.615	99.12
498.832	92.12
499.049	105.12
499.267	97.12
499.484	99.12
499.701	113.12
499.918	95.12
500.135	119.12
500.352	116.12
500.569	111.12
500.786	112.12
501.003	102.12
501.22	104.12
501.437	113.12
501.654	106.12
501.871	106.12
502.088	99.12
502.305	111.12
502.522	102.12
502.739	98.12
502.956	104.12
503.172	100.12
503.389	95.12
503.606	87.12
503.823	103.12
504.04	109.12
504.256	88.12
504.473	106.12
504.69	106.12
504.907	95.12
505.123	103.12
505.34	95.12
505.557	92.12
505.773	90.12
505.99	97.12
506.207	99.12
506.423	107.12
506.64	87.12
506.856	107.12
507.073	92.12
507.289	97.12
507.506	108.12
507.722	111.12
507.939	100.12
508.155	110.12
508.372	101.12
508.588	105.12
508.805	97.12
509.021	91.12
509.238	83.12
509.454	90.12
509.67	105.12
509.887	86.12
510.103	95.12
510.319	74.12
510.536	82.12
510.752	81.12
510.968	85.12
511.184	76.12
511.401	80.12
511.617	80.12
511.833	83.12
512.049	84.12
512.265	101.12
512.481	90.12
512.698	89.12
512.914	88.12
513.13	84.12
513.346	98.12
513.562	79.12
513.778	89.12
513.994	97.12
514.21	83.12
514.426	76.12
514.642	87.12
514.858	89.12
515.074	81.12
515.29	85.12
515.506	79.12
