Data from Zn(NO3)2Standard.Agarose3%.GreenCap.LampEnergy5.5.E.O_HRD10591_15-00-52-767.txt Node
Date: Mon Jul 22 15:00:52 EDT 2019
User: cochatt
Spectrometer: HR+D1059
Trigger mode: 1
Integration Time (sec): 1.000000E-1
Scans to average: 1
Electric dark correction enabled: true
Nonlinearity correction enabled: false
Boxcar width: 0
XAxis mode: Wavelengths
Number of Pixels in Spectrum: 2048
>>>>>Begin Spectral Data<<<<<
223.165	-18.31
223.4	-18.31
223.635	-18.31
223.869	-11.31
224.104	-16.31
224.338	-14.31
224.573	-3.31
224.808	-15.31
225.042	-5.31
225.277	-10.31
225.511	-5.31
225.746	10.69
225.98	2.69
226.215	2.69
226.449	10.69
226.683	21.69
226.918	18.69
227.152	32.69
227.387	46.69
227.621	46.69
227.856	56.69
228.09	59.69
228.324	57.69
228.559	54.69
228.793	47.69
229.027	60.69
229.262	61.69
229.496	72.69
229.73	78.69
229.964	76.69
230.199	86.69
230.433	83.69
230.667	72.69
230.901	89.69
231.136	77.69
231.37	88.69
231.604	85.69
231.838	72.69
232.072	78.69
232.306	85.69
232.541	91.69
232.775	89.69
233.009	93.69
233.243	94.69
233.477	88.69
233.711	80.69
233.945	79.69
234.179	77.69
234.413	84.69
234.647	92.69
234.881	69.69
235.115	76.69
235.349	86.69
235.583	93.69
235.817	74.69
236.051	73.69
236.285	94.69
236.519	86.69
236.753	89.69
236.987	87.69
237.221	77.69
237.455	95.69
237.689	89.69
237.922	74.69
238.156	79.69
238.39	74.69
238.624	77.69
238.858	81.69
239.091	75.69
239.325	75.69
239.559	85.69
239.793	84.69
240.027	78.69
240.26	83.69
240.494	80.69
240.728	81.69
240.961	74.69
241.195	79.69
241.429	88.69
241.662	72.69
241.896	86.69
242.13	84.69
242.363	85.69
242.597	73.69
242.83	76.69
243.064	76.69
243.298	87.69
243.531	84.69
243.765	87.69
243.998	76.69
244.232	78.69
244.465	84.69
244.699	89.69
244.932	78.69
245.166	79.69
245.399	84.69
245.633	88.69
245.866	93.69
246.099	81.69
246.333	83.69
246.566	90.69
246.8	79.69
247.033	75.69
247.266	98.69
247.5	89.69
247.733	86.69
247.966	78.69
248.2	86.69
248.433	80.69
248.666	73.69
248.899	89.69
249.133	81.69
249.366	88.69
249.599	77.69
249.832	87.69
250.066	75.69
250.299	87.69
250.532	81.69
250.765	88.69
250.998	81.69
251.231	89.69
251.465	87.69
251.698	74.69
251.931	94.69
252.164	84.69
252.397	79.69
252.63	90.69
252.863	82.69
253.096	77.69
253.329	93.69
253.562	85.69
253.795	85.69
254.028	80.69
254.261	83.69
254.494	72.69
254.727	70.69
254.96	78.69
255.193	73.69
255.426	79.69
255.659	85.69
255.892	82.69
256.124	79.69
256.357	93.69
256.59	87.69
256.823	82.69
257.056	86.69
257.289	88.69
257.521	80.69
257.754	66.69
257.987	99.69
258.22	85.69
258.452	88.69
258.685	77.69
258.918	93.69
259.151	87.69
259.383	87.69
259.616	82.69
259.849	87.69
260.081	94.69
260.314	93.69
260.547	74.69
260.779	80.69
261.012	90.69
261.244	84.69
261.477	72.69
261.71	93.69
261.942	84.69
262.175	97.69
262.407	89.69
262.64	89.69
262.872	59.69
263.105	106.69
263.337	88.69
263.57	87.69
263.802	92.69
264.035	77.69
264.267	79.69
264.499	89.69
264.732	96.69
264.964	83.69
265.197	78.69
265.429	73.69
265.661	86.69
265.894	93.69
266.126	87.69
266.358	69.69
266.591	76.69
266.823	88.69
267.055	95.69
267.287	78.69
267.52	86.69
267.752	83.69
267.984	83.69
268.216	87.69
268.448	87.69
268.681	82.69
268.913	80.69
269.145	88.69
269.377	91.69
269.609	91.69
269.841	87.69
270.073	78.69
270.306	82.69
270.538	90.69
270.77	90.69
271.002	97.69
271.234	80.69
271.466	84.69
271.698	80.69
271.93	92.69
272.162	83.69
272.394	101.69
272.626	84.69
272.858	75.69
273.09	79.69
273.322	87.69
273.553	80.69
273.785	82.69
274.017	80.69
274.249	83.69
274.481	85.69
274.713	76.69
274.945	74.69
275.176	91.69
275.408	86.69
275.64	79.69
275.872	97.69
276.104	81.69
276.335	95.69
276.567	90.69
276.799	84.69
277.031	73.69
277.262	89.69
277.494	81.69
277.726	74.69
277.957	81.69
278.189	87.69
278.421	87.69
278.652	92.69
278.884	96.69
279.115	94.69
279.347	88.69
279.579	100.69
279.81	79.69
280.042	97.69
280.273	88.69
280.505	94.69
280.736	81.69
280.968	82.69
281.199	74.69
281.431	89.69
281.662	96.69
281.894	82.69
282.125	82.69
282.356	91.69
282.588	81.69
282.819	91.69
283.051	84.69
283.282	64.69
283.513	82.69
283.745	95.69
283.976	80.69
284.207	66.69
284.439	92.69
284.67	87.69
284.901	86.69
285.132	78.69
285.364	84.69
285.595	83.69
285.826	89.69
286.057	81.69
286.288	95.69
286.52	75.69
286.751	92.69
286.982	83.69
287.213	77.69
287.444	72.69
287.675	89.69
287.906	80.69
288.138	85.69
288.369	88.69
288.6	88.69
288.831	90.69
289.062	81.69
289.293	89.69
289.524	93.69
289.755	86.69
289.986	92.69
290.217	105.69
290.448	91.69
290.679	74.69
290.91	93.69
291.141	72.69
291.371	82.69
291.602	91.69
291.833	102.69
292.064	92.69
292.295	87.69
292.526	82.69
292.757	91.69
292.987	83.69
293.218	85.69
293.449	84.69
293.68	77.69
293.91	92.69
294.141	97.69
294.372	88.69
294.603	95.69
294.833	72.69
295.064	73.69
295.295	92.69
295.525	66.69
295.756	79.69
295.987	101.69
296.217	92.69
296.448	79.69
296.679	88.69
296.909	92.69
297.14	90.69
297.37	78.69
297.601	95.69
297.831	68.69
298.062	90.69
298.292	95.69
298.523	95.69
298.753	81.69
298.984	94.69
299.214	85.69
299.445	95.69
299.675	97.69
299.905	89.69
300.136	90.69
300.366	84.69
300.597	90.69
300.827	82.69
301.057	90.69
301.288	98.69
301.518	87.69
301.748	82.69
301.979	78.69
302.209	95.69
302.439	84.69
302.669	81.69
302.9	81.69
303.13	108.69
303.36	72.69
303.59	84.69
303.82	81.69
304.051	85.69
304.281	92.69
304.511	89.69
304.741	78.69
304.971	91.69
305.201	96.69
305.431	86.69
305.661	100.69
305.891	81.69
306.121	87.69
306.352	86.69
306.582	78.69
306.812	85.69
307.042	93.69
307.272	102.69
307.502	83.69
307.731	94.69
307.961	90.69
308.191	97.69
308.421	83.69
308.651	89.69
308.881	93.69
309.111	88.69
309.341	85.69
309.571	90.69
309.8	87.69
310.03	88.69
310.26	94.69
310.49	93.69
310.72	78.69
310.949	93.69
311.179	85.69
311.409	96.69
311.639	104.69
311.868	82.69
312.098	95.69
312.328	80.69
312.557	97.69
312.787	88.69
313.017	83.69
313.246	80.69
313.476	103.69
313.706	89.69
313.935	77.69
314.165	81.69
314.394	97.69
314.624	97.69
314.853	95.69
315.083	80.69
315.312	88.69
315.542	88.69
315.771	94.69
316.001	81.69
316.23	85.69
316.46	98.69
316.689	86.69
316.919	88.69
317.148	100.69
317.377	88.69
317.607	82.69
317.836	100.69
318.065	89.69
318.295	99.69
318.524	88.69
318.753	92.69
318.983	102.69
319.212	80.69
319.441	82.69
319.67	87.69
319.9	85.69
320.129	89.69
320.358	87.69
320.587	83.69
320.816	87.69
321.046	90.69
321.275	91.69
321.504	92.69
321.733	92.69
321.962	82.69
322.191	99.69
322.42	80.69
322.649	90.69
322.878	69.69
323.108	85.69
323.337	96.69
323.566	90.69
323.795	95.69
324.024	95.69
324.253	85.69
324.482	81.69
324.71	94.69
324.939	83.69
325.168	80.69
325.397	78.69
325.626	82.69
325.855	98.69
326.084	93.69
326.313	86.69
326.542	83.69
326.77	84.69
326.999	78.69
327.228	90.69
327.457	90.69
327.686	89.69
327.914	97.69
328.143	82.69
328.372	84.69
328.6	90.69
328.829	96.69
329.058	82.69
329.287	90.69
329.515	86.69
329.744	93.69
329.972	88.69
330.201	89.69
330.43	90.69
330.658	93.69
330.887	86.69
331.115	87.69
331.344	78.69
331.572	94.69
331.801	85.69
332.03	99.69
332.258	93.69
332.486	86.69
332.715	91.69
332.943	77.69
333.172	89.69
333.4	86.69
333.629	92.69
333.857	81.69
334.085	73.69
334.314	86.69
334.542	87.69
334.771	65.69
334.999	88.69
335.227	81.69
335.455	78.69
335.684	89.69
335.912	86.69
336.14	96.69
336.369	94.69
336.597	86.69
336.825	89.69
337.053	96.69
337.281	93.69
337.51	89.69
337.738	90.69
337.966	95.69
338.194	74.69
338.422	89.69
338.65	88.69
338.878	85.69
339.106	101.69
339.334	83.69
339.562	81.69
339.79	80.69
340.018	79.69
340.246	81.69
340.474	94.69
340.702	86.69
340.93	86.69
341.158	80.69
341.386	83.69
341.614	86.69
341.842	88.69
342.07	88.69
342.298	81.69
342.526	86.69
342.754	93.69
342.981	83.69
343.209	81.69
343.437	86.69
343.665	89.69
343.893	88.69
344.12	91.69
344.348	78.69
344.576	80.69
344.804	74.69
345.031	97.69
345.259	83.69
345.487	97.69
345.714	83.69
345.942	90.69
346.17	93.69
346.397	73.69
346.625	80.69
346.853	102.69
347.08	85.69
347.308	101.69
347.535	85.69
347.763	92.69
347.99	91.69
348.218	81.69
348.445	78.69
348.673	75.69
348.9	82.69
349.128	78.69
349.355	79.69
349.583	86.69
349.81	90.69
350.037	78.69
350.265	90.69
350.492	78.69
350.72	88.69
350.947	92.69
351.174	92.69
351.402	82.69
351.629	86.69
351.856	95.69
352.083	94.69
352.311	92.69
352.538	96.69
352.765	88.69
352.992	96.69
353.22	76.69
353.447	84.69
353.674	89.69
353.901	89.69
354.128	82.69
354.355	73.69
354.583	84.69
354.81	87.69
355.037	94.69
355.264	79.69
355.491	88.69
355.718	87.69
355.945	87.69
356.172	105.69
356.399	83.69
356.626	95.69
356.853	98.69
357.08	91.69
357.307	94.69
357.534	89.69
357.761	100.69
357.988	95.69
358.215	92.69
358.441	86.69
358.668	80.69
358.895	80.69
359.122	88.69
359.349	78.69
359.576	81.69
359.802	81.69
360.029	95.69
360.256	80.69
360.483	108.69
360.709	88.69
360.936	93.69
361.163	100.69
361.39	83.69
361.616	90.69
361.843	89.69
362.07	90.69
362.296	68.69
362.523	86.69
362.749	73.69
362.976	89.69
363.203	85.69
363.429	82.69
363.656	87.69
363.882	89.69
364.109	78.69
364.335	89.69
364.562	81.69
364.788	77.69
365.015	95.69
365.241	92.69
365.468	79.69
365.694	96.69
365.92	80.69
366.147	94.69
366.373	78.69
366.599	77.69
366.826	85.69
367.052	88.69
367.278	82.69
367.505	95.69
367.731	90.69
367.957	93.69
368.184	74.69
368.41	92.69
368.636	80.69
368.862	86.69
369.089	96.69
369.315	94.69
369.541	78.69
369.767	91.69
369.993	87.69
370.219	92.69
370.445	88.69
370.672	92.69
370.898	93.69
371.124	93.69
371.35	103.69
371.576	102.69
371.802	94.69
372.028	81.69
372.254	93.69
372.48	83.69
372.706	89.69
372.932	80.69
373.158	86.69
373.384	84.69
373.61	90.69
373.835	81.69
374.061	84.69
374.287	80.69
374.513	81.69
374.739	87.69
374.965	90.69
375.191	85.69
375.416	89.69
375.642	99.69
375.868	88.69
376.094	76.69
376.319	91.69
376.545	89.69
376.771	82.69
376.997	87.69
377.222	101.69
377.448	92.69
377.674	87.69
377.899	86.69
378.125	82.69
378.35	77.69
378.576	85.69
378.802	88.69
379.027	88.69
379.253	94.69
379.478	97.69
379.704	82.69
379.929	91.69
380.155	98.69
380.38	91.69
380.606	81.69
380.831	88.69
381.057	98.69
381.282	90.69
381.507	90.69
381.733	81.69
381.958	82.69
382.184	79.69
382.409	75.69
382.634	90.69
382.86	81.69
383.085	79.69
383.31	88.69
383.535	97.69
383.761	95.69
383.986	100.69
384.211	95.69
384.436	100.69
384.662	75.69
384.887	79.69
385.112	82.69
385.337	97.69
385.562	84.69
385.787	90.69
386.013	88.69
386.238	87.69
386.463	92.69
386.688	82.69
386.913	74.69
387.138	89.69
387.363	82.69
387.588	94.69
387.813	94.69
388.038	94.69
388.263	85.69
388.488	73.69
388.713	82.69
388.938	93.69
389.163	89.69
389.387	86.69
389.612	88.69
389.837	100.69
390.062	88.69
390.287	91.69
390.512	90.69
390.736	95.69
390.961	89.69
391.186	89.69
391.411	82.69
391.636	92.69
391.86	100.69
392.085	94.69
392.31	92.69
392.534	81.69
392.759	73.69
392.984	92.69
393.208	82.69
393.433	93.69
393.658	77.69
393.882	92.69
394.107	76.69
394.331	88.69
394.556	85.69
394.78	89.69
395.005	80.69
395.229	90.69
395.454	73.69
395.678	90.69
395.903	87.69
396.127	104.69
396.352	96.69
396.576	84.69
396.801	76.69
397.025	84.69
397.249	85.69
397.474	94.69
397.698	82.69
397.922	96.69
398.147	95.69
398.371	95.69
398.595	90.69
398.82	97.69
399.044	95.69
399.268	89.69
399.492	86.69
399.717	89.69
399.941	87.69
400.165	92.69
400.389	89.69
400.613	90.69
400.837	79.69
401.062	93.69
401.286	98.69
401.51	85.69
401.734	91.69
401.958	83.69
402.182	89.69
402.406	88.69
402.63	84.69
402.854	81.69
403.078	86.69
403.302	81.69
403.526	84.69
403.75	98.69
403.974	106.69
404.198	82.69
404.422	97.69
404.645	82.69
404.869	86.69
405.093	86.69
405.317	76.69
405.541	82.69
405.765	97.69
405.988	75.69
406.212	95.69
406.436	86.69
406.66	89.69
406.883	91.69
407.107	93.69
407.331	102.69
407.555	95.69
407.778	84.69
408.002	88.69
408.226	81.69
408.449	83.69
408.673	89.69
408.896	88.69
409.12	87.69
409.344	99.69
409.567	90.69
409.791	75.69
410.014	79.69
410.238	79.69
410.461	83.69
410.685	92.69
410.908	94.69
411.132	91.69
411.355	91.69
411.578	105.69
411.802	80.69
412.025	74.69
412.249	91.69
412.472	85.69
412.695	80.69
412.919	86.69
413.142	86.69
413.365	81.69
413.589	92.69
413.812	95.69
414.035	100.69
414.258	92.69
414.482	87.69
414.705	84.69
414.928	85.69
415.151	101.69
415.374	87.69
415.597	87.69
415.821	77.69
416.044	93.69
416.267	104.69
416.49	83.69
416.713	89.69
416.936	97.69
417.159	95.69
417.382	96.69
417.605	93.69
417.828	95.69
418.051	86.69
418.274	89.69
418.497	87.69
418.72	106.69
418.943	91.69
419.166	75.69
419.389	86.69
419.611	86.69
419.834	92.69
420.057	81.69
420.28	102.69
420.503	93.69
420.726	82.69
420.948	77.69
421.171	91.69
421.394	98.69
421.617	89.69
421.839	89.69
422.062	90.69
422.285	96.69
422.507	90.69
422.73	92.69
422.953	91.69
423.175	92.69
423.398	100.69
423.621	95.69
423.843	100.69
424.066	94.69
424.288	95.69
424.511	92.69
424.733	85.69
424.956	92.69
425.178	105.69
425.401	103.69
425.623	90.69
425.846	97.69
426.068	89.69
426.291	89.69
426.513	82.69
426.735	82.69
426.958	79.69
427.18	93.69
427.402	103.69
427.625	89.69
427.847	95.69
428.069	81.69
428.292	98.69
428.514	89.69
428.736	95.69
428.958	88.69
429.181	84.69
429.403	77.69
429.625	84.69
429.847	88.69
430.069	83.69
430.292	104.69
430.514	84.69
430.736	90.69
430.958	91.69
431.18	89.69
431.402	94.69
431.624	82.69
431.846	93.69
432.068	88.69
432.29	84.69
432.512	89.69
432.734	89.69
432.956	93.69
433.178	87.69
433.4	90.69
433.622	91.69
433.844	101.69
434.066	87.69
434.287	101.69
434.509	97.69
434.731	92.69
434.953	101.69
435.175	92.69
435.397	100.69
435.618	93.69
435.84	92.69
436.062	93.69
436.284	87.69
436.505	86.69
436.727	101.69
436.949	97.69
437.17	98.69
437.392	97.69
437.614	99.69
437.835	80.69
438.057	91.69
438.278	78.69
438.5	92.69
438.721	90.69
438.943	91.69
439.165	83.69
439.386	99.69
439.608	103.69
439.829	97.69
440.05	93.69
440.272	92.69
440.493	91.69
440.715	100.69
440.936	88.69
441.158	93.69
441.379	97.69
441.6	84.69
441.822	93.69
442.043	81.69
442.264	99.69
442.486	100.69
442.707	99.69
442.928	86.69
443.149	95.69
443.371	102.69
443.592	98.69
443.813	100.69
444.034	104.69
444.255	105.69
444.476	94.69
444.698	104.69
444.919	90.69
445.14	178.69
445.361	135.69
445.582	103.69
445.803	92.69
446.024	86.69
446.245	86.69
446.466	92.69
446.687	82.69
446.908	96.69
447.129	95.69
447.35	100.69
447.571	101.69
447.792	97.69
448.013	92.69
448.234	86.69
448.455	86.69
448.675	98.69
448.896	89.69
449.117	92.69
449.338	88.69
449.559	98.69
449.779	91.69
450	97.69
450.221	87.69
450.442	101.69
450.662	91.69
450.883	85.69
451.104	91.69
451.324	93.69
451.545	100.69
451.766	105.69
451.986	89.69
452.207	81.69
452.428	90.69
452.648	88.69
452.869	97.69
453.089	103.69
453.31	86.69
453.53	93.69
453.751	81.69
453.971	82.69
454.192	91.69
454.412	95.69
454.633	98.69
454.853	93.69
455.073	90.69
455.294	81.69
455.514	86.69
455.734	94.69
455.955	82.69
456.175	96.69
456.395	81.69
456.616	89.69
456.836	102.69
457.056	86.69
457.276	83.69
457.497	82.69
457.717	89.69
457.937	94.69
458.157	98.69
458.377	88.69
458.598	81.69
458.818	97.69
459.038	79.69
459.258	91.69
459.478	72.69
459.698	84.69
459.918	75.69
460.138	95.69
460.358	100.69
460.578	94.69
460.798	111.69
461.018	92.69
461.238	78.69
461.458	73.69
461.678	94.69
461.898	95.69
462.118	101.69
462.338	92.69
462.558	92.69
462.777	100.69
462.997	97.69
463.217	86.69
463.437	86.69
463.657	79.69
463.876	90.69
464.096	86.69
464.316	88.69
464.536	88.69
464.755	80.69
464.975	81.69
465.195	79.69
465.414	96.69
465.634	95.69
465.854	99.69
466.073	76.69
466.293	77.69
466.512	93.69
466.732	83.69
466.951	93.69
467.171	107.69
467.391	85.69
467.61	94.69
467.829	93.69
468.049	96.69
468.268	89.69
468.488	82.69
468.707	98.69
468.927	101.69
469.146	90.69
469.365	96.69
469.585	92.69
469.804	90.69
470.023	88.69
470.243	90.69
470.462	73.69
470.681	97.69
470.901	100.69
471.12	96.69
471.339	99.69
471.558	93.69
471.777	76.69
471.997	85.69
472.216	93.69
472.435	73.69
472.654	77.69
472.873	87.69
473.092	90.69
473.311	75.69
473.53	88.69
473.749	76.69
473.968	82.69
474.187	92.69
474.406	86.69
474.625	94.69
474.844	89.69
475.063	92.69
475.282	91.69
475.501	98.69
475.72	95.69
475.939	88.69
476.158	89.69
476.377	97.69
476.596	108.69
476.814	95.69
477.033	90.69
477.252	85.69
477.471	89.69
477.69	96.69
477.908	82.69
478.127	102.69
478.346	103.69
478.564	90.69
478.783	102.69
479.002	91.69
479.22	97.69
479.439	91.69
479.658	97.69
479.876	86.69
480.095	90.69
480.313	104.69
480.532	95.69
480.751	96.69
480.969	83.69
481.188	85.69
481.406	78.69
481.624	79.69
481.843	79.69
482.061	92.69
482.28	87.69
482.498	88.69
482.717	91.69
482.935	82.69
483.153	109.69
483.372	87.69
483.59	92.69
483.808	90.69
484.027	93.69
484.245	117.69
484.463	82.69
484.681	108.69
484.9	100.69
485.118	88.69
485.336	87.69
485.554	90.69
485.772	91.69
485.99	87.69
486.209	94.69
486.427	96.69
486.645	97.69
486.863	93.69
487.081	96.69
487.299	110.69
487.517	90.69
487.735	103.69
487.953	106.69
488.171	107.69
488.389	92.69
488.607	88.69
488.825	85.69
489.043	88.69
489.261	92.69
489.479	96.69
489.696	94.69
489.914	101.69
490.132	96.69
490.35	91.69
490.568	99.69
490.786	92.69
491.003	102.69
491.221	100.69
491.439	94.69
491.657	117.69
491.874	116.69
492.092	107.69
492.31	102.69
492.527	101.69
492.745	96.69
492.963	93.69
493.18	108.69
493.398	95.69
493.615	103.69
493.833	101.69
494.05	97.69
494.268	93.69
494.485	119.69
494.703	112.69
494.92	106.69
495.138	87.69
495.355	89.69
495.573	87.69
495.79	94.69
496.008	109.69
496.225	114.69
496.442	93.69
496.66	120.69
496.877	95.69
497.094	95.69
497.312	93.69
497.529	98.69
497.746	110.69
497.963	101.69
498.181	101.69
498.398	74.69
498.615	96.69
498.832	89.69
499.049	96.69
499.267	96.69
499.484	79.69
499.701	70.69
499.918	97.69
500.135	102.69
500.352	102.69
500.569	89.69
500.786	96.69
501.003	118.69
501.22	96.69
501.437	82.69
501.654	94.69
501.871	89.69
502.088	100.69
502.305	97.69
502.522	90.69
502.739	102.69
502.956	103.69
503.172	98.69
503.389	73.69
503.606	84.69
503.823	88.69
504.04	84.69
504.256	88.69
504.473	103.69
504.69	74.69
504.907	88.69
505.123	85.69
505.34	88.69
505.557	87.69
505.773	97.69
505.99	89.69
506.207	88.69
506.423	92.69
506.64	93.69
506.856	103.69
507.073	86.69
507.289	104.69
507.506	80.69
507.722	83.69
507.939	86.69
508.155	88.69
508.372	102.69
508.588	86.69
508.805	101.69
509.021	105.69
509.238	87.69
509.454	84.69
509.67	88.69
509.887	82.69
510.103	84.69
510.319	90.69
510.536	92.69
510.752	83.69
510.968	70.69
511.184	92.69
511.401	88.69
511.617	99.69
511.833	82.69
512.049	87.69
512.265	82.69
512.481	93.69
512.698	90.69
512.914	106.69
513.13	105.69
513.346	88.69
513.562	87.69
513.778	89.69
513.994	93.69
514.21	92.69
514.426	79.69
514.642	88.69
514.858	78.69
515.074	95.69
515.29	88.69
515.506	94.69
515.721	88.69
515.937	92.69
516.153	80.69
516.369	76.69
516.585	85.69
516.801	86.69
517.016	90.69
517.232	82.69
517.448	99.69
517.664	84.69
