Data from Zn(NO3)2Standard.Agarose3%.GreenCap.LampEnergy10E.O_HRD10591_15-06-17-949.txt Node
Date: Mon Jul 22 15:06:17 EDT 2019
User: cochatt
Spectrometer: HR+D1059
Trigger mode: 1
Integration Time (sec): 1.000000E-1
Scans to average: 1
Electric dark correction enabled: true
Nonlinearity correction enabled: false
Boxcar width: 0
XAxis mode: Wavelengths
Number of Pixels in Spectrum: 2048
>>>>>Begin Spectral Data<<<<<
223.165	-6.19
223.4	-6.19
223.635	-6.19
223.869	-7.19
224.104	-10.19
224.338	-17.19
224.573	-18.19
224.808	-26.19
225.042	-11.19
225.277	-19.19
225.511	-15.19
225.746	5.81
225.98	5.81
226.215	15.81
226.449	14.81
226.683	18.81
226.918	39.81
227.152	29.81
227.387	31.81
227.621	41.81
227.856	38.81
228.09	49.81
228.324	46.81
228.559	58.81
228.793	55.81
229.027	39.81
229.262	64.81
229.496	52.81
229.73	63.81
229.964	64.81
230.199	77.81
230.433	87.81
230.667	84.81
230.901	67.81
231.136	64.81
231.37	79.81
231.604	86.81
231.838	74.81
232.072	79.81
232.306	88.81
232.541	81.81
232.775	82.81
233.009	88.81
233.243	74.81
233.477	68.81
233.711	82.81
233.945	87.81
234.179	81.81
234.413	81.81
234.647	75.81
234.881	87.81
235.115	83.81
235.349	65.81
235.583	65.81
235.817	65.81
236.051	79.81
236.285	77.81
236.519	81.81
236.753	68.81
236.987	70.81
237.221	66.81
237.455	88.81
237.689	69.81
237.922	69.81
238.156	75.81
238.39	76.81
238.624	62.81
238.858	48.81
239.091	70.81
239.325	64.81
239.559	65.81
239.793	68.81
240.027	88.81
240.26	72.81
240.494	76.81
240.728	73.81
240.961	72.81
241.195	71.81
241.429	84.81
241.662	69.81
241.896	69.81
242.13	69.81
242.363	81.81
242.597	65.81
242.83	73.81
243.064	65.81
243.298	81.81
243.531	76.81
243.765	59.81
243.998	69.81
244.232	72.81
244.465	63.81
244.699	67.81
244.932	73.81
245.166	81.81
245.399	71.81
245.633	76.81
245.866	71.81
246.099	64.81
246.333	69.81
246.566	76.81
246.8	78.81
247.033	73.81
247.266	81.81
247.5	73.81
247.733	83.81
247.966	72.81
248.2	60.81
248.433	78.81
248.666	70.81
248.899	78.81
249.133	76.81
249.366	81.81
249.599	95.81
249.832	78.81
250.066	78.81
250.299	78.81
250.532	90.81
250.765	65.81
250.998	67.81
251.231	84.81
251.465	87.81
251.698	79.81
251.931	64.81
252.164	81.81
252.397	75.81
252.63	81.81
252.863	85.81
253.096	74.81
253.329	82.81
253.562	76.81
253.795	74.81
254.028	80.81
254.261	65.81
254.494	83.81
254.727	75.81
254.96	75.81
255.193	75.81
255.426	76.81
255.659	71.81
255.892	82.81
256.124	88.81
256.357	78.81
256.59	70.81
256.823	88.81
257.056	81.81
257.289	91.81
257.521	71.81
257.754	71.81
257.987	89.81
258.22	79.81
258.452	87.81
258.685	86.81
258.918	78.81
259.151	76.81
259.383	82.81
259.616	72.81
259.849	77.81
260.081	75.81
260.314	77.81
260.547	79.81
260.779	82.81
261.012	75.81
261.244	77.81
261.477	76.81
261.71	73.81
261.942	70.81
262.175	75.81
262.407	71.81
262.64	73.81
262.872	90.81
263.105	61.81
263.337	84.81
263.57	76.81
263.802	80.81
264.035	85.81
264.267	74.81
264.499	87.81
264.732	78.81
264.964	76.81
265.197	82.81
265.429	79.81
265.661	78.81
265.894	83.81
266.126	85.81
266.358	70.81
266.591	60.81
266.823	72.81
267.055	74.81
267.287	86.81
267.52	79.81
267.752	88.81
267.984	87.81
268.216	68.81
268.448	92.81
268.681	77.81
268.913	74.81
269.145	84.81
269.377	85.81
269.609	67.81
269.841	64.81
270.073	73.81
270.306	67.81
270.538	62.81
270.77	84.81
271.002	82.81
271.234	81.81
271.466	78.81
271.698	78.81
271.93	72.81
272.162	73.81
272.394	57.81
272.626	57.81
272.858	79.81
273.09	86.81
273.322	63.81
273.553	86.81
273.785	77.81
274.017	77.81
274.249	79.81
274.481	72.81
274.713	68.81
274.945	81.81
275.176	81.81
275.408	79.81
275.64	88.81
275.872	71.81
276.104	76.81
276.335	64.81
276.567	87.81
276.799	68.81
277.031	75.81
277.262	70.81
277.494	72.81
277.726	92.81
277.957	94.81
278.189	87.81
278.421	83.81
278.652	83.81
278.884	88.81
279.115	77.81
279.347	72.81
279.579	87.81
279.81	81.81
280.042	79.81
280.273	81.81
280.505	88.81
280.736	91.81
280.968	83.81
281.199	77.81
281.431	80.81
281.662	78.81
281.894	80.81
282.125	67.81
282.356	70.81
282.588	97.81
282.819	86.81
283.051	75.81
283.282	81.81
283.513	89.81
283.745	91.81
283.976	71.81
284.207	88.81
284.439	79.81
284.67	82.81
284.901	85.81
285.132	77.81
285.364	83.81
285.595	88.81
285.826	84.81
286.057	86.81
286.288	80.81
286.52	78.81
286.751	77.81
286.982	86.81
287.213	82.81
287.444	78.81
287.675	86.81
287.906	93.81
288.138	79.81
288.369	85.81
288.6	92.81
288.831	75.81
289.062	79.81
289.293	69.81
289.524	70.81
289.755	83.81
289.986	89.81
290.217	78.81
290.448	92.81
290.679	86.81
290.91	76.81
291.141	89.81
291.371	84.81
291.602	73.81
291.833	73.81
292.064	71.81
292.295	80.81
292.526	85.81
292.757	78.81
292.987	77.81
293.218	77.81
293.449	73.81
293.68	92.81
293.91	92.81
294.141	81.81
294.372	92.81
294.603	84.81
294.833	79.81
295.064	72.81
295.295	85.81
295.525	90.81
295.756	92.81
295.987	74.81
296.217	69.81
296.448	70.81
296.679	91.81
296.909	95.81
297.14	78.81
297.37	71.81
297.601	77.81
297.831	89.81
298.062	81.81
298.292	95.81
298.523	82.81
298.753	78.81
298.984	77.81
299.214	81.81
299.445	74.81
299.675	77.81
299.905	86.81
300.136	83.81
300.366	73.81
300.597	78.81
300.827	84.81
301.057	75.81
301.288	73.81
301.518	76.81
301.748	70.81
301.979	67.81
302.209	86.81
302.439	95.81
302.669	85.81
302.9	88.81
303.13	89.81
303.36	69.81
303.59	84.81
303.82	81.81
304.051	78.81
304.281	95.81
304.511	98.81
304.741	92.81
304.971	82.81
305.201	91.81
305.431	81.81
305.661	77.81
305.891	87.81
306.121	87.81
306.352	88.81
306.582	88.81
306.812	74.81
307.042	80.81
307.272	74.81
307.502	76.81
307.731	69.81
307.961	80.81
308.191	80.81
308.421	73.81
308.651	95.81
308.881	81.81
309.111	82.81
309.341	79.81
309.571	73.81
309.8	70.81
310.03	82.81
310.26	78.81
310.49	85.81
310.72	78.81
310.949	74.81
311.179	83.81
311.409	65.81
311.639	64.81
311.868	90.81
312.098	79.81
312.328	98.81
312.557	81.81
312.787	75.81
313.017	80.81
313.246	76.81
313.476	80.81
313.706	81.81
313.935	74.81
314.165	85.81
314.394	82.81
314.624	77.81
314.853	72.81
315.083	81.81
315.312	80.81
315.542	79.81
315.771	70.81
316.001	79.81
316.23	85.81
316.46	83.81
316.689	77.81
316.919	87.81
317.148	72.81
317.377	80.81
317.607	78.81
317.836	85.81
318.065	72.81
318.295	70.81
318.524	70.81
318.753	86.81
318.983	78.81
319.212	88.81
319.441	87.81
319.67	99.81
319.9	79.81
320.129	80.81
320.358	84.81
320.587	65.81
320.816	64.81
321.046	80.81
321.275	85.81
321.504	80.81
321.733	84.81
321.962	71.81
322.191	77.81
322.42	77.81
322.649	78.81
322.878	95.81
323.108	75.81
323.337	68.81
323.566	85.81
323.795	78.81
324.024	77.81
324.253	78.81
324.482	89.81
324.71	87.81
324.939	80.81
325.168	88.81
325.397	79.81
325.626	79.81
325.855	84.81
326.084	82.81
326.313	69.81
326.542	82.81
326.77	90.81
326.999	80.81
327.228	95.81
327.457	88.81
327.686	83.81
327.914	80.81
328.143	74.81
328.372	88.81
328.6	82.81
328.829	74.81
329.058	66.81
329.287	84.81
329.515	70.81
329.744	63.81
329.972	82.81
330.201	81.81
330.43	96.81
330.658	89.81
330.887	70.81
331.115	78.81
331.344	83.81
331.572	102.81
331.801	85.81
332.03	85.81
332.258	84.81
332.486	78.81
332.715	82.81
332.943	88.81
333.172	84.81
333.4	81.81
333.629	77.81
333.857	83.81
334.085	92.81
334.314	82.81
334.542	83.81
334.771	86.81
334.999	77.81
335.227	87.81
335.455	90.81
335.684	91.81
335.912	87.81
336.14	77.81
336.369	74.81
336.597	77.81
336.825	77.81
337.053	74.81
337.281	67.81
337.51	83.81
337.738	75.81
337.966	85.81
338.194	85.81
338.422	85.81
338.65	81.81
338.878	85.81
339.106	80.81
339.334	72.81
339.562	70.81
339.79	67.81
340.018	78.81
340.246	78.81
340.474	69.81
340.702	91.81
340.93	77.81
341.158	84.81
341.386	87.81
341.614	82.81
341.842	89.81
342.07	82.81
342.298	64.81
342.526	73.81
342.754	78.81
342.981	80.81
343.209	74.81
343.437	78.81
343.665	68.81
343.893	73.81
344.12	66.81
344.348	80.81
344.576	77.81
344.804	69.81
345.031	92.81
345.259	77.81
345.487	97.81
345.714	102.81
345.942	88.81
346.17	77.81
346.397	85.81
346.625	75.81
346.853	85.81
347.08	83.81
347.308	97.81
347.535	76.81
347.763	91.81
347.99	89.81
348.218	77.81
348.445	76.81
348.673	71.81
348.9	85.81
349.128	75.81
349.355	86.81
349.583	71.81
349.81	84.81
350.037	85.81
350.265	92.81
350.492	72.81
350.72	68.81
350.947	83.81
351.174	94.81
351.402	69.81
351.629	81.81
351.856	74.81
352.083	91.81
352.311	69.81
352.538	79.81
352.765	80.81
352.992	83.81
353.22	86.81
353.447	72.81
353.674	78.81
353.901	81.81
354.128	75.81
354.355	71.81
354.583	93.81
354.81	78.81
355.037	71.81
355.264	66.81
355.491	69.81
355.718	83.81
355.945	77.81
356.172	83.81
356.399	77.81
356.626	73.81
356.853	79.81
357.08	85.81
357.307	70.81
357.534	73.81
357.761	80.81
357.988	89.81
358.215	84.81
358.441	80.81
358.668	70.81
358.895	74.81
359.122	73.81
359.349	74.81
359.576	81.81
359.802	77.81
360.029	86.81
360.256	84.81
360.483	74.81
360.709	68.81
360.936	86.81
361.163	67.81
361.39	64.81
361.616	79.81
361.843	67.81
362.07	78.81
362.296	72.81
362.523	94.81
362.749	79.81
362.976	79.81
363.203	69.81
363.429	89.81
363.656	80.81
363.882	80.81
364.109	82.81
364.335	88.81
364.562	74.81
364.788	82.81
365.015	80.81
365.241	84.81
365.468	66.81
365.694	80.81
365.92	81.81
366.147	78.81
366.373	72.81
366.599	81.81
366.826	72.81
367.052	88.81
367.278	91.81
367.505	91.81
367.731	86.81
367.957	73.81
368.184	84.81
368.41	96.81
368.636	80.81
368.862	88.81
369.089	85.81
369.315	73.81
369.541	94.81
369.767	81.81
369.993	85.81
370.219	80.81
370.445	97.81
370.672	83.81
370.898	71.81
371.124	88.81
371.35	89.81
371.576	77.81
371.802	77.81
372.028	73.81
372.254	82.81
372.48	75.81
372.706	82.81
372.932	83.81
373.158	76.81
373.384	83.81
373.61	79.81
373.835	91.81
374.061	72.81
374.287	70.81
374.513	84.81
374.739	79.81
374.965	90.81
375.191	70.81
375.416	85.81
375.642	88.81
375.868	90.81
376.094	90.81
376.319	87.81
376.545	88.81
376.771	84.81
376.997	81.81
377.222	82.81
377.448	62.81
377.674	80.81
377.899	89.81
378.125	85.81
378.35	91.81
378.576	85.81
378.802	63.81
379.027	83.81
379.253	85.81
379.478	72.81
379.704	86.81
379.929	97.81
380.155	88.81
380.38	83.81
380.606	78.81
380.831	79.81
381.057	88.81
381.282	94.81
381.507	86.81
381.733	86.81
381.958	80.81
382.184	72.81
382.409	70.81
382.634	89.81
382.86	85.81
383.085	77.81
383.31	86.81
383.535	93.81
383.761	88.81
383.986	95.81
384.211	71.81
384.436	82.81
384.662	73.81
384.887	89.81
385.112	89.81
385.337	84.81
385.562	82.81
385.787	82.81
386.013	85.81
386.238	89.81
386.463	77.81
386.688	81.81
386.913	88.81
387.138	74.81
387.363	86.81
387.588	91.81
387.813	88.81
388.038	96.81
388.263	92.81
388.488	81.81
388.713	79.81
388.938	88.81
389.163	86.81
389.387	80.81
389.612	84.81
389.837	86.81
390.062	80.81
390.287	85.81
390.512	81.81
390.736	79.81
390.961	72.81
391.186	89.81
391.411	90.81
391.636	73.81
391.86	92.81
392.085	88.81
392.31	93.81
392.534	98.81
392.759	82.81
392.984	86.81
393.208	97.81
393.433	85.81
393.658	85.81
393.882	84.81
394.107	75.81
394.331	90.81
394.556	81.81
394.78	84.81
395.005	102.81
395.229	84.81
395.454	86.81
395.678	94.81
395.903	96.81
396.127	106.81
396.352	88.81
396.576	85.81
396.801	93.81
397.025	79.81
397.249	81.81
397.474	80.81
397.698	87.81
397.922	88.81
398.147	93.81
398.371	92.81
398.595	84.81
398.82	90.81
399.044	78.81
399.268	81.81
399.492	93.81
399.717	80.81
399.941	85.81
400.165	73.81
400.389	82.81
400.613	63.81
400.837	93.81
401.062	86.81
401.286	105.81
401.51	99.81
401.734	96.81
401.958	95.81
402.182	75.81
402.406	85.81
402.63	86.81
402.854	99.81
403.078	100.81
403.302	85.81
403.526	86.81
403.75	86.81
403.974	90.81
404.198	95.81
404.422	87.81
404.645	91.81
404.869	93.81
405.093	105.81
405.317	86.81
405.541	99.81
405.765	78.81
405.988	87.81
406.212	92.81
406.436	95.81
406.66	96.81
406.883	99.81
407.107	77.81
407.331	97.81
407.555	92.81
407.778	104.81
408.002	83.81
408.226	83.81
408.449	100.81
408.673	98.81
408.896	93.81
409.12	89.81
409.344	92.81
409.567	101.81
409.791	103.81
410.014	90.81
410.238	90.81
410.461	84.81
410.685	96.81
410.908	88.81
411.132	93.81
411.355	94.81
411.578	89.81
411.802	94.81
412.025	96.81
412.249	86.81
412.472	92.81
412.695	89.81
412.919	88.81
413.142	95.81
413.365	93.81
413.589	96.81
413.812	86.81
414.035	99.81
414.258	90.81
414.482	104.81
414.705	95.81
414.928	93.81
415.151	106.81
415.374	99.81
415.597	89.81
415.821	96.81
416.044	99.81
416.267	87.81
416.49	93.81
416.713	83.81
416.936	86.81
417.159	85.81
417.382	90.81
417.605	89.81
417.828	100.81
418.051	88.81
418.274	98.81
418.497	93.81
418.72	94.81
418.943	104.81
419.166	95.81
419.389	95.81
419.611	110.81
419.834	104.81
420.057	97.81
420.28	88.81
420.503	95.81
420.726	92.81
420.948	111.81
421.171	91.81
421.394	105.81
421.617	98.81
421.839	102.81
422.062	93.81
422.285	103.81
422.507	97.81
422.73	104.81
422.953	100.81
423.175	95.81
423.398	106.81
423.621	99.81
423.843	84.81
424.066	111.81
424.288	84.81
424.511	102.81
424.733	117.81
424.956	108.81
425.178	96.81
425.401	87.81
425.623	117.81
425.846	110.81
426.068	104.81
426.291	84.81
426.513	86.81
426.735	109.81
426.958	105.81
427.18	86.81
427.402	113.81
427.625	95.81
427.847	96.81
428.069	104.81
428.292	94.81
428.514	99.81
428.736	99.81
428.958	94.81
429.181	103.81
429.403	104.81
429.625	96.81
429.847	87.81
430.069	111.81
430.292	90.81
430.514	100.81
430.736	101.81
430.958	100.81
431.18	88.81
431.402	92.81
431.624	97.81
431.846	76.81
432.068	89.81
432.29	89.81
432.512	93.81
432.734	97.81
432.956	96.81
433.178	95.81
433.4	104.81
433.622	99.81
433.844	109.81
434.066	98.81
434.287	93.81
434.509	67.81
434.731	85.81
434.953	91.81
435.175	88.81
435.397	89.81
435.618	97.81
435.84	85.81
436.062	97.81
436.284	82.81
436.505	95.81
436.727	103.81
436.949	99.81
437.17	103.81
437.392	109.81
437.614	79.81
437.835	95.81
438.057	96.81
438.278	94.81
438.5	91.81
438.721	93.81
438.943	120.81
439.165	122.81
439.386	104.81
439.608	105.81
439.829	106.81
440.05	103.81
440.272	99.81
440.493	106.81
440.715	98.81
440.936	118.81
441.158	99.81
441.379	111.81
441.6	116.81
441.822	104.81
442.043	105.81
442.264	104.81
442.486	96.81
442.707	115.81
442.928	95.81
443.149	112.81
443.371	110.81
443.592	100.81
443.813	93.81
444.034	103.81
444.255	102.81
444.476	114.81
444.698	95.81
444.919	107.81
445.14	226.81
445.361	178.81
445.582	117.81
445.803	110.81
446.024	110.81
446.245	115.81
446.466	117.81
446.687	119.81
446.908	125.81
447.129	100.81
447.35	114.81
447.571	115.81
447.792	96.81
448.013	108.81
448.234	96.81
448.455	104.81
448.675	118.81
448.896	111.81
449.117	100.81
449.338	95.81
449.559	102.81
449.779	90.81
450	106.81
450.221	106.81
450.442	98.81
450.662	110.81
450.883	95.81
451.104	100.81
451.324	101.81
451.545	109.81
451.766	110.81
451.986	99.81
452.207	101.81
452.428	111.81
452.648	98.81
452.869	93.81
453.089	96.81
453.31	92.81
453.53	80.81
453.751	93.81
453.971	88.81
454.192	77.81
454.412	94.81
454.633	102.81
454.853	104.81
455.073	103.81
455.294	95.81
455.514	107.81
455.734	83.81
455.955	87.81
456.175	97.81
456.395	114.81
456.616	86.81
456.836	87.81
457.056	82.81
457.276	94.81
457.497	88.81
457.717	99.81
457.937	93.81
458.157	84.81
458.377	90.81
458.598	87.81
458.818	85.81
459.038	70.81
459.258	86.81
459.478	76.81
459.698	88.81
459.918	82.81
460.138	95.81
460.358	88.81
460.578	93.81
460.798	92.81
461.018	97.81
461.238	94.81
461.458	86.81
461.678	96.81
461.898	86.81
462.118	101.81
462.338	97.81
462.558	93.81
462.777	96.81
462.997	93.81
463.217	92.81
463.437	94.81
463.657	96.81
463.876	97.81
464.096	86.81
464.316	87.81
464.536	91.81
464.755	90.81
464.975	92.81
465.195	106.81
465.414	101.81
465.634	96.81
465.854	93.81
466.073	86.81
466.293	99.81
466.512	101.81
466.732	108.81
466.951	97.81
467.171	97.81
467.391	101.81
467.61	106.81
467.829	101.81
468.049	108.81
468.268	98.81
468.488	94.81
468.707	101.81
468.927	92.81
469.146	104.81
469.365	106.81
469.585	101.81
469.804	96.81
470.023	102.81
470.243	119.81
470.462	115.81
470.681	106.81
470.901	105.81
471.12	110.81
471.339	109.81
471.558	114.81
471.777	115.81
471.997	110.81
472.216	104.81
472.435	90.81
472.654	100.81
472.873	92.81
473.092	99.81
473.311	97.81
473.53	120.81
473.749	97.81
473.968	103.81
474.187	88.81
474.406	85.81
474.625	95.81
474.844	94.81
475.063	93.81
475.282	119.81
475.501	87.81
475.72	90.81
475.939	89.81
476.158	95.81
476.377	98.81
476.596	104.81
476.814	95.81
477.033	92.81
477.252	95.81
477.471	94.81
477.69	87.81
477.908	95.81
478.127	103.81
478.346	99.81
478.564	124.81
478.783	95.81
479.002	112.81
479.22	108.81
479.439	97.81
479.658	104.81
479.876	98.81
480.095	89.81
480.313	90.81
480.532	89.81
480.751	99.81
480.969	77.81
481.188	81.81
481.406	68.81
481.624	84.81
481.843	87.81
482.061	102.81
482.28	87.81
482.498	95.81
482.717	96.81
482.935	94.81
483.153	93.81
483.372	99.81
483.59	106.81
483.808	114.81
484.027	119.81
484.245	102.81
484.463	100.81
484.681	126.81
484.9	112.81
485.118	114.81
485.336	109.81
485.554	93.81
485.772	94.81
485.99	86.81
486.209	90.81
486.427	99.81
486.645	102.81
486.863	110.81
487.081	112.81
487.299	97.81
487.517	124.81
487.735	109.81
487.953	144.81
488.171	131.81
488.389	111.81
488.607	110.81
488.825	118.81
489.043	90.81
489.261	114.81
489.479	96.81
489.696	115.81
489.914	113.81
490.132	102.81
490.35	124.81
490.568	128.81
490.786	98.81
491.003	118.81
491.221	124.81
491.439	123.81
491.657	147.81
491.874	146.81
492.092	141.81
492.31	161.81
492.527	142.81
492.745	144.81
492.963	128.81
493.18	137.81
493.398	120.81
493.615	126.81
493.833	111.81
494.05	125.81
494.268	129.81
494.485	122.81
494.703	118.81
494.92	128.81
495.138	142.81
495.355	107.81
495.573	127.81
495.79	125.81
496.008	125.81
496.225	121.81
496.442	120.81
496.66	112.81
496.877	117.81
497.094	119.81
497.312	110.81
497.529	115.81
497.746	120.81
497.963	106.81
498.181	116.81
498.398	93.81
498.615	72.81
498.832	94.81
499.049	89.81
499.267	91.81
499.484	98.81
499.701	111.81
499.918	108.81
500.135	104.81
500.352	117.81
500.569	124.81
500.786	117.81
501.003	110.81
501.22	95.81
501.437	109.81
501.654	118.81
501.871	121.81
502.088	114.81
502.305	110.81
502.522	86.81
502.739	118.81
502.956	103.81
503.172	97.81
503.389	103.81
503.606	93.81
503.823	104.81
504.04	105.81
504.256	93.81
504.473	99.81
504.69	86.81
504.907	97.81
505.123	97.81
505.34	98.81
505.557	103.81
505.773	109.81
505.99	112.81
506.207	78.81
506.423	80.81
506.64	101.81
506.856	109.81
507.073	99.81
507.289	97.81
507.506	93.81
507.722	96.81
507.939	88.81
508.155	93.81
508.372	86.81
508.588	89.81
508.805	91.81
509.021	95.81
509.238	94.81
509.454	114.81
509.67	92.81
509.887	92.81
510.103	90.81
510.319	89.81
510.536	83.81
510.752	81.81
510.968	75.81
511.184	92.81
511.401	87.81
511.617	88.81
511.833	57.81
512.049	88.81
512.265	83.81
512.481	84.81
512.698	88.81
512.914	89.81
513.13	93.81
513.346	84.81
513.562	87.81
513.778	85.81
513.994	92.81
514.21	79.81
514.426	78.81
514.642	85.81
514.858	83.81
515.074	87.81
515.29	84.81
515.506	88.81
515.721	70.81
515.937	89.81
516.153	69.81
516.369	82.81
