Data from Zn(NO3)2Standard.Agarose3%.GreenCap.LampEnergy5.5.E.O_HRD10591_15-01-01-767.txt Node
Date: Mon Jul 22 15:01:01 EDT 2019
User: cochatt
Spectrometer: HR+D1059
Trigger mode: 1
Integration Time (sec): 1.000000E-1
Scans to average: 1
Electric dark correction enabled: true
Nonlinearity correction enabled: false
Boxcar width: 0
XAxis mode: Wavelengths
Number of Pixels in Spectrum: 2048
>>>>>Begin Spectral Data<<<<<
223.165	-11.81
223.4	-11.81
223.635	-11.81
223.869	-21.81
224.104	-12.81
224.338	-11.81
224.573	-20.81
224.808	-22.81
225.042	-1.81
225.277	7.19
225.511	-12.81
225.746	8.19
225.98	22.19
226.215	6.19
226.449	32.19
226.683	13.19
226.918	13.19
227.152	14.19
227.387	37.19
227.621	38.19
227.856	45.19
228.09	27.19
228.324	47.19
228.559	59.19
228.793	48.19
229.027	44.19
229.262	60.19
229.496	71.19
229.73	53.19
229.964	72.19
230.199	67.19
230.433	71.19
230.667	76.19
230.901	84.19
231.136	64.19
231.37	79.19
231.604	81.19
231.838	76.19
232.072	71.19
232.306	65.19
232.541	75.19
232.775	71.19
233.009	66.19
233.243	75.19
233.477	70.19
233.711	72.19
233.945	86.19
234.179	69.19
234.413	70.19
234.647	73.19
234.881	73.19
235.115	68.19
235.349	69.19
235.583	74.19
235.817	88.19
236.051	76.19
236.285	66.19
236.519	60.19
236.753	68.19
236.987	74.19
237.221	76.19
237.455	82.19
237.689	77.19
237.922	83.19
238.156	77.19
238.39	80.19
238.624	71.19
238.858	56.19
239.091	80.19
239.325	77.19
239.559	72.19
239.793	68.19
240.027	81.19
240.26	69.19
240.494	85.19
240.728	57.19
240.961	73.19
241.195	82.19
241.429	79.19
241.662	63.19
241.896	77.19
242.13	77.19
242.363	77.19
242.597	77.19
242.83	75.19
243.064	81.19
243.298	72.19
243.531	68.19
243.765	82.19
243.998	70.19
244.232	80.19
244.465	73.19
244.699	75.19
244.932	69.19
245.166	66.19
245.399	59.19
245.633	74.19
245.866	94.19
246.099	81.19
246.333	80.19
246.566	76.19
246.8	84.19
247.033	80.19
247.266	92.19
247.5	71.19
247.733	74.19
247.966	85.19
248.2	75.19
248.433	81.19
248.666	75.19
248.899	75.19
249.133	70.19
249.366	74.19
249.599	68.19
249.832	85.19
250.066	88.19
250.299	72.19
250.532	93.19
250.765	82.19
250.998	75.19
251.231	67.19
251.465	82.19
251.698	87.19
251.931	82.19
252.164	80.19
252.397	83.19
252.63	61.19
252.863	75.19
253.096	69.19
253.329	77.19
253.562	77.19
253.795	91.19
254.028	76.19
254.261	84.19
254.494	77.19
254.727	84.19
254.96	72.19
255.193	88.19
255.426	71.19
255.659	85.19
255.892	72.19
256.124	84.19
256.357	88.19
256.59	80.19
256.823	75.19
257.056	75.19
257.289	82.19
257.521	74.19
257.754	77.19
257.987	69.19
258.22	83.19
258.452	82.19
258.685	78.19
258.918	77.19
259.151	67.19
259.383	69.19
259.616	83.19
259.849	89.19
260.081	82.19
260.314	77.19
260.547	68.19
260.779	84.19
261.012	85.19
261.244	78.19
261.477	90.19
261.71	86.19
261.942	86.19
262.175	76.19
262.407	93.19
262.64	87.19
262.872	79.19
263.105	83.19
263.337	72.19
263.57	71.19
263.802	77.19
264.035	71.19
264.267	95.19
264.499	89.19
264.732	72.19
264.964	88.19
265.197	75.19
265.429	79.19
265.661	72.19
265.894	82.19
266.126	84.19
266.358	84.19
266.591	83.19
266.823	63.19
267.055	87.19
267.287	88.19
267.52	87.19
267.752	86.19
267.984	83.19
268.216	72.19
268.448	80.19
268.681	100.19
268.913	80.19
269.145	72.19
269.377	67.19
269.609	78.19
269.841	71.19
270.073	84.19
270.306	76.19
270.538	81.19
270.77	67.19
271.002	63.19
271.234	64.19
271.466	90.19
271.698	80.19
271.93	80.19
272.162	77.19
272.394	91.19
272.626	85.19
272.858	80.19
273.09	83.19
273.322	92.19
273.553	86.19
273.785	88.19
274.017	87.19
274.249	85.19
274.481	85.19
274.713	79.19
274.945	75.19
275.176	81.19
275.408	77.19
275.64	82.19
275.872	85.19
276.104	77.19
276.335	84.19
276.567	85.19
276.799	72.19
277.031	83.19
277.262	65.19
277.494	78.19
277.726	75.19
277.957	93.19
278.189	79.19
278.421	88.19
278.652	89.19
278.884	68.19
279.115	82.19
279.347	74.19
279.579	81.19
279.81	72.19
280.042	82.19
280.273	71.19
280.505	78.19
280.736	79.19
280.968	87.19
281.199	89.19
281.431	81.19
281.662	76.19
281.894	79.19
282.125	87.19
282.356	85.19
282.588	84.19
282.819	71.19
283.051	84.19
283.282	86.19
283.513	81.19
283.745	84.19
283.976	81.19
284.207	91.19
284.439	87.19
284.67	84.19
284.901	87.19
285.132	81.19
285.364	90.19
285.595	75.19
285.826	85.19
286.057	75.19
286.288	81.19
286.52	89.19
286.751	81.19
286.982	72.19
287.213	83.19
287.444	76.19
287.675	86.19
287.906	89.19
288.138	97.19
288.369	80.19
288.6	77.19
288.831	97.19
289.062	70.19
289.293	76.19
289.524	75.19
289.755	92.19
289.986	77.19
290.217	84.19
290.448	93.19
290.679	89.19
290.91	92.19
291.141	88.19
291.371	76.19
291.602	73.19
291.833	95.19
292.064	88.19
292.295	103.19
292.526	77.19
292.757	93.19
292.987	89.19
293.218	77.19
293.449	77.19
293.68	74.19
293.91	75.19
294.141	72.19
294.372	77.19
294.603	87.19
294.833	67.19
295.064	74.19
295.295	93.19
295.525	76.19
295.756	91.19
295.987	81.19
296.217	91.19
296.448	96.19
296.679	93.19
296.909	75.19
297.14	95.19
297.37	88.19
297.601	83.19
297.831	81.19
298.062	77.19
298.292	72.19
298.523	74.19
298.753	66.19
298.984	87.19
299.214	86.19
299.445	91.19
299.675	96.19
299.905	73.19
300.136	95.19
300.366	83.19
300.597	88.19
300.827	99.19
301.057	99.19
301.288	66.19
301.518	76.19
301.748	100.19
301.979	78.19
302.209	86.19
302.439	76.19
302.669	83.19
302.9	87.19
303.13	86.19
303.36	77.19
303.59	82.19
303.82	70.19
304.051	75.19
304.281	90.19
304.511	84.19
304.741	78.19
304.971	73.19
305.201	78.19
305.431	83.19
305.661	94.19
305.891	83.19
306.121	75.19
306.352	80.19
306.582	91.19
306.812	83.19
307.042	77.19
307.272	87.19
307.502	92.19
307.731	90.19
307.961	92.19
308.191	88.19
308.421	83.19
308.651	77.19
308.881	84.19
309.111	76.19
309.341	100.19
309.571	72.19
309.8	76.19
310.03	87.19
310.26	80.19
310.49	81.19
310.72	85.19
310.949	82.19
311.179	80.19
311.409	78.19
311.639	84.19
311.868	82.19
312.098	83.19
312.328	80.19
312.557	88.19
312.787	74.19
313.017	82.19
313.246	81.19
313.476	79.19
313.706	71.19
313.935	88.19
314.165	91.19
314.394	92.19
314.624	75.19
314.853	89.19
315.083	74.19
315.312	91.19
315.542	77.19
315.771	85.19
316.001	83.19
316.23	89.19
316.46	71.19
316.689	82.19
316.919	80.19
317.148	92.19
317.377	99.19
317.607	87.19
317.836	71.19
318.065	87.19
318.295	87.19
318.524	76.19
318.753	72.19
318.983	75.19
319.212	85.19
319.441	85.19
319.67	75.19
319.9	82.19
320.129	89.19
320.358	73.19
320.587	80.19
320.816	71.19
321.046	83.19
321.275	67.19
321.504	82.19
321.733	83.19
321.962	77.19
322.191	83.19
322.42	77.19
322.649	96.19
322.878	92.19
323.108	81.19
323.337	82.19
323.566	79.19
323.795	71.19
324.024	82.19
324.253	81.19
324.482	83.19
324.71	98.19
324.939	74.19
325.168	72.19
325.397	75.19
325.626	78.19
325.855	88.19
326.084	82.19
326.313	73.19
326.542	76.19
326.77	90.19
326.999	79.19
327.228	72.19
327.457	89.19
327.686	97.19
327.914	94.19
328.143	81.19
328.372	85.19
328.6	88.19
328.829	67.19
329.058	73.19
329.287	82.19
329.515	89.19
329.744	99.19
329.972	79.19
330.201	76.19
330.43	85.19
330.658	83.19
330.887	75.19
331.115	83.19
331.344	77.19
331.572	81.19
331.801	93.19
332.03	83.19
332.258	99.19
332.486	92.19
332.715	81.19
332.943	74.19
333.172	94.19
333.4	78.19
333.629	84.19
333.857	81.19
334.085	82.19
334.314	83.19
334.542	85.19
334.771	81.19
334.999	75.19
335.227	72.19
335.455	78.19
335.684	81.19
335.912	84.19
336.14	83.19
336.369	100.19
336.597	81.19
336.825	85.19
337.053	74.19
337.281	97.19
337.51	73.19
337.738	94.19
337.966	79.19
338.194	83.19
338.422	80.19
338.65	82.19
338.878	89.19
339.106	76.19
339.334	85.19
339.562	79.19
339.79	85.19
340.018	74.19
340.246	73.19
340.474	75.19
340.702	75.19
340.93	80.19
341.158	76.19
341.386	86.19
341.614	87.19
341.842	88.19
342.07	67.19
342.298	76.19
342.526	83.19
342.754	87.19
342.981	81.19
343.209	81.19
343.437	91.19
343.665	81.19
343.893	73.19
344.12	101.19
344.348	67.19
344.576	93.19
344.804	85.19
345.031	84.19
345.259	74.19
345.487	93.19
345.714	88.19
345.942	80.19
346.17	102.19
346.397	87.19
346.625	77.19
346.853	89.19
347.08	84.19
347.308	67.19
347.535	79.19
347.763	95.19
347.99	94.19
348.218	83.19
348.445	90.19
348.673	88.19
348.9	83.19
349.128	81.19
349.355	71.19
349.583	82.19
349.81	73.19
350.037	89.19
350.265	91.19
350.492	78.19
350.72	82.19
350.947	75.19
351.174	84.19
351.402	83.19
351.629	87.19
351.856	89.19
352.083	74.19
352.311	89.19
352.538	77.19
352.765	75.19
352.992	76.19
353.22	93.19
353.447	81.19
353.674	73.19
353.901	87.19
354.128	97.19
354.355	83.19
354.583	81.19
354.81	80.19
355.037	73.19
355.264	80.19
355.491	78.19
355.718	81.19
355.945	92.19
356.172	68.19
356.399	78.19
356.626	98.19
356.853	90.19
357.08	87.19
357.307	79.19
357.534	69.19
357.761	71.19
357.988	81.19
358.215	87.19
358.441	86.19
358.668	92.19
358.895	92.19
359.122	68.19
359.349	81.19
359.576	85.19
359.802	80.19
360.029	91.19
360.256	87.19
360.483	80.19
360.709	88.19
360.936	98.19
361.163	85.19
361.39	82.19
361.616	88.19
361.843	71.19
362.07	82.19
362.296	85.19
362.523	90.19
362.749	92.19
362.976	72.19
363.203	86.19
363.429	77.19
363.656	81.19
363.882	100.19
364.109	82.19
364.335	92.19
364.562	83.19
364.788	73.19
365.015	88.19
365.241	80.19
365.468	83.19
365.694	94.19
365.92	95.19
366.147	77.19
366.373	76.19
366.599	74.19
366.826	89.19
367.052	87.19
367.278	77.19
367.505	77.19
367.731	75.19
367.957	89.19
368.184	69.19
368.41	67.19
368.636	84.19
368.862	79.19
369.089	76.19
369.315	78.19
369.541	97.19
369.767	98.19
369.993	63.19
370.219	82.19
370.445	73.19
370.672	85.19
370.898	76.19
371.124	79.19
371.35	76.19
371.576	79.19
371.802	89.19
372.028	87.19
372.254	86.19
372.48	89.19
372.706	101.19
372.932	81.19
373.158	78.19
373.384	86.19
373.61	84.19
373.835	104.19
374.061	88.19
374.287	80.19
374.513	79.19
374.739	84.19
374.965	81.19
375.191	71.19
375.416	79.19
375.642	78.19
375.868	90.19
376.094	81.19
376.319	82.19
376.545	86.19
376.771	75.19
376.997	76.19
377.222	73.19
377.448	83.19
377.674	92.19
377.899	67.19
378.125	68.19
378.35	97.19
378.576	87.19
378.802	73.19
379.027	87.19
379.253	74.19
379.478	75.19
379.704	76.19
379.929	83.19
380.155	76.19
380.38	79.19
380.606	75.19
380.831	94.19
381.057	95.19
381.282	85.19
381.507	83.19
381.733	83.19
381.958	85.19
382.184	85.19
382.409	91.19
382.634	82.19
382.86	77.19
383.085	75.19
383.31	75.19
383.535	90.19
383.761	78.19
383.986	73.19
384.211	90.19
384.436	92.19
384.662	82.19
384.887	78.19
385.112	78.19
385.337	81.19
385.562	76.19
385.787	77.19
386.013	96.19
386.238	95.19
386.463	87.19
386.688	88.19
386.913	69.19
387.138	83.19
387.363	74.19
387.588	70.19
387.813	83.19
388.038	75.19
388.263	81.19
388.488	85.19
388.713	89.19
388.938	87.19
389.163	77.19
389.387	82.19
389.612	72.19
389.837	84.19
390.062	84.19
390.287	90.19
390.512	79.19
390.736	83.19
390.961	81.19
391.186	88.19
391.411	72.19
391.636	69.19
391.86	73.19
392.085	82.19
392.31	92.19
392.534	88.19
392.759	85.19
392.984	74.19
393.208	63.19
393.433	71.19
393.658	72.19
393.882	77.19
394.107	89.19
394.331	80.19
394.556	78.19
394.78	84.19
395.005	85.19
395.229	79.19
395.454	85.19
395.678	70.19
395.903	77.19
396.127	89.19
396.352	76.19
396.576	85.19
396.801	81.19
397.025	100.19
397.249	65.19
397.474	86.19
397.698	75.19
397.922	88.19
398.147	82.19
398.371	93.19
398.595	102.19
398.82	89.19
399.044	84.19
399.268	88.19
399.492	91.19
399.717	92.19
399.941	81.19
400.165	89.19
400.389	92.19
400.613	77.19
400.837	85.19
401.062	90.19
401.286	75.19
401.51	88.19
401.734	75.19
401.958	82.19
402.182	86.19
402.406	72.19
402.63	76.19
402.854	80.19
403.078	80.19
403.302	87.19
403.526	88.19
403.75	83.19
403.974	89.19
404.198	81.19
404.422	87.19
404.645	82.19
404.869	75.19
405.093	84.19
405.317	85.19
405.541	84.19
405.765	85.19
405.988	88.19
406.212	90.19
406.436	85.19
406.66	95.19
406.883	85.19
407.107	79.19
407.331	80.19
407.555	91.19
407.778	88.19
408.002	81.19
408.226	82.19
408.449	93.19
408.673	88.19
408.896	70.19
409.12	76.19
409.344	95.19
409.567	86.19
409.791	82.19
410.014	85.19
410.238	82.19
410.461	87.19
410.685	75.19
410.908	81.19
411.132	88.19
411.355	73.19
411.578	87.19
411.802	87.19
412.025	89.19
412.249	74.19
412.472	84.19
412.695	76.19
412.919	82.19
413.142	82.19
413.365	77.19
413.589	90.19
413.812	79.19
414.035	81.19
414.258	81.19
414.482	84.19
414.705	79.19
414.928	86.19
415.151	99.19
415.374	76.19
415.597	88.19
415.821	96.19
416.044	87.19
416.267	98.19
416.49	101.19
416.713	87.19
416.936	92.19
417.159	82.19
417.382	87.19
417.605	79.19
417.828	92.19
418.051	95.19
418.274	79.19
418.497	84.19
418.72	80.19
418.943	88.19
419.166	89.19
419.389	97.19
419.611	78.19
419.834	91.19
420.057	101.19
420.28	98.19
420.503	99.19
420.726	94.19
420.948	92.19
421.171	93.19
421.394	78.19
421.617	97.19
421.839	82.19
422.062	89.19
422.285	71.19
422.507	87.19
422.73	85.19
422.953	86.19
423.175	89.19
423.398	81.19
423.621	91.19
423.843	90.19
424.066	85.19
424.288	93.19
424.511	109.19
424.733	87.19
424.956	88.19
425.178	86.19
425.401	80.19
425.623	92.19
425.846	97.19
426.068	75.19
426.291	87.19
426.513	70.19
426.735	88.19
426.958	89.19
427.18	70.19
427.402	92.19
427.625	103.19
427.847	93.19
428.069	98.19
428.292	81.19
428.514	95.19
428.736	62.19
428.958	91.19
429.181	91.19
429.403	90.19
429.625	94.19
429.847	90.19
430.069	86.19
430.292	86.19
430.514	91.19
430.736	94.19
430.958	78.19
431.18	96.19
431.402	88.19
431.624	100.19
431.846	86.19
432.068	91.19
432.29	82.19
432.512	73.19
432.734	91.19
432.956	82.19
433.178	85.19
433.4	83.19
433.622	97.19
433.844	87.19
434.066	97.19
434.287	72.19
434.509	85.19
434.731	103.19
434.953	86.19
435.175	77.19
435.397	88.19
435.618	82.19
435.84	91.19
436.062	92.19
436.284	100.19
436.505	66.19
436.727	89.19
436.949	77.19
437.17	98.19
437.392	90.19
437.614	89.19
437.835	60.19
438.057	94.19
438.278	92.19
438.5	77.19
438.721	85.19
438.943	90.19
439.165	87.19
439.386	85.19
439.608	96.19
439.829	79.19
440.05	77.19
440.272	97.19
440.493	76.19
440.715	97.19
440.936	87.19
441.158	84.19
441.379	75.19
441.6	93.19
441.822	97.19
442.043	92.19
442.264	89.19
442.486	87.19
442.707	89.19
442.928	98.19
443.149	89.19
443.371	102.19
443.592	91.19
443.813	99.19
444.034	91.19
444.255	87.19
444.476	79.19
444.698	93.19
444.919	87.19
445.14	193.19
445.361	122.19
445.582	99.19
445.803	94.19
446.024	98.19
446.245	105.19
446.466	92.19
446.687	104.19
446.908	99.19
447.129	93.19
447.35	96.19
447.571	99.19
447.792	91.19
448.013	89.19
448.234	94.19
448.455	89.19
448.675	97.19
448.896	82.19
449.117	87.19
449.338	91.19
449.559	106.19
449.779	85.19
450	81.19
450.221	89.19
450.442	86.19
450.662	88.19
450.883	95.19
451.104	76.19
451.324	82.19
451.545	82.19
451.766	98.19
451.986	74.19
452.207	85.19
452.428	81.19
452.648	85.19
452.869	85.19
453.089	89.19
453.31	99.19
453.53	80.19
453.751	85.19
453.971	74.19
454.192	80.19
454.412	91.19
454.633	86.19
454.853	77.19
455.073	85.19
455.294	81.19
455.514	80.19
455.734	70.19
455.955	91.19
456.175	91.19
456.395	76.19
456.616	84.19
456.836	84.19
457.056	71.19
457.276	80.19
457.497	92.19
457.717	85.19
457.937	77.19
458.157	82.19
458.377	81.19
458.598	74.19
458.818	71.19
459.038	62.19
459.258	86.19
459.478	69.19
459.698	85.19
459.918	106.19
460.138	87.19
460.358	78.19
460.578	84.19
460.798	88.19
461.018	84.19
461.238	100.19
461.458	90.19
461.678	81.19
461.898	89.19
462.118	86.19
462.338	88.19
462.558	80.19
462.777	70.19
462.997	71.19
463.217	92.19
463.437	85.19
463.657	94.19
463.876	98.19
464.096	93.19
464.316	83.19
464.536	88.19
464.755	84.19
464.975	78.19
465.195	90.19
465.414	74.19
465.634	80.19
465.854	75.19
466.073	96.19
466.293	85.19
466.512	82.19
466.732	89.19
466.951	79.19
467.171	84.19
467.391	95.19
467.61	76.19
467.829	102.19
468.049	90.19
468.268	85.19
468.488	95.19
468.707	78.19
468.927	92.19
469.146	88.19
469.365	88.19
469.585	67.19
469.804	90.19
470.023	84.19
470.243	103.19
470.462	106.19
470.681	97.19
470.901	93.19
471.12	99.19
471.339	95.19
471.558	88.19
471.777	93.19
471.997	90.19
472.216	99.19
472.435	92.19
472.654	85.19
472.873	84.19
473.092	82.19
473.311	90.19
473.53	93.19
473.749	88.19
473.968	107.19
474.187	78.19
474.406	87.19
474.625	80.19
474.844	93.19
475.063	95.19
475.282	87.19
475.501	85.19
475.72	89.19
475.939	91.19
476.158	80.19
476.377	100.19
476.596	93.19
476.814	75.19
477.033	74.19
477.252	91.19
477.471	83.19
477.69	89.19
477.908	104.19
478.127	91.19
478.346	85.19
478.564	87.19
478.783	87.19
479.002	89.19
479.22	99.19
479.439	85.19
479.658	88.19
479.876	92.19
480.095	79.19
480.313	97.19
480.532	87.19
480.751	77.19
480.969	83.19
481.188	76.19
481.406	92.19
481.624	72.19
481.843	93.19
482.061	83.19
482.28	95.19
482.498	83.19
482.717	92.19
482.935	84.19
483.153	100.19
483.372	99.19
483.59	93.19
483.808	79.19
484.027	90.19
484.245	75.19
484.463	87.19
484.681	83.19
484.9	96.19
485.118	103.19
485.336	89.19
485.554	85.19
485.772	80.19
485.99	89.19
486.209	91.19
486.427	81.19
486.645	81.19
486.863	77.19
487.081	103.19
487.299	87.19
487.517	95.19
487.735	97.19
487.953	103.19
488.171	95.19
488.389	93.19
488.607	89.19
488.825	85.19
489.043	87.19
489.261	91.19
489.479	81.19
489.696	88.19
489.914	91.19
490.132	93.19
490.35	94.19
490.568	92.19
490.786	101.19
491.003	115.19
491.221	93.19
491.439	100.19
491.657	95.19
491.874	103.19
492.092	105.19
492.31	125.19
492.527	116.19
492.745	99.19
492.963	106.19
493.18	102.19
493.398	93.19
493.615	101.19
493.833	97.19
494.05	101.19
494.268	87.19
494.485	108.19
494.703	106.19
494.92	109.19
495.138	89.19
495.355	95.19
495.573	87.19
495.79	92.19
496.008	92.19
496.225	93.19
496.442	104.19
496.66	98.19
496.877	84.19
497.094	90.19
497.312	92.19
497.529	87.19
497.746	87.19
497.963	86.19
498.181	82.19
498.398	86.19
498.615	100.19
498.832	84.19
499.049	82.19
499.267	88.19
499.484	88.19
499.701	100.19
499.918	92.19
500.135	92.19
500.352	86.19
500.569	77.19
500.786	99.19
501.003	80.19
501.22	93.19
501.437	87.19
501.654	96.19
501.871	84.19
502.088	73.19
502.305	87.19
502.522	81.19
502.739	88.19
502.956	98.19
503.172	79.19
503.389	89.19
503.606	90.19
503.823	74.19
504.04	96.19
504.256	87.19
504.473	96.19
504.69	82.19
504.907	80.19
505.123	106.19
505.34	91.19
505.557	86.19
505.773	90.19
505.99	80.19
506.207	87.19
506.423	88.19
506.64	90.19
506.856	97.19
507.073	76.19
507.289	93.19
507.506	86.19
507.722	87.19
507.939	88.19
508.155	93.19
508.372	89.19
508.588	78.19
508.805	82.19
509.021	80.19
509.238	83.19
509.454	90.19
509.67	87.19
509.887	77.19
510.103	90.19
510.319	95.19
510.536	85.19
510.752	87.19
510.968	83.19
511.184	68.19
511.401	88.19
511.617	90.19
511.833	96.19
512.049	92.19
512.265	93.19
512.481	79.19
512.698	74.19
512.914	79.19
513.13	83.19
513.346	69.19
513.562	81.19
513.778	86.19
513.994	77.19
514.21	83.19
514.426	73.19
514.642	88.19
514.858	79.19
515.074	84.19
515.29	90.19
515.506	85.19
515.721	80.19
515.937	86.19
516.153	85.19
516.369	82.19
516.585	87.19
516.801	75.19
517.016	78.19
517.232	77.19
517.448	83.19
517.664	72.19
517.879	85.19
518.095	77.19
518.311	86.19
518.527	76.19
518.742	78.19
