Data from Zn(NO3)2Standard.Agarose3%.GreenCap.LampEnergy10E.O_HRD10591_15-06-31-942.txt Node
Date: Mon Jul 22 15:06:31 EDT 2019
User: cochatt
Spectrometer: HR+D1059
Trigger mode: 1
Integration Time (sec): 1.000000E-1
Scans to average: 1
Electric dark correction enabled: true
Nonlinearity correction enabled: false
Boxcar width: 0
XAxis mode: Wavelengths
Number of Pixels in Spectrum: 2048
>>>>>Begin Spectral Data<<<<<
223.165	-19.56
223.4	-19.56
223.635	-19.56
223.869	-14.56
224.104	-18.56
224.338	-15.56
224.573	-11.56
224.808	-12.56
225.042	-21.56
225.277	4.44
225.511	-2.56
225.746	16.44
225.98	6.44
226.215	7.44
226.449	10.44
226.683	18.44
226.918	31.44
227.152	21.44
227.387	26.44
227.621	23.44
227.856	50.44
228.09	43.44
228.324	48.44
228.559	50.44
228.793	59.44
229.027	62.44
229.262	69.44
229.496	72.44
229.73	70.44
229.964	69.44
230.199	69.44
230.433	65.44
230.667	77.44
230.901	70.44
231.136	83.44
231.37	86.44
231.604	79.44
231.838	92.44
232.072	83.44
232.306	81.44
232.541	77.44
232.775	86.44
233.009	90.44
233.243	87.44
233.477	86.44
233.711	79.44
233.945	80.44
234.179	84.44
234.413	87.44
234.647	73.44
234.881	88.44
235.115	79.44
235.349	84.44
235.583	84.44
235.817	80.44
236.051	98.44
236.285	82.44
236.519	75.44
236.753	81.44
236.987	82.44
237.221	75.44
237.455	78.44
237.689	85.44
237.922	76.44
238.156	81.44
238.39	84.44
238.624	78.44
238.858	73.44
239.091	70.44
239.325	68.44
239.559	85.44
239.793	68.44
240.027	79.44
240.26	88.44
240.494	62.44
240.728	84.44
240.961	83.44
241.195	81.44
241.429	88.44
241.662	73.44
241.896	69.44
242.13	81.44
242.363	83.44
242.597	94.44
242.83	69.44
243.064	91.44
243.298	71.44
243.531	72.44
243.765	73.44
243.998	82.44
244.232	69.44
244.465	90.44
244.699	80.44
244.932	84.44
245.166	81.44
245.399	87.44
245.633	75.44
245.866	65.44
246.099	71.44
246.333	71.44
246.566	57.44
246.8	75.44
247.033	89.44
247.266	78.44
247.5	65.44
247.733	77.44
247.966	68.44
248.2	72.44
248.433	82.44
248.666	88.44
248.899	74.44
249.133	78.44
249.366	70.44
249.599	75.44
249.832	77.44
250.066	78.44
250.299	77.44
250.532	80.44
250.765	85.44
250.998	86.44
251.231	68.44
251.465	76.44
251.698	70.44
251.931	74.44
252.164	78.44
252.397	84.44
252.63	87.44
252.863	77.44
253.096	86.44
253.329	85.44
253.562	56.44
253.795	89.44
254.028	84.44
254.261	86.44
254.494	87.44
254.727	89.44
254.96	91.44
255.193	85.44
255.426	73.44
255.659	69.44
255.892	77.44
256.124	71.44
256.357	91.44
256.59	84.44
256.823	81.44
257.056	72.44
257.289	81.44
257.521	86.44
257.754	74.44
257.987	76.44
258.22	83.44
258.452	91.44
258.685	93.44
258.918	80.44
259.151	81.44
259.383	85.44
259.616	73.44
259.849	84.44
260.081	78.44
260.314	77.44
260.547	83.44
260.779	81.44
261.012	93.44
261.244	88.44
261.477	83.44
261.71	81.44
261.942	76.44
262.175	88.44
262.407	70.44
262.64	76.44
262.872	84.44
263.105	81.44
263.337	77.44
263.57	73.44
263.802	77.44
264.035	82.44
264.267	82.44
264.499	82.44
264.732	93.44
264.964	71.44
265.197	98.44
265.429	83.44
265.661	77.44
265.894	77.44
266.126	81.44
266.358	82.44
266.591	76.44
266.823	79.44
267.055	73.44
267.287	81.44
267.52	84.44
267.752	93.44
267.984	88.44
268.216	68.44
268.448	82.44
268.681	71.44
268.913	88.44
269.145	81.44
269.377	82.44
269.609	90.44
269.841	89.44
270.073	93.44
270.306	84.44
270.538	93.44
270.77	96.44
271.002	77.44
271.234	82.44
271.466	88.44
271.698	84.44
271.93	83.44
272.162	78.44
272.394	80.44
272.626	83.44
272.858	85.44
273.09	73.44
273.322	80.44
273.553	83.44
273.785	94.44
274.017	79.44
274.249	91.44
274.481	89.44
274.713	88.44
274.945	80.44
275.176	81.44
275.408	77.44
275.64	88.44
275.872	73.44
276.104	79.44
276.335	77.44
276.567	77.44
276.799	84.44
277.031	86.44
277.262	84.44
277.494	92.44
277.726	77.44
277.957	76.44
278.189	85.44
278.421	97.44
278.652	87.44
278.884	75.44
279.115	84.44
279.347	74.44
279.579	80.44
279.81	76.44
280.042	88.44
280.273	78.44
280.505	76.44
280.736	81.44
280.968	70.44
281.199	92.44
281.431	82.44
281.662	92.44
281.894	81.44
282.125	80.44
282.356	79.44
282.588	77.44
282.819	73.44
283.051	80.44
283.282	88.44
283.513	82.44
283.745	95.44
283.976	83.44
284.207	79.44
284.439	77.44
284.67	76.44
284.901	86.44
285.132	78.44
285.364	85.44
285.595	88.44
285.826	87.44
286.057	75.44
286.288	67.44
286.52	73.44
286.751	90.44
286.982	70.44
287.213	84.44
287.444	90.44
287.675	72.44
287.906	83.44
288.138	86.44
288.369	91.44
288.6	96.44
288.831	88.44
289.062	79.44
289.293	64.44
289.524	66.44
289.755	86.44
289.986	80.44
290.217	84.44
290.448	86.44
290.679	81.44
290.91	101.44
291.141	94.44
291.371	97.44
291.602	82.44
291.833	74.44
292.064	89.44
292.295	93.44
292.526	83.44
292.757	71.44
292.987	79.44
293.218	88.44
293.449	74.44
293.68	77.44
293.91	83.44
294.141	76.44
294.372	69.44
294.603	90.44
294.833	87.44
295.064	86.44
295.295	78.44
295.525	91.44
295.756	89.44
295.987	96.44
296.217	73.44
296.448	79.44
296.679	88.44
296.909	67.44
297.14	84.44
297.37	87.44
297.601	74.44
297.831	91.44
298.062	92.44
298.292	74.44
298.523	86.44
298.753	82.44
298.984	91.44
299.214	80.44
299.445	103.44
299.675	91.44
299.905	90.44
300.136	84.44
300.366	96.44
300.597	85.44
300.827	92.44
301.057	89.44
301.288	84.44
301.518	84.44
301.748	82.44
301.979	73.44
302.209	78.44
302.439	82.44
302.669	77.44
302.9	94.44
303.13	87.44
303.36	82.44
303.59	70.44
303.82	88.44
304.051	90.44
304.281	95.44
304.511	85.44
304.741	87.44
304.971	83.44
305.201	78.44
305.431	88.44
305.661	78.44
305.891	90.44
306.121	88.44
306.352	85.44
306.582	77.44
306.812	101.44
307.042	82.44
307.272	73.44
307.502	90.44
307.731	65.44
307.961	87.44
308.191	93.44
308.421	88.44
308.651	77.44
308.881	79.44
309.111	86.44
309.341	70.44
309.571	93.44
309.8	91.44
310.03	90.44
310.26	92.44
310.49	77.44
310.72	89.44
310.949	76.44
311.179	90.44
311.409	82.44
311.639	76.44
311.868	79.44
312.098	76.44
312.328	86.44
312.557	94.44
312.787	78.44
313.017	91.44
313.246	81.44
313.476	94.44
313.706	93.44
313.935	85.44
314.165	88.44
314.394	79.44
314.624	77.44
314.853	78.44
315.083	91.44
315.312	92.44
315.542	79.44
315.771	92.44
316.001	89.44
316.23	82.44
316.46	78.44
316.689	93.44
316.919	76.44
317.148	86.44
317.377	83.44
317.607	85.44
317.836	96.44
318.065	89.44
318.295	85.44
318.524	85.44
318.753	90.44
318.983	82.44
319.212	86.44
319.441	74.44
319.67	93.44
319.9	88.44
320.129	97.44
320.358	87.44
320.587	87.44
320.816	73.44
321.046	82.44
321.275	67.44
321.504	81.44
321.733	82.44
321.962	74.44
322.191	76.44
322.42	83.44
322.649	96.44
322.878	84.44
323.108	99.44
323.337	76.44
323.566	68.44
323.795	103.44
324.024	96.44
324.253	85.44
324.482	87.44
324.71	89.44
324.939	90.44
325.168	85.44
325.397	82.44
325.626	73.44
325.855	86.44
326.084	84.44
326.313	78.44
326.542	92.44
326.77	79.44
326.999	92.44
327.228	74.44
327.457	71.44
327.686	89.44
327.914	74.44
328.143	75.44
328.372	80.44
328.6	89.44
328.829	90.44
329.058	93.44
329.287	96.44
329.515	97.44
329.744	81.44
329.972	85.44
330.201	90.44
330.43	87.44
330.658	74.44
330.887	79.44
331.115	75.44
331.344	86.44
331.572	84.44
331.801	78.44
332.03	81.44
332.258	77.44
332.486	81.44
332.715	85.44
332.943	83.44
333.172	84.44
333.4	74.44
333.629	85.44
333.857	81.44
334.085	96.44
334.314	88.44
334.542	82.44
334.771	88.44
334.999	78.44
335.227	74.44
335.455	90.44
335.684	86.44
335.912	89.44
336.14	96.44
336.369	77.44
336.597	78.44
336.825	88.44
337.053	85.44
337.281	83.44
337.51	75.44
337.738	85.44
337.966	89.44
338.194	82.44
338.422	76.44
338.65	88.44
338.878	85.44
339.106	77.44
339.334	69.44
339.562	75.44
339.79	79.44
340.018	87.44
340.246	85.44
340.474	83.44
340.702	79.44
340.93	94.44
341.158	80.44
341.386	80.44
341.614	71.44
341.842	96.44
342.07	64.44
342.298	76.44
342.526	88.44
342.754	80.44
342.981	98.44
343.209	74.44
343.437	92.44
343.665	74.44
343.893	96.44
344.12	85.44
344.348	69.44
344.576	91.44
344.804	85.44
345.031	78.44
345.259	88.44
345.487	80.44
345.714	80.44
345.942	82.44
346.17	81.44
346.397	81.44
346.625	79.44
346.853	77.44
347.08	83.44
347.308	88.44
347.535	77.44
347.763	99.44
347.99	98.44
348.218	91.44
348.445	89.44
348.673	84.44
348.9	90.44
349.128	91.44
349.355	84.44
349.583	80.44
349.81	91.44
350.037	92.44
350.265	84.44
350.492	77.44
350.72	89.44
350.947	88.44
351.174	93.44
351.402	84.44
351.629	81.44
351.856	75.44
352.083	70.44
352.311	86.44
352.538	74.44
352.765	82.44
352.992	85.44
353.22	73.44
353.447	75.44
353.674	75.44
353.901	90.44
354.128	86.44
354.355	87.44
354.583	91.44
354.81	93.44
355.037	101.44
355.264	82.44
355.491	87.44
355.718	86.44
355.945	80.44
356.172	85.44
356.399	91.44
356.626	96.44
356.853	91.44
357.08	75.44
357.307	89.44
357.534	75.44
357.761	81.44
357.988	82.44
358.215	82.44
358.441	82.44
358.668	90.44
358.895	90.44
359.122	82.44
359.349	81.44
359.576	86.44
359.802	60.44
360.029	75.44
360.256	81.44
360.483	88.44
360.709	85.44
360.936	79.44
361.163	79.44
361.39	93.44
361.616	87.44
361.843	79.44
362.07	97.44
362.296	103.44
362.523	85.44
362.749	88.44
362.976	91.44
363.203	98.44
363.429	74.44
363.656	85.44
363.882	82.44
364.109	92.44
364.335	80.44
364.562	78.44
364.788	91.44
365.015	78.44
365.241	89.44
365.468	78.44
365.694	91.44
365.92	85.44
366.147	92.44
366.373	88.44
366.599	76.44
366.826	86.44
367.052	84.44
367.278	87.44
367.505	79.44
367.731	89.44
367.957	93.44
368.184	78.44
368.41	70.44
368.636	91.44
368.862	99.44
369.089	100.44
369.315	78.44
369.541	73.44
369.767	77.44
369.993	82.44
370.219	83.44
370.445	86.44
370.672	83.44
370.898	94.44
371.124	84.44
371.35	86.44
371.576	95.44
371.802	76.44
372.028	80.44
372.254	79.44
372.48	88.44
372.706	86.44
372.932	85.44
373.158	92.44
373.384	93.44
373.61	88.44
373.835	76.44
374.061	83.44
374.287	88.44
374.513	77.44
374.739	94.44
374.965	107.44
375.191	90.44
375.416	74.44
375.642	81.44
375.868	78.44
376.094	80.44
376.319	86.44
376.545	90.44
376.771	90.44
376.997	94.44
377.222	100.44
377.448	105.44
377.674	69.44
377.899	89.44
378.125	86.44
378.35	98.44
378.576	91.44
378.802	99.44
379.027	102.44
379.253	91.44
379.478	91.44
379.704	85.44
379.929	95.44
380.155	88.44
380.38	83.44
380.606	88.44
380.831	90.44
381.057	103.44
381.282	87.44
381.507	97.44
381.733	90.44
381.958	89.44
382.184	91.44
382.409	83.44
382.634	87.44
382.86	88.44
383.085	87.44
383.31	86.44
383.535	99.44
383.761	85.44
383.986	87.44
384.211	89.44
384.436	84.44
384.662	100.44
384.887	97.44
385.112	82.44
385.337	94.44
385.562	87.44
385.787	80.44
386.013	105.44
386.238	94.44
386.463	75.44
386.688	77.44
386.913	91.44
387.138	77.44
387.363	86.44
387.588	99.44
387.813	83.44
388.038	85.44
388.263	86.44
388.488	94.44
388.713	83.44
388.938	106.44
389.163	85.44
389.387	86.44
389.612	98.44
389.837	79.44
390.062	79.44
390.287	81.44
390.512	103.44
390.736	83.44
390.961	95.44
391.186	85.44
391.411	101.44
391.636	82.44
391.86	96.44
392.085	86.44
392.31	97.44
392.534	98.44
392.759	86.44
392.984	104.44
393.208	99.44
393.433	93.44
393.658	91.44
393.882	100.44
394.107	90.44
394.331	91.44
394.556	93.44
394.78	100.44
395.005	96.44
395.229	84.44
395.454	98.44
395.678	99.44
395.903	91.44
396.127	97.44
396.352	104.44
396.576	98.44
396.801	91.44
397.025	85.44
397.249	98.44
397.474	89.44
397.698	98.44
397.922	85.44
398.147	102.44
398.371	93.44
398.595	97.44
398.82	106.44
399.044	86.44
399.268	84.44
399.492	96.44
399.717	94.44
399.941	93.44
400.165	92.44
400.389	85.44
400.613	95.44
400.837	97.44
401.062	106.44
401.286	90.44
401.51	97.44
401.734	107.44
401.958	104.44
402.182	99.44
402.406	90.44
402.63	87.44
402.854	84.44
403.078	84.44
403.302	114.44
403.526	99.44
403.75	97.44
403.974	97.44
404.198	99.44
404.422	95.44
404.645	87.44
404.869	91.44
405.093	90.44
405.317	90.44
405.541	103.44
405.765	97.44
405.988	98.44
406.212	92.44
406.436	81.44
406.66	85.44
406.883	100.44
407.107	96.44
407.331	88.44
407.555	94.44
407.778	94.44
408.002	97.44
408.226	82.44
408.449	105.44
408.673	88.44
408.896	107.44
409.12	101.44
409.344	106.44
409.567	86.44
409.791	100.44
410.014	102.44
410.238	94.44
410.461	86.44
410.685	100.44
410.908	99.44
411.132	96.44
411.355	106.44
411.578	91.44
411.802	104.44
412.025	108.44
412.249	94.44
412.472	101.44
412.695	116.44
412.919	93.44
413.142	99.44
413.365	94.44
413.589	88.44
413.812	110.44
414.035	84.44
414.258	84.44
414.482	105.44
414.705	96.44
414.928	102.44
415.151	101.44
415.374	99.44
415.597	82.44
415.821	105.44
416.044	98.44
416.267	104.44
416.49	108.44
416.713	86.44
416.936	115.44
417.159	102.44
417.382	106.44
417.605	105.44
417.828	96.44
418.051	108.44
418.274	104.44
418.497	107.44
418.72	107.44
418.943	115.44
419.166	112.44
419.389	114.44
419.611	86.44
419.834	105.44
420.057	105.44
420.28	95.44
420.503	105.44
420.726	103.44
420.948	102.44
421.171	107.44
421.394	123.44
421.617	112.44
421.839	101.44
422.062	112.44
422.285	101.44
422.507	117.44
422.73	102.44
422.953	103.44
423.175	109.44
423.398	116.44
423.621	96.44
423.843	101.44
424.066	109.44
424.288	108.44
424.511	116.44
424.733	116.44
424.956	100.44
425.178	97.44
425.401	123.44
425.623	103.44
425.846	116.44
426.068	95.44
426.291	108.44
426.513	106.44
426.735	116.44
426.958	104.44
427.18	108.44
427.402	110.44
427.625	105.44
427.847	103.44
428.069	113.44
428.292	109.44
428.514	107.44
428.736	104.44
428.958	112.44
429.181	97.44
429.403	99.44
429.625	104.44
429.847	120.44
430.069	102.44
430.292	110.44
430.514	95.44
430.736	98.44
430.958	94.44
431.18	107.44
431.402	121.44
431.624	107.44
431.846	88.44
432.068	103.44
432.29	86.44
432.512	92.44
432.734	92.44
432.956	98.44
433.178	116.44
433.4	114.44
433.622	109.44
433.844	106.44
434.066	99.44
434.287	104.44
434.509	89.44
434.731	94.44
434.953	97.44
435.175	115.44
435.397	102.44
435.618	96.44
435.84	98.44
436.062	94.44
436.284	94.44
436.505	121.44
436.727	102.44
436.949	103.44
437.17	104.44
437.392	113.44
437.614	96.44
437.835	103.44
438.057	99.44
438.278	91.44
438.5	90.44
438.721	84.44
438.943	104.44
439.165	111.44
439.386	115.44
439.608	101.44
439.829	104.44
440.05	102.44
440.272	108.44
440.493	104.44
440.715	100.44
440.936	109.44
441.158	101.44
441.379	111.44
441.6	118.44
441.822	114.44
442.043	121.44
442.264	121.44
442.486	104.44
442.707	105.44
442.928	108.44
443.149	108.44
443.371	108.44
443.592	121.44
443.813	101.44
444.034	120.44
444.255	112.44
444.476	119.44
444.698	122.44
444.919	120.44
445.14	228.44
445.361	168.44
445.582	114.44
445.803	122.44
446.024	109.44
446.245	120.44
446.466	91.44
446.687	121.44
446.908	126.44
447.129	120.44
447.35	114.44
447.571	115.44
447.792	108.44
448.013	112.44
448.234	118.44
448.455	119.44
448.675	90.44
448.896	107.44
449.117	108.44
449.338	96.44
449.559	100.44
449.779	108.44
450	92.44
450.221	102.44
450.442	108.44
450.662	105.44
450.883	100.44
451.104	96.44
451.324	108.44
451.545	104.44
451.766	100.44
451.986	112.44
452.207	118.44
452.428	93.44
452.648	126.44
452.869	114.44
453.089	97.44
453.31	93.44
453.53	101.44
453.751	96.44
453.971	91.44
454.192	83.44
454.412	85.44
454.633	107.44
454.853	94.44
455.073	114.44
455.294	114.44
455.514	107.44
455.734	107.44
455.955	114.44
456.175	90.44
456.395	88.44
456.616	100.44
456.836	105.44
457.056	102.44
457.276	93.44
457.497	98.44
457.717	83.44
457.937	93.44
458.157	101.44
458.377	87.44
458.598	100.44
458.818	85.44
459.038	97.44
459.258	87.44
459.478	90.44
459.698	73.44
459.918	89.44
460.138	90.44
460.358	94.44
460.578	90.44
460.798	100.44
461.018	91.44
461.238	98.44
461.458	85.44
461.678	88.44
461.898	96.44
462.118	105.44
462.338	91.44
462.558	100.44
462.777	86.44
462.997	101.44
463.217	93.44
463.437	96.44
463.657	102.44
463.876	102.44
464.096	101.44
464.316	94.44
464.536	94.44
464.755	84.44
464.975	98.44
465.195	104.44
465.414	94.44
465.634	101.44
465.854	96.44
466.073	104.44
466.293	102.44
466.512	105.44
466.732	103.44
466.951	96.44
467.171	110.44
467.391	113.44
467.61	99.44
467.829	103.44
468.049	95.44
468.268	90.44
468.488	95.44
468.707	113.44
468.927	111.44
469.146	104.44
469.365	103.44
469.585	117.44
469.804	118.44
470.023	110.44
470.243	117.44
470.462	107.44
470.681	101.44
470.901	105.44
471.12	121.44
471.339	108.44
471.558	114.44
471.777	112.44
471.997	115.44
472.216	114.44
472.435	91.44
472.654	82.44
472.873	99.44
473.092	94.44
473.311	120.44
473.53	107.44
473.749	109.44
473.968	110.44
474.187	100.44
474.406	98.44
474.625	96.44
474.844	106.44
475.063	106.44
475.282	120.44
475.501	102.44
475.72	95.44
475.939	106.44
476.158	109.44
476.377	109.44
476.596	96.44
476.814	99.44
477.033	95.44
477.252	96.44
477.471	113.44
477.69	106.44
477.908	122.44
478.127	122.44
478.346	123.44
478.564	93.44
478.783	115.44
479.002	106.44
479.22	103.44
479.439	117.44
479.658	83.44
479.876	106.44
480.095	115.44
480.313	101.44
480.532	103.44
480.751	92.44
480.969	88.44
481.188	91.44
481.406	85.44
481.624	85.44
481.843	91.44
482.061	77.44
482.28	96.44
482.498	99.44
482.717	91.44
482.935	112.44
483.153	112.44
483.372	118.44
483.59	92.44
483.808	126.44
484.027	97.44
484.245	116.44
484.463	108.44
484.681	122.44
484.9	108.44
485.118	106.44
485.336	100.44
485.554	100.44
485.772	85.44
485.99	97.44
486.209	109.44
486.427	97.44
486.645	88.44
486.863	112.44
487.081	112.44
487.299	100.44
487.517	100.44
487.735	123.44
487.953	121.44
488.171	121.44
488.389	124.44
488.607	118.44
488.825	96.44
489.043	94.44
489.261	104.44
489.479	122.44
489.696	104.44
489.914	115.44
490.132	92.44
490.35	114.44
490.568	112.44
490.786	116.44
491.003	135.44
491.221	128.44
491.439	137.44
491.657	127.44
491.874	139.44
492.092	132.44
492.31	159.44
492.527	164.44
492.745	141.44
492.963	141.44
493.18	126.44
493.398	129.44
493.615	128.44
493.833	130.44
494.05	120.44
494.268	129.44
494.485	130.44
494.703	134.44
494.92	126.44
495.138	126.44
495.355	135.44
495.573	130.44
495.79	134.44
496.008	126.44
496.225	128.44
496.442	123.44
496.66	120.44
496.877	102.44
497.094	132.44
497.312	126.44
497.529	114.44
497.746	126.44
497.963	99.44
498.181	108.44
498.398	105.44
498.615	114.44
498.832	106.44
499.049	107.44
499.267	92.44
499.484	118.44
499.701	104.44
499.918	120.44
500.135	125.44
500.352	122.44
500.569	102.44
500.786	108.44
501.003	113.44
501.22	112.44
501.437	102.44
501.654	128.44
501.871	104.44
502.088	100.44
502.305	103.44
502.522	112.44
502.739	100.44
502.956	114.44
503.172	108.44
503.389	108.44
503.606	108.44
503.823	106.44
504.04	110.44
504.256	113.44
504.473	107.44
504.69	95.44
504.907	108.44
505.123	89.44
505.34	120.44
505.557	96.44
505.773	113.44
505.99	103.44
506.207	116.44
506.423	118.44
506.64	99.44
506.856	108.44
507.073	108.44
507.289	103.44
507.506	90.44
507.722	99.44
507.939	112.44
508.155	91.44
508.372	95.44
508.588	101.44
508.805	106.44
509.021	84.44
509.238	103.44
509.454	104.44
509.67	105.44
509.887	104.44
510.103	102.44
510.319	89.44
510.536	96.44
510.752	86.44
510.968	85.44
511.184	83.44
511.401	93.44
511.617	78.44
511.833	82.44
512.049	94.44
512.265	92.44
512.481	78.44
512.698	92.44
512.914	89.44
513.13	86.44
513.346	89.44
513.562	82.44
513.778	91.44
513.994	90.44
514.21	100.44
514.426	100.44
