Data from Zn(NO3)2Standard.Agarose3%.GreenCap.LampEnergy5.5.E.O_HRD10591_15-02-33-768.txt Node
Date: Mon Jul 22 15:02:33 EDT 2019
User: cochatt
Spectrometer: HR+D1059
Trigger mode: 1
Integration Time (sec): 1.000000E-1
Scans to average: 1
Electric dark correction enabled: true
Nonlinearity correction enabled: false
Boxcar width: 0
XAxis mode: Wavelengths
Number of Pixels in Spectrum: 2048
>>>>>Begin Spectral Data<<<<<
223.165	-17.5
223.4	-17.5
223.635	-17.5
223.869	-14.5
224.104	-27.5
224.338	-19.5
224.573	-26.5
224.808	-26.5
225.042	-0.5
225.277	-5.5
225.511	-0.5
225.746	6.5
225.98	14.5
226.215	15.5
226.449	4.5
226.683	22.5
226.918	40.5
227.152	34.5
227.387	30.5
227.621	33.5
227.856	37.5
228.09	64.5
228.324	59.5
228.559	46.5
228.793	52.5
229.027	56.5
229.262	60.5
229.496	56.5
229.73	70.5
229.964	83.5
230.199	71.5
230.433	76.5
230.667	85.5
230.901	63.5
231.136	70.5
231.37	76.5
231.604	75.5
231.838	84.5
232.072	84.5
232.306	80.5
232.541	64.5
232.775	84.5
233.009	82.5
233.243	85.5
233.477	91.5
233.711	85.5
233.945	85.5
234.179	90.5
234.413	80.5
234.647	78.5
234.881	70.5
235.115	65.5
235.349	87.5
235.583	85.5
235.817	83.5
236.051	86.5
236.285	73.5
236.519	66.5
236.753	87.5
236.987	82.5
237.221	66.5
237.455	75.5
237.689	78.5
237.922	69.5
238.156	77.5
238.39	85.5
238.624	78.5
238.858	76.5
239.091	79.5
239.325	93.5
239.559	82.5
239.793	77.5
240.027	66.5
240.26	72.5
240.494	63.5
240.728	69.5
240.961	62.5
241.195	80.5
241.429	74.5
241.662	73.5
241.896	88.5
242.13	78.5
242.363	77.5
242.597	85.5
242.83	75.5
243.064	75.5
243.298	87.5
243.531	91.5
243.765	79.5
243.998	72.5
244.232	88.5
244.465	80.5
244.699	77.5
244.932	84.5
245.166	72.5
245.399	78.5
245.633	74.5
245.866	95.5
246.099	78.5
246.333	62.5
246.566	75.5
246.8	72.5
247.033	72.5
247.266	69.5
247.5	82.5
247.733	83.5
247.966	86.5
248.2	81.5
248.433	70.5
248.666	88.5
248.899	60.5
249.133	78.5
249.366	81.5
249.599	84.5
249.832	77.5
250.066	68.5
250.299	75.5
250.532	76.5
250.765	62.5
250.998	91.5
251.231	66.5
251.465	90.5
251.698	81.5
251.931	79.5
252.164	91.5
252.397	77.5
252.63	88.5
252.863	75.5
253.096	84.5
253.329	83.5
253.562	77.5
253.795	89.5
254.028	82.5
254.261	77.5
254.494	83.5
254.727	90.5
254.96	85.5
255.193	67.5
255.426	70.5
255.659	68.5
255.892	97.5
256.124	65.5
256.357	84.5
256.59	92.5
256.823	70.5
257.056	89.5
257.289	86.5
257.521	74.5
257.754	80.5
257.987	69.5
258.22	72.5
258.452	77.5
258.685	66.5
258.918	71.5
259.151	71.5
259.383	83.5
259.616	100.5
259.849	76.5
260.081	76.5
260.314	91.5
260.547	85.5
260.779	78.5
261.012	86.5
261.244	92.5
261.477	67.5
261.71	82.5
261.942	89.5
262.175	79.5
262.407	78.5
262.64	93.5
262.872	84.5
263.105	89.5
263.337	82.5
263.57	86.5
263.802	66.5
264.035	62.5
264.267	85.5
264.499	79.5
264.732	89.5
264.964	77.5
265.197	79.5
265.429	85.5
265.661	77.5
265.894	82.5
266.126	89.5
266.358	76.5
266.591	81.5
266.823	75.5
267.055	90.5
267.287	74.5
267.52	78.5
267.752	93.5
267.984	87.5
268.216	71.5
268.448	92.5
268.681	82.5
268.913	91.5
269.145	77.5
269.377	88.5
269.609	84.5
269.841	89.5
270.073	81.5
270.306	82.5
270.538	70.5
270.77	90.5
271.002	70.5
271.234	77.5
271.466	85.5
271.698	87.5
271.93	78.5
272.162	89.5
272.394	85.5
272.626	74.5
272.858	89.5
273.09	77.5
273.322	82.5
273.553	80.5
273.785	92.5
274.017	93.5
274.249	94.5
274.481	80.5
274.713	72.5
274.945	82.5
275.176	78.5
275.408	72.5
275.64	87.5
275.872	95.5
276.104	84.5
276.335	86.5
276.567	86.5
276.799	98.5
277.031	91.5
277.262	84.5
277.494	86.5
277.726	86.5
277.957	84.5
278.189	98.5
278.421	104.5
278.652	88.5
278.884	88.5
279.115	83.5
279.347	87.5
279.579	69.5
279.81	68.5
280.042	87.5
280.273	91.5
280.505	67.5
280.736	70.5
280.968	81.5
281.199	88.5
281.431	81.5
281.662	76.5
281.894	80.5
282.125	68.5
282.356	94.5
282.588	83.5
282.819	81.5
283.051	83.5
283.282	88.5
283.513	82.5
283.745	89.5
283.976	74.5
284.207	93.5
284.439	90.5
284.67	84.5
284.901	79.5
285.132	91.5
285.364	85.5
285.595	100.5
285.826	99.5
286.057	80.5
286.288	80.5
286.52	74.5
286.751	100.5
286.982	79.5
287.213	67.5
287.444	82.5
287.675	78.5
287.906	84.5
288.138	81.5
288.369	87.5
288.6	94.5
288.831	84.5
289.062	78.5
289.293	74.5
289.524	91.5
289.755	75.5
289.986	69.5
290.217	95.5
290.448	83.5
290.679	83.5
290.91	89.5
291.141	82.5
291.371	81.5
291.602	86.5
291.833	83.5
292.064	89.5
292.295	74.5
292.526	79.5
292.757	68.5
292.987	90.5
293.218	84.5
293.449	90.5
293.68	76.5
293.91	90.5
294.141	85.5
294.372	93.5
294.603	109.5
294.833	72.5
295.064	83.5
295.295	82.5
295.525	79.5
295.756	88.5
295.987	94.5
296.217	84.5
296.448	97.5
296.679	78.5
296.909	89.5
297.14	78.5
297.37	80.5
297.601	84.5
297.831	77.5
298.062	84.5
298.292	81.5
298.523	86.5
298.753	85.5
298.984	95.5
299.214	84.5
299.445	100.5
299.675	105.5
299.905	80.5
300.136	73.5
300.366	71.5
300.597	83.5
300.827	75.5
301.057	75.5
301.288	82.5
301.518	82.5
301.748	82.5
301.979	87.5
302.209	71.5
302.439	88.5
302.669	78.5
302.9	88.5
303.13	99.5
303.36	77.5
303.59	78.5
303.82	90.5
304.051	96.5
304.281	83.5
304.511	74.5
304.741	77.5
304.971	87.5
305.201	82.5
305.431	90.5
305.661	89.5
305.891	81.5
306.121	97.5
306.352	85.5
306.582	90.5
306.812	78.5
307.042	72.5
307.272	86.5
307.502	80.5
307.731	95.5
307.961	82.5
308.191	87.5
308.421	93.5
308.651	98.5
308.881	80.5
309.111	78.5
309.341	73.5
309.571	97.5
309.8	90.5
310.03	83.5
310.26	75.5
310.49	75.5
310.72	85.5
310.949	90.5
311.179	70.5
311.409	81.5
311.639	85.5
311.868	106.5
312.098	86.5
312.328	79.5
312.557	93.5
312.787	77.5
313.017	84.5
313.246	90.5
313.476	83.5
313.706	75.5
313.935	96.5
314.165	86.5
314.394	89.5
314.624	72.5
314.853	86.5
315.083	102.5
315.312	83.5
315.542	82.5
315.771	93.5
316.001	87.5
316.23	72.5
316.46	86.5
316.689	87.5
316.919	96.5
317.148	87.5
317.377	76.5
317.607	90.5
317.836	71.5
318.065	85.5
318.295	78.5
318.524	81.5
318.753	78.5
318.983	92.5
319.212	90.5
319.441	80.5
319.67	90.5
319.9	94.5
320.129	89.5
320.358	93.5
320.587	88.5
320.816	86.5
321.046	84.5
321.275	84.5
321.504	92.5
321.733	78.5
321.962	102.5
322.191	106.5
322.42	85.5
322.649	97.5
322.878	83.5
323.108	85.5
323.337	87.5
323.566	91.5
323.795	73.5
324.024	83.5
324.253	79.5
324.482	76.5
324.71	81.5
324.939	90.5
325.168	78.5
325.397	91.5
325.626	91.5
325.855	84.5
326.084	89.5
326.313	63.5
326.542	77.5
326.77	86.5
326.999	84.5
327.228	83.5
327.457	95.5
327.686	82.5
327.914	83.5
328.143	82.5
328.372	81.5
328.6	85.5
328.829	89.5
329.058	77.5
329.287	72.5
329.515	85.5
329.744	83.5
329.972	79.5
330.201	79.5
330.43	84.5
330.658	74.5
330.887	90.5
331.115	92.5
331.344	79.5
331.572	89.5
331.801	94.5
332.03	92.5
332.258	78.5
332.486	77.5
332.715	92.5
332.943	82.5
333.172	89.5
333.4	88.5
333.629	82.5
333.857	85.5
334.085	84.5
334.314	80.5
334.542	70.5
334.771	83.5
334.999	85.5
335.227	77.5
335.455	84.5
335.684	86.5
335.912	88.5
336.14	85.5
336.369	87.5
336.597	93.5
336.825	89.5
337.053	88.5
337.281	84.5
337.51	87.5
337.738	88.5
337.966	78.5
338.194	86.5
338.422	75.5
338.65	75.5
338.878	84.5
339.106	80.5
339.334	89.5
339.562	88.5
339.79	97.5
340.018	87.5
340.246	79.5
340.474	82.5
340.702	81.5
340.93	86.5
341.158	100.5
341.386	89.5
341.614	86.5
341.842	84.5
342.07	73.5
342.298	81.5
342.526	90.5
342.754	90.5
342.981	93.5
343.209	78.5
343.437	92.5
343.665	89.5
343.893	89.5
344.12	81.5
344.348	68.5
344.576	90.5
344.804	94.5
345.031	97.5
345.259	93.5
345.487	83.5
345.714	93.5
345.942	87.5
346.17	85.5
346.397	84.5
346.625	83.5
346.853	78.5
347.08	77.5
347.308	101.5
347.535	84.5
347.763	77.5
347.99	90.5
348.218	90.5
348.445	82.5
348.673	77.5
348.9	72.5
349.128	85.5
349.355	82.5
349.583	85.5
349.81	95.5
350.037	73.5
350.265	89.5
350.492	80.5
350.72	98.5
350.947	82.5
351.174	79.5
351.402	66.5
351.629	89.5
351.856	108.5
352.083	100.5
352.311	101.5
352.538	83.5
352.765	79.5
352.992	92.5
353.22	70.5
353.447	85.5
353.674	82.5
353.901	95.5
354.128	84.5
354.355	86.5
354.583	80.5
354.81	84.5
355.037	92.5
355.264	84.5
355.491	93.5
355.718	82.5
355.945	74.5
356.172	79.5
356.399	74.5
356.626	72.5
356.853	77.5
357.08	94.5
357.307	85.5
357.534	76.5
357.761	94.5
357.988	90.5
358.215	82.5
358.441	82.5
358.668	84.5
358.895	85.5
359.122	78.5
359.349	85.5
359.576	77.5
359.802	84.5
360.029	82.5
360.256	90.5
360.483	83.5
360.709	83.5
360.936	89.5
361.163	75.5
361.39	88.5
361.616	84.5
361.843	72.5
362.07	80.5
362.296	88.5
362.523	80.5
362.749	86.5
362.976	88.5
363.203	83.5
363.429	78.5
363.656	78.5
363.882	81.5
364.109	96.5
364.335	98.5
364.562	91.5
364.788	91.5
365.015	86.5
365.241	97.5
365.468	92.5
365.694	80.5
365.92	77.5
366.147	79.5
366.373	82.5
366.599	82.5
366.826	94.5
367.052	72.5
367.278	84.5
367.505	75.5
367.731	94.5
367.957	79.5
368.184	81.5
368.41	82.5
368.636	86.5
368.862	88.5
369.089	71.5
369.315	81.5
369.541	92.5
369.767	76.5
369.993	81.5
370.219	74.5
370.445	73.5
370.672	76.5
370.898	92.5
371.124	80.5
371.35	79.5
371.576	90.5
371.802	84.5
372.028	96.5
372.254	82.5
372.48	97.5
372.706	92.5
372.932	81.5
373.158	83.5
373.384	89.5
373.61	94.5
373.835	94.5
374.061	88.5
374.287	82.5
374.513	68.5
374.739	78.5
374.965	82.5
375.191	90.5
375.416	78.5
375.642	89.5
375.868	93.5
376.094	69.5
376.319	88.5
376.545	87.5
376.771	85.5
376.997	88.5
377.222	84.5
377.448	86.5
377.674	92.5
377.899	90.5
378.125	96.5
378.35	90.5
378.576	84.5
378.802	74.5
379.027	88.5
379.253	78.5
379.478	85.5
379.704	78.5
379.929	83.5
380.155	81.5
380.38	96.5
380.606	73.5
380.831	77.5
381.057	88.5
381.282	85.5
381.507	88.5
381.733	88.5
381.958	88.5
382.184	81.5
382.409	78.5
382.634	77.5
382.86	64.5
383.085	74.5
383.31	78.5
383.535	86.5
383.761	76.5
383.986	81.5
384.211	94.5
384.436	101.5
384.662	90.5
384.887	82.5
385.112	83.5
385.337	85.5
385.562	78.5
385.787	93.5
386.013	78.5
386.238	69.5
386.463	79.5
386.688	92.5
386.913	90.5
387.138	70.5
387.363	73.5
387.588	85.5
387.813	84.5
388.038	93.5
388.263	76.5
388.488	77.5
388.713	76.5
388.938	72.5
389.163	82.5
389.387	93.5
389.612	88.5
389.837	81.5
390.062	84.5
390.287	78.5
390.512	82.5
390.736	82.5
390.961	82.5
391.186	80.5
391.411	85.5
391.636	73.5
391.86	84.5
392.085	89.5
392.31	86.5
392.534	88.5
392.759	86.5
392.984	85.5
393.208	84.5
393.433	85.5
393.658	73.5
393.882	81.5
394.107	80.5
394.331	88.5
394.556	83.5
394.78	76.5
395.005	83.5
395.229	74.5
395.454	92.5
395.678	104.5
395.903	75.5
396.127	82.5
396.352	92.5
396.576	81.5
396.801	85.5
397.025	76.5
397.249	82.5
397.474	76.5
397.698	82.5
397.922	78.5
398.147	86.5
398.371	84.5
398.595	105.5
398.82	84.5
399.044	90.5
399.268	90.5
399.492	98.5
399.717	81.5
399.941	86.5
400.165	95.5
400.389	76.5
400.613	86.5
400.837	77.5
401.062	78.5
401.286	85.5
401.51	78.5
401.734	84.5
401.958	71.5
402.182	77.5
402.406	77.5
402.63	75.5
402.854	86.5
403.078	86.5
403.302	83.5
403.526	86.5
403.75	77.5
403.974	75.5
404.198	90.5
404.422	85.5
404.645	76.5
404.869	68.5
405.093	98.5
405.317	73.5
405.541	92.5
405.765	72.5
405.988	72.5
406.212	88.5
406.436	99.5
406.66	77.5
406.883	106.5
407.107	87.5
407.331	89.5
407.555	100.5
407.778	73.5
408.002	76.5
408.226	77.5
408.449	78.5
408.673	88.5
408.896	82.5
409.12	67.5
409.344	86.5
409.567	92.5
409.791	87.5
410.014	85.5
410.238	73.5
410.461	93.5
410.685	76.5
410.908	99.5
411.132	84.5
411.355	75.5
411.578	79.5
411.802	84.5
412.025	86.5
412.249	91.5
412.472	80.5
412.695	86.5
412.919	89.5
413.142	87.5
413.365	88.5
413.589	92.5
413.812	89.5
414.035	92.5
414.258	95.5
414.482	84.5
414.705	93.5
414.928	97.5
415.151	100.5
415.374	95.5
415.597	74.5
415.821	93.5
416.044	73.5
416.267	83.5
416.49	96.5
416.713	73.5
416.936	74.5
417.159	69.5
417.382	73.5
417.605	79.5
417.828	85.5
418.051	84.5
418.274	89.5
418.497	92.5
418.72	85.5
418.943	84.5
419.166	76.5
419.389	86.5
419.611	81.5
419.834	87.5
420.057	90.5
420.28	88.5
420.503	93.5
420.726	82.5
420.948	88.5
421.171	94.5
421.394	77.5
421.617	85.5
421.839	80.5
422.062	87.5
422.285	81.5
422.507	90.5
422.73	78.5
422.953	85.5
423.175	84.5
423.398	81.5
423.621	87.5
423.843	90.5
424.066	83.5
424.288	89.5
424.511	87.5
424.733	90.5
424.956	87.5
425.178	72.5
425.401	99.5
425.623	93.5
425.846	100.5
426.068	78.5
426.291	71.5
426.513	95.5
426.735	83.5
426.958	102.5
427.18	97.5
427.402	95.5
427.625	83.5
427.847	82.5
428.069	104.5
428.292	70.5
428.514	102.5
428.736	100.5
428.958	78.5
429.181	87.5
429.403	81.5
429.625	79.5
429.847	84.5
430.069	89.5
430.292	88.5
430.514	87.5
430.736	81.5
430.958	84.5
431.18	94.5
431.402	89.5
431.624	98.5
431.846	103.5
432.068	82.5
432.29	78.5
432.512	88.5
432.734	88.5
432.956	83.5
433.178	108.5
433.4	90.5
433.622	91.5
433.844	89.5
434.066	97.5
434.287	83.5
434.509	68.5
434.731	82.5
434.953	77.5
435.175	74.5
435.397	92.5
435.618	96.5
435.84	103.5
436.062	103.5
436.284	85.5
436.505	81.5
436.727	84.5
436.949	80.5
437.17	91.5
437.392	78.5
437.614	103.5
437.835	84.5
438.057	75.5
438.278	69.5
438.5	86.5
438.721	88.5
438.943	85.5
439.165	83.5
439.386	96.5
439.608	93.5
439.829	90.5
440.05	88.5
440.272	75.5
440.493	95.5
440.715	110.5
440.936	108.5
441.158	103.5
441.379	76.5
441.6	87.5
441.822	97.5
442.043	94.5
442.264	80.5
442.486	92.5
442.707	92.5
442.928	103.5
443.149	106.5
443.371	93.5
443.592	82.5
443.813	92.5
444.034	89.5
444.255	77.5
444.476	93.5
444.698	96.5
444.919	89.5
445.14	224.5
445.361	136.5
445.582	90.5
445.803	102.5
446.024	96.5
446.245	86.5
446.466	79.5
446.687	91.5
446.908	90.5
447.129	87.5
447.35	83.5
447.571	90.5
447.792	96.5
448.013	104.5
448.234	73.5
448.455	79.5
448.675	95.5
448.896	77.5
449.117	94.5
449.338	92.5
449.559	101.5
449.779	78.5
450	89.5
450.221	91.5
450.442	84.5
450.662	82.5
450.883	86.5
451.104	90.5
451.324	88.5
451.545	101.5
451.766	88.5
451.986	78.5
452.207	95.5
452.428	86.5
452.648	85.5
452.869	89.5
453.089	77.5
453.31	105.5
453.53	104.5
453.751	96.5
453.971	93.5
454.192	86.5
454.412	80.5
454.633	104.5
454.853	93.5
455.073	89.5
455.294	91.5
455.514	98.5
455.734	98.5
455.955	89.5
456.175	86.5
456.395	86.5
456.616	92.5
456.836	90.5
457.056	76.5
457.276	65.5
457.497	89.5
457.717	84.5
457.937	88.5
458.157	81.5
458.377	92.5
458.598	82.5
458.818	84.5
459.038	73.5
459.258	74.5
459.478	81.5
459.698	69.5
459.918	88.5
460.138	81.5
460.358	80.5
460.578	78.5
460.798	98.5
461.018	81.5
461.238	97.5
461.458	93.5
461.678	86.5
461.898	102.5
462.118	99.5
462.338	85.5
462.558	91.5
462.777	95.5
462.997	78.5
463.217	84.5
463.437	84.5
463.657	79.5
463.876	85.5
464.096	95.5
464.316	88.5
464.536	96.5
464.755	83.5
464.975	94.5
465.195	99.5
465.414	94.5
465.634	88.5
465.854	91.5
466.073	88.5
466.293	82.5
466.512	88.5
466.732	74.5
466.951	81.5
467.171	80.5
467.391	93.5
467.61	101.5
467.829	83.5
468.049	93.5
468.268	84.5
468.488	95.5
468.707	74.5
468.927	82.5
469.146	97.5
469.365	95.5
469.585	92.5
469.804	74.5
470.023	90.5
470.243	93.5
470.462	110.5
470.681	91.5
470.901	93.5
471.12	84.5
471.339	80.5
471.558	82.5
471.777	80.5
471.997	96.5
472.216	75.5
472.435	87.5
472.654	97.5
472.873	88.5
473.092	86.5
473.311	79.5
473.53	86.5
473.749	85.5
473.968	86.5
474.187	78.5
474.406	88.5
474.625	90.5
474.844	87.5
475.063	98.5
475.282	78.5
475.501	91.5
475.72	101.5
475.939	86.5
476.158	69.5
476.377	86.5
476.596	88.5
476.814	99.5
477.033	88.5
477.252	85.5
477.471	81.5
477.69	85.5
477.908	100.5
478.127	82.5
478.346	77.5
478.564	98.5
478.783	99.5
479.002	89.5
479.22	88.5
479.439	92.5
479.658	78.5
479.876	92.5
480.095	103.5
480.313	112.5
480.532	95.5
480.751	85.5
480.969	85.5
481.188	97.5
481.406	93.5
481.624	88.5
481.843	76.5
482.061	70.5
482.28	74.5
482.498	93.5
482.717	88.5
482.935	91.5
483.153	101.5
483.372	104.5
483.59	103.5
483.808	92.5
484.027	99.5
484.245	85.5
484.463	91.5
484.681	89.5
484.9	105.5
485.118	86.5
485.336	96.5
485.554	83.5
485.772	89.5
485.99	99.5
486.209	80.5
486.427	87.5
486.645	83.5
486.863	97.5
487.081	84.5
487.299	69.5
487.517	112.5
487.735	96.5
487.953	89.5
488.171	110.5
488.389	105.5
488.607	99.5
488.825	86.5
489.043	79.5
489.261	81.5
489.479	101.5
489.696	107.5
489.914	90.5
490.132	87.5
490.35	92.5
490.568	92.5
490.786	99.5
491.003	101.5
491.221	108.5
491.439	107.5
491.657	113.5
491.874	108.5
492.092	99.5
492.31	96.5
492.527	105.5
492.745	112.5
492.963	112.5
493.18	100.5
493.398	95.5
493.615	93.5
493.833	108.5
494.05	98.5
494.268	102.5
494.485	84.5
494.703	90.5
494.92	98.5
495.138	102.5
495.355	106.5
495.573	103.5
495.79	93.5
496.008	84.5
496.225	96.5
496.442	103.5
496.66	93.5
496.877	95.5
497.094	76.5
497.312	91.5
497.529	107.5
497.746	82.5
497.963	96.5
498.181	88.5
498.398	77.5
498.615	105.5
498.832	94.5
499.049	102.5
499.267	90.5
499.484	81.5
499.701	84.5
499.918	98.5
500.135	99.5
500.352	93.5
500.569	99.5
500.786	92.5
501.003	97.5
501.22	86.5
501.437	87.5
501.654	89.5
501.871	83.5
502.088	93.5
502.305	86.5
502.522	87.5
502.739	87.5
502.956	87.5
503.172	87.5
503.389	77.5
503.606	91.5
503.823	85.5
504.04	89.5
504.256	96.5
504.473	76.5
504.69	100.5
504.907	96.5
505.123	76.5
505.34	86.5
505.557	87.5
505.773	76.5
505.99	87.5
506.207	85.5
506.423	90.5
506.64	80.5
506.856	77.5
507.073	90.5
507.289	100.5
507.506	104.5
507.722	96.5
507.939	81.5
508.155	78.5
508.372	87.5
508.588	88.5
508.805	88.5
509.021	83.5
509.238	88.5
509.454	84.5
509.67	69.5
509.887	84.5
510.103	89.5
510.319	84.5
510.536	79.5
510.752	82.5
510.968	85.5
511.184	90.5
511.401	77.5
511.617	85.5
511.833	90.5
512.049	88.5
512.265	82.5
512.481	92.5
512.698	89.5
512.914	62.5
513.13	88.5
513.346	88.5
513.562	84.5
513.778	88.5
513.994	87.5
514.21	95.5
514.426	92.5
514.642	77.5
514.858	93.5
515.074	90.5
515.29	100.5
515.506	72.5
515.721	81.5
515.937	87.5
516.153	83.5
516.369	86.5
516.585	80.5
516.801	95.5
517.016	83.5
517.232	89.5
517.448	82.5
517.664	89.5
517.879	81.5
518.095	86.5
518.311	84.5
518.527	83.5
518.742	86.5
518.958	89.5
519.173	88.5
519.389	81.5
519.605	98.5
519.82	91.5
520.036	95.5
520.251	82.5
520.467	96.5
520.682	86.5
520.898	85.5
521.113	91.5
521.329	91.5
521.544	61.5
521.76	89.5
521.975	77.5
522.19	78.5
522.406	78.5
522.621	72.5
522.836	92.5
523.052	76.5
523.267	75.5
523.482	91.5
523.698	92.5
523.913	80.5
524.128	82.5
524.343	83.5
524.559	84.5
524.774	77.5
524.989	96.5
525.204	84.5
525.419	83.5
525.634	86.5
525.849	78.5
526.064	81.5
526.28	100.5
526.495	85.5
526.71	76.5
526.925	86.5
527.14	90.5
527.355	87.5
527.57	90.5
527.785	85.5
527.999	74.5
528.214	83.5
528.429	92.5
528.644	89.5
528.859	98.5
529.074	97.5
529.289	84.5
529.503	98.5
529.718	84.5
529.933	92.5
530.148	87.5
530.363	101.5
530.577	79.5
530.792	91.5
531.007	90.5
531.221	75.5
531.436	80.5
531.651	84.5
531.865	76.5
532.08	92.5
532.295	97.5
532.509	89.5
532.724	89.5
532.938	78.5
533.153	84.5
533.367	83.5
533.582	89.5
533.796	87.5
534.011	93.5
534.225	77.5
534.44	85.5
534.654	93.5
534.868	85.5
535.083	82.5
535.297	91.5
535.511	82.5
535.726	113.5
535.94	99.5
536.154	93.5
536.369	75.5
536.583	76.5
536.797	77.5
537.011	72.5
537.225	80.5
537.44	82.5
537.654	84.5
537.868	66.5
538.082	79.5
538.296	92.5
538.51	93.5
