Data from Zn(NO3)2Standard.Agarose3%.GreenCap.LampEnergy5.5.E.O_HRD10591_15-01-29-767.txt Node
Date: Mon Jul 22 15:01:29 EDT 2019
User: cochatt
Spectrometer: HR+D1059
Trigger mode: 1
Integration Time (sec): 1.000000E-1
Scans to average: 1
Electric dark correction enabled: true
Nonlinearity correction enabled: false
Boxcar width: 0
XAxis mode: Wavelengths
Number of Pixels in Spectrum: 2048
>>>>>Begin Spectral Data<<<<<
223.165	-21.19
223.4	-21.19
223.635	-21.19
223.869	-8.19
224.104	-10.19
224.338	-2.19
224.573	-26.19
224.808	-9.19
225.042	-12.19
225.277	-8.19
225.511	-3.19
225.746	4.81
225.98	9.81
226.215	18.81
226.449	15.81
226.683	18.81
226.918	19.81
227.152	12.81
227.387	19.81
227.621	49.81
227.856	45.81
228.09	35.81
228.324	51.81
228.559	59.81
228.793	51.81
229.027	42.81
229.262	60.81
229.496	54.81
229.73	72.81
229.964	81.81
230.199	73.81
230.433	83.81
230.667	67.81
230.901	79.81
231.136	67.81
231.37	80.81
231.604	94.81
231.838	85.81
232.072	74.81
232.306	77.81
232.541	76.81
232.775	79.81
233.009	84.81
233.243	62.81
233.477	73.81
233.711	84.81
233.945	81.81
234.179	75.81
234.413	85.81
234.647	85.81
234.881	95.81
235.115	75.81
235.349	78.81
235.583	73.81
235.817	89.81
236.051	69.81
236.285	69.81
236.519	74.81
236.753	74.81
236.987	83.81
237.221	74.81
237.455	64.81
237.689	88.81
237.922	82.81
238.156	77.81
238.39	75.81
238.624	69.81
238.858	80.81
239.091	73.81
239.325	58.81
239.559	75.81
239.793	69.81
240.027	67.81
240.26	73.81
240.494	69.81
240.728	65.81
240.961	80.81
241.195	75.81
241.429	78.81
241.662	72.81
241.896	76.81
242.13	53.81
242.363	81.81
242.597	85.81
242.83	67.81
243.064	77.81
243.298	72.81
243.531	81.81
243.765	76.81
243.998	67.81
244.232	81.81
244.465	69.81
244.699	81.81
244.932	72.81
245.166	74.81
245.399	69.81
245.633	86.81
245.866	76.81
246.099	83.81
246.333	84.81
246.566	79.81
246.8	79.81
247.033	70.81
247.266	75.81
247.5	87.81
247.733	72.81
247.966	63.81
248.2	77.81
248.433	76.81
248.666	79.81
248.899	66.81
249.133	77.81
249.366	72.81
249.599	87.81
249.832	73.81
250.066	79.81
250.299	82.81
250.532	75.81
250.765	75.81
250.998	87.81
251.231	71.81
251.465	82.81
251.698	73.81
251.931	78.81
252.164	79.81
252.397	79.81
252.63	93.81
252.863	75.81
253.096	78.81
253.329	78.81
253.562	73.81
253.795	64.81
254.028	81.81
254.261	75.81
254.494	71.81
254.727	68.81
254.96	80.81
255.193	70.81
255.426	80.81
255.659	70.81
255.892	74.81
256.124	79.81
256.357	64.81
256.59	85.81
256.823	81.81
257.056	81.81
257.289	85.81
257.521	65.81
257.754	82.81
257.987	71.81
258.22	75.81
258.452	88.81
258.685	71.81
258.918	70.81
259.151	71.81
259.383	79.81
259.616	92.81
259.849	86.81
260.081	66.81
260.314	88.81
260.547	68.81
260.779	64.81
261.012	89.81
261.244	79.81
261.477	84.81
261.71	72.81
261.942	72.81
262.175	73.81
262.407	74.81
262.64	78.81
262.872	88.81
263.105	90.81
263.337	63.81
263.57	78.81
263.802	77.81
264.035	70.81
264.267	86.81
264.499	88.81
264.732	76.81
264.964	82.81
265.197	87.81
265.429	85.81
265.661	78.81
265.894	79.81
266.126	72.81
266.358	82.81
266.591	86.81
266.823	77.81
267.055	72.81
267.287	81.81
267.52	80.81
267.752	73.81
267.984	76.81
268.216	95.81
268.448	80.81
268.681	77.81
268.913	81.81
269.145	82.81
269.377	82.81
269.609	76.81
269.841	70.81
270.073	86.81
270.306	74.81
270.538	86.81
270.77	77.81
271.002	85.81
271.234	79.81
271.466	80.81
271.698	68.81
271.93	84.81
272.162	70.81
272.394	74.81
272.626	94.81
272.858	78.81
273.09	77.81
273.322	93.81
273.553	71.81
273.785	72.81
274.017	82.81
274.249	93.81
274.481	86.81
274.713	74.81
274.945	83.81
275.176	83.81
275.408	86.81
275.64	78.81
275.872	76.81
276.104	85.81
276.335	89.81
276.567	86.81
276.799	76.81
277.031	75.81
277.262	79.81
277.494	90.81
277.726	90.81
277.957	83.81
278.189	80.81
278.421	72.81
278.652	67.81
278.884	79.81
279.115	76.81
279.347	82.81
279.579	71.81
279.81	78.81
280.042	75.81
280.273	73.81
280.505	78.81
280.736	71.81
280.968	81.81
281.199	75.81
281.431	73.81
281.662	81.81
281.894	94.81
282.125	85.81
282.356	79.81
282.588	104.81
282.819	84.81
283.051	74.81
283.282	80.81
283.513	93.81
283.745	75.81
283.976	73.81
284.207	88.81
284.439	71.81
284.67	76.81
284.901	91.81
285.132	78.81
285.364	90.81
285.595	76.81
285.826	82.81
286.057	89.81
286.288	72.81
286.52	78.81
286.751	73.81
286.982	69.81
287.213	91.81
287.444	79.81
287.675	80.81
287.906	86.81
288.138	74.81
288.369	79.81
288.6	71.81
288.831	90.81
289.062	66.81
289.293	71.81
289.524	73.81
289.755	96.81
289.986	71.81
290.217	91.81
290.448	61.81
290.679	84.81
290.91	85.81
291.141	75.81
291.371	87.81
291.602	99.81
291.833	88.81
292.064	83.81
292.295	89.81
292.526	83.81
292.757	87.81
292.987	75.81
293.218	93.81
293.449	85.81
293.68	78.81
293.91	83.81
294.141	70.81
294.372	77.81
294.603	81.81
294.833	81.81
295.064	90.81
295.295	63.81
295.525	82.81
295.756	80.81
295.987	85.81
296.217	87.81
296.448	83.81
296.679	96.81
296.909	80.81
297.14	74.81
297.37	73.81
297.601	83.81
297.831	81.81
298.062	80.81
298.292	84.81
298.523	77.81
298.753	89.81
298.984	82.81
299.214	80.81
299.445	95.81
299.675	94.81
299.905	85.81
300.136	83.81
300.366	87.81
300.597	86.81
300.827	73.81
301.057	68.81
301.288	98.81
301.518	84.81
301.748	83.81
301.979	63.81
302.209	86.81
302.439	86.81
302.669	76.81
302.9	74.81
303.13	78.81
303.36	80.81
303.59	84.81
303.82	86.81
304.051	84.81
304.281	83.81
304.511	90.81
304.741	74.81
304.971	87.81
305.201	83.81
305.431	79.81
305.661	79.81
305.891	87.81
306.121	81.81
306.352	83.81
306.582	76.81
306.812	88.81
307.042	82.81
307.272	85.81
307.502	73.81
307.731	88.81
307.961	64.81
308.191	90.81
308.421	85.81
308.651	74.81
308.881	84.81
309.111	75.81
309.341	75.81
309.571	73.81
309.8	75.81
310.03	80.81
310.26	87.81
310.49	82.81
310.72	86.81
310.949	87.81
311.179	90.81
311.409	88.81
311.639	81.81
311.868	94.81
312.098	90.81
312.328	82.81
312.557	80.81
312.787	79.81
313.017	76.81
313.246	78.81
313.476	69.81
313.706	71.81
313.935	86.81
314.165	82.81
314.394	95.81
314.624	75.81
314.853	99.81
315.083	76.81
315.312	95.81
315.542	80.81
315.771	81.81
316.001	78.81
316.23	81.81
316.46	78.81
316.689	93.81
316.919	77.81
317.148	89.81
317.377	80.81
317.607	75.81
317.836	78.81
318.065	85.81
318.295	75.81
318.524	88.81
318.753	85.81
318.983	87.81
319.212	84.81
319.441	100.81
319.67	81.81
319.9	81.81
320.129	81.81
320.358	83.81
320.587	82.81
320.816	90.81
321.046	83.81
321.275	80.81
321.504	87.81
321.733	74.81
321.962	86.81
322.191	78.81
322.42	75.81
322.649	83.81
322.878	83.81
323.108	90.81
323.337	97.81
323.566	76.81
323.795	86.81
324.024	74.81
324.253	75.81
324.482	86.81
324.71	82.81
324.939	88.81
325.168	70.81
325.397	85.81
325.626	77.81
325.855	79.81
326.084	90.81
326.313	79.81
326.542	79.81
326.77	91.81
326.999	72.81
327.228	86.81
327.457	87.81
327.686	77.81
327.914	88.81
328.143	97.81
328.372	88.81
328.6	91.81
328.829	73.81
329.058	88.81
329.287	67.81
329.515	81.81
329.744	90.81
329.972	91.81
330.201	82.81
330.43	84.81
330.658	73.81
330.887	80.81
331.115	94.81
331.344	85.81
331.572	91.81
331.801	67.81
332.03	80.81
332.258	65.81
332.486	82.81
332.715	90.81
332.943	68.81
333.172	85.81
333.4	79.81
333.629	91.81
333.857	79.81
334.085	78.81
334.314	81.81
334.542	87.81
334.771	98.81
334.999	86.81
335.227	88.81
335.455	79.81
335.684	91.81
335.912	86.81
336.14	75.81
336.369	77.81
336.597	69.81
336.825	72.81
337.053	78.81
337.281	85.81
337.51	77.81
337.738	85.81
337.966	91.81
338.194	81.81
338.422	84.81
338.65	88.81
338.878	80.81
339.106	83.81
339.334	93.81
339.562	76.81
339.79	71.81
340.018	80.81
340.246	92.81
340.474	87.81
340.702	72.81
340.93	81.81
341.158	76.81
341.386	87.81
341.614	85.81
341.842	83.81
342.07	80.81
342.298	88.81
342.526	89.81
342.754	97.81
342.981	86.81
343.209	82.81
343.437	90.81
343.665	76.81
343.893	66.81
344.12	87.81
344.348	86.81
344.576	72.81
344.804	84.81
345.031	82.81
345.259	83.81
345.487	80.81
345.714	74.81
345.942	78.81
346.17	71.81
346.397	78.81
346.625	67.81
346.853	67.81
347.08	63.81
347.308	77.81
347.535	91.81
347.763	80.81
347.99	78.81
348.218	82.81
348.445	74.81
348.673	67.81
348.9	92.81
349.128	93.81
349.355	82.81
349.583	75.81
349.81	88.81
350.037	73.81
350.265	71.81
350.492	83.81
350.72	87.81
350.947	75.81
351.174	103.81
351.402	85.81
351.629	89.81
351.856	84.81
352.083	92.81
352.311	80.81
352.538	86.81
352.765	88.81
352.992	95.81
353.22	80.81
353.447	83.81
353.674	81.81
353.901	73.81
354.128	86.81
354.355	80.81
354.583	82.81
354.81	76.81
355.037	81.81
355.264	89.81
355.491	73.81
355.718	83.81
355.945	75.81
356.172	75.81
356.399	94.81
356.626	83.81
356.853	79.81
357.08	80.81
357.307	76.81
357.534	73.81
357.761	69.81
357.988	75.81
358.215	81.81
358.441	89.81
358.668	85.81
358.895	88.81
359.122	80.81
359.349	91.81
359.576	75.81
359.802	79.81
360.029	73.81
360.256	93.81
360.483	67.81
360.709	82.81
360.936	94.81
361.163	87.81
361.39	83.81
361.616	82.81
361.843	81.81
362.07	83.81
362.296	80.81
362.523	84.81
362.749	97.81
362.976	81.81
363.203	89.81
363.429	90.81
363.656	73.81
363.882	89.81
364.109	89.81
364.335	69.81
364.562	71.81
364.788	79.81
365.015	82.81
365.241	95.81
365.468	90.81
365.694	91.81
365.92	77.81
366.147	69.81
366.373	71.81
366.599	84.81
366.826	91.81
367.052	69.81
367.278	81.81
367.505	87.81
367.731	86.81
367.957	86.81
368.184	85.81
368.41	84.81
368.636	85.81
368.862	84.81
369.089	88.81
369.315	66.81
369.541	67.81
369.767	83.81
369.993	82.81
370.219	81.81
370.445	82.81
370.672	94.81
370.898	71.81
371.124	76.81
371.35	66.81
371.576	79.81
371.802	93.81
372.028	73.81
372.254	96.81
372.48	91.81
372.706	79.81
372.932	82.81
373.158	92.81
373.384	85.81
373.61	81.81
373.835	78.81
374.061	62.81
374.287	73.81
374.513	76.81
374.739	66.81
374.965	75.81
375.191	82.81
375.416	75.81
375.642	91.81
375.868	87.81
376.094	76.81
376.319	81.81
376.545	84.81
376.771	90.81
376.997	73.81
377.222	74.81
377.448	66.81
377.674	76.81
377.899	85.81
378.125	67.81
378.35	81.81
378.576	92.81
378.802	78.81
379.027	85.81
379.253	88.81
379.478	91.81
379.704	81.81
379.929	68.81
380.155	78.81
380.38	78.81
380.606	84.81
380.831	87.81
381.057	74.81
381.282	75.81
381.507	90.81
381.733	80.81
381.958	74.81
382.184	65.81
382.409	88.81
382.634	79.81
382.86	90.81
383.085	76.81
383.31	77.81
383.535	79.81
383.761	89.81
383.986	79.81
384.211	67.81
384.436	74.81
384.662	93.81
384.887	69.81
385.112	77.81
385.337	79.81
385.562	86.81
385.787	81.81
386.013	93.81
386.238	89.81
386.463	59.81
386.688	77.81
386.913	83.81
387.138	85.81
387.363	91.81
387.588	90.81
387.813	75.81
388.038	88.81
388.263	74.81
388.488	72.81
388.713	101.81
388.938	83.81
389.163	86.81
389.387	85.81
389.612	83.81
389.837	98.81
390.062	81.81
390.287	92.81
390.512	74.81
390.736	76.81
390.961	98.81
391.186	75.81
391.411	75.81
391.636	72.81
391.86	77.81
392.085	79.81
392.31	82.81
392.534	69.81
392.759	84.81
392.984	97.81
393.208	78.81
393.433	84.81
393.658	99.81
393.882	94.81
394.107	88.81
394.331	82.81
394.556	89.81
394.78	69.81
395.005	82.81
395.229	60.81
395.454	80.81
395.678	75.81
395.903	79.81
396.127	82.81
396.352	82.81
396.576	51.81
396.801	73.81
397.025	87.81
397.249	93.81
397.474	82.81
397.698	82.81
397.922	78.81
398.147	69.81
398.371	92.81
398.595	85.81
398.82	93.81
399.044	79.81
399.268	91.81
399.492	92.81
399.717	84.81
399.941	84.81
400.165	86.81
400.389	80.81
400.613	74.81
400.837	77.81
401.062	79.81
401.286	89.81
401.51	81.81
401.734	88.81
401.958	83.81
402.182	77.81
402.406	78.81
402.63	69.81
402.854	79.81
403.078	67.81
403.302	80.81
403.526	81.81
403.75	86.81
403.974	79.81
404.198	81.81
404.422	82.81
404.645	72.81
404.869	80.81
405.093	76.81
405.317	89.81
405.541	89.81
405.765	74.81
405.988	79.81
406.212	83.81
406.436	78.81
406.66	80.81
406.883	80.81
407.107	88.81
407.331	74.81
407.555	90.81
407.778	84.81
408.002	86.81
408.226	76.81
408.449	78.81
408.673	91.81
408.896	84.81
409.12	83.81
409.344	82.81
409.567	85.81
409.791	88.81
410.014	85.81
410.238	84.81
410.461	84.81
410.685	70.81
410.908	83.81
411.132	87.81
411.355	89.81
411.578	94.81
411.802	80.81
412.025	72.81
412.249	77.81
412.472	87.81
412.695	83.81
412.919	86.81
413.142	87.81
413.365	81.81
413.589	73.81
413.812	77.81
414.035	79.81
414.258	100.81
414.482	90.81
414.705	85.81
414.928	80.81
415.151	85.81
415.374	81.81
415.597	83.81
415.821	103.81
416.044	64.81
416.267	84.81
416.49	80.81
416.713	105.81
416.936	85.81
417.159	71.81
417.382	75.81
417.605	66.81
417.828	79.81
418.051	71.81
418.274	81.81
418.497	100.81
418.72	75.81
418.943	80.81
419.166	85.81
419.389	83.81
419.611	83.81
419.834	88.81
420.057	86.81
420.28	88.81
420.503	85.81
420.726	88.81
420.948	74.81
421.171	84.81
421.394	92.81
421.617	98.81
421.839	87.81
422.062	85.81
422.285	88.81
422.507	76.81
422.73	70.81
422.953	82.81
423.175	90.81
423.398	86.81
423.621	93.81
423.843	73.81
424.066	91.81
424.288	92.81
424.511	88.81
424.733	88.81
424.956	78.81
425.178	83.81
425.401	94.81
425.623	90.81
425.846	99.81
426.068	81.81
426.291	92.81
426.513	71.81
426.735	83.81
426.958	83.81
427.18	83.81
427.402	89.81
427.625	75.81
427.847	79.81
428.069	86.81
428.292	79.81
428.514	90.81
428.736	73.81
428.958	68.81
429.181	90.81
429.403	88.81
429.625	85.81
429.847	92.81
430.069	87.81
430.292	93.81
430.514	81.81
430.736	86.81
430.958	85.81
431.18	91.81
431.402	83.81
431.624	72.81
431.846	74.81
432.068	75.81
432.29	98.81
432.512	89.81
432.734	86.81
432.956	90.81
433.178	84.81
433.4	75.81
433.622	84.81
433.844	96.81
434.066	85.81
434.287	93.81
434.509	70.81
434.731	76.81
434.953	72.81
435.175	86.81
435.397	85.81
435.618	78.81
435.84	84.81
436.062	84.81
436.284	87.81
436.505	92.81
436.727	90.81
436.949	86.81
437.17	84.81
437.392	75.81
437.614	71.81
437.835	75.81
438.057	83.81
438.278	86.81
438.5	85.81
438.721	82.81
438.943	83.81
439.165	94.81
439.386	83.81
439.608	85.81
439.829	92.81
440.05	81.81
440.272	74.81
440.493	102.81
440.715	81.81
440.936	90.81
441.158	81.81
441.379	87.81
441.6	69.81
441.822	80.81
442.043	96.81
442.264	90.81
442.486	96.81
442.707	90.81
442.928	94.81
443.149	88.81
443.371	84.81
443.592	77.81
443.813	83.81
444.034	88.81
444.255	75.81
444.476	94.81
444.698	80.81
444.919	82.81
445.14	166.81
445.361	136.81
445.582	81.81
445.803	76.81
446.024	80.81
446.245	87.81
446.466	88.81
446.687	99.81
446.908	93.81
447.129	86.81
447.35	74.81
447.571	79.81
447.792	96.81
448.013	81.81
448.234	88.81
448.455	92.81
448.675	79.81
448.896	87.81
449.117	73.81
449.338	90.81
449.559	90.81
449.779	90.81
450	100.81
450.221	76.81
450.442	97.81
450.662	91.81
450.883	81.81
451.104	75.81
451.324	95.81
451.545	83.81
451.766	76.81
451.986	85.81
452.207	75.81
452.428	95.81
452.648	92.81
452.869	81.81
453.089	79.81
453.31	87.81
453.53	77.81
453.751	72.81
453.971	75.81
454.192	76.81
454.412	94.81
454.633	86.81
454.853	77.81
455.073	95.81
455.294	84.81
455.514	79.81
455.734	85.81
455.955	89.81
456.175	72.81
456.395	76.81
456.616	95.81
456.836	83.81
457.056	80.81
457.276	79.81
457.497	78.81
457.717	76.81
457.937	82.81
458.157	81.81
458.377	89.81
458.598	72.81
458.818	69.81
459.038	76.81
459.258	89.81
459.478	83.81
459.698	76.81
459.918	89.81
460.138	76.81
460.358	62.81
460.578	69.81
460.798	70.81
461.018	92.81
461.238	94.81
461.458	81.81
461.678	75.81
461.898	77.81
462.118	87.81
462.338	97.81
462.558	87.81
462.777	90.81
462.997	91.81
463.217	73.81
463.437	88.81
463.657	72.81
463.876	82.81
464.096	84.81
464.316	76.81
464.536	70.81
464.755	89.81
464.975	93.81
465.195	88.81
465.414	82.81
465.634	89.81
465.854	87.81
466.073	82.81
466.293	73.81
466.512	82.81
466.732	83.81
466.951	83.81
467.171	90.81
467.391	86.81
467.61	82.81
467.829	91.81
468.049	80.81
468.268	85.81
468.488	84.81
468.707	86.81
468.927	91.81
469.146	97.81
469.365	89.81
469.585	93.81
469.804	94.81
470.023	91.81
470.243	85.81
470.462	100.81
470.681	86.81
470.901	79.81
471.12	75.81
471.339	100.81
471.558	93.81
471.777	90.81
471.997	86.81
472.216	81.81
472.435	75.81
472.654	81.81
472.873	92.81
473.092	72.81
473.311	101.81
473.53	92.81
473.749	85.81
473.968	89.81
474.187	95.81
474.406	88.81
474.625	102.81
474.844	78.81
475.063	79.81
475.282	78.81
475.501	99.81
475.72	84.81
475.939	59.81
476.158	87.81
476.377	94.81
476.596	85.81
476.814	106.81
477.033	103.81
477.252	83.81
477.471	85.81
477.69	76.81
477.908	76.81
478.127	98.81
478.346	85.81
478.564	71.81
478.783	80.81
479.002	73.81
479.22	85.81
479.439	82.81
479.658	87.81
479.876	85.81
480.095	70.81
480.313	75.81
480.532	83.81
480.751	61.81
480.969	80.81
481.188	82.81
481.406	73.81
481.624	88.81
481.843	76.81
482.061	70.81
482.28	74.81
482.498	88.81
482.717	85.81
482.935	94.81
483.153	98.81
483.372	92.81
483.59	101.81
483.808	86.81
484.027	96.81
484.245	82.81
484.463	85.81
484.681	95.81
484.9	75.81
485.118	86.81
485.336	95.81
485.554	76.81
485.772	83.81
485.99	93.81
486.209	85.81
486.427	89.81
486.645	96.81
486.863	90.81
487.081	95.81
487.299	89.81
487.517	91.81
487.735	112.81
487.953	95.81
488.171	107.81
488.389	91.81
488.607	95.81
488.825	98.81
489.043	89.81
489.261	86.81
489.479	85.81
489.696	105.81
489.914	98.81
490.132	80.81
490.35	96.81
490.568	87.81
490.786	98.81
491.003	105.81
491.221	107.81
491.439	103.81
491.657	97.81
491.874	91.81
492.092	98.81
492.31	97.81
492.527	102.81
492.745	104.81
492.963	106.81
493.18	87.81
493.398	113.81
493.615	96.81
493.833	88.81
494.05	94.81
494.268	109.81
494.485	93.81
494.703	88.81
494.92	93.81
495.138	94.81
495.355	99.81
495.573	109.81
495.79	102.81
496.008	92.81
496.225	82.81
496.442	101.81
496.66	99.81
496.877	112.81
497.094	87.81
497.312	86.81
497.529	102.81
497.746	91.81
497.963	79.81
498.181	94.81
498.398	85.81
498.615	81.81
498.832	83.81
499.049	88.81
499.267	88.81
499.484	87.81
499.701	90.81
499.918	94.81
500.135	93.81
500.352	93.81
500.569	85.81
500.786	77.81
501.003	97.81
501.22	92.81
501.437	87.81
501.654	81.81
501.871	104.81
502.088	86.81
502.305	76.81
502.522	76.81
502.739	93.81
502.956	82.81
503.172	94.81
503.389	87.81
503.606	82.81
503.823	70.81
504.04	98.81
504.256	101.81
504.473	96.81
504.69	110.81
504.907	75.81
505.123	85.81
505.34	87.81
505.557	88.81
505.773	73.81
505.99	87.81
506.207	87.81
506.423	80.81
506.64	83.81
506.856	93.81
507.073	86.81
507.289	103.81
507.506	82.81
507.722	69.81
507.939	72.81
508.155	86.81
508.372	93.81
508.588	79.81
508.805	82.81
509.021	90.81
509.238	82.81
509.454	98.81
509.67	90.81
509.887	81.81
510.103	67.81
510.319	72.81
510.536	81.81
510.752	91.81
510.968	85.81
511.184	83.81
511.401	82.81
511.617	65.81
511.833	78.81
512.049	75.81
512.265	77.81
512.481	100.81
512.698	86.81
512.914	79.81
513.13	88.81
513.346	95.81
513.562	83.81
513.778	89.81
513.994	83.81
514.21	85.81
514.426	89.81
514.642	73.81
514.858	75.81
515.074	78.81
515.29	82.81
515.506	85.81
515.721	90.81
515.937	86.81
516.153	82.81
516.369	83.81
516.585	74.81
516.801	75.81
517.016	83.81
517.232	102.81
517.448	89.81
517.664	86.81
517.879	82.81
518.095	88.81
518.311	80.81
518.527	81.81
518.742	75.81
518.958	80.81
