Data from Zn(NO3)2Standard.Agarose3%.GreenCap.LampEnergy5.5.E.O_HRD10591_15-00-46-767.txt Node
Date: Mon Jul 22 15:00:46 EDT 2019
User: cochatt
Spectrometer: HR+D1059
Trigger mode: 1
Integration Time (sec): 1.000000E-1
Scans to average: 1
Electric dark correction enabled: true
Nonlinearity correction enabled: false
Boxcar width: 0
XAxis mode: Wavelengths
Number of Pixels in Spectrum: 2048
>>>>>Begin Spectral Data<<<<<
223.165	-12.81
223.4	-12.81
223.635	-12.81
223.869	-20.81
224.104	-17.81
224.338	-18.81
224.573	-22.81
224.808	-2.81
225.042	-12.81
225.277	-1.81
225.511	-3.81
225.746	-4.81
225.98	4.19
226.215	10.19
226.449	33.19
226.683	11.19
226.918	24.19
227.152	36.19
227.387	28.19
227.621	46.19
227.856	47.19
228.09	53.19
228.324	48.19
228.559	50.19
228.793	47.19
229.027	67.19
229.262	65.19
229.496	54.19
229.73	73.19
229.964	60.19
230.199	81.19
230.433	74.19
230.667	70.19
230.901	73.19
231.136	82.19
231.37	72.19
231.604	48.19
231.838	58.19
232.072	51.19
232.306	84.19
232.541	83.19
232.775	72.19
233.009	79.19
233.243	75.19
233.477	80.19
233.711	76.19
233.945	77.19
234.179	77.19
234.413	91.19
234.647	88.19
234.881	91.19
235.115	91.19
235.349	79.19
235.583	78.19
235.817	77.19
236.051	77.19
236.285	76.19
236.519	73.19
236.753	83.19
236.987	68.19
237.221	85.19
237.455	77.19
237.689	71.19
237.922	64.19
238.156	62.19
238.39	85.19
238.624	78.19
238.858	74.19
239.091	71.19
239.325	70.19
239.559	79.19
239.793	68.19
240.027	70.19
240.26	73.19
240.494	75.19
240.728	76.19
240.961	80.19
241.195	80.19
241.429	79.19
241.662	71.19
241.896	80.19
242.13	80.19
242.363	75.19
242.597	62.19
242.83	61.19
243.064	73.19
243.298	73.19
243.531	63.19
243.765	70.19
243.998	75.19
244.232	73.19
244.465	79.19
244.699	78.19
244.932	74.19
245.166	82.19
245.399	82.19
245.633	75.19
245.866	70.19
246.099	72.19
246.333	61.19
246.566	75.19
246.8	75.19
247.033	82.19
247.266	89.19
247.5	85.19
247.733	74.19
247.966	70.19
248.2	77.19
248.433	92.19
248.666	83.19
248.899	75.19
249.133	71.19
249.366	89.19
249.599	85.19
249.832	68.19
250.066	76.19
250.299	81.19
250.532	84.19
250.765	69.19
250.998	83.19
251.231	79.19
251.465	73.19
251.698	73.19
251.931	89.19
252.164	85.19
252.397	91.19
252.63	78.19
252.863	74.19
253.096	77.19
253.329	73.19
253.562	74.19
253.795	87.19
254.028	91.19
254.261	75.19
254.494	79.19
254.727	79.19
254.96	81.19
255.193	90.19
255.426	78.19
255.659	70.19
255.892	73.19
256.124	83.19
256.357	92.19
256.59	82.19
256.823	65.19
257.056	95.19
257.289	68.19
257.521	82.19
257.754	76.19
257.987	78.19
258.22	89.19
258.452	79.19
258.685	79.19
258.918	65.19
259.151	80.19
259.383	88.19
259.616	91.19
259.849	82.19
260.081	66.19
260.314	75.19
260.547	80.19
260.779	82.19
261.012	81.19
261.244	79.19
261.477	92.19
261.71	83.19
261.942	74.19
262.175	85.19
262.407	84.19
262.64	76.19
262.872	56.19
263.105	80.19
263.337	72.19
263.57	84.19
263.802	76.19
264.035	79.19
264.267	80.19
264.499	94.19
264.732	77.19
264.964	76.19
265.197	91.19
265.429	88.19
265.661	83.19
265.894	79.19
266.126	77.19
266.358	81.19
266.591	89.19
266.823	83.19
267.055	73.19
267.287	89.19
267.52	73.19
267.752	83.19
267.984	83.19
268.216	87.19
268.448	72.19
268.681	85.19
268.913	82.19
269.145	66.19
269.377	84.19
269.609	81.19
269.841	88.19
270.073	103.19
270.306	74.19
270.538	87.19
270.77	82.19
271.002	79.19
271.234	67.19
271.466	91.19
271.698	73.19
271.93	76.19
272.162	78.19
272.394	88.19
272.626	94.19
272.858	82.19
273.09	87.19
273.322	67.19
273.553	76.19
273.785	75.19
274.017	74.19
274.249	68.19
274.481	86.19
274.713	86.19
274.945	71.19
275.176	99.19
275.408	82.19
275.64	86.19
275.872	74.19
276.104	92.19
276.335	68.19
276.567	84.19
276.799	78.19
277.031	87.19
277.262	101.19
277.494	87.19
277.726	79.19
277.957	84.19
278.189	70.19
278.421	91.19
278.652	82.19
278.884	78.19
279.115	75.19
279.347	92.19
279.579	82.19
279.81	84.19
280.042	74.19
280.273	85.19
280.505	86.19
280.736	86.19
280.968	84.19
281.199	86.19
281.431	74.19
281.662	68.19
281.894	89.19
282.125	87.19
282.356	79.19
282.588	87.19
282.819	80.19
283.051	87.19
283.282	82.19
283.513	82.19
283.745	86.19
283.976	94.19
284.207	75.19
284.439	88.19
284.67	77.19
284.901	87.19
285.132	75.19
285.364	69.19
285.595	82.19
285.826	77.19
286.057	79.19
286.288	79.19
286.52	86.19
286.751	86.19
286.982	87.19
287.213	74.19
287.444	80.19
287.675	92.19
287.906	89.19
288.138	73.19
288.369	75.19
288.6	91.19
288.831	85.19
289.062	90.19
289.293	77.19
289.524	71.19
289.755	87.19
289.986	76.19
290.217	78.19
290.448	90.19
290.679	93.19
290.91	84.19
291.141	80.19
291.371	93.19
291.602	72.19
291.833	81.19
292.064	80.19
292.295	76.19
292.526	83.19
292.757	80.19
292.987	72.19
293.218	79.19
293.449	80.19
293.68	90.19
293.91	85.19
294.141	82.19
294.372	66.19
294.603	84.19
294.833	85.19
295.064	70.19
295.295	85.19
295.525	70.19
295.756	68.19
295.987	82.19
296.217	88.19
296.448	70.19
296.679	99.19
296.909	94.19
297.14	97.19
297.37	90.19
297.601	90.19
297.831	70.19
298.062	77.19
298.292	79.19
298.523	84.19
298.753	78.19
298.984	82.19
299.214	75.19
299.445	80.19
299.675	87.19
299.905	78.19
300.136	87.19
300.366	75.19
300.597	80.19
300.827	81.19
301.057	76.19
301.288	114.19
301.518	82.19
301.748	89.19
301.979	82.19
302.209	77.19
302.439	89.19
302.669	73.19
302.9	80.19
303.13	85.19
303.36	64.19
303.59	84.19
303.82	75.19
304.051	82.19
304.281	82.19
304.511	80.19
304.741	88.19
304.971	92.19
305.201	91.19
305.431	83.19
305.661	86.19
305.891	85.19
306.121	75.19
306.352	94.19
306.582	90.19
306.812	89.19
307.042	91.19
307.272	82.19
307.502	72.19
307.731	84.19
307.961	81.19
308.191	79.19
308.421	78.19
308.651	76.19
308.881	81.19
309.111	59.19
309.341	75.19
309.571	76.19
309.8	84.19
310.03	92.19
310.26	84.19
310.49	90.19
310.72	91.19
310.949	70.19
311.179	85.19
311.409	82.19
311.639	86.19
311.868	75.19
312.098	96.19
312.328	95.19
312.557	90.19
312.787	77.19
313.017	75.19
313.246	83.19
313.476	69.19
313.706	76.19
313.935	72.19
314.165	80.19
314.394	79.19
314.624	87.19
314.853	83.19
315.083	82.19
315.312	70.19
315.542	76.19
315.771	88.19
316.001	86.19
316.23	85.19
316.46	86.19
316.689	75.19
316.919	80.19
317.148	91.19
317.377	90.19
317.607	97.19
317.836	73.19
318.065	80.19
318.295	99.19
318.524	83.19
318.753	88.19
318.983	83.19
319.212	105.19
319.441	88.19
319.67	65.19
319.9	74.19
320.129	87.19
320.358	78.19
320.587	81.19
320.816	92.19
321.046	73.19
321.275	91.19
321.504	73.19
321.733	81.19
321.962	77.19
322.191	75.19
322.42	88.19
322.649	81.19
322.878	78.19
323.108	83.19
323.337	72.19
323.566	88.19
323.795	81.19
324.024	86.19
324.253	82.19
324.482	79.19
324.71	75.19
324.939	91.19
325.168	88.19
325.397	75.19
325.626	69.19
325.855	85.19
326.084	75.19
326.313	92.19
326.542	85.19
326.77	95.19
326.999	87.19
327.228	82.19
327.457	77.19
327.686	83.19
327.914	107.19
328.143	88.19
328.372	84.19
328.6	88.19
328.829	100.19
329.058	80.19
329.287	85.19
329.515	79.19
329.744	82.19
329.972	95.19
330.201	95.19
330.43	86.19
330.658	83.19
330.887	84.19
331.115	85.19
331.344	97.19
331.572	87.19
331.801	81.19
332.03	85.19
332.258	79.19
332.486	76.19
332.715	83.19
332.943	89.19
333.172	79.19
333.4	90.19
333.629	81.19
333.857	84.19
334.085	81.19
334.314	78.19
334.542	79.19
334.771	90.19
334.999	83.19
335.227	84.19
335.455	85.19
335.684	88.19
335.912	71.19
336.14	88.19
336.369	86.19
336.597	65.19
336.825	78.19
337.053	87.19
337.281	89.19
337.51	84.19
337.738	84.19
337.966	85.19
338.194	85.19
338.422	91.19
338.65	80.19
338.878	80.19
339.106	86.19
339.334	81.19
339.562	78.19
339.79	87.19
340.018	83.19
340.246	87.19
340.474	77.19
340.702	68.19
340.93	68.19
341.158	75.19
341.386	87.19
341.614	83.19
341.842	75.19
342.07	84.19
342.298	76.19
342.526	87.19
342.754	79.19
342.981	70.19
343.209	86.19
343.437	90.19
343.665	75.19
343.893	79.19
344.12	86.19
344.348	74.19
344.576	86.19
344.804	78.19
345.031	76.19
345.259	95.19
345.487	75.19
345.714	84.19
345.942	80.19
346.17	94.19
346.397	73.19
346.625	78.19
346.853	77.19
347.08	86.19
347.308	76.19
347.535	76.19
347.763	92.19
347.99	82.19
348.218	92.19
348.445	75.19
348.673	90.19
348.9	87.19
349.128	91.19
349.355	82.19
349.583	81.19
349.81	91.19
350.037	96.19
350.265	80.19
350.492	82.19
350.72	71.19
350.947	76.19
351.174	84.19
351.402	94.19
351.629	89.19
351.856	86.19
352.083	83.19
352.311	91.19
352.538	70.19
352.765	82.19
352.992	80.19
353.22	75.19
353.447	76.19
353.674	92.19
353.901	94.19
354.128	81.19
354.355	91.19
354.583	75.19
354.81	88.19
355.037	73.19
355.264	84.19
355.491	84.19
355.718	87.19
355.945	78.19
356.172	82.19
356.399	92.19
356.626	86.19
356.853	83.19
357.08	81.19
357.307	92.19
357.534	88.19
357.761	98.19
357.988	86.19
358.215	83.19
358.441	73.19
358.668	80.19
358.895	85.19
359.122	83.19
359.349	80.19
359.576	87.19
359.802	65.19
360.029	80.19
360.256	73.19
360.483	68.19
360.709	62.19
360.936	75.19
361.163	85.19
361.39	94.19
361.616	82.19
361.843	91.19
362.07	86.19
362.296	90.19
362.523	89.19
362.749	85.19
362.976	88.19
363.203	91.19
363.429	89.19
363.656	81.19
363.882	80.19
364.109	84.19
364.335	75.19
364.562	85.19
364.788	95.19
365.015	83.19
365.241	71.19
365.468	86.19
365.694	82.19
365.92	79.19
366.147	81.19
366.373	85.19
366.599	84.19
366.826	81.19
367.052	84.19
367.278	83.19
367.505	86.19
367.731	78.19
367.957	78.19
368.184	83.19
368.41	78.19
368.636	75.19
368.862	79.19
369.089	94.19
369.315	75.19
369.541	76.19
369.767	80.19
369.993	76.19
370.219	97.19
370.445	88.19
370.672	80.19
370.898	75.19
371.124	83.19
371.35	89.19
371.576	87.19
371.802	90.19
372.028	82.19
372.254	76.19
372.48	84.19
372.706	83.19
372.932	85.19
373.158	95.19
373.384	85.19
373.61	80.19
373.835	81.19
374.061	77.19
374.287	76.19
374.513	85.19
374.739	81.19
374.965	72.19
375.191	78.19
375.416	88.19
375.642	86.19
375.868	87.19
376.094	97.19
376.319	84.19
376.545	81.19
376.771	87.19
376.997	76.19
377.222	82.19
377.448	83.19
377.674	84.19
377.899	73.19
378.125	88.19
378.35	86.19
378.576	82.19
378.802	74.19
379.027	70.19
379.253	89.19
379.478	82.19
379.704	79.19
379.929	80.19
380.155	90.19
380.38	74.19
380.606	85.19
380.831	73.19
381.057	75.19
381.282	71.19
381.507	71.19
381.733	75.19
381.958	89.19
382.184	79.19
382.409	76.19
382.634	78.19
382.86	68.19
383.085	83.19
383.31	83.19
383.535	72.19
383.761	80.19
383.986	84.19
384.211	86.19
384.436	87.19
384.662	86.19
384.887	95.19
385.112	86.19
385.337	83.19
385.562	85.19
385.787	95.19
386.013	99.19
386.238	82.19
386.463	81.19
386.688	86.19
386.913	81.19
387.138	70.19
387.363	61.19
387.588	74.19
387.813	87.19
388.038	89.19
388.263	84.19
388.488	86.19
388.713	79.19
388.938	89.19
389.163	78.19
389.387	85.19
389.612	70.19
389.837	75.19
390.062	73.19
390.287	91.19
390.512	85.19
390.736	75.19
390.961	98.19
391.186	82.19
391.411	76.19
391.636	90.19
391.86	78.19
392.085	74.19
392.31	83.19
392.534	69.19
392.759	90.19
392.984	83.19
393.208	91.19
393.433	75.19
393.658	91.19
393.882	73.19
394.107	78.19
394.331	80.19
394.556	78.19
394.78	96.19
395.005	78.19
395.229	79.19
395.454	87.19
395.678	84.19
395.903	83.19
396.127	88.19
396.352	83.19
396.576	82.19
396.801	72.19
397.025	79.19
397.249	79.19
397.474	86.19
397.698	92.19
397.922	76.19
398.147	80.19
398.371	85.19
398.595	81.19
398.82	66.19
399.044	81.19
399.268	75.19
399.492	78.19
399.717	96.19
399.941	85.19
400.165	79.19
400.389	86.19
400.613	89.19
400.837	80.19
401.062	82.19
401.286	81.19
401.51	87.19
401.734	79.19
401.958	92.19
402.182	77.19
402.406	90.19
402.63	90.19
402.854	86.19
403.078	91.19
403.302	75.19
403.526	87.19
403.75	96.19
403.974	89.19
404.198	90.19
404.422	80.19
404.645	92.19
404.869	79.19
405.093	97.19
405.317	85.19
405.541	89.19
405.765	83.19
405.988	89.19
406.212	72.19
406.436	89.19
406.66	83.19
406.883	89.19
407.107	80.19
407.331	86.19
407.555	87.19
407.778	91.19
408.002	99.19
408.226	79.19
408.449	80.19
408.673	83.19
408.896	82.19
409.12	75.19
409.344	87.19
409.567	100.19
409.791	93.19
410.014	82.19
410.238	89.19
410.461	90.19
410.685	83.19
410.908	71.19
411.132	80.19
411.355	85.19
411.578	95.19
411.802	73.19
412.025	74.19
412.249	88.19
412.472	68.19
412.695	73.19
412.919	76.19
413.142	82.19
413.365	66.19
413.589	92.19
413.812	96.19
414.035	78.19
414.258	74.19
414.482	87.19
414.705	84.19
414.928	91.19
415.151	94.19
415.374	81.19
415.597	82.19
415.821	87.19
416.044	91.19
416.267	83.19
416.49	88.19
416.713	83.19
416.936	63.19
417.159	83.19
417.382	83.19
417.605	94.19
417.828	82.19
418.051	82.19
418.274	85.19
418.497	88.19
418.72	91.19
418.943	75.19
419.166	89.19
419.389	90.19
419.611	103.19
419.834	84.19
420.057	83.19
420.28	81.19
420.503	90.19
420.726	74.19
420.948	80.19
421.171	78.19
421.394	96.19
421.617	100.19
421.839	107.19
422.062	79.19
422.285	73.19
422.507	89.19
422.73	77.19
422.953	81.19
423.175	85.19
423.398	75.19
423.621	83.19
423.843	77.19
424.066	85.19
424.288	84.19
424.511	84.19
424.733	104.19
424.956	72.19
425.178	90.19
425.401	83.19
425.623	89.19
425.846	90.19
426.068	82.19
426.291	74.19
426.513	76.19
426.735	79.19
426.958	84.19
427.18	72.19
427.402	98.19
427.625	92.19
427.847	91.19
428.069	87.19
428.292	92.19
428.514	79.19
428.736	92.19
428.958	81.19
429.181	80.19
429.403	88.19
429.625	93.19
429.847	79.19
430.069	74.19
430.292	84.19
430.514	81.19
430.736	81.19
430.958	74.19
431.18	88.19
431.402	92.19
431.624	91.19
431.846	72.19
432.068	79.19
432.29	83.19
432.512	80.19
432.734	75.19
432.956	81.19
433.178	88.19
433.4	99.19
433.622	95.19
433.844	76.19
434.066	83.19
434.287	94.19
434.509	78.19
434.731	74.19
434.953	84.19
435.175	75.19
435.397	89.19
435.618	83.19
435.84	74.19
436.062	81.19
436.284	86.19
436.505	83.19
436.727	84.19
436.949	97.19
437.17	85.19
437.392	94.19
437.614	87.19
437.835	73.19
438.057	74.19
438.278	82.19
438.5	78.19
438.721	78.19
438.943	97.19
439.165	90.19
439.386	100.19
439.608	92.19
439.829	85.19
440.05	96.19
440.272	76.19
440.493	91.19
440.715	79.19
440.936	91.19
441.158	86.19
441.379	86.19
441.6	93.19
441.822	99.19
442.043	89.19
442.264	84.19
442.486	83.19
442.707	106.19
442.928	88.19
443.149	101.19
443.371	97.19
443.592	97.19
443.813	95.19
444.034	97.19
444.255	91.19
444.476	101.19
444.698	77.19
444.919	90.19
445.14	187.19
445.361	128.19
445.582	96.19
445.803	91.19
446.024	73.19
446.245	82.19
446.466	90.19
446.687	80.19
446.908	88.19
447.129	87.19
447.35	104.19
447.571	110.19
447.792	91.19
448.013	95.19
448.234	79.19
448.455	84.19
448.675	84.19
448.896	79.19
449.117	96.19
449.338	79.19
449.559	88.19
449.779	88.19
450	88.19
450.221	112.19
450.442	85.19
450.662	95.19
450.883	76.19
451.104	81.19
451.324	89.19
451.545	106.19
451.766	91.19
451.986	89.19
452.207	80.19
452.428	72.19
452.648	86.19
452.869	85.19
453.089	90.19
453.31	77.19
453.53	56.19
453.751	88.19
453.971	91.19
454.192	81.19
454.412	94.19
454.633	80.19
454.853	85.19
455.073	90.19
455.294	84.19
455.514	75.19
455.734	90.19
455.955	91.19
456.175	97.19
456.395	96.19
456.616	92.19
456.836	94.19
457.056	92.19
457.276	86.19
457.497	96.19
457.717	87.19
457.937	79.19
458.157	94.19
458.377	87.19
458.598	90.19
458.818	73.19
459.038	86.19
459.258	80.19
459.478	76.19
459.698	78.19
459.918	83.19
460.138	83.19
460.358	72.19
460.578	97.19
460.798	81.19
461.018	81.19
461.238	87.19
461.458	76.19
461.678	82.19
461.898	73.19
462.118	86.19
462.338	83.19
462.558	79.19
462.777	91.19
462.997	91.19
463.217	82.19
463.437	92.19
463.657	74.19
463.876	88.19
464.096	95.19
464.316	75.19
464.536	83.19
464.755	70.19
464.975	87.19
465.195	80.19
465.414	81.19
465.634	83.19
465.854	88.19
466.073	90.19
466.293	76.19
466.512	90.19
466.732	81.19
466.951	94.19
467.171	94.19
467.391	101.19
467.61	96.19
467.829	75.19
468.049	100.19
468.268	86.19
468.488	84.19
468.707	84.19
468.927	96.19
469.146	94.19
469.365	104.19
469.585	87.19
469.804	110.19
470.023	96.19
470.243	99.19
470.462	97.19
470.681	86.19
470.901	79.19
471.12	101.19
471.339	95.19
471.558	90.19
471.777	81.19
471.997	82.19
472.216	81.19
472.435	83.19
472.654	75.19
472.873	87.19
473.092	92.19
473.311	85.19
473.53	90.19
473.749	80.19
473.968	75.19
474.187	79.19
474.406	82.19
474.625	88.19
474.844	87.19
475.063	69.19
475.282	77.19
475.501	84.19
475.72	83.19
475.939	93.19
476.158	90.19
476.377	67.19
476.596	74.19
476.814	91.19
477.033	83.19
477.252	82.19
477.471	92.19
477.69	72.19
477.908	82.19
478.127	83.19
478.346	101.19
478.564	94.19
478.783	76.19
479.002	97.19
479.22	87.19
479.439	79.19
479.658	94.19
479.876	84.19
480.095	99.19
480.313	88.19
480.532	97.19
480.751	84.19
480.969	77.19
481.188	86.19
481.406	81.19
481.624	95.19
481.843	77.19
482.061	82.19
482.28	83.19
482.498	86.19
482.717	72.19
482.935	94.19
483.153	92.19
483.372	97.19
483.59	91.19
483.808	94.19
484.027	103.19
484.245	96.19
484.463	86.19
484.681	99.19
484.9	91.19
485.118	88.19
485.336	89.19
485.554	75.19
485.772	99.19
485.99	80.19
486.209	99.19
486.427	74.19
486.645	90.19
486.863	104.19
487.081	94.19
487.299	98.19
487.517	87.19
487.735	95.19
487.953	96.19
488.171	96.19
488.389	98.19
488.607	92.19
488.825	95.19
489.043	84.19
489.261	80.19
489.479	81.19
489.696	94.19
489.914	91.19
490.132	90.19
490.35	90.19
490.568	104.19
490.786	97.19
491.003	100.19
491.221	118.19
491.439	100.19
491.657	92.19
491.874	90.19
492.092	106.19
492.31	126.19
492.527	110.19
492.745	94.19
492.963	97.19
493.18	100.19
493.398	79.19
493.615	97.19
493.833	85.19
494.05	96.19
494.268	96.19
494.485	101.19
494.703	103.19
494.92	101.19
495.138	104.19
495.355	94.19
495.573	103.19
495.79	94.19
496.008	92.19
496.225	94.19
496.442	104.19
496.66	99.19
496.877	89.19
497.094	102.19
497.312	96.19
497.529	97.19
497.746	89.19
497.963	75.19
498.181	87.19
498.398	101.19
498.615	88.19
498.832	84.19
499.049	84.19
499.267	73.19
499.484	78.19
499.701	83.19
499.918	65.19
500.135	96.19
500.352	83.19
500.569	84.19
500.786	79.19
501.003	88.19
501.22	70.19
501.437	101.19
501.654	90.19
501.871	83.19
502.088	79.19
502.305	85.19
502.522	90.19
502.739	80.19
502.956	81.19
503.172	90.19
503.389	78.19
503.606	75.19
503.823	96.19
504.04	87.19
504.256	95.19
504.473	82.19
504.69	65.19
504.907	91.19
505.123	91.19
505.34	98.19
505.557	91.19
505.773	99.19
505.99	90.19
506.207	87.19
506.423	82.19
506.64	94.19
506.856	78.19
507.073	85.19
507.289	89.19
507.506	95.19
507.722	90.19
507.939	80.19
508.155	98.19
508.372	84.19
508.588	96.19
508.805	94.19
509.021	85.19
509.238	93.19
509.454	87.19
509.67	77.19
509.887	85.19
510.103	80.19
510.319	81.19
510.536	74.19
510.752	86.19
510.968	90.19
511.184	94.19
511.401	79.19
511.617	76.19
511.833	79.19
512.049	88.19
512.265	88.19
512.481	71.19
512.698	93.19
512.914	74.19
513.13	76.19
513.346	83.19
513.562	77.19
513.778	89.19
513.994	77.19
514.21	82.19
514.426	88.19
514.642	102.19
514.858	87.19
515.074	87.19
515.29	102.19
515.506	83.19
515.721	78.19
515.937	84.19
516.153	76.19
516.369	78.19
516.585	62.19
516.801	78.19
517.016	93.19
517.232	81.19
517.448	77.19
517.664	79.19
517.879	87.19
518.095	77.19
518.311	74.19
518.527	78.19
518.742	83.19
