Data from Zn(NO3)2Standard.Agarose3%.GreenCap.LampEnergy10E.O_HRD10591_15-08-34-950.txt Node
Date: Mon Jul 22 15:08:34 EDT 2019
User: cochatt
Spectrometer: HR+D1059
Trigger mode: 1
Integration Time (sec): 1.000000E-1
Scans to average: 1
Electric dark correction enabled: true
Nonlinearity correction enabled: false
Boxcar width: 0
XAxis mode: Wavelengths
Number of Pixels in Spectrum: 2048
>>>>>Begin Spectral Data<<<<<
223.165	0.31
223.4	0.31
223.635	0.31
223.869	-10.69
224.104	-20.69
224.338	-16.69
224.573	-8.69
224.808	-16.69
225.042	-4.69
225.277	-25.69
225.511	-11.69
225.746	-11.69
225.98	20.31
226.215	16.31
226.449	20.31
226.683	27.31
226.918	19.31
227.152	23.31
227.387	27.31
227.621	29.31
227.856	37.31
228.09	37.31
228.324	46.31
228.559	67.31
228.793	55.31
229.027	59.31
229.262	68.31
229.496	56.31
229.73	63.31
229.964	68.31
230.199	61.31
230.433	61.31
230.667	71.31
230.901	82.31
231.136	82.31
231.37	77.31
231.604	85.31
231.838	91.31
232.072	84.31
232.306	80.31
232.541	78.31
232.775	95.31
233.009	87.31
233.243	83.31
233.477	78.31
233.711	78.31
233.945	80.31
234.179	84.31
234.413	79.31
234.647	76.31
234.881	84.31
235.115	56.31
235.349	59.31
235.583	81.31
235.817	73.31
236.051	80.31
236.285	67.31
236.519	72.31
236.753	75.31
236.987	78.31
237.221	78.31
237.455	64.31
237.689	85.31
237.922	70.31
238.156	70.31
238.39	72.31
238.624	59.31
238.858	66.31
239.091	59.31
239.325	71.31
239.559	69.31
239.793	69.31
240.027	71.31
240.26	69.31
240.494	85.31
240.728	66.31
240.961	56.31
241.195	61.31
241.429	77.31
241.662	70.31
241.896	69.31
242.13	67.31
242.363	85.31
242.597	60.31
242.83	70.31
243.064	62.31
243.298	69.31
243.531	75.31
243.765	58.31
243.998	74.31
244.232	73.31
244.465	74.31
244.699	68.31
244.932	46.31
245.166	70.31
245.399	74.31
245.633	80.31
245.866	68.31
246.099	80.31
246.333	71.31
246.566	85.31
246.8	73.31
247.033	59.31
247.266	78.31
247.5	86.31
247.733	77.31
247.966	68.31
248.2	65.31
248.433	57.31
248.666	65.31
248.899	79.31
249.133	75.31
249.366	83.31
249.599	80.31
249.832	73.31
250.066	79.31
250.299	63.31
250.532	68.31
250.765	69.31
250.998	90.31
251.231	80.31
251.465	69.31
251.698	68.31
251.931	79.31
252.164	64.31
252.397	78.31
252.63	64.31
252.863	80.31
253.096	75.31
253.329	68.31
253.562	86.31
253.795	83.31
254.028	65.31
254.261	87.31
254.494	69.31
254.727	68.31
254.96	85.31
255.193	83.31
255.426	75.31
255.659	79.31
255.892	66.31
256.124	71.31
256.357	64.31
256.59	82.31
256.823	78.31
257.056	91.31
257.289	81.31
257.521	72.31
257.754	78.31
257.987	82.31
258.22	98.31
258.452	81.31
258.685	72.31
258.918	75.31
259.151	64.31
259.383	74.31
259.616	73.31
259.849	71.31
260.081	64.31
260.314	72.31
260.547	70.31
260.779	82.31
261.012	78.31
261.244	64.31
261.477	76.31
261.71	59.31
261.942	65.31
262.175	72.31
262.407	90.31
262.64	62.31
262.872	64.31
263.105	72.31
263.337	68.31
263.57	69.31
263.802	76.31
264.035	72.31
264.267	78.31
264.499	75.31
264.732	64.31
264.964	81.31
265.197	74.31
265.429	81.31
265.661	72.31
265.894	75.31
266.126	79.31
266.358	62.31
266.591	71.31
266.823	80.31
267.055	86.31
267.287	85.31
267.52	71.31
267.752	71.31
267.984	87.31
268.216	68.31
268.448	82.31
268.681	66.31
268.913	75.31
269.145	79.31
269.377	83.31
269.609	80.31
269.841	64.31
270.073	79.31
270.306	76.31
270.538	66.31
270.77	65.31
271.002	74.31
271.234	70.31
271.466	76.31
271.698	77.31
271.93	65.31
272.162	76.31
272.394	72.31
272.626	79.31
272.858	74.31
273.09	74.31
273.322	75.31
273.553	79.31
273.785	79.31
274.017	83.31
274.249	85.31
274.481	70.31
274.713	58.31
274.945	82.31
275.176	71.31
275.408	78.31
275.64	85.31
275.872	84.31
276.104	71.31
276.335	86.31
276.567	73.31
276.799	72.31
277.031	72.31
277.262	82.31
277.494	76.31
277.726	86.31
277.957	78.31
278.189	83.31
278.421	85.31
278.652	89.31
278.884	77.31
279.115	72.31
279.347	92.31
279.579	86.31
279.81	77.31
280.042	88.31
280.273	68.31
280.505	78.31
280.736	85.31
280.968	83.31
281.199	83.31
281.431	76.31
281.662	75.31
281.894	78.31
282.125	84.31
282.356	71.31
282.588	80.31
282.819	86.31
283.051	76.31
283.282	79.31
283.513	97.31
283.745	89.31
283.976	91.31
284.207	81.31
284.439	82.31
284.67	79.31
284.901	64.31
285.132	82.31
285.364	74.31
285.595	86.31
285.826	83.31
286.057	93.31
286.288	86.31
286.52	83.31
286.751	74.31
286.982	75.31
287.213	77.31
287.444	78.31
287.675	73.31
287.906	89.31
288.138	75.31
288.369	71.31
288.6	89.31
288.831	93.31
289.062	100.31
289.293	82.31
289.524	74.31
289.755	77.31
289.986	77.31
290.217	80.31
290.448	78.31
290.679	74.31
290.91	86.31
291.141	73.31
291.371	72.31
291.602	96.31
291.833	85.31
292.064	91.31
292.295	83.31
292.526	69.31
292.757	67.31
292.987	94.31
293.218	89.31
293.449	71.31
293.68	88.31
293.91	79.31
294.141	88.31
294.372	70.31
294.603	80.31
294.833	83.31
295.064	63.31
295.295	86.31
295.525	69.31
295.756	78.31
295.987	81.31
296.217	65.31
296.448	93.31
296.679	83.31
296.909	77.31
297.14	81.31
297.37	82.31
297.601	70.31
297.831	92.31
298.062	83.31
298.292	93.31
298.523	79.31
298.753	61.31
298.984	86.31
299.214	83.31
299.445	84.31
299.675	92.31
299.905	80.31
300.136	76.31
300.366	74.31
300.597	78.31
300.827	88.31
301.057	68.31
301.288	70.31
301.518	76.31
301.748	82.31
301.979	88.31
302.209	86.31
302.439	83.31
302.669	83.31
302.9	73.31
303.13	79.31
303.36	91.31
303.59	81.31
303.82	79.31
304.051	78.31
304.281	81.31
304.511	82.31
304.741	81.31
304.971	84.31
305.201	91.31
305.431	85.31
305.661	86.31
305.891	84.31
306.121	67.31
306.352	82.31
306.582	74.31
306.812	68.31
307.042	78.31
307.272	84.31
307.502	81.31
307.731	88.31
307.961	56.31
308.191	92.31
308.421	68.31
308.651	79.31
308.881	87.31
309.111	77.31
309.341	71.31
309.571	75.31
309.8	77.31
310.03	87.31
310.26	85.31
310.49	77.31
310.72	73.31
310.949	70.31
311.179	94.31
311.409	81.31
311.639	80.31
311.868	86.31
312.098	93.31
312.328	94.31
312.557	79.31
312.787	79.31
313.017	91.31
313.246	92.31
313.476	89.31
313.706	96.31
313.935	69.31
314.165	86.31
314.394	85.31
314.624	88.31
314.853	79.31
315.083	83.31
315.312	68.31
315.542	88.31
315.771	79.31
316.001	98.31
316.23	80.31
316.46	87.31
316.689	86.31
316.919	87.31
317.148	75.31
317.377	92.31
317.607	79.31
317.836	72.31
318.065	73.31
318.295	83.31
318.524	95.31
318.753	86.31
318.983	91.31
319.212	84.31
319.441	82.31
319.67	82.31
319.9	82.31
320.129	79.31
320.358	74.31
320.587	83.31
320.816	95.31
321.046	77.31
321.275	96.31
321.504	81.31
321.733	79.31
321.962	92.31
322.191	88.31
322.42	71.31
322.649	75.31
322.878	92.31
323.108	76.31
323.337	85.31
323.566	87.31
323.795	88.31
324.024	80.31
324.253	83.31
324.482	88.31
324.71	85.31
324.939	93.31
325.168	73.31
325.397	89.31
325.626	88.31
325.855	64.31
326.084	70.31
326.313	80.31
326.542	77.31
326.77	81.31
326.999	72.31
327.228	78.31
327.457	77.31
327.686	70.31
327.914	85.31
328.143	78.31
328.372	80.31
328.6	80.31
328.829	72.31
329.058	79.31
329.287	79.31
329.515	88.31
329.744	78.31
329.972	84.31
330.201	79.31
330.43	87.31
330.658	75.31
330.887	78.31
331.115	92.31
331.344	76.31
331.572	77.31
331.801	80.31
332.03	79.31
332.258	81.31
332.486	92.31
332.715	79.31
332.943	87.31
333.172	77.31
333.4	77.31
333.629	85.31
333.857	67.31
334.085	85.31
334.314	68.31
334.542	77.31
334.771	81.31
334.999	78.31
335.227	76.31
335.455	81.31
335.684	80.31
335.912	72.31
336.14	77.31
336.369	60.31
336.597	71.31
336.825	81.31
337.053	70.31
337.281	84.31
337.51	85.31
337.738	85.31
337.966	80.31
338.194	78.31
338.422	76.31
338.65	83.31
338.878	78.31
339.106	76.31
339.334	81.31
339.562	84.31
339.79	92.31
340.018	79.31
340.246	88.31
340.474	65.31
340.702	88.31
340.93	83.31
341.158	74.31
341.386	73.31
341.614	70.31
341.842	81.31
342.07	71.31
342.298	87.31
342.526	69.31
342.754	86.31
342.981	79.31
343.209	75.31
343.437	81.31
343.665	80.31
343.893	83.31
344.12	76.31
344.348	80.31
344.576	78.31
344.804	80.31
345.031	87.31
345.259	80.31
345.487	71.31
345.714	91.31
345.942	75.31
346.17	71.31
346.397	90.31
346.625	71.31
346.853	71.31
347.08	72.31
347.308	96.31
347.535	90.31
347.763	106.31
347.99	81.31
348.218	91.31
348.445	74.31
348.673	84.31
348.9	85.31
349.128	77.31
349.355	73.31
349.583	70.31
349.81	87.31
350.037	87.31
350.265	72.31
350.492	84.31
350.72	77.31
350.947	78.31
351.174	75.31
351.402	71.31
351.629	71.31
351.856	87.31
352.083	75.31
352.311	78.31
352.538	74.31
352.765	69.31
352.992	87.31
353.22	79.31
353.447	87.31
353.674	72.31
353.901	76.31
354.128	81.31
354.355	81.31
354.583	90.31
354.81	62.31
355.037	72.31
355.264	91.31
355.491	89.31
355.718	82.31
355.945	78.31
356.172	85.31
356.399	85.31
356.626	82.31
356.853	67.31
357.08	80.31
357.307	83.31
357.534	82.31
357.761	73.31
357.988	80.31
358.215	83.31
358.441	83.31
358.668	74.31
358.895	80.31
359.122	72.31
359.349	81.31
359.576	80.31
359.802	93.31
360.029	80.31
360.256	71.31
360.483	81.31
360.709	69.31
360.936	85.31
361.163	82.31
361.39	85.31
361.616	80.31
361.843	76.31
362.07	76.31
362.296	81.31
362.523	75.31
362.749	80.31
362.976	71.31
363.203	68.31
363.429	68.31
363.656	68.31
363.882	79.31
364.109	82.31
364.335	84.31
364.562	73.31
364.788	81.31
365.015	75.31
365.241	81.31
365.468	89.31
365.694	80.31
365.92	80.31
366.147	85.31
366.373	82.31
366.599	83.31
366.826	89.31
367.052	75.31
367.278	83.31
367.505	67.31
367.731	84.31
367.957	86.31
368.184	70.31
368.41	79.31
368.636	77.31
368.862	91.31
369.089	77.31
369.315	71.31
369.541	93.31
369.767	85.31
369.993	78.31
370.219	82.31
370.445	84.31
370.672	83.31
370.898	83.31
371.124	69.31
371.35	100.31
371.576	65.31
371.802	83.31
372.028	73.31
372.254	79.31
372.48	69.31
372.706	95.31
372.932	88.31
373.158	64.31
373.384	77.31
373.61	85.31
373.835	84.31
374.061	79.31
374.287	73.31
374.513	77.31
374.739	79.31
374.965	86.31
375.191	88.31
375.416	88.31
375.642	82.31
375.868	88.31
376.094	84.31
376.319	85.31
376.545	74.31
376.771	82.31
376.997	87.31
377.222	84.31
377.448	81.31
377.674	88.31
377.899	90.31
378.125	80.31
378.35	79.31
378.576	78.31
378.802	71.31
379.027	90.31
379.253	78.31
379.478	77.31
379.704	85.31
379.929	92.31
380.155	88.31
380.38	76.31
380.606	69.31
380.831	89.31
381.057	89.31
381.282	85.31
381.507	80.31
381.733	80.31
381.958	81.31
382.184	81.31
382.409	82.31
382.634	87.31
382.86	81.31
383.085	71.31
383.31	79.31
383.535	80.31
383.761	72.31
383.986	88.31
384.211	75.31
384.436	87.31
384.662	90.31
384.887	85.31
385.112	81.31
385.337	87.31
385.562	84.31
385.787	77.31
386.013	93.31
386.238	76.31
386.463	72.31
386.688	70.31
386.913	73.31
387.138	89.31
387.363	77.31
387.588	87.31
387.813	87.31
388.038	93.31
388.263	84.31
388.488	73.31
388.713	91.31
388.938	91.31
389.163	92.31
389.387	87.31
389.612	82.31
389.837	90.31
390.062	94.31
390.287	89.31
390.512	68.31
390.736	95.31
390.961	81.31
391.186	90.31
391.411	90.31
391.636	90.31
391.86	78.31
392.085	81.31
392.31	91.31
392.534	81.31
392.759	109.31
392.984	87.31
393.208	99.31
393.433	91.31
393.658	86.31
393.882	77.31
394.107	91.31
394.331	94.31
394.556	89.31
394.78	84.31
395.005	81.31
395.229	86.31
395.454	94.31
395.678	99.31
395.903	95.31
396.127	93.31
396.352	89.31
396.576	88.31
396.801	65.31
397.025	84.31
397.249	100.31
397.474	88.31
397.698	89.31
397.922	98.31
398.147	97.31
398.371	85.31
398.595	86.31
398.82	104.31
399.044	101.31
399.268	86.31
399.492	79.31
399.717	88.31
399.941	91.31
400.165	102.31
400.389	93.31
400.613	87.31
400.837	88.31
401.062	90.31
401.286	99.31
401.51	98.31
401.734	100.31
401.958	87.31
402.182	97.31
402.406	88.31
402.63	80.31
402.854	87.31
403.078	74.31
403.302	95.31
403.526	95.31
403.75	94.31
403.974	88.31
404.198	93.31
404.422	92.31
404.645	92.31
404.869	98.31
405.093	105.31
405.317	96.31
405.541	92.31
405.765	87.31
405.988	97.31
406.212	101.31
406.436	104.31
406.66	81.31
406.883	94.31
407.107	81.31
407.331	88.31
407.555	105.31
407.778	99.31
408.002	90.31
408.226	93.31
408.449	97.31
408.673	96.31
408.896	87.31
409.12	90.31
409.344	94.31
409.567	93.31
409.791	92.31
410.014	101.31
410.238	92.31
410.461	102.31
410.685	101.31
410.908	97.31
411.132	95.31
411.355	96.31
411.578	108.31
411.802	102.31
412.025	102.31
412.249	94.31
412.472	80.31
412.695	81.31
412.919	98.31
413.142	85.31
413.365	85.31
413.589	94.31
413.812	94.31
414.035	101.31
414.258	80.31
414.482	92.31
414.705	93.31
414.928	88.31
415.151	99.31
415.374	83.31
415.597	104.31
415.821	97.31
416.044	95.31
416.267	82.31
416.49	95.31
416.713	84.31
416.936	85.31
417.159	89.31
417.382	98.31
417.605	108.31
417.828	92.31
418.051	103.31
418.274	94.31
418.497	109.31
418.72	104.31
418.943	91.31
419.166	97.31
419.389	93.31
419.611	90.31
419.834	94.31
420.057	101.31
420.28	93.31
420.503	96.31
420.726	101.31
420.948	105.31
421.171	101.31
421.394	97.31
421.617	108.31
421.839	107.31
422.062	103.31
422.285	113.31
422.507	96.31
422.73	86.31
422.953	97.31
423.175	99.31
423.398	99.31
423.621	100.31
423.843	99.31
424.066	94.31
424.288	100.31
424.511	104.31
424.733	92.31
424.956	111.31
425.178	105.31
425.401	102.31
425.623	103.31
425.846	103.31
426.068	109.31
426.291	91.31
426.513	96.31
426.735	75.31
426.958	95.31
427.18	101.31
427.402	106.31
427.625	96.31
427.847	98.31
428.069	112.31
428.292	91.31
428.514	96.31
428.736	103.31
428.958	89.31
429.181	113.31
429.403	122.31
429.625	85.31
429.847	104.31
430.069	105.31
430.292	90.31
430.514	85.31
430.736	79.31
430.958	86.31
431.18	109.31
431.402	101.31
431.624	94.31
431.846	87.31
432.068	84.31
432.29	73.31
432.512	111.31
432.734	95.31
432.956	87.31
433.178	94.31
433.4	108.31
433.622	92.31
433.844	95.31
434.066	94.31
434.287	87.31
434.509	79.31
434.731	89.31
434.953	92.31
435.175	89.31
435.397	102.31
435.618	100.31
435.84	97.31
436.062	96.31
436.284	85.31
436.505	105.31
436.727	111.31
436.949	121.31
437.17	104.31
437.392	103.31
437.614	97.31
437.835	80.31
438.057	87.31
438.278	95.31
438.5	98.31
438.721	105.31
438.943	104.31
439.165	104.31
439.386	102.31
439.608	115.31
439.829	91.31
440.05	112.31
440.272	109.31
440.493	104.31
440.715	99.31
440.936	107.31
441.158	95.31
441.379	96.31
441.6	97.31
441.822	100.31
442.043	124.31
442.264	106.31
442.486	113.31
442.707	108.31
442.928	110.31
443.149	99.31
443.371	107.31
443.592	109.31
443.813	111.31
444.034	117.31
444.255	103.31
444.476	111.31
444.698	97.31
444.919	105.31
445.14	235.31
445.361	177.31
445.582	117.31
445.803	99.31
446.024	114.31
446.245	96.31
446.466	101.31
446.687	101.31
446.908	116.31
447.129	118.31
447.35	112.31
447.571	125.31
447.792	110.31
448.013	113.31
448.234	112.31
448.455	111.31
448.675	116.31
448.896	94.31
449.117	116.31
449.338	101.31
449.559	95.31
449.779	104.31
450	103.31
450.221	107.31
450.442	81.31
450.662	102.31
450.883	94.31
451.104	98.31
451.324	99.31
451.545	97.31
451.766	102.31
451.986	106.31
452.207	99.31
452.428	101.31
452.648	107.31
452.869	101.31
453.089	100.31
453.31	102.31
453.53	93.31
453.751	74.31
453.971	78.31
454.192	83.31
454.412	110.31
454.633	85.31
454.853	106.31
455.073	93.31
455.294	97.31
455.514	108.31
455.734	99.31
455.955	96.31
456.175	92.31
456.395	91.31
456.616	87.31
456.836	96.31
457.056	86.31
457.276	91.31
457.497	99.31
457.717	86.31
457.937	93.31
458.157	91.31
458.377	86.31
458.598	98.31
458.818	101.31
459.038	74.31
459.258	93.31
459.478	92.31
459.698	79.31
459.918	93.31
460.138	95.31
460.358	91.31
460.578	79.31
460.798	98.31
461.018	91.31
461.238	102.31
461.458	97.31
461.678	75.31
461.898	91.31
462.118	89.31
462.338	101.31
462.558	99.31
462.777	80.31
462.997	92.31
463.217	105.31
463.437	95.31
463.657	94.31
463.876	99.31
464.096	89.31
464.316	73.31
464.536	97.31
464.755	89.31
464.975	88.31
465.195	87.31
465.414	92.31
465.634	100.31
465.854	112.31
466.073	93.31
466.293	105.31
466.512	111.31
466.732	100.31
466.951	75.31
467.171	99.31
467.391	100.31
467.61	112.31
467.829	112.31
468.049	116.31
468.268	94.31
468.488	118.31
468.707	104.31
468.927	93.31
469.146	111.31
469.365	123.31
469.585	91.31
469.804	112.31
470.023	107.31
470.243	109.31
470.462	106.31
470.681	103.31
470.901	111.31
471.12	107.31
471.339	122.31
471.558	91.31
471.777	100.31
471.997	105.31
472.216	104.31
472.435	106.31
472.654	90.31
472.873	93.31
473.092	83.31
473.311	92.31
473.53	88.31
473.749	99.31
473.968	100.31
474.187	92.31
474.406	95.31
474.625	101.31
474.844	91.31
475.063	97.31
475.282	87.31
475.501	99.31
475.72	104.31
475.939	84.31
476.158	101.31
476.377	106.31
476.596	103.31
476.814	87.31
477.033	94.31
477.252	87.31
477.471	91.31
477.69	95.31
477.908	113.31
478.127	110.31
478.346	104.31
478.564	101.31
478.783	104.31
479.002	97.31
479.22	92.31
479.439	100.31
479.658	95.31
479.876	96.31
480.095	72.31
480.313	98.31
480.532	94.31
480.751	85.31
480.969	77.31
481.188	81.31
481.406	81.31
481.624	87.31
481.843	78.31
482.061	91.31
482.28	94.31
482.498	99.31
482.717	100.31
482.935	98.31
483.153	103.31
483.372	105.31
483.59	119.31
483.808	115.31
484.027	107.31
484.245	109.31
484.463	114.31
484.681	111.31
484.9	103.31
485.118	116.31
485.336	108.31
485.554	110.31
485.772	97.31
485.99	96.31
486.209	97.31
486.427	84.31
486.645	88.31
486.863	101.31
487.081	99.31
487.299	112.31
487.517	116.31
487.735	123.31
487.953	135.31
488.171	134.31
488.389	134.31
488.607	118.31
488.825	99.31
489.043	107.31
489.261	103.31
489.479	108.31
489.696	110.31
489.914	109.31
490.132	118.31
490.35	112.31
490.568	101.31
490.786	111.31
491.003	115.31
491.221	113.31
491.439	123.31
491.657	127.31
491.874	149.31
492.092	134.31
492.31	144.31
492.527	126.31
492.745	137.31
492.963	145.31
493.18	147.31
493.398	128.31
493.615	101.31
493.833	137.31
494.05	127.31
494.268	125.31
494.485	135.31
494.703	111.31
494.92	104.31
495.138	111.31
495.355	113.31
495.573	122.31
495.79	121.31
496.008	120.31
496.225	116.31
496.442	120.31
496.66	130.31
496.877	122.31
497.094	112.31
497.312	104.31
497.529	117.31
497.746	111.31
497.963	111.31
498.181	103.31
498.398	101.31
498.615	95.31
498.832	98.31
499.049	96.31
499.267	99.31
499.484	90.31
499.701	105.31
499.918	113.31
500.135	105.31
500.352	118.31
500.569	115.31
500.786	103.31
501.003	113.31
501.22	113.31
501.437	119.31
501.654	97.31
501.871	93.31
502.088	113.31
502.305	88.31
502.522	87.31
502.739	117.31
502.956	99.31
503.172	83.31
503.389	98.31
503.606	88.31
503.823	91.31
504.04	96.31
504.256	99.31
504.473	95.31
504.69	80.31
504.907	98.31
505.123	91.31
505.34	108.31
505.557	103.31
505.773	91.31
505.99	101.31
506.207	112.31
506.423	89.31
506.64	80.31
506.856	98.31
507.073	89.31
507.289	97.31
507.506	96.31
507.722	103.31
507.939	97.31
508.155	100.31
508.372	84.31
508.588	101.31
508.805	94.31
509.021	85.31
509.238	98.31
509.454	96.31
509.67	83.31
509.887	80.31
510.103	85.31
510.319	79.31
510.536	79.31
510.752	83.31
510.968	94.31
511.184	93.31
511.401	66.31
511.617	77.31
511.833	86.31
512.049	81.31
512.265	87.31
512.481	90.31
512.698	115.31
512.914	93.31
513.13	76.31
513.346	85.31
513.562	77.31
513.778	75.31
513.994	91.31
514.21	73.31
514.426	88.31
514.642	92.31
514.858	69.31
515.074	85.31
515.29	77.31
515.506	80.31
515.721	83.31
515.937	89.31
516.153	72.31
