Data from Zn(NO3)2Standard.Agarose3%.GreenCap.LampEnergy5.5.E.O_HRD10591_15-02-44-767.txt Node
Date: Mon Jul 22 15:02:44 EDT 2019
User: cochatt
Spectrometer: HR+D1059
Trigger mode: 1
Integration Time (sec): 1.000000E-1
Scans to average: 1
Electric dark correction enabled: true
Nonlinearity correction enabled: false
Boxcar width: 0
XAxis mode: Wavelengths
Number of Pixels in Spectrum: 2048
>>>>>Begin Spectral Data<<<<<
223.165	-14.88
223.4	-14.88
223.635	-14.88
223.869	-14.88
224.104	-7.88
224.338	-33.88
224.573	-19.88
224.808	-24.88
225.042	-10.88
225.277	8.12
225.511	7.12
225.746	4.12
225.98	0.12
226.215	24.12
226.449	12.12
226.683	14.12
226.918	18.12
227.152	39.12
227.387	39.12
227.621	27.12
227.856	44.12
228.09	38.12
228.324	48.12
228.559	62.12
228.793	72.12
229.027	59.12
229.262	62.12
229.496	61.12
229.73	69.12
229.964	65.12
230.199	80.12
230.433	62.12
230.667	77.12
230.901	82.12
231.136	83.12
231.37	87.12
231.604	74.12
231.838	84.12
232.072	66.12
232.306	83.12
232.541	80.12
232.775	85.12
233.009	64.12
233.243	75.12
233.477	74.12
233.711	77.12
233.945	84.12
234.179	75.12
234.413	82.12
234.647	91.12
234.881	72.12
235.115	94.12
235.349	75.12
235.583	78.12
235.817	89.12
236.051	84.12
236.285	73.12
236.519	82.12
236.753	70.12
236.987	75.12
237.221	96.12
237.455	80.12
237.689	68.12
237.922	76.12
238.156	75.12
238.39	90.12
238.624	77.12
238.858	64.12
239.091	68.12
239.325	84.12
239.559	87.12
239.793	78.12
240.027	84.12
240.26	86.12
240.494	66.12
240.728	77.12
240.961	84.12
241.195	82.12
241.429	84.12
241.662	84.12
241.896	66.12
242.13	80.12
242.363	79.12
242.597	79.12
242.83	69.12
243.064	80.12
243.298	81.12
243.531	82.12
243.765	87.12
243.998	81.12
244.232	80.12
244.465	83.12
244.699	72.12
244.932	81.12
245.166	90.12
245.399	81.12
245.633	80.12
245.866	79.12
246.099	76.12
246.333	77.12
246.566	78.12
246.8	86.12
247.033	86.12
247.266	87.12
247.5	80.12
247.733	87.12
247.966	83.12
248.2	85.12
248.433	70.12
248.666	80.12
248.899	74.12
249.133	80.12
249.366	81.12
249.599	73.12
249.832	87.12
250.066	84.12
250.299	74.12
250.532	92.12
250.765	78.12
250.998	84.12
251.231	76.12
251.465	77.12
251.698	78.12
251.931	69.12
252.164	80.12
252.397	79.12
252.63	86.12
252.863	87.12
253.096	75.12
253.329	82.12
253.562	84.12
253.795	93.12
254.028	95.12
254.261	72.12
254.494	81.12
254.727	80.12
254.96	72.12
255.193	78.12
255.426	76.12
255.659	77.12
255.892	84.12
256.124	87.12
256.357	84.12
256.59	72.12
256.823	64.12
257.056	92.12
257.289	77.12
257.521	89.12
257.754	84.12
257.987	84.12
258.22	92.12
258.452	69.12
258.685	59.12
258.918	92.12
259.151	85.12
259.383	69.12
259.616	73.12
259.849	73.12
260.081	75.12
260.314	86.12
260.547	84.12
260.779	88.12
261.012	91.12
261.244	86.12
261.477	82.12
261.71	80.12
261.942	75.12
262.175	93.12
262.407	88.12
262.64	80.12
262.872	76.12
263.105	79.12
263.337	94.12
263.57	90.12
263.802	78.12
264.035	103.12
264.267	83.12
264.499	78.12
264.732	79.12
264.964	75.12
265.197	81.12
265.429	92.12
265.661	90.12
265.894	76.12
266.126	87.12
266.358	84.12
266.591	72.12
266.823	88.12
267.055	87.12
267.287	90.12
267.52	83.12
267.752	87.12
267.984	76.12
268.216	84.12
268.448	74.12
268.681	70.12
268.913	82.12
269.145	82.12
269.377	84.12
269.609	74.12
269.841	95.12
270.073	87.12
270.306	88.12
270.538	87.12
270.77	88.12
271.002	94.12
271.234	75.12
271.466	82.12
271.698	81.12
271.93	83.12
272.162	83.12
272.394	74.12
272.626	84.12
272.858	85.12
273.09	79.12
273.322	79.12
273.553	75.12
273.785	89.12
274.017	78.12
274.249	73.12
274.481	81.12
274.713	94.12
274.945	83.12
275.176	95.12
275.408	74.12
275.64	83.12
275.872	93.12
276.104	76.12
276.335	83.12
276.567	87.12
276.799	85.12
277.031	83.12
277.262	91.12
277.494	83.12
277.726	100.12
277.957	94.12
278.189	76.12
278.421	75.12
278.652	86.12
278.884	85.12
279.115	86.12
279.347	89.12
279.579	91.12
279.81	85.12
280.042	79.12
280.273	84.12
280.505	77.12
280.736	94.12
280.968	90.12
281.199	97.12
281.431	91.12
281.662	79.12
281.894	79.12
282.125	74.12
282.356	86.12
282.588	93.12
282.819	88.12
283.051	83.12
283.282	85.12
283.513	99.12
283.745	81.12
283.976	86.12
284.207	74.12
284.439	88.12
284.67	90.12
284.901	106.12
285.132	86.12
285.364	95.12
285.595	86.12
285.826	93.12
286.057	94.12
286.288	93.12
286.52	75.12
286.751	88.12
286.982	84.12
287.213	81.12
287.444	69.12
287.675	81.12
287.906	82.12
288.138	81.12
288.369	93.12
288.6	86.12
288.831	81.12
289.062	90.12
289.293	84.12
289.524	85.12
289.755	92.12
289.986	87.12
290.217	93.12
290.448	78.12
290.679	89.12
290.91	79.12
291.141	89.12
291.371	86.12
291.602	101.12
291.833	99.12
292.064	91.12
292.295	76.12
292.526	90.12
292.757	83.12
292.987	88.12
293.218	87.12
293.449	91.12
293.68	88.12
293.91	85.12
294.141	92.12
294.372	87.12
294.603	84.12
294.833	75.12
295.064	75.12
295.295	92.12
295.525	84.12
295.756	77.12
295.987	91.12
296.217	93.12
296.448	101.12
296.679	88.12
296.909	97.12
297.14	85.12
297.37	81.12
297.601	85.12
297.831	83.12
298.062	95.12
298.292	83.12
298.523	93.12
298.753	77.12
298.984	85.12
299.214	79.12
299.445	96.12
299.675	101.12
299.905	82.12
300.136	75.12
300.366	100.12
300.597	106.12
300.827	95.12
301.057	90.12
301.288	81.12
301.518	85.12
301.748	86.12
301.979	80.12
302.209	90.12
302.439	92.12
302.669	91.12
302.9	87.12
303.13	87.12
303.36	88.12
303.59	92.12
303.82	96.12
304.051	81.12
304.281	87.12
304.511	83.12
304.741	83.12
304.971	76.12
305.201	102.12
305.431	75.12
305.661	84.12
305.891	85.12
306.121	79.12
306.352	93.12
306.582	88.12
306.812	74.12
307.042	97.12
307.272	83.12
307.502	73.12
307.731	82.12
307.961	96.12
308.191	67.12
308.421	77.12
308.651	88.12
308.881	87.12
309.111	87.12
309.341	88.12
309.571	91.12
309.8	92.12
310.03	79.12
310.26	93.12
310.49	74.12
310.72	92.12
310.949	86.12
311.179	86.12
311.409	84.12
311.639	92.12
311.868	86.12
312.098	99.12
312.328	98.12
312.557	80.12
312.787	92.12
313.017	95.12
313.246	90.12
313.476	95.12
313.706	90.12
313.935	85.12
314.165	83.12
314.394	78.12
314.624	90.12
314.853	87.12
315.083	90.12
315.312	85.12
315.542	96.12
315.771	88.12
316.001	74.12
316.23	102.12
316.46	82.12
316.689	93.12
316.919	88.12
317.148	98.12
317.377	96.12
317.607	86.12
317.836	85.12
318.065	86.12
318.295	87.12
318.524	96.12
318.753	91.12
318.983	90.12
319.212	71.12
319.441	82.12
319.67	81.12
319.9	80.12
320.129	77.12
320.358	79.12
320.587	78.12
320.816	85.12
321.046	79.12
321.275	88.12
321.504	90.12
321.733	84.12
321.962	103.12
322.191	70.12
322.42	94.12
322.649	71.12
322.878	88.12
323.108	91.12
323.337	79.12
323.566	88.12
323.795	79.12
324.024	88.12
324.253	80.12
324.482	84.12
324.71	87.12
324.939	79.12
325.168	95.12
325.397	89.12
325.626	100.12
325.855	104.12
326.084	79.12
326.313	71.12
326.542	91.12
326.77	94.12
326.999	88.12
327.228	83.12
327.457	94.12
327.686	95.12
327.914	79.12
328.143	92.12
328.372	80.12
328.6	93.12
328.829	83.12
329.058	104.12
329.287	87.12
329.515	88.12
329.744	83.12
329.972	97.12
330.201	84.12
330.43	95.12
330.658	83.12
330.887	92.12
331.115	87.12
331.344	95.12
331.572	109.12
331.801	86.12
332.03	90.12
332.258	94.12
332.486	85.12
332.715	89.12
332.943	97.12
333.172	90.12
333.4	90.12
333.629	99.12
333.857	86.12
334.085	80.12
334.314	81.12
334.542	78.12
334.771	79.12
334.999	93.12
335.227	95.12
335.455	88.12
335.684	92.12
335.912	91.12
336.14	67.12
336.369	77.12
336.597	93.12
336.825	85.12
337.053	91.12
337.281	100.12
337.51	96.12
337.738	84.12
337.966	88.12
338.194	93.12
338.422	92.12
338.65	77.12
338.878	90.12
339.106	92.12
339.334	94.12
339.562	77.12
339.79	84.12
340.018	83.12
340.246	83.12
340.474	85.12
340.702	77.12
340.93	90.12
341.158	88.12
341.386	92.12
341.614	78.12
341.842	93.12
342.07	73.12
342.298	69.12
342.526	81.12
342.754	87.12
342.981	79.12
343.209	90.12
343.437	84.12
343.665	81.12
343.893	79.12
344.12	98.12
344.348	101.12
344.576	89.12
344.804	96.12
345.031	80.12
345.259	70.12
345.487	84.12
345.714	81.12
345.942	85.12
346.17	83.12
346.397	81.12
346.625	96.12
346.853	83.12
347.08	90.12
347.308	83.12
347.535	66.12
347.763	80.12
347.99	85.12
348.218	80.12
348.445	94.12
348.673	88.12
348.9	95.12
349.128	81.12
349.355	91.12
349.583	90.12
349.81	86.12
350.037	78.12
350.265	100.12
350.492	72.12
350.72	95.12
350.947	83.12
351.174	85.12
351.402	90.12
351.629	88.12
351.856	86.12
352.083	81.12
352.311	91.12
352.538	84.12
352.765	90.12
352.992	90.12
353.22	88.12
353.447	99.12
353.674	86.12
353.901	84.12
354.128	91.12
354.355	100.12
354.583	73.12
354.81	98.12
355.037	83.12
355.264	70.12
355.491	79.12
355.718	92.12
355.945	94.12
356.172	86.12
356.399	92.12
356.626	87.12
356.853	87.12
357.08	76.12
357.307	90.12
357.534	73.12
357.761	87.12
357.988	84.12
358.215	87.12
358.441	87.12
358.668	73.12
358.895	85.12
359.122	75.12
359.349	79.12
359.576	99.12
359.802	95.12
360.029	96.12
360.256	86.12
360.483	77.12
360.709	71.12
360.936	94.12
361.163	93.12
361.39	96.12
361.616	95.12
361.843	87.12
362.07	88.12
362.296	78.12
362.523	89.12
362.749	86.12
362.976	92.12
363.203	70.12
363.429	76.12
363.656	92.12
363.882	83.12
364.109	90.12
364.335	79.12
364.562	90.12
364.788	82.12
365.015	79.12
365.241	95.12
365.468	87.12
365.694	94.12
365.92	93.12
366.147	84.12
366.373	73.12
366.599	80.12
366.826	74.12
367.052	89.12
367.278	78.12
367.505	87.12
367.731	77.12
367.957	85.12
368.184	85.12
368.41	74.12
368.636	96.12
368.862	98.12
369.089	79.12
369.315	87.12
369.541	94.12
369.767	76.12
369.993	101.12
370.219	86.12
370.445	80.12
370.672	94.12
370.898	93.12
371.124	80.12
371.35	67.12
371.576	85.12
371.802	95.12
372.028	90.12
372.254	82.12
372.48	80.12
372.706	78.12
372.932	73.12
373.158	87.12
373.384	91.12
373.61	81.12
373.835	77.12
374.061	72.12
374.287	92.12
374.513	87.12
374.739	92.12
374.965	85.12
375.191	84.12
375.416	80.12
375.642	89.12
375.868	93.12
376.094	98.12
376.319	87.12
376.545	94.12
376.771	89.12
376.997	78.12
377.222	92.12
377.448	93.12
377.674	80.12
377.899	79.12
378.125	89.12
378.35	96.12
378.576	96.12
378.802	81.12
379.027	101.12
379.253	82.12
379.478	94.12
379.704	81.12
379.929	87.12
380.155	83.12
380.38	83.12
380.606	78.12
380.831	75.12
381.057	95.12
381.282	84.12
381.507	85.12
381.733	95.12
381.958	89.12
382.184	79.12
382.409	87.12
382.634	85.12
382.86	87.12
383.085	92.12
383.31	94.12
383.535	77.12
383.761	82.12
383.986	87.12
384.211	87.12
384.436	94.12
384.662	72.12
384.887	95.12
385.112	83.12
385.337	85.12
385.562	86.12
385.787	90.12
386.013	87.12
386.238	76.12
386.463	98.12
386.688	96.12
386.913	90.12
387.138	84.12
387.363	92.12
387.588	90.12
387.813	89.12
388.038	84.12
388.263	77.12
388.488	100.12
388.713	89.12
388.938	78.12
389.163	81.12
389.387	84.12
389.612	82.12
389.837	80.12
390.062	85.12
390.287	90.12
390.512	91.12
390.736	88.12
390.961	83.12
391.186	91.12
391.411	93.12
391.636	74.12
391.86	81.12
392.085	85.12
392.31	83.12
392.534	79.12
392.759	88.12
392.984	92.12
393.208	79.12
393.433	86.12
393.658	90.12
393.882	89.12
394.107	98.12
394.331	78.12
394.556	91.12
394.78	87.12
395.005	102.12
395.229	88.12
395.454	87.12
395.678	75.12
395.903	81.12
396.127	88.12
396.352	83.12
396.576	89.12
396.801	95.12
397.025	97.12
397.249	82.12
397.474	87.12
397.698	84.12
397.922	87.12
398.147	100.12
398.371	88.12
398.595	83.12
398.82	91.12
399.044	73.12
399.268	96.12
399.492	78.12
399.717	93.12
399.941	97.12
400.165	98.12
400.389	78.12
400.613	86.12
400.837	89.12
401.062	71.12
401.286	74.12
401.51	90.12
401.734	78.12
401.958	92.12
402.182	85.12
402.406	77.12
402.63	85.12
402.854	78.12
403.078	79.12
403.302	81.12
403.526	106.12
403.75	89.12
403.974	90.12
404.198	92.12
404.422	89.12
404.645	100.12
404.869	94.12
405.093	94.12
405.317	86.12
405.541	88.12
405.765	95.12
405.988	91.12
406.212	93.12
406.436	89.12
406.66	89.12
406.883	84.12
407.107	83.12
407.331	95.12
407.555	87.12
407.778	81.12
408.002	91.12
408.226	80.12
408.449	86.12
408.673	85.12
408.896	93.12
409.12	76.12
409.344	97.12
409.567	89.12
409.791	95.12
410.014	90.12
410.238	91.12
410.461	85.12
410.685	80.12
410.908	79.12
411.132	83.12
411.355	81.12
411.578	89.12
411.802	81.12
412.025	102.12
412.249	96.12
412.472	104.12
412.695	90.12
412.919	89.12
413.142	84.12
413.365	102.12
413.589	89.12
413.812	88.12
414.035	94.12
414.258	85.12
414.482	83.12
414.705	85.12
414.928	82.12
415.151	95.12
415.374	98.12
415.597	76.12
415.821	82.12
416.044	90.12
416.267	91.12
416.49	91.12
416.713	99.12
416.936	94.12
417.159	97.12
417.382	90.12
417.605	84.12
417.828	100.12
418.051	97.12
418.274	91.12
418.497	85.12
418.72	88.12
418.943	103.12
419.166	91.12
419.389	95.12
419.611	97.12
419.834	84.12
420.057	90.12
420.28	87.12
420.503	100.12
420.726	100.12
420.948	88.12
421.171	75.12
421.394	84.12
421.617	88.12
421.839	95.12
422.062	96.12
422.285	77.12
422.507	100.12
422.73	91.12
422.953	86.12
423.175	101.12
423.398	86.12
423.621	90.12
423.843	91.12
424.066	93.12
424.288	89.12
424.511	92.12
424.733	106.12
424.956	100.12
425.178	89.12
425.401	71.12
425.623	85.12
425.846	98.12
426.068	94.12
426.291	97.12
426.513	83.12
426.735	96.12
426.958	105.12
427.18	98.12
427.402	86.12
427.625	95.12
427.847	91.12
428.069	87.12
428.292	97.12
428.514	94.12
428.736	85.12
428.958	79.12
429.181	98.12
429.403	71.12
429.625	87.12
429.847	94.12
430.069	91.12
430.292	89.12
430.514	86.12
430.736	81.12
430.958	73.12
431.18	83.12
431.402	85.12
431.624	89.12
431.846	103.12
432.068	100.12
432.29	88.12
432.512	84.12
432.734	86.12
432.956	92.12
433.178	80.12
433.4	80.12
433.622	87.12
433.844	93.12
434.066	89.12
434.287	90.12
434.509	78.12
434.731	83.12
434.953	95.12
435.175	96.12
435.397	80.12
435.618	88.12
435.84	80.12
436.062	80.12
436.284	96.12
436.505	87.12
436.727	83.12
436.949	80.12
437.17	95.12
437.392	92.12
437.614	102.12
437.835	88.12
438.057	78.12
438.278	99.12
438.5	111.12
438.721	85.12
438.943	104.12
439.165	100.12
439.386	92.12
439.608	110.12
439.829	87.12
440.05	80.12
440.272	98.12
440.493	98.12
440.715	80.12
440.936	78.12
441.158	87.12
441.379	79.12
441.6	84.12
441.822	98.12
442.043	86.12
442.264	81.12
442.486	85.12
442.707	85.12
442.928	98.12
443.149	96.12
443.371	102.12
443.592	91.12
443.813	90.12
444.034	84.12
444.255	100.12
444.476	95.12
444.698	98.12
444.919	84.12
445.14	233.12
445.361	159.12
445.582	92.12
445.803	99.12
446.024	96.12
446.245	97.12
446.466	98.12
446.687	82.12
446.908	87.12
447.129	90.12
447.35	106.12
447.571	80.12
447.792	98.12
448.013	86.12
448.234	115.12
448.455	101.12
448.675	97.12
448.896	92.12
449.117	92.12
449.338	90.12
449.559	86.12
449.779	81.12
450	93.12
450.221	80.12
450.442	93.12
450.662	96.12
450.883	84.12
451.104	97.12
451.324	99.12
451.545	91.12
451.766	93.12
451.986	102.12
452.207	93.12
452.428	75.12
452.648	95.12
452.869	95.12
453.089	94.12
453.31	80.12
453.53	88.12
453.751	84.12
453.971	77.12
454.192	92.12
454.412	81.12
454.633	84.12
454.853	81.12
455.073	100.12
455.294	87.12
455.514	92.12
455.734	100.12
455.955	95.12
456.175	83.12
456.395	87.12
456.616	89.12
456.836	72.12
457.056	87.12
457.276	79.12
457.497	82.12
457.717	86.12
457.937	78.12
458.157	90.12
458.377	77.12
458.598	72.12
458.818	93.12
459.038	89.12
459.258	83.12
459.478	86.12
459.698	91.12
459.918	82.12
460.138	81.12
460.358	89.12
460.578	83.12
460.798	86.12
461.018	71.12
461.238	97.12
461.458	83.12
461.678	94.12
461.898	92.12
462.118	88.12
462.338	87.12
462.558	79.12
462.777	71.12
462.997	81.12
463.217	89.12
463.437	88.12
463.657	92.12
463.876	94.12
464.096	78.12
464.316	79.12
464.536	96.12
464.755	94.12
464.975	101.12
465.195	89.12
465.414	84.12
465.634	91.12
465.854	86.12
466.073	80.12
466.293	89.12
466.512	91.12
466.732	91.12
466.951	91.12
467.171	91.12
467.391	93.12
467.61	87.12
467.829	101.12
468.049	92.12
468.268	89.12
468.488	80.12
468.707	85.12
468.927	87.12
469.146	94.12
469.365	89.12
469.585	86.12
469.804	92.12
470.023	89.12
470.243	85.12
470.462	101.12
470.681	88.12
470.901	98.12
471.12	92.12
471.339	89.12
471.558	87.12
471.777	98.12
471.997	86.12
472.216	83.12
472.435	82.12
472.654	81.12
472.873	81.12
473.092	90.12
473.311	67.12
473.53	80.12
473.749	95.12
473.968	98.12
474.187	83.12
474.406	96.12
474.625	75.12
474.844	92.12
475.063	94.12
475.282	101.12
475.501	97.12
475.72	88.12
475.939	88.12
476.158	90.12
476.377	100.12
476.596	93.12
476.814	90.12
477.033	93.12
477.252	77.12
477.471	96.12
477.69	88.12
477.908	103.12
478.127	95.12
478.346	90.12
478.564	81.12
478.783	87.12
479.002	86.12
479.22	87.12
479.439	74.12
479.658	91.12
479.876	93.12
480.095	89.12
480.313	96.12
480.532	82.12
480.751	89.12
480.969	94.12
481.188	70.12
481.406	85.12
481.624	79.12
481.843	87.12
482.061	102.12
482.28	90.12
482.498	82.12
482.717	97.12
482.935	91.12
483.153	101.12
483.372	88.12
483.59	91.12
483.808	100.12
484.027	87.12
484.245	101.12
484.463	88.12
484.681	100.12
484.9	94.12
485.118	85.12
485.336	87.12
485.554	91.12
485.772	83.12
485.99	97.12
486.209	101.12
486.427	92.12
486.645	86.12
486.863	108.12
487.081	83.12
487.299	86.12
487.517	86.12
487.735	93.12
487.953	93.12
488.171	107.12
488.389	96.12
488.607	103.12
488.825	89.12
489.043	98.12
489.261	82.12
489.479	96.12
489.696	88.12
489.914	93.12
490.132	96.12
490.35	92.12
490.568	112.12
490.786	107.12
491.003	90.12
491.221	98.12
491.439	94.12
491.657	99.12
491.874	114.12
492.092	117.12
492.31	124.12
492.527	123.12
492.745	94.12
492.963	102.12
493.18	104.12
493.398	100.12
493.615	96.12
493.833	87.12
494.05	80.12
494.268	100.12
494.485	86.12
494.703	98.12
494.92	92.12
495.138	109.12
495.355	95.12
495.573	101.12
495.79	99.12
496.008	110.12
496.225	92.12
496.442	83.12
496.66	93.12
496.877	78.12
497.094	94.12
497.312	104.12
497.529	111.12
497.746	91.12
497.963	97.12
498.181	91.12
498.398	75.12
498.615	82.12
498.832	96.12
499.049	83.12
499.267	85.12
499.484	102.12
499.701	95.12
499.918	90.12
500.135	74.12
500.352	98.12
500.569	98.12
500.786	92.12
501.003	99.12
501.22	82.12
501.437	102.12
501.654	79.12
501.871	104.12
502.088	109.12
502.305	100.12
502.522	93.12
502.739	87.12
502.956	93.12
503.172	99.12
503.389	88.12
503.606	81.12
503.823	99.12
504.04	82.12
504.256	91.12
504.473	90.12
504.69	91.12
504.907	85.12
505.123	94.12
505.34	103.12
505.557	86.12
505.773	78.12
505.99	91.12
506.207	75.12
506.423	102.12
506.64	99.12
506.856	101.12
507.073	72.12
507.289	89.12
507.506	91.12
507.722	96.12
507.939	79.12
508.155	72.12
508.372	84.12
508.588	93.12
508.805	85.12
509.021	82.12
509.238	87.12
509.454	81.12
509.67	84.12
509.887	96.12
510.103	89.12
510.319	87.12
510.536	75.12
510.752	83.12
510.968	89.12
511.184	101.12
511.401	99.12
511.617	84.12
511.833	85.12
512.049	92.12
512.265	72.12
512.481	94.12
512.698	87.12
512.914	70.12
513.13	100.12
513.346	69.12
513.562	84.12
513.778	95.12
513.994	89.12
514.21	83.12
514.426	78.12
514.642	84.12
514.858	92.12
515.074	84.12
515.29	95.12
515.506	79.12
515.721	84.12
515.937	85.12
516.153	96.12
516.369	84.12
516.585	74.12
516.801	89.12
517.016	83.12
517.232	90.12
517.448	85.12
517.664	91.12
517.879	80.12
518.095	80.12
