Data from Zn(NO3)2Standard.Agarose3%.GreenCap.LampEnergy10E.O_HRD10591_15-08-27-949.txt Node
Date: Mon Jul 22 15:08:27 EDT 2019
User: cochatt
Spectrometer: HR+D1059
Trigger mode: 1
Integration Time (sec): 1.000000E-1
Scans to average: 1
Electric dark correction enabled: true
Nonlinearity correction enabled: false
Boxcar width: 0
XAxis mode: Wavelengths
Number of Pixels in Spectrum: 2048
>>>>>Begin Spectral Data<<<<<
223.165	-11.12
223.4	-11.12
223.635	-11.12
223.869	-17.12
224.104	-5.12
224.338	-26.12
224.573	-10.12
224.808	-22.12
225.042	0.88
225.277	-2.12
225.511	-7.12
225.746	-6.12
225.98	-5.12
226.215	10.88
226.449	18.88
226.683	19.88
226.918	15.88
227.152	45.88
227.387	42.88
227.621	33.88
227.856	38.88
228.09	41.88
228.324	46.88
228.559	56.88
228.793	36.88
229.027	55.88
229.262	43.88
229.496	47.88
229.73	61.88
229.964	65.88
230.199	77.88
230.433	75.88
230.667	62.88
230.901	72.88
231.136	82.88
231.37	85.88
231.604	74.88
231.838	71.88
232.072	76.88
232.306	83.88
232.541	82.88
232.775	82.88
233.009	76.88
233.243	68.88
233.477	84.88
233.711	81.88
233.945	77.88
234.179	80.88
234.413	82.88
234.647	75.88
234.881	70.88
235.115	71.88
235.349	83.88
235.583	81.88
235.817	73.88
236.051	79.88
236.285	77.88
236.519	82.88
236.753	73.88
236.987	59.88
237.221	72.88
237.455	90.88
237.689	75.88
237.922	65.88
238.156	83.88
238.39	82.88
238.624	80.88
238.858	65.88
239.091	80.88
239.325	96.88
239.559	72.88
239.793	79.88
240.027	73.88
240.26	61.88
240.494	81.88
240.728	74.88
240.961	72.88
241.195	85.88
241.429	79.88
241.662	79.88
241.896	66.88
242.13	60.88
242.363	69.88
242.597	75.88
242.83	80.88
243.064	81.88
243.298	73.88
243.531	74.88
243.765	72.88
243.998	62.88
244.232	79.88
244.465	77.88
244.699	86.88
244.932	69.88
245.166	66.88
245.399	85.88
245.633	87.88
245.866	87.88
246.099	69.88
246.333	64.88
246.566	80.88
246.8	74.88
247.033	81.88
247.266	72.88
247.5	79.88
247.733	74.88
247.966	70.88
248.2	89.88
248.433	88.88
248.666	77.88
248.899	73.88
249.133	74.88
249.366	78.88
249.599	81.88
249.832	78.88
250.066	72.88
250.299	77.88
250.532	74.88
250.765	71.88
250.998	66.88
251.231	89.88
251.465	75.88
251.698	77.88
251.931	69.88
252.164	81.88
252.397	76.88
252.63	61.88
252.863	66.88
253.096	63.88
253.329	76.88
253.562	63.88
253.795	90.88
254.028	87.88
254.261	71.88
254.494	72.88
254.727	73.88
254.96	65.88
255.193	74.88
255.426	90.88
255.659	73.88
255.892	82.88
256.124	75.88
256.357	68.88
256.59	73.88
256.823	81.88
257.056	83.88
257.289	78.88
257.521	82.88
257.754	73.88
257.987	81.88
258.22	79.88
258.452	77.88
258.685	76.88
258.918	86.88
259.151	76.88
259.383	74.88
259.616	89.88
259.849	77.88
260.081	91.88
260.314	79.88
260.547	76.88
260.779	83.88
261.012	75.88
261.244	89.88
261.477	91.88
261.71	76.88
261.942	90.88
262.175	71.88
262.407	68.88
262.64	75.88
262.872	78.88
263.105	81.88
263.337	83.88
263.57	75.88
263.802	66.88
264.035	67.88
264.267	83.88
264.499	73.88
264.732	75.88
264.964	85.88
265.197	79.88
265.429	91.88
265.661	82.88
265.894	93.88
266.126	84.88
266.358	82.88
266.591	82.88
266.823	73.88
267.055	80.88
267.287	83.88
267.52	74.88
267.752	86.88
267.984	75.88
268.216	83.88
268.448	73.88
268.681	81.88
268.913	73.88
269.145	105.88
269.377	79.88
269.609	77.88
269.841	80.88
270.073	84.88
270.306	86.88
270.538	90.88
270.77	65.88
271.002	78.88
271.234	82.88
271.466	84.88
271.698	79.88
271.93	84.88
272.162	72.88
272.394	85.88
272.626	80.88
272.858	79.88
273.09	63.88
273.322	79.88
273.553	71.88
273.785	77.88
274.017	84.88
274.249	83.88
274.481	72.88
274.713	87.88
274.945	84.88
275.176	74.88
275.408	94.88
275.64	77.88
275.872	70.88
276.104	83.88
276.335	74.88
276.567	85.88
276.799	90.88
277.031	71.88
277.262	71.88
277.494	73.88
277.726	77.88
277.957	79.88
278.189	79.88
278.421	75.88
278.652	92.88
278.884	87.88
279.115	89.88
279.347	82.88
279.579	89.88
279.81	83.88
280.042	89.88
280.273	92.88
280.505	75.88
280.736	80.88
280.968	75.88
281.199	92.88
281.431	84.88
281.662	69.88
281.894	78.88
282.125	85.88
282.356	89.88
282.588	75.88
282.819	75.88
283.051	78.88
283.282	87.88
283.513	82.88
283.745	76.88
283.976	79.88
284.207	85.88
284.439	67.88
284.67	83.88
284.901	84.88
285.132	76.88
285.364	79.88
285.595	65.88
285.826	84.88
286.057	80.88
286.288	83.88
286.52	80.88
286.751	77.88
286.982	69.88
287.213	74.88
287.444	73.88
287.675	78.88
287.906	75.88
288.138	89.88
288.369	70.88
288.6	75.88
288.831	85.88
289.062	75.88
289.293	95.88
289.524	85.88
289.755	77.88
289.986	78.88
290.217	77.88
290.448	83.88
290.679	87.88
290.91	91.88
291.141	68.88
291.371	81.88
291.602	77.88
291.833	78.88
292.064	82.88
292.295	74.88
292.526	67.88
292.757	77.88
292.987	87.88
293.218	82.88
293.449	79.88
293.68	83.88
293.91	82.88
294.141	84.88
294.372	76.88
294.603	91.88
294.833	95.88
295.064	70.88
295.295	91.88
295.525	82.88
295.756	85.88
295.987	87.88
296.217	90.88
296.448	89.88
296.679	77.88
296.909	81.88
297.14	96.88
297.37	81.88
297.601	84.88
297.831	77.88
298.062	73.88
298.292	83.88
298.523	69.88
298.753	77.88
298.984	94.88
299.214	78.88
299.445	71.88
299.675	81.88
299.905	89.88
300.136	84.88
300.366	73.88
300.597	89.88
300.827	72.88
301.057	70.88
301.288	72.88
301.518	91.88
301.748	86.88
301.979	80.88
302.209	78.88
302.439	82.88
302.669	86.88
302.9	94.88
303.13	83.88
303.36	87.88
303.59	80.88
303.82	86.88
304.051	86.88
304.281	87.88
304.511	81.88
304.741	77.88
304.971	69.88
305.201	80.88
305.431	81.88
305.661	95.88
305.891	84.88
306.121	89.88
306.352	76.88
306.582	89.88
306.812	74.88
307.042	88.88
307.272	67.88
307.502	67.88
307.731	80.88
307.961	71.88
308.191	73.88
308.421	66.88
308.651	89.88
308.881	93.88
309.111	82.88
309.341	79.88
309.571	75.88
309.8	88.88
310.03	86.88
310.26	77.88
310.49	87.88
310.72	80.88
310.949	73.88
311.179	78.88
311.409	77.88
311.639	74.88
311.868	87.88
312.098	74.88
312.328	72.88
312.557	70.88
312.787	70.88
313.017	81.88
313.246	81.88
313.476	80.88
313.706	86.88
313.935	81.88
314.165	74.88
314.394	95.88
314.624	83.88
314.853	76.88
315.083	82.88
315.312	87.88
315.542	90.88
315.771	87.88
316.001	73.88
316.23	72.88
316.46	73.88
316.689	69.88
316.919	79.88
317.148	79.88
317.377	79.88
317.607	89.88
317.836	74.88
318.065	92.88
318.295	71.88
318.524	82.88
318.753	90.88
318.983	74.88
319.212	91.88
319.441	87.88
319.67	78.88
319.9	85.88
320.129	80.88
320.358	74.88
320.587	79.88
320.816	85.88
321.046	87.88
321.275	84.88
321.504	91.88
321.733	93.88
321.962	69.88
322.191	72.88
322.42	85.88
322.649	84.88
322.878	77.88
323.108	93.88
323.337	80.88
323.566	73.88
323.795	82.88
324.024	80.88
324.253	89.88
324.482	88.88
324.71	78.88
324.939	74.88
325.168	89.88
325.397	80.88
325.626	89.88
325.855	73.88
326.084	90.88
326.313	73.88
326.542	83.88
326.77	96.88
326.999	97.88
327.228	73.88
327.457	85.88
327.686	68.88
327.914	82.88
328.143	87.88
328.372	67.88
328.6	70.88
328.829	85.88
329.058	79.88
329.287	79.88
329.515	95.88
329.744	70.88
329.972	75.88
330.201	74.88
330.43	83.88
330.658	84.88
330.887	81.88
331.115	80.88
331.344	79.88
331.572	82.88
331.801	81.88
332.03	79.88
332.258	86.88
332.486	86.88
332.715	82.88
332.943	87.88
333.172	69.88
333.4	79.88
333.629	87.88
333.857	73.88
334.085	92.88
334.314	86.88
334.542	83.88
334.771	79.88
334.999	66.88
335.227	71.88
335.455	87.88
335.684	96.88
335.912	74.88
336.14	81.88
336.369	85.88
336.597	88.88
336.825	77.88
337.053	75.88
337.281	95.88
337.51	61.88
337.738	83.88
337.966	75.88
338.194	74.88
338.422	78.88
338.65	89.88
338.878	93.88
339.106	74.88
339.334	78.88
339.562	90.88
339.79	77.88
340.018	95.88
340.246	76.88
340.474	78.88
340.702	87.88
340.93	74.88
341.158	76.88
341.386	85.88
341.614	62.88
341.842	74.88
342.07	89.88
342.298	72.88
342.526	77.88
342.754	80.88
342.981	68.88
343.209	79.88
343.437	78.88
343.665	69.88
343.893	83.88
344.12	87.88
344.348	98.88
344.576	70.88
344.804	72.88
345.031	87.88
345.259	75.88
345.487	85.88
345.714	73.88
345.942	81.88
346.17	72.88
346.397	85.88
346.625	72.88
346.853	92.88
347.08	79.88
347.308	89.88
347.535	79.88
347.763	62.88
347.99	77.88
348.218	74.88
348.445	81.88
348.673	86.88
348.9	83.88
349.128	79.88
349.355	87.88
349.583	83.88
349.81	81.88
350.037	77.88
350.265	81.88
350.492	72.88
350.72	71.88
350.947	92.88
351.174	90.88
351.402	95.88
351.629	77.88
351.856	95.88
352.083	70.88
352.311	81.88
352.538	76.88
352.765	75.88
352.992	96.88
353.22	85.88
353.447	80.88
353.674	73.88
353.901	81.88
354.128	88.88
354.355	65.88
354.583	57.88
354.81	69.88
355.037	79.88
355.264	69.88
355.491	83.88
355.718	91.88
355.945	89.88
356.172	72.88
356.399	70.88
356.626	80.88
356.853	74.88
357.08	77.88
357.307	62.88
357.534	78.88
357.761	81.88
357.988	92.88
358.215	77.88
358.441	75.88
358.668	80.88
358.895	82.88
359.122	83.88
359.349	82.88
359.576	87.88
359.802	83.88
360.029	71.88
360.256	87.88
360.483	81.88
360.709	72.88
360.936	93.88
361.163	94.88
361.39	88.88
361.616	79.88
361.843	66.88
362.07	87.88
362.296	86.88
362.523	68.88
362.749	86.88
362.976	98.88
363.203	84.88
363.429	78.88
363.656	88.88
363.882	87.88
364.109	82.88
364.335	79.88
364.562	71.88
364.788	79.88
365.015	81.88
365.241	82.88
365.468	74.88
365.694	81.88
365.92	91.88
366.147	85.88
366.373	76.88
366.599	88.88
366.826	82.88
367.052	80.88
367.278	79.88
367.505	75.88
367.731	85.88
367.957	63.88
368.184	88.88
368.41	82.88
368.636	85.88
368.862	83.88
369.089	90.88
369.315	85.88
369.541	87.88
369.767	90.88
369.993	74.88
370.219	79.88
370.445	82.88
370.672	84.88
370.898	71.88
371.124	88.88
371.35	69.88
371.576	86.88
371.802	80.88
372.028	75.88
372.254	77.88
372.48	73.88
372.706	85.88
372.932	74.88
373.158	78.88
373.384	85.88
373.61	83.88
373.835	80.88
374.061	70.88
374.287	91.88
374.513	80.88
374.739	77.88
374.965	72.88
375.191	81.88
375.416	67.88
375.642	84.88
375.868	83.88
376.094	93.88
376.319	87.88
376.545	81.88
376.771	98.88
376.997	77.88
377.222	82.88
377.448	71.88
377.674	81.88
377.899	68.88
378.125	79.88
378.35	105.88
378.576	94.88
378.802	83.88
379.027	81.88
379.253	91.88
379.478	79.88
379.704	91.88
379.929	94.88
380.155	71.88
380.38	75.88
380.606	92.88
380.831	91.88
381.057	86.88
381.282	84.88
381.507	90.88
381.733	90.88
381.958	89.88
382.184	79.88
382.409	93.88
382.634	91.88
382.86	89.88
383.085	83.88
383.31	90.88
383.535	81.88
383.761	88.88
383.986	90.88
384.211	96.88
384.436	85.88
384.662	86.88
384.887	88.88
385.112	100.88
385.337	88.88
385.562	92.88
385.787	84.88
386.013	82.88
386.238	87.88
386.463	81.88
386.688	87.88
386.913	93.88
387.138	80.88
387.363	98.88
387.588	84.88
387.813	74.88
388.038	90.88
388.263	82.88
388.488	93.88
388.713	88.88
388.938	89.88
389.163	84.88
389.387	86.88
389.612	86.88
389.837	82.88
390.062	70.88
390.287	89.88
390.512	76.88
390.736	82.88
390.961	82.88
391.186	97.88
391.411	75.88
391.636	90.88
391.86	71.88
392.085	93.88
392.31	83.88
392.534	75.88
392.759	87.88
392.984	82.88
393.208	80.88
393.433	100.88
393.658	79.88
393.882	85.88
394.107	84.88
394.331	94.88
394.556	84.88
394.78	93.88
395.005	88.88
395.229	93.88
395.454	76.88
395.678	82.88
395.903	97.88
396.127	109.88
396.352	89.88
396.576	79.88
396.801	94.88
397.025	77.88
397.249	84.88
397.474	74.88
397.698	103.88
397.922	94.88
398.147	97.88
398.371	86.88
398.595	92.88
398.82	106.88
399.044	90.88
399.268	81.88
399.492	93.88
399.717	83.88
399.941	102.88
400.165	93.88
400.389	97.88
400.613	92.88
400.837	94.88
401.062	75.88
401.286	85.88
401.51	90.88
401.734	82.88
401.958	91.88
402.182	109.88
402.406	85.88
402.63	79.88
402.854	86.88
403.078	82.88
403.302	96.88
403.526	102.88
403.75	83.88
403.974	89.88
404.198	88.88
404.422	89.88
404.645	87.88
404.869	94.88
405.093	91.88
405.317	92.88
405.541	91.88
405.765	90.88
405.988	82.88
406.212	93.88
406.436	94.88
406.66	89.88
406.883	92.88
407.107	93.88
407.331	94.88
407.555	95.88
407.778	90.88
408.002	85.88
408.226	97.88
408.449	94.88
408.673	87.88
408.896	101.88
409.12	101.88
409.344	98.88
409.567	96.88
409.791	101.88
410.014	93.88
410.238	85.88
410.461	89.88
410.685	86.88
410.908	104.88
411.132	101.88
411.355	106.88
411.578	88.88
411.802	96.88
412.025	92.88
412.249	98.88
412.472	78.88
412.695	85.88
412.919	88.88
413.142	99.88
413.365	112.88
413.589	110.88
413.812	98.88
414.035	92.88
414.258	88.88
414.482	94.88
414.705	82.88
414.928	99.88
415.151	94.88
415.374	103.88
415.597	109.88
415.821	101.88
416.044	99.88
416.267	106.88
416.49	93.88
416.713	102.88
416.936	112.88
417.159	95.88
417.382	89.88
417.605	97.88
417.828	104.88
418.051	101.88
418.274	98.88
418.497	107.88
418.72	103.88
418.943	96.88
419.166	94.88
419.389	98.88
419.611	101.88
419.834	100.88
420.057	109.88
420.28	111.88
420.503	100.88
420.726	88.88
420.948	100.88
421.171	101.88
421.394	105.88
421.617	97.88
421.839	113.88
422.062	113.88
422.285	102.88
422.507	91.88
422.73	92.88
422.953	99.88
423.175	97.88
423.398	101.88
423.621	106.88
423.843	110.88
424.066	103.88
424.288	113.88
424.511	121.88
424.733	110.88
424.956	108.88
425.178	114.88
425.401	106.88
425.623	105.88
425.846	97.88
426.068	103.88
426.291	105.88
426.513	87.88
426.735	120.88
426.958	109.88
427.18	98.88
427.402	115.88
427.625	96.88
427.847	98.88
428.069	111.88
428.292	95.88
428.514	92.88
428.736	90.88
428.958	113.88
429.181	98.88
429.403	100.88
429.625	102.88
429.847	103.88
430.069	102.88
430.292	109.88
430.514	113.88
430.736	91.88
430.958	94.88
431.18	96.88
431.402	98.88
431.624	82.88
431.846	95.88
432.068	77.88
432.29	86.88
432.512	99.88
432.734	87.88
432.956	96.88
433.178	113.88
433.4	112.88
433.622	89.88
433.844	99.88
434.066	101.88
434.287	102.88
434.509	76.88
434.731	87.88
434.953	84.88
435.175	87.88
435.397	90.88
435.618	89.88
435.84	98.88
436.062	85.88
436.284	103.88
436.505	111.88
436.727	105.88
436.949	120.88
437.17	105.88
437.392	101.88
437.614	91.88
437.835	109.88
438.057	99.88
438.278	90.88
438.5	93.88
438.721	99.88
438.943	100.88
439.165	97.88
439.386	109.88
439.608	105.88
439.829	106.88
440.05	116.88
440.272	113.88
440.493	112.88
440.715	111.88
440.936	118.88
441.158	122.88
441.379	111.88
441.6	105.88
441.822	105.88
442.043	113.88
442.264	109.88
442.486	102.88
442.707	100.88
442.928	106.88
443.149	101.88
443.371	91.88
443.592	95.88
443.813	111.88
444.034	119.88
444.255	111.88
444.476	109.88
444.698	121.88
444.919	98.88
445.14	194.88
445.361	152.88
445.582	116.88
445.803	105.88
446.024	109.88
446.245	102.88
446.466	106.88
446.687	112.88
446.908	98.88
447.129	113.88
447.35	123.88
447.571	111.88
447.792	119.88
448.013	113.88
448.234	106.88
448.455	121.88
448.675	99.88
448.896	98.88
449.117	106.88
449.338	105.88
449.559	117.88
449.779	116.88
450	113.88
450.221	116.88
450.442	96.88
450.662	111.88
450.883	103.88
451.104	109.88
451.324	104.88
451.545	102.88
451.766	94.88
451.986	104.88
452.207	98.88
452.428	92.88
452.648	97.88
452.869	100.88
453.089	99.88
453.31	85.88
453.53	90.88
453.751	86.88
453.971	87.88
454.192	88.88
454.412	103.88
454.633	101.88
454.853	111.88
455.073	98.88
455.294	101.88
455.514	109.88
455.734	103.88
455.955	104.88
456.175	88.88
456.395	102.88
456.616	94.88
456.836	75.88
457.056	85.88
457.276	111.88
457.497	88.88
457.717	97.88
457.937	89.88
458.157	87.88
458.377	84.88
458.598	97.88
458.818	84.88
459.038	76.88
459.258	90.88
459.478	87.88
459.698	82.88
459.918	91.88
460.138	94.88
460.358	91.88
460.578	99.88
460.798	90.88
461.018	93.88
461.238	97.88
461.458	111.88
461.678	85.88
461.898	97.88
462.118	90.88
462.338	105.88
462.558	89.88
462.777	84.88
462.997	92.88
463.217	92.88
463.437	99.88
463.657	89.88
463.876	91.88
464.096	85.88
464.316	103.88
464.536	91.88
464.755	88.88
464.975	97.88
465.195	90.88
465.414	110.88
465.634	81.88
465.854	97.88
466.073	91.88
466.293	99.88
466.512	102.88
466.732	109.88
466.951	101.88
467.171	103.88
467.391	102.88
467.61	107.88
467.829	107.88
468.049	103.88
468.268	112.88
468.488	99.88
468.707	95.88
468.927	101.88
469.146	111.88
469.365	113.88
469.585	103.88
469.804	113.88
470.023	110.88
470.243	120.88
470.462	113.88
470.681	102.88
470.901	125.88
471.12	113.88
471.339	121.88
471.558	109.88
471.777	111.88
471.997	112.88
472.216	100.88
472.435	98.88
472.654	99.88
472.873	86.88
473.092	94.88
473.311	96.88
473.53	89.88
473.749	110.88
473.968	112.88
474.187	101.88
474.406	105.88
474.625	93.88
474.844	117.88
475.063	98.88
475.282	113.88
475.501	85.88
475.72	102.88
475.939	89.88
476.158	103.88
476.377	94.88
476.596	96.88
476.814	103.88
477.033	76.88
477.252	87.88
477.471	93.88
477.69	97.88
477.908	107.88
478.127	113.88
478.346	99.88
478.564	93.88
478.783	117.88
479.002	109.88
479.22	119.88
479.439	95.88
479.658	106.88
479.876	102.88
480.095	104.88
480.313	112.88
480.532	101.88
480.751	93.88
480.969	95.88
481.188	88.88
481.406	82.88
481.624	79.88
481.843	79.88
482.061	76.88
482.28	112.88
482.498	81.88
482.717	88.88
482.935	105.88
483.153	112.88
483.372	118.88
483.59	122.88
483.808	112.88
484.027	110.88
484.245	118.88
484.463	110.88
484.681	123.88
484.9	99.88
485.118	102.88
485.336	92.88
485.554	78.88
485.772	80.88
485.99	96.88
486.209	98.88
486.427	85.88
486.645	91.88
486.863	110.88
487.081	110.88
487.299	102.88
487.517	103.88
487.735	126.88
487.953	125.88
488.171	122.88
488.389	120.88
488.607	121.88
488.825	106.88
489.043	87.88
489.261	98.88
489.479	112.88
489.696	110.88
489.914	116.88
490.132	113.88
490.35	121.88
490.568	126.88
490.786	115.88
491.003	125.88
491.221	141.88
491.439	126.88
491.657	151.88
491.874	138.88
492.092	135.88
492.31	150.88
492.527	153.88
492.745	131.88
492.963	131.88
493.18	139.88
493.398	124.88
493.615	129.88
493.833	146.88
494.05	133.88
494.268	119.88
494.485	121.88
494.703	146.88
494.92	117.88
495.138	122.88
495.355	114.88
495.573	127.88
495.79	121.88
496.008	125.88
496.225	117.88
496.442	131.88
496.66	122.88
496.877	115.88
497.094	114.88
497.312	106.88
497.529	110.88
497.746	125.88
497.963	116.88
498.181	103.88
498.398	95.88
498.615	100.88
498.832	88.88
499.049	96.88
499.267	107.88
499.484	112.88
499.701	112.88
499.918	105.88
500.135	113.88
500.352	107.88
500.569	109.88
500.786	117.88
501.003	106.88
501.22	95.88
501.437	112.88
501.654	105.88
501.871	111.88
502.088	107.88
502.305	104.88
502.522	99.88
502.739	118.88
502.956	107.88
503.172	97.88
503.389	112.88
503.606	105.88
503.823	94.88
504.04	102.88
504.256	97.88
504.473	89.88
504.69	86.88
504.907	118.88
505.123	94.88
505.34	106.88
505.557	119.88
505.773	100.88
505.99	117.88
506.207	94.88
506.423	101.88
506.64	94.88
506.856	97.88
507.073	96.88
507.289	101.88
507.506	95.88
507.722	97.88
507.939	106.88
508.155	99.88
508.372	103.88
508.588	90.88
508.805	87.88
509.021	85.88
509.238	105.88
509.454	111.88
509.67	99.88
509.887	93.88
510.103	98.88
510.319	86.88
510.536	89.88
510.752	94.88
510.968	86.88
511.184	83.88
511.401	88.88
511.617	83.88
511.833	82.88
512.049	94.88
512.265	69.88
512.481	86.88
512.698	84.88
512.914	90.88
513.13	92.88
513.346	81.88
513.562	94.88
513.778	101.88
513.994	89.88
514.21	90.88
514.426	92.88
514.642	84.88
514.858	85.88
515.074	78.88
515.29	85.88
515.506	80.88
