Data from Zn(NO3)2Standard.Agarose3%.GreenCap.LampEnergy5.5.E.O_HRD10591_15-01-49-767.txt Node
Date: Mon Jul 22 15:01:49 EDT 2019
User: cochatt
Spectrometer: HR+D1059
Trigger mode: 1
Integration Time (sec): 1.000000E-1
Scans to average: 1
Electric dark correction enabled: true
Nonlinearity correction enabled: false
Boxcar width: 0
XAxis mode: Wavelengths
Number of Pixels in Spectrum: 2048
>>>>>Begin Spectral Data<<<<<
223.165	-9.75
223.4	-9.75
223.635	-9.75
223.869	-12.75
224.104	-21.75
224.338	-13.75
224.573	-13.75
224.808	-20.75
225.042	-15.75
225.277	-8.75
225.511	9.25
225.746	-1.75
225.98	0.25
226.215	12.25
226.449	6.25
226.683	25.25
226.918	37.25
227.152	28.25
227.387	30.25
227.621	36.25
227.856	61.25
228.09	38.25
228.324	41.25
228.559	57.25
228.793	57.25
229.027	67.25
229.262	48.25
229.496	84.25
229.73	66.25
229.964	74.25
230.199	63.25
230.433	65.25
230.667	69.25
230.901	80.25
231.136	76.25
231.37	78.25
231.604	73.25
231.838	81.25
232.072	82.25
232.306	85.25
232.541	90.25
232.775	84.25
233.009	106.25
233.243	74.25
233.477	84.25
233.711	82.25
233.945	71.25
234.179	66.25
234.413	67.25
234.647	75.25
234.881	85.25
235.115	72.25
235.349	82.25
235.583	78.25
235.817	70.25
236.051	76.25
236.285	87.25
236.519	78.25
236.753	71.25
236.987	90.25
237.221	80.25
237.455	86.25
237.689	78.25
237.922	71.25
238.156	77.25
238.39	65.25
238.624	91.25
238.858	81.25
239.091	77.25
239.325	79.25
239.559	89.25
239.793	73.25
240.027	75.25
240.26	69.25
240.494	72.25
240.728	62.25
240.961	79.25
241.195	81.25
241.429	76.25
241.662	63.25
241.896	70.25
242.13	78.25
242.363	85.25
242.597	76.25
242.83	65.25
243.064	84.25
243.298	71.25
243.531	79.25
243.765	83.25
243.998	73.25
244.232	88.25
244.465	80.25
244.699	88.25
244.932	73.25
245.166	86.25
245.399	78.25
245.633	68.25
245.866	72.25
246.099	78.25
246.333	91.25
246.566	64.25
246.8	75.25
247.033	96.25
247.266	81.25
247.5	78.25
247.733	94.25
247.966	80.25
248.2	76.25
248.433	83.25
248.666	85.25
248.899	88.25
249.133	80.25
249.366	75.25
249.599	80.25
249.832	82.25
250.066	80.25
250.299	81.25
250.532	74.25
250.765	68.25
250.998	69.25
251.231	74.25
251.465	72.25
251.698	73.25
251.931	93.25
252.164	76.25
252.397	78.25
252.63	76.25
252.863	87.25
253.096	79.25
253.329	68.25
253.562	80.25
253.795	70.25
254.028	76.25
254.261	86.25
254.494	86.25
254.727	77.25
254.96	85.25
255.193	84.25
255.426	62.25
255.659	62.25
255.892	85.25
256.124	86.25
256.357	82.25
256.59	80.25
256.823	84.25
257.056	88.25
257.289	87.25
257.521	91.25
257.754	87.25
257.987	84.25
258.22	79.25
258.452	77.25
258.685	80.25
258.918	73.25
259.151	76.25
259.383	77.25
259.616	74.25
259.849	85.25
260.081	84.25
260.314	83.25
260.547	85.25
260.779	84.25
261.012	84.25
261.244	72.25
261.477	95.25
261.71	79.25
261.942	76.25
262.175	81.25
262.407	114.25
262.64	83.25
262.872	84.25
263.105	85.25
263.337	98.25
263.57	75.25
263.802	75.25
264.035	78.25
264.267	78.25
264.499	91.25
264.732	96.25
264.964	76.25
265.197	78.25
265.429	70.25
265.661	91.25
265.894	96.25
266.126	94.25
266.358	88.25
266.591	77.25
266.823	86.25
267.055	84.25
267.287	79.25
267.52	73.25
267.752	77.25
267.984	81.25
268.216	80.25
268.448	88.25
268.681	86.25
268.913	90.25
269.145	83.25
269.377	99.25
269.609	84.25
269.841	95.25
270.073	81.25
270.306	81.25
270.538	94.25
270.77	92.25
271.002	85.25
271.234	98.25
271.466	89.25
271.698	95.25
271.93	74.25
272.162	98.25
272.394	79.25
272.626	88.25
272.858	93.25
273.09	98.25
273.322	79.25
273.553	86.25
273.785	83.25
274.017	86.25
274.249	93.25
274.481	83.25
274.713	74.25
274.945	91.25
275.176	84.25
275.408	78.25
275.64	90.25
275.872	75.25
276.104	74.25
276.335	88.25
276.567	87.25
276.799	91.25
277.031	77.25
277.262	87.25
277.494	94.25
277.726	93.25
277.957	89.25
278.189	80.25
278.421	82.25
278.652	78.25
278.884	83.25
279.115	86.25
279.347	87.25
279.579	75.25
279.81	80.25
280.042	74.25
280.273	80.25
280.505	92.25
280.736	96.25
280.968	92.25
281.199	77.25
281.431	68.25
281.662	84.25
281.894	85.25
282.125	91.25
282.356	94.25
282.588	71.25
282.819	90.25
283.051	87.25
283.282	94.25
283.513	86.25
283.745	100.25
283.976	83.25
284.207	87.25
284.439	94.25
284.67	86.25
284.901	78.25
285.132	100.25
285.364	86.25
285.595	90.25
285.826	82.25
286.057	86.25
286.288	73.25
286.52	98.25
286.751	84.25
286.982	99.25
287.213	98.25
287.444	92.25
287.675	86.25
287.906	86.25
288.138	80.25
288.369	70.25
288.6	77.25
288.831	85.25
289.062	94.25
289.293	91.25
289.524	72.25
289.755	88.25
289.986	84.25
290.217	102.25
290.448	98.25
290.679	89.25
290.91	90.25
291.141	104.25
291.371	85.25
291.602	84.25
291.833	83.25
292.064	79.25
292.295	77.25
292.526	92.25
292.757	82.25
292.987	83.25
293.218	93.25
293.449	82.25
293.68	88.25
293.91	94.25
294.141	89.25
294.372	102.25
294.603	80.25
294.833	76.25
295.064	81.25
295.295	84.25
295.525	90.25
295.756	85.25
295.987	93.25
296.217	90.25
296.448	70.25
296.679	84.25
296.909	96.25
297.14	108.25
297.37	90.25
297.601	80.25
297.831	84.25
298.062	80.25
298.292	75.25
298.523	78.25
298.753	78.25
298.984	93.25
299.214	84.25
299.445	87.25
299.675	85.25
299.905	87.25
300.136	86.25
300.366	82.25
300.597	86.25
300.827	95.25
301.057	72.25
301.288	84.25
301.518	90.25
301.748	91.25
301.979	71.25
302.209	84.25
302.439	79.25
302.669	92.25
302.9	86.25
303.13	89.25
303.36	75.25
303.59	75.25
303.82	91.25
304.051	73.25
304.281	97.25
304.511	93.25
304.741	78.25
304.971	97.25
305.201	82.25
305.431	95.25
305.661	86.25
305.891	78.25
306.121	73.25
306.352	87.25
306.582	94.25
306.812	74.25
307.042	89.25
307.272	84.25
307.502	75.25
307.731	88.25
307.961	79.25
308.191	93.25
308.421	77.25
308.651	95.25
308.881	83.25
309.111	72.25
309.341	90.25
309.571	90.25
309.8	84.25
310.03	80.25
310.26	85.25
310.49	80.25
310.72	82.25
310.949	90.25
311.179	91.25
311.409	78.25
311.639	75.25
311.868	96.25
312.098	98.25
312.328	86.25
312.557	93.25
312.787	86.25
313.017	77.25
313.246	79.25
313.476	84.25
313.706	77.25
313.935	83.25
314.165	95.25
314.394	87.25
314.624	83.25
314.853	93.25
315.083	91.25
315.312	83.25
315.542	96.25
315.771	87.25
316.001	88.25
316.23	84.25
316.46	87.25
316.689	98.25
316.919	89.25
317.148	84.25
317.377	78.25
317.607	91.25
317.836	89.25
318.065	88.25
318.295	79.25
318.524	70.25
318.753	73.25
318.983	71.25
319.212	99.25
319.441	86.25
319.67	87.25
319.9	84.25
320.129	87.25
320.358	87.25
320.587	85.25
320.816	71.25
321.046	91.25
321.275	85.25
321.504	84.25
321.733	90.25
321.962	78.25
322.191	84.25
322.42	90.25
322.649	84.25
322.878	91.25
323.108	81.25
323.337	98.25
323.566	94.25
323.795	86.25
324.024	85.25
324.253	83.25
324.482	91.25
324.71	98.25
324.939	90.25
325.168	80.25
325.397	95.25
325.626	106.25
325.855	85.25
326.084	78.25
326.313	82.25
326.542	87.25
326.77	98.25
326.999	102.25
327.228	88.25
327.457	92.25
327.686	92.25
327.914	71.25
328.143	91.25
328.372	80.25
328.6	104.25
328.829	85.25
329.058	93.25
329.287	91.25
329.515	83.25
329.744	95.25
329.972	95.25
330.201	101.25
330.43	80.25
330.658	86.25
330.887	84.25
331.115	70.25
331.344	87.25
331.572	82.25
331.801	99.25
332.03	98.25
332.258	86.25
332.486	76.25
332.715	94.25
332.943	76.25
333.172	86.25
333.4	85.25
333.629	86.25
333.857	77.25
334.085	102.25
334.314	88.25
334.542	97.25
334.771	98.25
334.999	76.25
335.227	89.25
335.455	91.25
335.684	84.25
335.912	84.25
336.14	94.25
336.369	94.25
336.597	81.25
336.825	86.25
337.053	79.25
337.281	74.25
337.51	95.25
337.738	92.25
337.966	84.25
338.194	87.25
338.422	96.25
338.65	76.25
338.878	88.25
339.106	90.25
339.334	79.25
339.562	88.25
339.79	83.25
340.018	85.25
340.246	79.25
340.474	88.25
340.702	84.25
340.93	74.25
341.158	82.25
341.386	91.25
341.614	105.25
341.842	88.25
342.07	85.25
342.298	86.25
342.526	88.25
342.754	84.25
342.981	92.25
343.209	93.25
343.437	87.25
343.665	80.25
343.893	96.25
344.12	99.25
344.348	83.25
344.576	74.25
344.804	97.25
345.031	82.25
345.259	90.25
345.487	96.25
345.714	79.25
345.942	78.25
346.17	70.25
346.397	79.25
346.625	87.25
346.853	84.25
347.08	84.25
347.308	92.25
347.535	87.25
347.763	91.25
347.99	103.25
348.218	85.25
348.445	79.25
348.673	84.25
348.9	95.25
349.128	75.25
349.355	88.25
349.583	85.25
349.81	84.25
350.037	102.25
350.265	89.25
350.492	84.25
350.72	72.25
350.947	77.25
351.174	78.25
351.402	78.25
351.629	83.25
351.856	83.25
352.083	90.25
352.311	78.25
352.538	85.25
352.765	90.25
352.992	92.25
353.22	85.25
353.447	68.25
353.674	88.25
353.901	96.25
354.128	83.25
354.355	95.25
354.583	75.25
354.81	103.25
355.037	78.25
355.264	79.25
355.491	88.25
355.718	93.25
355.945	74.25
356.172	93.25
356.399	89.25
356.626	84.25
356.853	96.25
357.08	89.25
357.307	90.25
357.534	88.25
357.761	103.25
357.988	89.25
358.215	89.25
358.441	86.25
358.668	92.25
358.895	92.25
359.122	75.25
359.349	76.25
359.576	81.25
359.802	79.25
360.029	82.25
360.256	79.25
360.483	83.25
360.709	84.25
360.936	91.25
361.163	78.25
361.39	80.25
361.616	79.25
361.843	78.25
362.07	84.25
362.296	97.25
362.523	84.25
362.749	74.25
362.976	86.25
363.203	88.25
363.429	90.25
363.656	97.25
363.882	98.25
364.109	89.25
364.335	102.25
364.562	90.25
364.788	99.25
365.015	88.25
365.241	86.25
365.468	78.25
365.694	92.25
365.92	81.25
366.147	86.25
366.373	79.25
366.599	87.25
366.826	84.25
367.052	95.25
367.278	96.25
367.505	89.25
367.731	81.25
367.957	90.25
368.184	96.25
368.41	87.25
368.636	91.25
368.862	90.25
369.089	98.25
369.315	85.25
369.541	84.25
369.767	92.25
369.993	95.25
370.219	85.25
370.445	82.25
370.672	95.25
370.898	86.25
371.124	98.25
371.35	86.25
371.576	69.25
371.802	88.25
372.028	94.25
372.254	88.25
372.48	90.25
372.706	92.25
372.932	92.25
373.158	85.25
373.384	88.25
373.61	99.25
373.835	83.25
374.061	79.25
374.287	88.25
374.513	87.25
374.739	88.25
374.965	78.25
375.191	90.25
375.416	99.25
375.642	87.25
375.868	96.25
376.094	87.25
376.319	102.25
376.545	91.25
376.771	96.25
376.997	94.25
377.222	84.25
377.448	86.25
377.674	73.25
377.899	88.25
378.125	102.25
378.35	95.25
378.576	90.25
378.802	92.25
379.027	79.25
379.253	92.25
379.478	90.25
379.704	89.25
379.929	87.25
380.155	92.25
380.38	92.25
380.606	92.25
380.831	96.25
381.057	103.25
381.282	91.25
381.507	93.25
381.733	103.25
381.958	87.25
382.184	86.25
382.409	91.25
382.634	91.25
382.86	86.25
383.085	84.25
383.31	89.25
383.535	84.25
383.761	99.25
383.986	85.25
384.211	77.25
384.436	83.25
384.662	80.25
384.887	81.25
385.112	89.25
385.337	96.25
385.562	97.25
385.787	90.25
386.013	90.25
386.238	86.25
386.463	108.25
386.688	93.25
386.913	82.25
387.138	90.25
387.363	79.25
387.588	95.25
387.813	83.25
388.038	88.25
388.263	92.25
388.488	91.25
388.713	63.25
388.938	90.25
389.163	91.25
389.387	90.25
389.612	79.25
389.837	104.25
390.062	79.25
390.287	87.25
390.512	73.25
390.736	74.25
390.961	91.25
391.186	91.25
391.411	99.25
391.636	100.25
391.86	86.25
392.085	82.25
392.31	83.25
392.534	88.25
392.759	88.25
392.984	93.25
393.208	81.25
393.433	87.25
393.658	90.25
393.882	85.25
394.107	102.25
394.331	97.25
394.556	80.25
394.78	92.25
395.005	83.25
395.229	95.25
395.454	67.25
395.678	93.25
395.903	87.25
396.127	86.25
396.352	84.25
396.576	87.25
396.801	63.25
397.025	75.25
397.249	90.25
397.474	90.25
397.698	83.25
397.922	96.25
398.147	78.25
398.371	99.25
398.595	85.25
398.82	92.25
399.044	84.25
399.268	84.25
399.492	86.25
399.717	98.25
399.941	83.25
400.165	91.25
400.389	87.25
400.613	84.25
400.837	69.25
401.062	75.25
401.286	95.25
401.51	82.25
401.734	80.25
401.958	94.25
402.182	78.25
402.406	93.25
402.63	77.25
402.854	98.25
403.078	82.25
403.302	86.25
403.526	88.25
403.75	85.25
403.974	88.25
404.198	96.25
404.422	96.25
404.645	95.25
404.869	91.25
405.093	97.25
405.317	94.25
405.541	92.25
405.765	88.25
405.988	92.25
406.212	84.25
406.436	88.25
406.66	94.25
406.883	103.25
407.107	112.25
407.331	98.25
407.555	82.25
407.778	78.25
408.002	83.25
408.226	85.25
408.449	79.25
408.673	94.25
408.896	87.25
409.12	83.25
409.344	80.25
409.567	85.25
409.791	83.25
410.014	90.25
410.238	93.25
410.461	75.25
410.685	96.25
410.908	93.25
411.132	90.25
411.355	86.25
411.578	88.25
411.802	90.25
412.025	96.25
412.249	83.25
412.472	76.25
412.695	89.25
412.919	94.25
413.142	92.25
413.365	80.25
413.589	98.25
413.812	102.25
414.035	93.25
414.258	86.25
414.482	77.25
414.705	82.25
414.928	83.25
415.151	89.25
415.374	86.25
415.597	87.25
415.821	94.25
416.044	94.25
416.267	92.25
416.49	98.25
416.713	92.25
416.936	84.25
417.159	85.25
417.382	95.25
417.605	86.25
417.828	85.25
418.051	103.25
418.274	90.25
418.497	84.25
418.72	78.25
418.943	94.25
419.166	94.25
419.389	90.25
419.611	84.25
419.834	79.25
420.057	91.25
420.28	79.25
420.503	92.25
420.726	103.25
420.948	93.25
421.171	99.25
421.394	101.25
421.617	84.25
421.839	88.25
422.062	92.25
422.285	87.25
422.507	80.25
422.73	78.25
422.953	90.25
423.175	91.25
423.398	82.25
423.621	78.25
423.843	76.25
424.066	84.25
424.288	101.25
424.511	92.25
424.733	93.25
424.956	87.25
425.178	92.25
425.401	88.25
425.623	96.25
425.846	86.25
426.068	76.25
426.291	82.25
426.513	77.25
426.735	100.25
426.958	102.25
427.18	82.25
427.402	95.25
427.625	91.25
427.847	93.25
428.069	91.25
428.292	91.25
428.514	93.25
428.736	101.25
428.958	79.25
429.181	80.25
429.403	87.25
429.625	92.25
429.847	88.25
430.069	89.25
430.292	78.25
430.514	71.25
430.736	82.25
430.958	99.25
431.18	93.25
431.402	78.25
431.624	88.25
431.846	94.25
432.068	83.25
432.29	92.25
432.512	93.25
432.734	82.25
432.956	109.25
433.178	85.25
433.4	101.25
433.622	102.25
433.844	98.25
434.066	90.25
434.287	81.25
434.509	73.25
434.731	99.25
434.953	90.25
435.175	91.25
435.397	102.25
435.618	95.25
435.84	89.25
436.062	79.25
436.284	92.25
436.505	75.25
436.727	95.25
436.949	91.25
437.17	87.25
437.392	92.25
437.614	99.25
437.835	96.25
438.057	81.25
438.278	86.25
438.5	101.25
438.721	84.25
438.943	90.25
439.165	88.25
439.386	99.25
439.608	107.25
439.829	82.25
440.05	99.25
440.272	107.25
440.493	102.25
440.715	88.25
440.936	78.25
441.158	98.25
441.379	99.25
441.6	90.25
441.822	115.25
442.043	92.25
442.264	98.25
442.486	86.25
442.707	93.25
442.928	96.25
443.149	88.25
443.371	92.25
443.592	86.25
443.813	96.25
444.034	101.25
444.255	91.25
444.476	90.25
444.698	108.25
444.919	99.25
445.14	196.25
445.361	134.25
445.582	107.25
445.803	94.25
446.024	92.25
446.245	90.25
446.466	94.25
446.687	101.25
446.908	103.25
447.129	104.25
447.35	97.25
447.571	80.25
447.792	81.25
448.013	87.25
448.234	99.25
448.455	79.25
448.675	94.25
448.896	94.25
449.117	95.25
449.338	77.25
449.559	90.25
449.779	94.25
450	109.25
450.221	90.25
450.442	98.25
450.662	88.25
450.883	96.25
451.104	104.25
451.324	92.25
451.545	92.25
451.766	79.25
451.986	82.25
452.207	85.25
452.428	91.25
452.648	97.25
452.869	93.25
453.089	90.25
453.31	82.25
453.53	83.25
453.751	79.25
453.971	77.25
454.192	84.25
454.412	97.25
454.633	84.25
454.853	94.25
455.073	87.25
455.294	83.25
455.514	91.25
455.734	89.25
455.955	66.25
456.175	84.25
456.395	73.25
456.616	93.25
456.836	87.25
457.056	80.25
457.276	95.25
457.497	79.25
457.717	96.25
457.937	87.25
458.157	82.25
458.377	85.25
458.598	79.25
458.818	75.25
459.038	85.25
459.258	82.25
459.478	88.25
459.698	89.25
459.918	86.25
460.138	80.25
460.358	92.25
460.578	93.25
460.798	91.25
461.018	91.25
461.238	94.25
461.458	81.25
461.678	87.25
461.898	76.25
462.118	93.25
462.338	97.25
462.558	84.25
462.777	80.25
462.997	84.25
463.217	94.25
463.437	85.25
463.657	100.25
463.876	79.25
464.096	78.25
464.316	90.25
464.536	81.25
464.755	87.25
464.975	78.25
465.195	96.25
465.414	88.25
465.634	83.25
465.854	83.25
466.073	103.25
466.293	101.25
466.512	85.25
466.732	73.25
466.951	91.25
467.171	99.25
467.391	87.25
467.61	80.25
467.829	89.25
468.049	99.25
468.268	79.25
468.488	77.25
468.707	87.25
468.927	97.25
469.146	94.25
469.365	101.25
469.585	102.25
469.804	91.25
470.023	91.25
470.243	96.25
470.462	88.25
470.681	87.25
470.901	94.25
471.12	83.25
471.339	97.25
471.558	93.25
471.777	81.25
471.997	95.25
472.216	102.25
472.435	105.25
472.654	89.25
472.873	96.25
473.092	84.25
473.311	99.25
473.53	87.25
473.749	96.25
473.968	99.25
474.187	79.25
474.406	100.25
474.625	87.25
474.844	84.25
475.063	85.25
475.282	84.25
475.501	66.25
475.72	88.25
475.939	86.25
476.158	87.25
476.377	89.25
476.596	100.25
476.814	94.25
477.033	106.25
477.252	92.25
477.471	82.25
477.69	93.25
477.908	96.25
478.127	100.25
478.346	80.25
478.564	86.25
478.783	91.25
479.002	93.25
479.22	87.25
479.439	92.25
479.658	90.25
479.876	89.25
480.095	95.25
480.313	89.25
480.532	97.25
480.751	100.25
480.969	96.25
481.188	87.25
481.406	98.25
481.624	80.25
481.843	91.25
482.061	75.25
482.28	88.25
482.498	98.25
482.717	87.25
482.935	77.25
483.153	103.25
483.372	95.25
483.59	89.25
483.808	80.25
484.027	89.25
484.245	86.25
484.463	87.25
484.681	96.25
484.9	100.25
485.118	95.25
485.336	90.25
485.554	74.25
485.772	75.25
485.99	93.25
486.209	95.25
486.427	94.25
486.645	85.25
486.863	93.25
487.081	91.25
487.299	87.25
487.517	89.25
487.735	102.25
487.953	112.25
488.171	111.25
488.389	83.25
488.607	85.25
488.825	94.25
489.043	89.25
489.261	81.25
489.479	84.25
489.696	95.25
489.914	94.25
490.132	102.25
490.35	102.25
490.568	90.25
490.786	108.25
491.003	101.25
491.221	98.25
491.439	103.25
491.657	100.25
491.874	106.25
492.092	118.25
492.31	108.25
492.527	124.25
492.745	102.25
492.963	94.25
493.18	102.25
493.398	98.25
493.615	95.25
493.833	107.25
494.05	104.25
494.268	94.25
494.485	93.25
494.703	84.25
494.92	84.25
495.138	87.25
495.355	107.25
495.573	102.25
495.79	85.25
496.008	98.25
496.225	104.25
496.442	91.25
496.66	97.25
496.877	92.25
497.094	105.25
497.312	99.25
497.529	98.25
497.746	96.25
497.963	94.25
498.181	99.25
498.398	85.25
498.615	103.25
498.832	80.25
499.049	92.25
499.267	87.25
499.484	101.25
499.701	70.25
499.918	105.25
500.135	92.25
500.352	82.25
500.569	96.25
500.786	112.25
501.003	95.25
501.22	86.25
501.437	88.25
501.654	90.25
501.871	90.25
502.088	76.25
502.305	82.25
502.522	79.25
502.739	81.25
502.956	88.25
503.172	101.25
503.389	81.25
503.606	92.25
503.823	88.25
504.04	103.25
504.256	83.25
504.473	79.25
504.69	87.25
504.907	104.25
505.123	95.25
505.34	85.25
505.557	86.25
505.773	76.25
505.99	92.25
506.207	82.25
506.423	93.25
506.64	94.25
506.856	96.25
507.073	86.25
507.289	98.25
507.506	87.25
507.722	85.25
507.939	97.25
508.155	94.25
508.372	86.25
508.588	92.25
508.805	95.25
509.021	109.25
509.238	77.25
509.454	90.25
509.67	87.25
509.887	88.25
510.103	94.25
510.319	87.25
510.536	95.25
510.752	88.25
510.968	88.25
511.184	84.25
511.401	86.25
511.617	72.25
511.833	82.25
512.049	78.25
512.265	93.25
512.481	82.25
512.698	86.25
512.914	78.25
513.13	81.25
513.346	91.25
513.562	88.25
513.778	89.25
513.994	72.25
514.21	80.25
514.426	82.25
514.642	88.25
514.858	79.25
515.074	87.25
515.29	87.25
515.506	77.25
515.721	91.25
515.937	88.25
516.153	81.25
516.369	90.25
516.585	95.25
516.801	72.25
517.016	93.25
517.232	86.25
517.448	78.25
517.664	93.25
517.879	72.25
518.095	90.25
