Data from Zn(NO3)2Standard.Agarose3%.GreenCap.LampEnergy10E.O_HRD10591_15-05-54-942.txt Node
Date: Mon Jul 22 15:05:54 EDT 2019
User: cochatt
Spectrometer: HR+D1059
Trigger mode: 1
Integration Time (sec): 1.000000E-1
Scans to average: 1
Electric dark correction enabled: true
Nonlinearity correction enabled: false
Boxcar width: 0
XAxis mode: Wavelengths
Number of Pixels in Spectrum: 2048
>>>>>Begin Spectral Data<<<<<
223.165	-14
223.4	-14
223.635	-14
223.869	-26
224.104	-17
224.338	-20
224.573	-20
224.808	-9
225.042	-3
225.277	-17
225.511	11
225.746	-6
225.98	-3
226.215	10
226.449	23
226.683	15
226.918	37
227.152	39
227.387	41
227.621	41
227.856	40
228.09	35
228.324	56
228.559	50
228.793	58
229.027	57
229.262	53
229.496	73
229.73	77
229.964	73
230.199	87
230.433	68
230.667	90
230.901	84
231.136	82
231.37	76
231.604	89
231.838	77
232.072	72
232.306	88
232.541	99
232.775	88
233.009	72
233.243	84
233.477	88
233.711	77
233.945	94
234.179	66
234.413	85
234.647	84
234.881	73
235.115	86
235.349	86
235.583	80
235.817	79
236.051	83
236.285	84
236.519	70
236.753	82
236.987	88
237.221	82
237.455	81
237.689	75
237.922	79
238.156	86
238.39	70
238.624	74
238.858	85
239.091	86
239.325	76
239.559	84
239.793	77
240.027	76
240.26	77
240.494	84
240.728	77
240.961	83
241.195	75
241.429	91
241.662	62
241.896	70
242.13	78
242.363	79
242.597	86
242.83	78
243.064	76
243.298	77
243.531	88
243.765	71
243.998	78
244.232	75
244.465	63
244.699	66
244.932	76
245.166	85
245.399	90
245.633	98
245.866	95
246.099	81
246.333	73
246.566	70
246.8	69
247.033	85
247.266	83
247.5	74
247.733	76
247.966	81
248.2	78
248.433	70
248.666	76
248.899	87
249.133	79
249.366	79
249.599	83
249.832	74
250.066	78
250.299	78
250.532	83
250.765	74
250.998	74
251.231	80
251.465	75
251.698	85
251.931	84
252.164	74
252.397	75
252.63	96
252.863	61
253.096	83
253.329	73
253.562	89
253.795	90
254.028	80
254.261	82
254.494	80
254.727	81
254.96	86
255.193	69
255.426	68
255.659	97
255.892	83
256.124	81
256.357	75
256.59	77
256.823	71
257.056	86
257.289	68
257.521	86
257.754	87
257.987	84
258.22	94
258.452	74
258.685	83
258.918	73
259.151	98
259.383	94
259.616	87
259.849	75
260.081	85
260.314	83
260.547	74
260.779	80
261.012	83
261.244	73
261.477	75
261.71	87
261.942	77
262.175	86
262.407	83
262.64	79
262.872	65
263.105	70
263.337	79
263.57	75
263.802	91
264.035	80
264.267	70
264.499	86
264.732	77
264.964	91
265.197	71
265.429	85
265.661	86
265.894	87
266.126	84
266.358	86
266.591	72
266.823	73
267.055	74
267.287	95
267.52	73
267.752	69
267.984	95
268.216	91
268.448	74
268.681	83
268.913	72
269.145	78
269.377	81
269.609	90
269.841	80
270.073	91
270.306	86
270.538	86
270.77	78
271.002	77
271.234	84
271.466	89
271.698	87
271.93	87
272.162	75
272.394	92
272.626	86
272.858	100
273.09	83
273.322	79
273.553	89
273.785	77
274.017	91
274.249	84
274.481	78
274.713	86
274.945	77
275.176	77
275.408	82
275.64	82
275.872	87
276.104	82
276.335	80
276.567	92
276.799	81
277.031	78
277.262	78
277.494	92
277.726	85
277.957	79
278.189	86
278.421	78
278.652	88
278.884	86
279.115	75
279.347	96
279.579	75
279.81	76
280.042	79
280.273	80
280.505	76
280.736	92
280.968	85
281.199	80
281.431	74
281.662	86
281.894	96
282.125	83
282.356	97
282.588	74
282.819	86
283.051	90
283.282	88
283.513	91
283.745	88
283.976	76
284.207	79
284.439	72
284.67	93
284.901	91
285.132	83
285.364	84
285.595	94
285.826	103
286.057	81
286.288	97
286.52	86
286.751	94
286.982	79
287.213	82
287.444	76
287.675	80
287.906	97
288.138	74
288.369	84
288.6	90
288.831	90
289.062	95
289.293	79
289.524	74
289.755	69
289.986	78
290.217	79
290.448	99
290.679	84
290.91	92
291.141	83
291.371	90
291.602	90
291.833	92
292.064	86
292.295	87
292.526	80
292.757	98
292.987	94
293.218	75
293.449	83
293.68	86
293.91	91
294.141	87
294.372	97
294.603	88
294.833	80
295.064	91
295.295	86
295.525	83
295.756	85
295.987	80
296.217	92
296.448	87
296.679	80
296.909	88
297.14	71
297.37	90
297.601	91
297.831	93
298.062	80
298.292	86
298.523	89
298.753	74
298.984	97
299.214	91
299.445	87
299.675	83
299.905	79
300.136	91
300.366	87
300.597	79
300.827	75
301.057	81
301.288	92
301.518	85
301.748	83
301.979	86
302.209	91
302.439	85
302.669	94
302.9	93
303.13	73
303.36	91
303.59	79
303.82	90
304.051	84
304.281	85
304.511	107
304.741	89
304.971	90
305.201	76
305.431	90
305.661	82
305.891	80
306.121	93
306.352	104
306.582	84
306.812	70
307.042	85
307.272	86
307.502	84
307.731	75
307.961	88
308.191	90
308.421	91
308.651	87
308.881	87
309.111	89
309.341	75
309.571	80
309.8	90
310.03	77
310.26	85
310.49	77
310.72	85
310.949	76
311.179	87
311.409	84
311.639	82
311.868	78
312.098	89
312.328	68
312.557	94
312.787	76
313.017	94
313.246	87
313.476	94
313.706	93
313.935	95
314.165	78
314.394	82
314.624	86
314.853	86
315.083	88
315.312	87
315.542	96
315.771	93
316.001	85
316.23	84
316.46	76
316.689	70
316.919	75
317.148	99
317.377	93
317.607	92
317.836	73
318.065	69
318.295	78
318.524	81
318.753	83
318.983	88
319.212	77
319.441	81
319.67	94
319.9	91
320.129	92
320.358	83
320.587	82
320.816	94
321.046	82
321.275	106
321.504	90
321.733	86
321.962	84
322.191	85
322.42	93
322.649	86
322.878	89
323.108	88
323.337	83
323.566	90
323.795	94
324.024	75
324.253	98
324.482	91
324.71	92
324.939	90
325.168	85
325.397	91
325.626	89
325.855	97
326.084	96
326.313	87
326.542	79
326.77	77
326.999	81
327.228	83
327.457	78
327.686	80
327.914	85
328.143	105
328.372	88
328.6	95
328.829	92
329.058	87
329.287	77
329.515	76
329.744	82
329.972	75
330.201	99
330.43	94
330.658	79
330.887	90
331.115	84
331.344	82
331.572	88
331.801	95
332.03	78
332.258	77
332.486	82
332.715	82
332.943	86
333.172	80
333.4	80
333.629	99
333.857	108
334.085	82
334.314	81
334.542	98
334.771	70
334.999	78
335.227	88
335.455	96
335.684	91
335.912	91
336.14	95
336.369	91
336.597	86
336.825	84
337.053	80
337.281	76
337.51	87
337.738	79
337.966	76
338.194	82
338.422	85
338.65	83
338.878	79
339.106	92
339.334	102
339.562	88
339.79	83
340.018	77
340.246	76
340.474	79
340.702	96
340.93	98
341.158	89
341.386	79
341.614	90
341.842	70
342.07	73
342.298	91
342.526	84
342.754	100
342.981	106
343.209	89
343.437	96
343.665	79
343.893	88
344.12	88
344.348	99
344.576	69
344.804	86
345.031	81
345.259	87
345.487	86
345.714	85
345.942	88
346.17	91
346.397	97
346.625	86
346.853	77
347.08	98
347.308	83
347.535	80
347.763	72
347.99	90
348.218	95
348.445	88
348.673	85
348.9	94
349.128	80
349.355	86
349.583	74
349.81	109
350.037	101
350.265	102
350.492	100
350.72	94
350.947	94
351.174	84
351.402	79
351.629	84
351.856	83
352.083	89
352.311	73
352.538	88
352.765	90
352.992	83
353.22	91
353.447	75
353.674	85
353.901	86
354.128	76
354.355	106
354.583	79
354.81	92
355.037	96
355.264	86
355.491	85
355.718	71
355.945	81
356.172	87
356.399	105
356.626	93
356.853	90
357.08	88
357.307	89
357.534	73
357.761	91
357.988	94
358.215	92
358.441	78
358.668	81
358.895	88
359.122	88
359.349	79
359.576	86
359.802	98
360.029	84
360.256	91
360.483	80
360.709	85
360.936	86
361.163	87
361.39	83
361.616	87
361.843	83
362.07	86
362.296	87
362.523	75
362.749	83
362.976	94
363.203	98
363.429	84
363.656	87
363.882	75
364.109	88
364.335	86
364.562	79
364.788	69
365.015	84
365.241	80
365.468	93
365.694	91
365.92	91
366.147	91
366.373	80
366.599	89
366.826	92
367.052	68
367.278	90
367.505	101
367.731	91
367.957	84
368.184	96
368.41	92
368.636	78
368.862	83
369.089	82
369.315	98
369.541	83
369.767	77
369.993	79
370.219	86
370.445	107
370.672	91
370.898	74
371.124	79
371.35	91
371.576	87
371.802	83
372.028	84
372.254	82
372.48	90
372.706	92
372.932	91
373.158	96
373.384	97
373.61	91
373.835	87
374.061	78
374.287	95
374.513	79
374.739	93
374.965	85
375.191	96
375.416	103
375.642	73
375.868	85
376.094	93
376.319	95
376.545	93
376.771	77
376.997	95
377.222	90
377.448	90
377.674	90
377.899	88
378.125	92
378.35	100
378.576	94
378.802	84
379.027	91
379.253	92
379.478	88
379.704	91
379.929	100
380.155	76
380.38	67
380.606	94
380.831	92
381.057	98
381.282	101
381.507	89
381.733	87
381.958	104
382.184	83
382.409	99
382.634	88
382.86	87
383.085	87
383.31	98
383.535	79
383.761	93
383.986	93
384.211	84
384.436	79
384.662	84
384.887	86
385.112	91
385.337	76
385.562	75
385.787	76
386.013	84
386.238	80
386.463	91
386.688	78
386.913	87
387.138	78
387.363	95
387.588	84
387.813	98
388.038	93
388.263	92
388.488	100
388.713	97
388.938	78
389.163	101
389.387	79
389.612	96
389.837	85
390.062	109
390.287	105
390.512	83
390.736	110
390.961	91
391.186	92
391.411	94
391.636	93
391.86	100
392.085	89
392.31	92
392.534	80
392.759	84
392.984	86
393.208	81
393.433	86
393.658	83
393.882	99
394.107	100
394.331	83
394.556	92
394.78	99
395.005	102
395.229	90
395.454	94
395.678	100
395.903	98
396.127	100
396.352	91
396.576	96
396.801	95
397.025	94
397.249	88
397.474	114
397.698	89
397.922	88
398.147	112
398.371	86
398.595	98
398.82	93
399.044	84
399.268	85
399.492	92
399.717	88
399.941	93
400.165	118
400.389	109
400.613	109
400.837	102
401.062	99
401.286	103
401.51	108
401.734	95
401.958	96
402.182	87
402.406	97
402.63	82
402.854	103
403.078	105
403.302	94
403.526	98
403.75	91
403.974	102
404.198	103
404.422	98
404.645	98
404.869	97
405.093	98
405.317	94
405.541	107
405.765	104
405.988	90
406.212	110
406.436	109
406.66	115
406.883	106
407.107	101
407.331	102
407.555	103
407.778	100
408.002	102
408.226	92
408.449	91
408.673	102
408.896	103
409.12	105
409.344	109
409.567	101
409.791	106
410.014	123
410.238	108
410.461	108
410.685	107
410.908	91
411.132	115
411.355	118
411.578	112
411.802	96
412.025	100
412.249	102
412.472	92
412.695	89
412.919	115
413.142	97
413.365	102
413.589	112
413.812	103
414.035	99
414.258	88
414.482	108
414.705	105
414.928	96
415.151	93
415.374	107
415.597	118
415.821	113
416.044	98
416.267	116
416.49	96
416.713	107
416.936	115
417.159	122
417.382	98
417.605	96
417.828	110
418.051	123
418.274	103
418.497	89
418.72	101
418.943	105
419.166	119
419.389	95
419.611	122
419.834	110
420.057	103
420.28	99
420.503	101
420.726	120
420.948	99
421.171	120
421.394	112
421.617	115
421.839	121
422.062	119
422.285	100
422.507	111
422.73	103
422.953	103
423.175	100
423.398	103
423.621	115
423.843	102
424.066	116
424.288	101
424.511	103
424.733	107
424.956	115
425.178	111
425.401	131
425.623	107
425.846	111
426.068	112
426.291	101
426.513	110
426.735	115
426.958	98
427.18	94
427.402	122
427.625	115
427.847	107
428.069	103
428.292	86
428.514	100
428.736	94
428.958	109
429.181	106
429.403	95
429.625	109
429.847	96
430.069	110
430.292	102
430.514	109
430.736	121
430.958	116
431.18	119
431.402	116
431.624	84
431.846	90
432.068	92
432.29	98
432.512	102
432.734	108
432.956	117
433.178	108
433.4	103
433.622	110
433.844	95
434.066	94
434.287	100
434.509	94
434.731	96
434.953	91
435.175	101
435.397	99
435.618	102
435.84	111
436.062	93
436.284	100
436.505	119
436.727	111
436.949	114
437.17	109
437.392	111
437.614	110
437.835	102
438.057	98
438.278	99
438.5	99
438.721	108
438.943	110
439.165	132
439.386	119
439.608	110
439.829	102
440.05	127
440.272	122
440.493	118
440.715	108
440.936	123
441.158	134
441.379	122
441.6	120
441.822	108
442.043	121
442.264	107
442.486	115
442.707	109
442.928	108
443.149	119
443.371	114
443.592	119
443.813	103
444.034	105
444.255	100
444.476	96
444.698	105
444.919	125
445.14	253
445.361	171
445.582	129
445.803	114
446.024	117
446.245	135
446.466	128
446.687	125
446.908	120
447.129	123
447.35	110
447.571	122
447.792	99
448.013	119
448.234	114
448.455	113
448.675	111
448.896	99
449.117	112
449.338	114
449.559	118
449.779	105
450	116
450.221	116
450.442	105
450.662	118
450.883	113
451.104	117
451.324	99
451.545	119
451.766	108
451.986	122
452.207	122
452.428	110
452.648	99
452.869	103
453.089	92
453.31	103
453.53	101
453.751	92
453.971	94
454.192	85
454.412	89
454.633	86
454.853	91
455.073	104
455.294	93
455.514	93
455.734	106
455.955	112
456.175	99
456.395	93
456.616	105
456.836	102
457.056	101
457.276	105
457.497	94
457.717	95
457.937	90
458.157	87
458.377	104
458.598	84
458.818	90
459.038	73
459.258	89
459.478	83
459.698	87
459.918	81
460.138	94
460.358	94
460.578	105
460.798	96
461.018	89
461.238	101
461.458	97
461.678	110
461.898	91
462.118	106
462.338	97
462.558	103
462.777	97
462.997	107
463.217	97
463.437	95
463.657	95
463.876	102
464.096	104
464.316	100
464.536	93
464.755	102
464.975	106
465.195	105
465.414	101
465.634	91
465.854	102
466.073	95
466.293	106
466.512	116
466.732	108
466.951	108
467.171	99
467.391	118
467.61	109
467.829	116
468.049	96
468.268	89
468.488	109
468.707	100
468.927	109
469.146	122
469.365	108
469.585	105
469.804	112
470.023	109
470.243	111
470.462	99
470.681	96
470.901	111
471.12	123
471.339	112
471.558	96
471.777	122
471.997	114
472.216	105
472.435	121
472.654	96
472.873	103
473.092	103
473.311	87
473.53	117
473.749	100
473.968	108
474.187	104
474.406	105
474.625	110
474.844	95
475.063	111
475.282	84
475.501	102
475.72	109
475.939	102
476.158	118
476.377	90
476.596	107
476.814	116
477.033	114
477.252	95
477.471	98
477.69	101
477.908	109
478.127	126
478.346	106
478.564	115
478.783	105
479.002	107
479.22	103
479.439	107
479.658	121
479.876	111
480.095	87
480.313	108
480.532	99
480.751	94
480.969	84
481.188	94
481.406	96
481.624	90
481.843	98
482.061	96
482.28	103
482.498	91
482.717	97
482.935	102
483.153	106
483.372	120
483.59	126
483.808	105
484.027	103
484.245	106
484.463	114
484.681	115
484.9	127
485.118	115
485.336	102
485.554	96
485.772	91
485.99	115
486.209	99
486.427	102
486.645	104
486.863	101
487.081	111
487.299	90
487.517	115
487.735	123
487.953	131
488.171	134
488.389	126
488.607	124
488.825	112
489.043	103
489.261	117
489.479	104
489.696	126
489.914	122
490.132	121
490.35	126
490.568	121
490.786	131
491.003	112
491.221	140
491.439	134
491.657	138
491.874	136
492.092	150
492.31	165
492.527	168
492.745	155
492.963	136
493.18	144
493.398	138
493.615	133
493.833	126
494.05	126
494.268	135
494.485	134
494.703	127
494.92	105
495.138	126
495.355	140
495.573	134
495.79	131
496.008	132
496.225	127
496.442	132
496.66	132
496.877	119
497.094	135
497.312	103
497.529	124
497.746	130
497.963	125
498.181	126
498.398	103
498.615	111
498.832	94
499.049	96
499.267	106
499.484	108
499.701	124
499.918	114
500.135	115
500.352	126
500.569	120
500.786	126
501.003	110
501.22	102
501.437	123
501.654	113
501.871	108
502.088	107
502.305	126
502.522	102
502.739	97
502.956	110
503.172	107
503.389	110
503.606	102
503.823	108
504.04	111
504.256	109
504.473	84
504.69	102
504.907	91
505.123	108
505.34	119
505.557	116
505.773	114
505.99	102
506.207	98
506.423	87
506.64	103
506.856	93
507.073	116
507.289	90
507.506	112
507.722	103
507.939	98
508.155	104
508.372	89
508.588	98
508.805	117
509.021	108
509.238	101
509.454	94
509.67	100
509.887	85
510.103	78
510.319	80
510.536	87
510.752	81
510.968	91
511.184	89
511.401	82
511.617	87
511.833	99
512.049	92
512.265	95
512.481	83
512.698	99
512.914	90
513.13	89
513.346	89
513.562	85
513.778	84
513.994	91
514.21	84
514.426	92
514.642	84
514.858	96
515.074	98
515.29	92
515.506	77
515.721	93
515.937	90
516.153	83
516.369	94
516.585	92
516.801	91
517.016	89
517.232	86
517.448	95
517.664	88
517.879	90
518.095	100
518.311	83
518.527	93
518.742	87
518.958	95
519.173	100
519.389	93
519.605	108
519.82	95
520.036	94
520.251	99
520.467	84
520.682	93
520.898	93
521.113	92
521.329	98
521.544	97
521.76	105
521.975	100
522.19	102
522.406	90
522.621	109
522.836	80
523.052	98
523.267	100
523.482	88
523.698	106
523.913	102
524.128	114
524.343	115
524.559	95
524.774	95
524.989	103
525.204	103
525.419	102
525.634	100
525.849	103
526.064	98
526.28	75
526.495	83
526.71	72
526.925	82
527.14	60
527.355	89
527.57	78
527.785	97
527.999	86
528.214	102
528.429	93
528.644	102
528.859	110
529.074	118
529.289	128
529.503	122
529.718	121
529.933	89
530.148	82
530.363	90
530.577	99
530.792	81
531.007	91
531.221	78
531.436	75
531.651	85
531.865	90
532.08	90
532.295	85
532.509	83
532.724	98
532.938	93
533.153	88
533.367	104
533.582	110
533.796	102
534.011	93
534.225	90
534.44	92
534.654	96
534.868	89
535.083	87
535.297	89
535.511	95
535.726	84
535.94	90
536.154	90
536.369	78
536.583	80
536.797	88
537.011	83
537.225	96
537.44	103
537.654	94
537.868	95
538.082	90
538.296	91
538.51	106
538.724	112
538.938	98
539.153	104
539.367	103
539.581	106
539.795	110
540.009	117
540.222	91
540.436	106
540.65	102
540.864	96
541.078	101
541.292	106
541.506	130
541.72	121
541.934	132
542.147	129
542.361	132
542.575	124
542.789	95
543.002	114
543.216	108
543.43	115
543.644	119
543.857	121
544.071	105
544.285	117
544.498	120
544.712	128
544.925	111
545.139	115
545.352	122
545.566	128
545.779	134
545.993	114
546.206	127
546.42	119
546.633	123
546.847	114
547.06	122
547.274	126
547.487	141
547.7	118
547.914	133
548.127	110
548.34	125
548.554	119
548.767	115
548.98	123
549.193	124
549.407	134
549.62	124
549.833	127
550.046	123
550.259	115
550.473	121
550.686	110
550.899	121
551.112	114
551.325	112
551.538	118
551.751	103
551.964	98
552.177	90
552.39	110
552.603	115
552.816	118
553.029	122
553.242	122
553.455	109
553.667	118
553.88	112
554.093	124
554.306	102
554.519	116
554.732	126
554.944	110
555.157	103
555.37	101
555.583	119
555.795	98
556.008	104
556.221	103
556.433	107
556.646	128
556.859	118
557.071	116
557.284	113
557.496	116
557.709	98
557.921	113
558.134	118
558.346	125
558.559	114
558.771	103
558.984	99
559.196	112
559.409	110
559.621	116
559.833	107
560.046	99
560.258	119
560.47	112
560.683	114
560.895	100
561.107	103
561.32	99
561.532	104
561.744	112
561.956	108
562.168	112
562.381	105
562.593	107
562.805	112
563.017	116
563.229	96
563.441	103
563.653	107
563.865	98
564.077	112
564.289	106
564.501	98
564.713	104
564.925	108
565.137	127
565.349	101
565.561	105
565.773	94
565.985	104
566.197	103
566.408	97
566.62	110
566.832	93
567.044	115
567.255	102
567.467	105
567.679	93
567.891	96
568.102	85
568.314	104
568.526	77
568.737	88
568.949	93
569.161	81
569.372	91
569.584	86
569.795	92
570.007	87
570.218	89
570.43	85
570.641	105
570.853	104
571.064	101
571.276	102
571.487	94
571.698	97
571.91	96
572.121	91
572.333	95
572.544	84
572.755	105
572.966	80
573.178	78
573.389	88
573.6	76
573.811	89
574.023	84
574.234	84
574.445	83
574.656	74
574.867	75
575.078	98
575.289	95
575.501	95
575.712	92
575.923	92
576.134	95
576.345	82
576.556	101
576.767	98
576.978	93
577.188	94
577.399	79
577.61	83
577.821	103
578.032	100
578.243	96
578.454	94
578.665	82
578.875	91
579.086	85
579.297	92
579.508	81
579.718	93
579.929	83
580.14	76
580.35	93
