Data from Zn(NO3)2Standard.Agarose3%.GreenCap.LampEnergy10E.O_HRD10591_15-07-54-947.txt Node
Date: Mon Jul 22 15:07:54 EDT 2019
User: cochatt
Spectrometer: HR+D1059
Trigger mode: 1
Integration Time (sec): 1.000000E-1
Scans to average: 1
Electric dark correction enabled: true
Nonlinearity correction enabled: false
Boxcar width: 0
XAxis mode: Wavelengths
Number of Pixels in Spectrum: 2048
>>>>>Begin Spectral Data<<<<<
223.165	-17.06
223.4	-17.06
223.635	-17.06
223.869	-22.06
224.104	-7.06
224.338	-8.06
224.573	-12.06
224.808	-2.06
225.042	-3.06
225.277	-9.06
225.511	0.94
225.746	-4.06
225.98	3.94
226.215	11.94
226.449	15.94
226.683	-1.06
226.918	28.94
227.152	23.94
227.387	43.94
227.621	39.94
227.856	41.94
228.09	34.94
228.324	64.94
228.559	56.94
228.793	68.94
229.027	64.94
229.262	59.94
229.496	65.94
229.73	73.94
229.964	82.94
230.199	81.94
230.433	89.94
230.667	85.94
230.901	89.94
231.136	84.94
231.37	80.94
231.604	69.94
231.838	89.94
232.072	92.94
232.306	97.94
232.541	93.94
232.775	96.94
233.009	87.94
233.243	77.94
233.477	82.94
233.711	77.94
233.945	83.94
234.179	84.94
234.413	88.94
234.647	86.94
234.881	86.94
235.115	96.94
235.349	87.94
235.583	80.94
235.817	79.94
236.051	78.94
236.285	74.94
236.519	80.94
236.753	94.94
236.987	79.94
237.221	76.94
237.455	83.94
237.689	77.94
237.922	83.94
238.156	77.94
238.39	85.94
238.624	85.94
238.858	76.94
239.091	87.94
239.325	83.94
239.559	73.94
239.793	73.94
240.027	75.94
240.26	81.94
240.494	71.94
240.728	71.94
240.961	80.94
241.195	72.94
241.429	75.94
241.662	71.94
241.896	88.94
242.13	72.94
242.363	82.94
242.597	84.94
242.83	81.94
243.064	95.94
243.298	87.94
243.531	75.94
243.765	79.94
243.998	78.94
244.232	89.94
244.465	86.94
244.699	79.94
244.932	80.94
245.166	78.94
245.399	84.94
245.633	81.94
245.866	90.94
246.099	87.94
246.333	85.94
246.566	80.94
246.8	84.94
247.033	81.94
247.266	87.94
247.5	85.94
247.733	90.94
247.966	76.94
248.2	76.94
248.433	80.94
248.666	91.94
248.899	71.94
249.133	73.94
249.366	87.94
249.599	68.94
249.832	76.94
250.066	95.94
250.299	76.94
250.532	69.94
250.765	87.94
250.998	79.94
251.231	71.94
251.465	90.94
251.698	85.94
251.931	72.94
252.164	75.94
252.397	73.94
252.63	90.94
252.863	77.94
253.096	77.94
253.329	85.94
253.562	80.94
253.795	69.94
254.028	85.94
254.261	94.94
254.494	82.94
254.727	80.94
254.96	85.94
255.193	87.94
255.426	91.94
255.659	92.94
255.892	82.94
256.124	79.94
256.357	80.94
256.59	76.94
256.823	79.94
257.056	74.94
257.289	95.94
257.521	72.94
257.754	67.94
257.987	80.94
258.22	76.94
258.452	101.94
258.685	100.94
258.918	95.94
259.151	80.94
259.383	95.94
259.616	87.94
259.849	89.94
260.081	93.94
260.314	84.94
260.547	98.94
260.779	66.94
261.012	90.94
261.244	78.94
261.477	83.94
261.71	90.94
261.942	88.94
262.175	99.94
262.407	84.94
262.64	72.94
262.872	78.94
263.105	88.94
263.337	74.94
263.57	95.94
263.802	77.94
264.035	84.94
264.267	99.94
264.499	91.94
264.732	83.94
264.964	77.94
265.197	89.94
265.429	87.94
265.661	90.94
265.894	90.94
266.126	85.94
266.358	113.94
266.591	96.94
266.823	79.94
267.055	91.94
267.287	85.94
267.52	80.94
267.752	94.94
267.984	89.94
268.216	89.94
268.448	88.94
268.681	88.94
268.913	97.94
269.145	89.94
269.377	89.94
269.609	68.94
269.841	97.94
270.073	93.94
270.306	79.94
270.538	73.94
270.77	84.94
271.002	89.94
271.234	89.94
271.466	90.94
271.698	92.94
271.93	94.94
272.162	99.94
272.394	72.94
272.626	93.94
272.858	95.94
273.09	95.94
273.322	91.94
273.553	93.94
273.785	93.94
274.017	98.94
274.249	80.94
274.481	89.94
274.713	94.94
274.945	81.94
275.176	87.94
275.408	89.94
275.64	77.94
275.872	94.94
276.104	94.94
276.335	85.94
276.567	85.94
276.799	82.94
277.031	79.94
277.262	84.94
277.494	73.94
277.726	96.94
277.957	93.94
278.189	93.94
278.421	79.94
278.652	82.94
278.884	82.94
279.115	75.94
279.347	86.94
279.579	71.94
279.81	93.94
280.042	86.94
280.273	94.94
280.505	100.94
280.736	95.94
280.968	87.94
281.199	88.94
281.431	88.94
281.662	89.94
281.894	81.94
282.125	93.94
282.356	94.94
282.588	76.94
282.819	80.94
283.051	98.94
283.282	79.94
283.513	89.94
283.745	91.94
283.976	76.94
284.207	90.94
284.439	98.94
284.67	73.94
284.901	78.94
285.132	92.94
285.364	78.94
285.595	95.94
285.826	89.94
286.057	97.94
286.288	90.94
286.52	91.94
286.751	89.94
286.982	74.94
287.213	87.94
287.444	84.94
287.675	90.94
287.906	97.94
288.138	104.94
288.369	87.94
288.6	89.94
288.831	84.94
289.062	89.94
289.293	99.94
289.524	97.94
289.755	90.94
289.986	96.94
290.217	93.94
290.448	88.94
290.679	91.94
290.91	88.94
291.141	93.94
291.371	99.94
291.602	89.94
291.833	94.94
292.064	79.94
292.295	76.94
292.526	91.94
292.757	88.94
292.987	100.94
293.218	85.94
293.449	77.94
293.68	75.94
293.91	81.94
294.141	96.94
294.372	79.94
294.603	81.94
294.833	81.94
295.064	81.94
295.295	96.94
295.525	78.94
295.756	74.94
295.987	81.94
296.217	89.94
296.448	80.94
296.679	82.94
296.909	80.94
297.14	93.94
297.37	94.94
297.601	90.94
297.831	101.94
298.062	88.94
298.292	87.94
298.523	91.94
298.753	89.94
298.984	84.94
299.214	84.94
299.445	76.94
299.675	79.94
299.905	66.94
300.136	94.94
300.366	85.94
300.597	95.94
300.827	90.94
301.057	91.94
301.288	85.94
301.518	85.94
301.748	88.94
301.979	96.94
302.209	80.94
302.439	73.94
302.669	88.94
302.9	84.94
303.13	81.94
303.36	97.94
303.59	92.94
303.82	95.94
304.051	80.94
304.281	90.94
304.511	92.94
304.741	92.94
304.971	81.94
305.201	75.94
305.431	91.94
305.661	101.94
305.891	81.94
306.121	90.94
306.352	72.94
306.582	78.94
306.812	102.94
307.042	101.94
307.272	101.94
307.502	102.94
307.731	85.94
307.961	94.94
308.191	84.94
308.421	87.94
308.651	85.94
308.881	90.94
309.111	92.94
309.341	79.94
309.571	82.94
309.8	84.94
310.03	87.94
310.26	77.94
310.49	74.94
310.72	88.94
310.949	96.94
311.179	94.94
311.409	78.94
311.639	97.94
311.868	78.94
312.098	88.94
312.328	83.94
312.557	88.94
312.787	90.94
313.017	93.94
313.246	102.94
313.476	75.94
313.706	95.94
313.935	95.94
314.165	105.94
314.394	98.94
314.624	97.94
314.853	98.94
315.083	88.94
315.312	84.94
315.542	91.94
315.771	95.94
316.001	79.94
316.23	85.94
316.46	90.94
316.689	93.94
316.919	84.94
317.148	93.94
317.377	76.94
317.607	80.94
317.836	89.94
318.065	79.94
318.295	87.94
318.524	80.94
318.753	95.94
318.983	90.94
319.212	94.94
319.441	105.94
319.67	70.94
319.9	88.94
320.129	93.94
320.358	83.94
320.587	93.94
320.816	81.94
321.046	90.94
321.275	83.94
321.504	84.94
321.733	86.94
321.962	82.94
322.191	77.94
322.42	86.94
322.649	93.94
322.878	85.94
323.108	86.94
323.337	91.94
323.566	94.94
323.795	79.94
324.024	90.94
324.253	86.94
324.482	78.94
324.71	85.94
324.939	92.94
325.168	83.94
325.397	91.94
325.626	71.94
325.855	85.94
326.084	107.94
326.313	86.94
326.542	90.94
326.77	80.94
326.999	99.94
327.228	83.94
327.457	84.94
327.686	101.94
327.914	81.94
328.143	105.94
328.372	96.94
328.6	65.94
328.829	84.94
329.058	85.94
329.287	81.94
329.515	99.94
329.744	89.94
329.972	82.94
330.201	94.94
330.43	76.94
330.658	94.94
330.887	78.94
331.115	81.94
331.344	89.94
331.572	88.94
331.801	81.94
332.03	94.94
332.258	88.94
332.486	94.94
332.715	89.94
332.943	102.94
333.172	99.94
333.4	96.94
333.629	88.94
333.857	90.94
334.085	74.94
334.314	89.94
334.542	87.94
334.771	88.94
334.999	95.94
335.227	99.94
335.455	64.94
335.684	92.94
335.912	95.94
336.14	95.94
336.369	105.94
336.597	105.94
336.825	86.94
337.053	99.94
337.281	87.94
337.51	84.94
337.738	90.94
337.966	92.94
338.194	83.94
338.422	96.94
338.65	82.94
338.878	86.94
339.106	95.94
339.334	100.94
339.562	89.94
339.79	87.94
340.018	83.94
340.246	89.94
340.474	87.94
340.702	89.94
340.93	80.94
341.158	89.94
341.386	85.94
341.614	84.94
341.842	80.94
342.07	85.94
342.298	98.94
342.526	77.94
342.754	73.94
342.981	93.94
343.209	85.94
343.437	97.94
343.665	80.94
343.893	82.94
344.12	99.94
344.348	95.94
344.576	92.94
344.804	92.94
345.031	81.94
345.259	74.94
345.487	91.94
345.714	89.94
345.942	85.94
346.17	78.94
346.397	89.94
346.625	88.94
346.853	80.94
347.08	96.94
347.308	101.94
347.535	82.94
347.763	84.94
347.99	89.94
348.218	88.94
348.445	86.94
348.673	86.94
348.9	88.94
349.128	84.94
349.355	95.94
349.583	90.94
349.81	84.94
350.037	80.94
350.265	96.94
350.492	78.94
350.72	107.94
350.947	83.94
351.174	91.94
351.402	98.94
351.629	79.94
351.856	86.94
352.083	87.94
352.311	90.94
352.538	90.94
352.765	88.94
352.992	87.94
353.22	92.94
353.447	86.94
353.674	77.94
353.901	87.94
354.128	93.94
354.355	80.94
354.583	89.94
354.81	80.94
355.037	90.94
355.264	88.94
355.491	76.94
355.718	101.94
355.945	81.94
356.172	96.94
356.399	92.94
356.626	84.94
356.853	80.94
357.08	79.94
357.307	80.94
357.534	74.94
357.761	92.94
357.988	88.94
358.215	96.94
358.441	92.94
358.668	100.94
358.895	86.94
359.122	91.94
359.349	88.94
359.576	92.94
359.802	84.94
360.029	92.94
360.256	97.94
360.483	83.94
360.709	90.94
360.936	93.94
361.163	93.94
361.39	88.94
361.616	97.94
361.843	80.94
362.07	98.94
362.296	95.94
362.523	89.94
362.749	99.94
362.976	89.94
363.203	96.94
363.429	85.94
363.656	91.94
363.882	89.94
364.109	83.94
364.335	93.94
364.562	84.94
364.788	69.94
365.015	86.94
365.241	90.94
365.468	97.94
365.694	93.94
365.92	81.94
366.147	85.94
366.373	87.94
366.599	89.94
366.826	92.94
367.052	86.94
367.278	81.94
367.505	96.94
367.731	83.94
367.957	99.94
368.184	89.94
368.41	71.94
368.636	91.94
368.862	98.94
369.089	79.94
369.315	91.94
369.541	86.94
369.767	89.94
369.993	94.94
370.219	94.94
370.445	98.94
370.672	89.94
370.898	90.94
371.124	89.94
371.35	93.94
371.576	93.94
371.802	98.94
372.028	89.94
372.254	93.94
372.48	75.94
372.706	94.94
372.932	93.94
373.158	79.94
373.384	86.94
373.61	103.94
373.835	99.94
374.061	87.94
374.287	84.94
374.513	90.94
374.739	83.94
374.965	103.94
375.191	83.94
375.416	87.94
375.642	92.94
375.868	80.94
376.094	88.94
376.319	102.94
376.545	73.94
376.771	87.94
376.997	91.94
377.222	101.94
377.448	83.94
377.674	90.94
377.899	87.94
378.125	85.94
378.35	94.94
378.576	89.94
378.802	79.94
379.027	99.94
379.253	88.94
379.478	93.94
379.704	94.94
379.929	90.94
380.155	98.94
380.38	92.94
380.606	87.94
380.831	81.94
381.057	95.94
381.282	87.94
381.507	88.94
381.733	95.94
381.958	89.94
382.184	87.94
382.409	99.94
382.634	107.94
382.86	91.94
383.085	85.94
383.31	95.94
383.535	75.94
383.761	110.94
383.986	94.94
384.211	89.94
384.436	83.94
384.662	74.94
384.887	79.94
385.112	96.94
385.337	73.94
385.562	81.94
385.787	89.94
386.013	103.94
386.238	89.94
386.463	104.94
386.688	97.94
386.913	93.94
387.138	98.94
387.363	88.94
387.588	99.94
387.813	97.94
388.038	82.94
388.263	101.94
388.488	102.94
388.713	91.94
388.938	94.94
389.163	81.94
389.387	84.94
389.612	104.94
389.837	102.94
390.062	102.94
390.287	97.94
390.512	91.94
390.736	82.94
390.961	101.94
391.186	92.94
391.411	100.94
391.636	91.94
391.86	105.94
392.085	82.94
392.31	87.94
392.534	98.94
392.759	96.94
392.984	96.94
393.208	91.94
393.433	99.94
393.658	106.94
393.882	95.94
394.107	100.94
394.331	94.94
394.556	87.94
394.78	86.94
395.005	93.94
395.229	90.94
395.454	78.94
395.678	100.94
395.903	95.94
396.127	95.94
396.352	96.94
396.576	84.94
396.801	99.94
397.025	103.94
397.249	103.94
397.474	101.94
397.698	86.94
397.922	111.94
398.147	89.94
398.371	87.94
398.595	94.94
398.82	94.94
399.044	109.94
399.268	92.94
399.492	92.94
399.717	101.94
399.941	85.94
400.165	96.94
400.389	83.94
400.613	86.94
400.837	86.94
401.062	87.94
401.286	93.94
401.51	92.94
401.734	93.94
401.958	99.94
402.182	98.94
402.406	104.94
402.63	84.94
402.854	100.94
403.078	99.94
403.302	96.94
403.526	117.94
403.75	103.94
403.974	108.94
404.198	103.94
404.422	116.94
404.645	100.94
404.869	94.94
405.093	89.94
405.317	102.94
405.541	109.94
405.765	103.94
405.988	109.94
406.212	96.94
406.436	105.94
406.66	102.94
406.883	89.94
407.107	89.94
407.331	92.94
407.555	102.94
407.778	102.94
408.002	92.94
408.226	117.94
408.449	104.94
408.673	99.94
408.896	105.94
409.12	92.94
409.344	102.94
409.567	104.94
409.791	98.94
410.014	102.94
410.238	102.94
410.461	90.94
410.685	101.94
410.908	95.94
411.132	109.94
411.355	102.94
411.578	89.94
411.802	88.94
412.025	100.94
412.249	108.94
412.472	106.94
412.695	108.94
412.919	101.94
413.142	90.94
413.365	117.94
413.589	111.94
413.812	103.94
414.035	97.94
414.258	105.94
414.482	86.94
414.705	108.94
414.928	89.94
415.151	115.94
415.374	100.94
415.597	112.94
415.821	96.94
416.044	113.94
416.267	112.94
416.49	109.94
416.713	106.94
416.936	112.94
417.159	95.94
417.382	105.94
417.605	108.94
417.828	99.94
418.051	88.94
418.274	102.94
418.497	102.94
418.72	104.94
418.943	111.94
419.166	115.94
419.389	112.94
419.611	107.94
419.834	112.94
420.057	115.94
420.28	109.94
420.503	107.94
420.726	108.94
420.948	114.94
421.171	103.94
421.394	108.94
421.617	95.94
421.839	110.94
422.062	100.94
422.285	114.94
422.507	105.94
422.73	92.94
422.953	94.94
423.175	101.94
423.398	108.94
423.621	115.94
423.843	109.94
424.066	110.94
424.288	112.94
424.511	111.94
424.733	112.94
424.956	115.94
425.178	115.94
425.401	111.94
425.623	111.94
425.846	104.94
426.068	116.94
426.291	104.94
426.513	107.94
426.735	123.94
426.958	108.94
427.18	100.94
427.402	109.94
427.625	119.94
427.847	107.94
428.069	123.94
428.292	126.94
428.514	92.94
428.736	117.94
428.958	113.94
429.181	113.94
429.403	111.94
429.625	111.94
429.847	116.94
430.069	96.94
430.292	115.94
430.514	98.94
430.736	97.94
430.958	105.94
431.18	110.94
431.402	116.94
431.624	110.94
431.846	101.94
432.068	95.94
432.29	101.94
432.512	92.94
432.734	97.94
432.956	92.94
433.178	98.94
433.4	105.94
433.622	115.94
433.844	117.94
434.066	98.94
434.287	100.94
434.509	91.94
434.731	85.94
434.953	102.94
435.175	107.94
435.397	105.94
435.618	106.94
435.84	112.94
436.062	99.94
436.284	112.94
436.505	99.94
436.727	96.94
436.949	125.94
437.17	104.94
437.392	101.94
437.614	112.94
437.835	107.94
438.057	97.94
438.278	105.94
438.5	104.94
438.721	107.94
438.943	101.94
439.165	114.94
439.386	127.94
439.608	105.94
439.829	106.94
440.05	119.94
440.272	118.94
440.493	110.94
440.715	115.94
440.936	117.94
441.158	116.94
441.379	120.94
441.6	122.94
441.822	124.94
442.043	111.94
442.264	123.94
442.486	108.94
442.707	121.94
442.928	133.94
443.149	110.94
443.371	100.94
443.592	110.94
443.813	115.94
444.034	109.94
444.255	112.94
444.476	107.94
444.698	124.94
444.919	125.94
445.14	239.94
445.361	172.94
445.582	125.94
445.803	107.94
446.024	127.94
446.245	107.94
446.466	124.94
446.687	121.94
446.908	122.94
447.129	133.94
447.35	119.94
447.571	120.94
447.792	131.94
448.013	93.94
448.234	112.94
448.455	118.94
448.675	115.94
448.896	109.94
449.117	117.94
449.338	104.94
449.559	125.94
449.779	109.94
450	111.94
450.221	117.94
450.442	118.94
450.662	108.94
450.883	101.94
451.104	94.94
451.324	123.94
451.545	115.94
451.766	117.94
451.986	112.94
452.207	115.94
452.428	119.94
452.648	109.94
452.869	102.94
453.089	107.94
453.31	103.94
453.53	98.94
453.751	99.94
453.971	84.94
454.192	91.94
454.412	107.94
454.633	102.94
454.853	100.94
455.073	91.94
455.294	98.94
455.514	110.94
455.734	105.94
455.955	95.94
456.175	97.94
456.395	86.94
456.616	88.94
456.836	106.94
457.056	96.94
457.276	103.94
457.497	96.94
457.717	100.94
457.937	100.94
458.157	99.94
458.377	99.94
458.598	84.94
458.818	90.94
459.038	101.94
459.258	88.94
459.478	78.94
459.698	77.94
459.918	88.94
460.138	111.94
460.358	105.94
460.578	97.94
460.798	95.94
461.018	93.94
461.238	99.94
461.458	88.94
461.678	111.94
461.898	95.94
462.118	93.94
462.338	91.94
462.558	95.94
462.777	82.94
462.997	108.94
463.217	95.94
463.437	97.94
463.657	91.94
463.876	90.94
464.096	100.94
464.316	110.94
464.536	95.94
464.755	110.94
464.975	89.94
465.195	104.94
465.414	88.94
465.634	100.94
465.854	93.94
466.073	84.94
466.293	102.94
466.512	109.94
466.732	109.94
466.951	121.94
467.171	110.94
467.391	108.94
467.61	109.94
467.829	118.94
468.049	106.94
468.268	123.94
468.488	105.94
468.707	103.94
468.927	118.94
469.146	119.94
469.365	122.94
469.585	115.94
469.804	107.94
470.023	104.94
470.243	122.94
470.462	119.94
470.681	102.94
470.901	111.94
471.12	98.94
471.339	116.94
471.558	119.94
471.777	107.94
471.997	103.94
472.216	110.94
472.435	96.94
472.654	110.94
472.873	95.94
473.092	88.94
473.311	104.94
473.53	111.94
473.749	118.94
473.968	92.94
474.187	102.94
474.406	111.94
474.625	108.94
474.844	111.94
475.063	115.94
475.282	95.94
475.501	109.94
475.72	109.94
475.939	92.94
476.158	115.94
476.377	111.94
476.596	111.94
476.814	90.94
477.033	104.94
477.252	105.94
477.471	106.94
477.69	111.94
477.908	120.94
478.127	113.94
478.346	118.94
478.564	109.94
478.783	108.94
479.002	106.94
479.22	104.94
479.439	112.94
479.658	101.94
479.876	118.94
480.095	112.94
480.313	105.94
480.532	100.94
480.751	100.94
480.969	96.94
481.188	91.94
481.406	94.94
481.624	96.94
481.843	92.94
482.061	100.94
482.28	101.94
482.498	93.94
482.717	104.94
482.935	111.94
483.153	100.94
483.372	123.94
483.59	117.94
483.808	104.94
484.027	102.94
484.245	115.94
484.463	123.94
484.681	131.94
484.9	110.94
485.118	94.94
485.336	104.94
485.554	103.94
485.772	91.94
485.99	95.94
486.209	99.94
486.427	103.94
486.645	99.94
486.863	120.94
487.081	115.94
487.299	106.94
487.517	125.94
487.735	115.94
487.953	156.94
488.171	136.94
488.389	150.94
488.607	113.94
488.825	113.94
489.043	121.94
489.261	104.94
489.479	120.94
489.696	100.94
489.914	129.94
490.132	120.94
490.35	115.94
490.568	126.94
490.786	133.94
491.003	127.94
491.221	136.94
491.439	145.94
491.657	151.94
491.874	143.94
492.092	131.94
492.31	159.94
492.527	157.94
492.745	145.94
492.963	137.94
493.18	137.94
493.398	126.94
493.615	127.94
493.833	132.94
494.05	132.94
494.268	131.94
494.485	130.94
494.703	125.94
494.92	116.94
495.138	128.94
495.355	121.94
495.573	135.94
495.79	125.94
496.008	131.94
496.225	133.94
496.442	123.94
496.66	134.94
496.877	130.94
497.094	129.94
497.312	128.94
497.529	131.94
497.746	124.94
497.963	116.94
498.181	124.94
498.398	100.94
498.615	97.94
498.832	100.94
499.049	97.94
499.267	96.94
499.484	104.94
499.701	106.94
499.918	104.94
500.135	110.94
500.352	119.94
500.569	119.94
500.786	116.94
501.003	123.94
501.22	101.94
501.437	115.94
501.654	125.94
501.871	122.94
502.088	109.94
502.305	112.94
502.522	110.94
502.739	109.94
502.956	96.94
503.172	112.94
503.389	102.94
503.606	103.94
503.823	103.94
504.04	85.94
504.256	108.94
504.473	104.94
504.69	110.94
504.907	107.94
505.123	110.94
505.34	116.94
505.557	109.94
505.773	105.94
505.99	104.94
506.207	99.94
506.423	91.94
506.64	92.94
506.856	110.94
507.073	123.94
507.289	99.94
507.506	104.94
507.722	106.94
507.939	103.94
508.155	89.94
508.372	103.94
508.588	102.94
508.805	111.94
509.021	98.94
509.238	103.94
509.454	112.94
509.67	106.94
509.887	94.94
510.103	89.94
510.319	96.94
510.536	89.94
510.752	81.94
510.968	94.94
511.184	93.94
511.401	78.94
511.617	89.94
511.833	103.94
512.049	87.94
512.265	94.94
512.481	88.94
512.698	80.94
512.914	93.94
513.13	93.94
513.346	87.94
