Data from Zn(NO3)2Standard.Agarose3%.GreenCap.LampEnergy10E.O_HRD10591_15-06-45-942.txt Node
Date: Mon Jul 22 15:06:45 EDT 2019
User: cochatt
Spectrometer: HR+D1059
Trigger mode: 1
Integration Time (sec): 1.000000E-1
Scans to average: 1
Electric dark correction enabled: true
Nonlinearity correction enabled: false
Boxcar width: 0
XAxis mode: Wavelengths
Number of Pixels in Spectrum: 2048
>>>>>Begin Spectral Data<<<<<
223.165	-13.62
223.4	-13.62
223.635	-13.62
223.869	-18.62
224.104	-16.62
224.338	-30.62
224.573	-16.62
224.808	-16.62
225.042	-22.62
225.277	6.38
225.511	6.38
225.746	-0.62
225.98	18.38
226.215	23.38
226.449	22.38
226.683	14.38
226.918	15.38
227.152	29.38
227.387	44.38
227.621	32.38
227.856	36.38
228.09	61.38
228.324	51.38
228.559	46.38
228.793	48.38
229.027	63.38
229.262	60.38
229.496	59.38
229.73	58.38
229.964	68.38
230.199	64.38
230.433	75.38
230.667	73.38
230.901	73.38
231.136	77.38
231.37	97.38
231.604	80.38
231.838	86.38
232.072	82.38
232.306	81.38
232.541	63.38
232.775	86.38
233.009	70.38
233.243	89.38
233.477	92.38
233.711	75.38
233.945	79.38
234.179	77.38
234.413	71.38
234.647	87.38
234.881	80.38
235.115	76.38
235.349	67.38
235.583	87.38
235.817	74.38
236.051	66.38
236.285	82.38
236.519	67.38
236.753	66.38
236.987	72.38
237.221	67.38
237.455	70.38
237.689	69.38
237.922	88.38
238.156	83.38
238.39	70.38
238.624	79.38
238.858	67.38
239.091	72.38
239.325	65.38
239.559	85.38
239.793	83.38
240.027	70.38
240.26	84.38
240.494	60.38
240.728	84.38
240.961	89.38
241.195	80.38
241.429	75.38
241.662	70.38
241.896	79.38
242.13	82.38
242.363	76.38
242.597	73.38
242.83	86.38
243.064	51.38
243.298	82.38
243.531	76.38
243.765	79.38
243.998	73.38
244.232	84.38
244.465	68.38
244.699	79.38
244.932	69.38
245.166	78.38
245.399	83.38
245.633	84.38
245.866	60.38
246.099	60.38
246.333	80.38
246.566	66.38
246.8	86.38
247.033	87.38
247.266	77.38
247.5	84.38
247.733	97.38
247.966	87.38
248.2	88.38
248.433	72.38
248.666	85.38
248.899	80.38
249.133	77.38
249.366	71.38
249.599	80.38
249.832	83.38
250.066	73.38
250.299	84.38
250.532	84.38
250.765	68.38
250.998	92.38
251.231	97.38
251.465	88.38
251.698	73.38
251.931	79.38
252.164	80.38
252.397	99.38
252.63	85.38
252.863	81.38
253.096	68.38
253.329	76.38
253.562	82.38
253.795	82.38
254.028	77.38
254.261	78.38
254.494	83.38
254.727	91.38
254.96	83.38
255.193	83.38
255.426	85.38
255.659	69.38
255.892	88.38
256.124	77.38
256.357	77.38
256.59	73.38
256.823	78.38
257.056	80.38
257.289	74.38
257.521	71.38
257.754	76.38
257.987	64.38
258.22	71.38
258.452	83.38
258.685	84.38
258.918	84.38
259.151	76.38
259.383	81.38
259.616	79.38
259.849	79.38
260.081	87.38
260.314	88.38
260.547	84.38
260.779	88.38
261.012	97.38
261.244	88.38
261.477	78.38
261.71	71.38
261.942	69.38
262.175	82.38
262.407	67.38
262.64	73.38
262.872	83.38
263.105	83.38
263.337	85.38
263.57	65.38
263.802	84.38
264.035	84.38
264.267	77.38
264.499	93.38
264.732	100.38
264.964	74.38
265.197	81.38
265.429	77.38
265.661	87.38
265.894	89.38
266.126	75.38
266.358	73.38
266.591	92.38
266.823	85.38
267.055	94.38
267.287	92.38
267.52	90.38
267.752	77.38
267.984	91.38
268.216	69.38
268.448	69.38
268.681	80.38
268.913	100.38
269.145	92.38
269.377	77.38
269.609	79.38
269.841	93.38
270.073	73.38
270.306	78.38
270.538	71.38
270.77	71.38
271.002	83.38
271.234	77.38
271.466	83.38
271.698	83.38
271.93	81.38
272.162	81.38
272.394	72.38
272.626	65.38
272.858	90.38
273.09	86.38
273.322	85.38
273.553	81.38
273.785	89.38
274.017	74.38
274.249	76.38
274.481	79.38
274.713	82.38
274.945	85.38
275.176	77.38
275.408	73.38
275.64	77.38
275.872	84.38
276.104	69.38
276.335	90.38
276.567	77.38
276.799	77.38
277.031	78.38
277.262	89.38
277.494	85.38
277.726	84.38
277.957	79.38
278.189	77.38
278.421	86.38
278.652	95.38
278.884	84.38
279.115	94.38
279.347	85.38
279.579	89.38
279.81	81.38
280.042	81.38
280.273	78.38
280.505	78.38
280.736	84.38
280.968	79.38
281.199	81.38
281.431	80.38
281.662	88.38
281.894	81.38
282.125	91.38
282.356	87.38
282.588	81.38
282.819	91.38
283.051	74.38
283.282	88.38
283.513	87.38
283.745	85.38
283.976	65.38
284.207	85.38
284.439	82.38
284.67	83.38
284.901	85.38
285.132	95.38
285.364	80.38
285.595	85.38
285.826	74.38
286.057	89.38
286.288	78.38
286.52	90.38
286.751	86.38
286.982	77.38
287.213	85.38
287.444	87.38
287.675	87.38
287.906	78.38
288.138	71.38
288.369	75.38
288.6	81.38
288.831	79.38
289.062	86.38
289.293	79.38
289.524	83.38
289.755	89.38
289.986	76.38
290.217	67.38
290.448	81.38
290.679	91.38
290.91	93.38
291.141	78.38
291.371	94.38
291.602	90.38
291.833	79.38
292.064	83.38
292.295	96.38
292.526	79.38
292.757	88.38
292.987	76.38
293.218	86.38
293.449	89.38
293.68	84.38
293.91	88.38
294.141	83.38
294.372	69.38
294.603	83.38
294.833	76.38
295.064	73.38
295.295	80.38
295.525	86.38
295.756	95.38
295.987	96.38
296.217	84.38
296.448	73.38
296.679	88.38
296.909	81.38
297.14	87.38
297.37	89.38
297.601	79.38
297.831	75.38
298.062	85.38
298.292	82.38
298.523	89.38
298.753	79.38
298.984	75.38
299.214	75.38
299.445	90.38
299.675	84.38
299.905	79.38
300.136	75.38
300.366	83.38
300.597	74.38
300.827	84.38
301.057	78.38
301.288	74.38
301.518	91.38
301.748	88.38
301.979	82.38
302.209	79.38
302.439	77.38
302.669	80.38
302.9	92.38
303.13	82.38
303.36	79.38
303.59	85.38
303.82	89.38
304.051	97.38
304.281	112.38
304.511	76.38
304.741	96.38
304.971	76.38
305.201	82.38
305.431	94.38
305.661	101.38
305.891	81.38
306.121	75.38
306.352	87.38
306.582	86.38
306.812	76.38
307.042	77.38
307.272	84.38
307.502	79.38
307.731	93.38
307.961	80.38
308.191	88.38
308.421	81.38
308.651	85.38
308.881	83.38
309.111	89.38
309.341	79.38
309.571	80.38
309.8	106.38
310.03	84.38
310.26	86.38
310.49	85.38
310.72	88.38
310.949	89.38
311.179	90.38
311.409	68.38
311.639	74.38
311.868	76.38
312.098	90.38
312.328	85.38
312.557	96.38
312.787	96.38
313.017	75.38
313.246	79.38
313.476	70.38
313.706	73.38
313.935	99.38
314.165	73.38
314.394	75.38
314.624	76.38
314.853	71.38
315.083	85.38
315.312	94.38
315.542	93.38
315.771	82.38
316.001	107.38
316.23	102.38
316.46	89.38
316.689	87.38
316.919	77.38
317.148	93.38
317.377	82.38
317.607	88.38
317.836	97.38
318.065	91.38
318.295	77.38
318.524	75.38
318.753	82.38
318.983	92.38
319.212	84.38
319.441	85.38
319.67	77.38
319.9	75.38
320.129	85.38
320.358	79.38
320.587	81.38
320.816	95.38
321.046	85.38
321.275	79.38
321.504	84.38
321.733	85.38
321.962	79.38
322.191	88.38
322.42	94.38
322.649	91.38
322.878	85.38
323.108	81.38
323.337	74.38
323.566	77.38
323.795	76.38
324.024	78.38
324.253	81.38
324.482	80.38
324.71	80.38
324.939	79.38
325.168	72.38
325.397	81.38
325.626	89.38
325.855	65.38
326.084	92.38
326.313	88.38
326.542	88.38
326.77	81.38
326.999	92.38
327.228	89.38
327.457	83.38
327.686	83.38
327.914	100.38
328.143	83.38
328.372	85.38
328.6	77.38
328.829	80.38
329.058	83.38
329.287	82.38
329.515	83.38
329.744	91.38
329.972	83.38
330.201	90.38
330.43	82.38
330.658	74.38
330.887	77.38
331.115	70.38
331.344	76.38
331.572	81.38
331.801	81.38
332.03	81.38
332.258	86.38
332.486	83.38
332.715	92.38
332.943	90.38
333.172	84.38
333.4	74.38
333.629	70.38
333.857	79.38
334.085	79.38
334.314	86.38
334.542	99.38
334.771	98.38
334.999	93.38
335.227	91.38
335.455	79.38
335.684	74.38
335.912	89.38
336.14	81.38
336.369	79.38
336.597	78.38
336.825	85.38
337.053	77.38
337.281	75.38
337.51	82.38
337.738	82.38
337.966	96.38
338.194	75.38
338.422	86.38
338.65	83.38
338.878	85.38
339.106	76.38
339.334	89.38
339.562	81.38
339.79	81.38
340.018	81.38
340.246	91.38
340.474	81.38
340.702	82.38
340.93	81.38
341.158	78.38
341.386	78.38
341.614	91.38
341.842	84.38
342.07	65.38
342.298	80.38
342.526	78.38
342.754	81.38
342.981	92.38
343.209	90.38
343.437	69.38
343.665	61.38
343.893	88.38
344.12	82.38
344.348	80.38
344.576	92.38
344.804	86.38
345.031	84.38
345.259	83.38
345.487	72.38
345.714	81.38
345.942	87.38
346.17	82.38
346.397	74.38
346.625	93.38
346.853	73.38
347.08	84.38
347.308	77.38
347.535	77.38
347.763	98.38
347.99	94.38
348.218	94.38
348.445	86.38
348.673	77.38
348.9	75.38
349.128	73.38
349.355	88.38
349.583	77.38
349.81	74.38
350.037	88.38
350.265	77.38
350.492	91.38
350.72	97.38
350.947	84.38
351.174	83.38
351.402	92.38
351.629	70.38
351.856	69.38
352.083	73.38
352.311	81.38
352.538	74.38
352.765	75.38
352.992	75.38
353.22	77.38
353.447	83.38
353.674	81.38
353.901	81.38
354.128	92.38
354.355	97.38
354.583	91.38
354.81	88.38
355.037	91.38
355.264	85.38
355.491	85.38
355.718	71.38
355.945	86.38
356.172	88.38
356.399	73.38
356.626	85.38
356.853	83.38
357.08	83.38
357.307	80.38
357.534	94.38
357.761	77.38
357.988	81.38
358.215	86.38
358.441	84.38
358.668	77.38
358.895	93.38
359.122	84.38
359.349	76.38
359.576	82.38
359.802	96.38
360.029	98.38
360.256	80.38
360.483	82.38
360.709	82.38
360.936	87.38
361.163	88.38
361.39	92.38
361.616	73.38
361.843	91.38
362.07	96.38
362.296	93.38
362.523	79.38
362.749	74.38
362.976	77.38
363.203	85.38
363.429	81.38
363.656	79.38
363.882	86.38
364.109	72.38
364.335	65.38
364.562	76.38
364.788	99.38
365.015	67.38
365.241	82.38
365.468	90.38
365.694	91.38
365.92	80.38
366.147	80.38
366.373	80.38
366.599	83.38
366.826	76.38
367.052	77.38
367.278	78.38
367.505	79.38
367.731	82.38
367.957	97.38
368.184	96.38
368.41	84.38
368.636	86.38
368.862	81.38
369.089	88.38
369.315	89.38
369.541	79.38
369.767	83.38
369.993	80.38
370.219	79.38
370.445	86.38
370.672	102.38
370.898	80.38
371.124	77.38
371.35	85.38
371.576	95.38
371.802	90.38
372.028	79.38
372.254	96.38
372.48	96.38
372.706	82.38
372.932	88.38
373.158	91.38
373.384	92.38
373.61	91.38
373.835	95.38
374.061	81.38
374.287	83.38
374.513	85.38
374.739	96.38
374.965	89.38
375.191	81.38
375.416	75.38
375.642	97.38
375.868	83.38
376.094	81.38
376.319	82.38
376.545	82.38
376.771	79.38
376.997	91.38
377.222	98.38
377.448	78.38
377.674	93.38
377.899	82.38
378.125	84.38
378.35	88.38
378.576	87.38
378.802	98.38
379.027	80.38
379.253	115.38
379.478	89.38
379.704	81.38
379.929	87.38
380.155	80.38
380.38	98.38
380.606	89.38
380.831	94.38
381.057	83.38
381.282	95.38
381.507	95.38
381.733	94.38
381.958	81.38
382.184	103.38
382.409	89.38
382.634	84.38
382.86	86.38
383.085	73.38
383.31	92.38
383.535	87.38
383.761	86.38
383.986	91.38
384.211	67.38
384.436	79.38
384.662	99.38
384.887	103.38
385.112	76.38
385.337	91.38
385.562	76.38
385.787	88.38
386.013	98.38
386.238	85.38
386.463	90.38
386.688	84.38
386.913	84.38
387.138	92.38
387.363	77.38
387.588	90.38
387.813	89.38
388.038	86.38
388.263	85.38
388.488	101.38
388.713	75.38
388.938	84.38
389.163	96.38
389.387	91.38
389.612	91.38
389.837	87.38
390.062	98.38
390.287	88.38
390.512	106.38
390.736	88.38
390.961	93.38
391.186	92.38
391.411	84.38
391.636	78.38
391.86	85.38
392.085	87.38
392.31	89.38
392.534	87.38
392.759	86.38
392.984	100.38
393.208	91.38
393.433	81.38
393.658	94.38
393.882	88.38
394.107	74.38
394.331	86.38
394.556	91.38
394.78	92.38
395.005	87.38
395.229	90.38
395.454	104.38
395.678	94.38
395.903	103.38
396.127	99.38
396.352	84.38
396.576	87.38
396.801	90.38
397.025	108.38
397.249	96.38
397.474	103.38
397.698	92.38
397.922	85.38
398.147	93.38
398.371	86.38
398.595	101.38
398.82	86.38
399.044	83.38
399.268	87.38
399.492	91.38
399.717	94.38
399.941	95.38
400.165	96.38
400.389	101.38
400.613	97.38
400.837	86.38
401.062	81.38
401.286	90.38
401.51	89.38
401.734	98.38
401.958	97.38
402.182	95.38
402.406	83.38
402.63	92.38
402.854	88.38
403.078	95.38
403.302	96.38
403.526	104.38
403.75	88.38
403.974	88.38
404.198	102.38
404.422	95.38
404.645	85.38
404.869	106.38
405.093	92.38
405.317	104.38
405.541	93.38
405.765	105.38
405.988	87.38
406.212	100.38
406.436	93.38
406.66	100.38
406.883	88.38
407.107	102.38
407.331	93.38
407.555	95.38
407.778	108.38
408.002	103.38
408.226	98.38
408.449	90.38
408.673	82.38
408.896	92.38
409.12	98.38
409.344	89.38
409.567	95.38
409.791	112.38
410.014	82.38
410.238	103.38
410.461	85.38
410.685	111.38
410.908	94.38
411.132	99.38
411.355	98.38
411.578	104.38
411.802	92.38
412.025	91.38
412.249	88.38
412.472	88.38
412.695	74.38
412.919	94.38
413.142	81.38
413.365	91.38
413.589	93.38
413.812	97.38
414.035	103.38
414.258	102.38
414.482	99.38
414.705	95.38
414.928	92.38
415.151	103.38
415.374	100.38
415.597	85.38
415.821	97.38
416.044	95.38
416.267	102.38
416.49	89.38
416.713	95.38
416.936	102.38
417.159	110.38
417.382	106.38
417.605	100.38
417.828	102.38
418.051	95.38
418.274	92.38
418.497	106.38
418.72	107.38
418.943	112.38
419.166	107.38
419.389	101.38
419.611	112.38
419.834	95.38
420.057	95.38
420.28	102.38
420.503	91.38
420.726	108.38
420.948	108.38
421.171	105.38
421.394	95.38
421.617	103.38
421.839	108.38
422.062	101.38
422.285	121.38
422.507	87.38
422.73	108.38
422.953	107.38
423.175	86.38
423.398	114.38
423.621	91.38
423.843	105.38
424.066	103.38
424.288	103.38
424.511	111.38
424.733	105.38
424.956	107.38
425.178	103.38
425.401	99.38
425.623	118.38
425.846	117.38
426.068	104.38
426.291	103.38
426.513	116.38
426.735	111.38
426.958	107.38
427.18	105.38
427.402	108.38
427.625	95.38
427.847	106.38
428.069	116.38
428.292	103.38
428.514	104.38
428.736	105.38
428.958	97.38
429.181	111.38
429.403	114.38
429.625	112.38
429.847	107.38
430.069	111.38
430.292	108.38
430.514	118.38
430.736	107.38
430.958	100.38
431.18	104.38
431.402	104.38
431.624	85.38
431.846	97.38
432.068	81.38
432.29	84.38
432.512	100.38
432.734	101.38
432.956	108.38
433.178	97.38
433.4	103.38
433.622	104.38
433.844	107.38
434.066	99.38
434.287	90.38
434.509	89.38
434.731	86.38
434.953	106.38
435.175	83.38
435.397	101.38
435.618	94.38
435.84	104.38
436.062	94.38
436.284	100.38
436.505	100.38
436.727	112.38
436.949	99.38
437.17	100.38
437.392	99.38
437.614	94.38
437.835	96.38
438.057	97.38
438.278	96.38
438.5	100.38
438.721	106.38
438.943	96.38
439.165	103.38
439.386	100.38
439.608	118.38
439.829	106.38
440.05	114.38
440.272	103.38
440.493	111.38
440.715	100.38
440.936	111.38
441.158	116.38
441.379	103.38
441.6	120.38
441.822	120.38
442.043	104.38
442.264	100.38
442.486	105.38
442.707	98.38
442.928	111.38
443.149	98.38
443.371	120.38
443.592	96.38
443.813	118.38
444.034	105.38
444.255	117.38
444.476	103.38
444.698	111.38
444.919	108.38
445.14	223.38
445.361	165.38
445.582	116.38
445.803	121.38
446.024	117.38
446.245	124.38
446.466	116.38
446.687	107.38
446.908	112.38
447.129	121.38
447.35	108.38
447.571	129.38
447.792	112.38
448.013	108.38
448.234	108.38
448.455	106.38
448.675	106.38
448.896	105.38
449.117	103.38
449.338	107.38
449.559	112.38
449.779	108.38
450	106.38
450.221	109.38
450.442	106.38
450.662	105.38
450.883	107.38
451.104	97.38
451.324	108.38
451.545	101.38
451.766	98.38
451.986	95.38
452.207	99.38
452.428	117.38
452.648	111.38
452.869	106.38
453.089	91.38
453.31	89.38
453.53	98.38
453.751	88.38
453.971	88.38
454.192	95.38
454.412	91.38
454.633	99.38
454.853	103.38
455.073	102.38
455.294	107.38
455.514	111.38
455.734	92.38
455.955	106.38
456.175	95.38
456.395	105.38
456.616	90.38
456.836	103.38
457.056	92.38
457.276	86.38
457.497	81.38
457.717	102.38
457.937	90.38
458.157	93.38
458.377	96.38
458.598	75.38
458.818	82.38
459.038	87.38
459.258	90.38
459.478	85.38
459.698	95.38
459.918	92.38
460.138	97.38
460.358	96.38
460.578	100.38
460.798	111.38
461.018	107.38
461.238	91.38
461.458	94.38
461.678	98.38
461.898	100.38
462.118	90.38
462.338	85.38
462.558	94.38
462.777	89.38
462.997	98.38
463.217	100.38
463.437	96.38
463.657	87.38
463.876	81.38
464.096	89.38
464.316	99.38
464.536	103.38
464.755	97.38
464.975	89.38
465.195	94.38
465.414	97.38
465.634	91.38
465.854	97.38
466.073	101.38
466.293	100.38
466.512	95.38
466.732	96.38
466.951	97.38
467.171	113.38
467.391	99.38
467.61	97.38
467.829	112.38
468.049	105.38
468.268	115.38
468.488	108.38
468.707	102.38
468.927	102.38
469.146	115.38
469.365	117.38
469.585	124.38
469.804	120.38
470.023	115.38
470.243	99.38
470.462	104.38
470.681	113.38
470.901	103.38
471.12	106.38
471.339	122.38
471.558	114.38
471.777	112.38
471.997	110.38
472.216	98.38
472.435	99.38
472.654	96.38
472.873	113.38
473.092	103.38
473.311	114.38
473.53	97.38
473.749	95.38
473.968	104.38
474.187	91.38
474.406	89.38
474.625	106.38
474.844	91.38
475.063	115.38
475.282	92.38
475.501	100.38
475.72	105.38
475.939	106.38
476.158	99.38
476.377	110.38
476.596	103.38
476.814	99.38
477.033	80.38
477.252	98.38
477.471	90.38
477.69	106.38
477.908	123.38
478.127	113.38
478.346	100.38
478.564	108.38
478.783	97.38
479.002	104.38
479.22	113.38
479.439	105.38
479.658	88.38
479.876	101.38
480.095	93.38
480.313	86.38
480.532	99.38
480.751	102.38
480.969	91.38
481.188	90.38
481.406	109.38
481.624	92.38
481.843	83.38
482.061	96.38
482.28	95.38
482.498	88.38
482.717	86.38
482.935	112.38
483.153	119.38
483.372	119.38
483.59	127.38
483.808	117.38
484.027	101.38
484.245	102.38
484.463	99.38
484.681	104.38
484.9	116.38
485.118	117.38
485.336	96.38
485.554	97.38
485.772	108.38
485.99	98.38
486.209	84.38
486.427	99.38
486.645	96.38
486.863	104.38
487.081	96.38
487.299	94.38
487.517	115.38
487.735	125.38
487.953	127.38
488.171	125.38
488.389	123.38
488.607	100.38
488.825	101.38
489.043	109.38
489.261	100.38
489.479	105.38
489.696	117.38
489.914	101.38
490.132	123.38
490.35	108.38
490.568	116.38
490.786	121.38
491.003	136.38
491.221	125.38
491.439	108.38
491.657	133.38
491.874	147.38
492.092	153.38
492.31	150.38
492.527	152.38
492.745	151.38
492.963	140.38
493.18	111.38
493.398	137.38
493.615	136.38
493.833	117.38
494.05	131.38
494.268	120.38
494.485	129.38
494.703	138.38
494.92	129.38
495.138	119.38
495.355	127.38
495.573	119.38
495.79	132.38
496.008	115.38
496.225	117.38
496.442	124.38
496.66	123.38
496.877	124.38
497.094	127.38
497.312	127.38
497.529	116.38
497.746	120.38
497.963	112.38
498.181	95.38
498.398	98.38
498.615	95.38
498.832	100.38
499.049	102.38
499.267	99.38
499.484	106.38
499.701	111.38
499.918	101.38
500.135	108.38
500.352	108.38
500.569	117.38
500.786	131.38
501.003	107.38
501.22	115.38
501.437	113.38
501.654	99.38
501.871	103.38
502.088	117.38
502.305	119.38
502.522	108.38
502.739	101.38
502.956	101.38
503.172	101.38
503.389	107.38
503.606	110.38
503.823	76.38
504.04	94.38
504.256	111.38
504.473	97.38
504.69	105.38
504.907	94.38
505.123	94.38
505.34	107.38
505.557	112.38
505.773	89.38
505.99	98.38
506.207	97.38
506.423	105.38
506.64	93.38
506.856	111.38
507.073	94.38
507.289	101.38
507.506	118.38
507.722	103.38
507.939	92.38
508.155	92.38
508.372	88.38
508.588	105.38
508.805	105.38
509.021	94.38
509.238	96.38
509.454	106.38
509.67	90.38
509.887	93.38
510.103	87.38
510.319	74.38
510.536	88.38
510.752	91.38
510.968	90.38
511.184	79.38
511.401	82.38
511.617	88.38
511.833	81.38
512.049	85.38
512.265	84.38
512.481	95.38
512.698	96.38
512.914	91.38
513.13	95.38
513.346	84.38
513.562	83.38
513.778	100.38
513.994	83.38
514.21	85.38
514.426	88.38
514.642	85.38
514.858	87.38
