Data from Zn(NO3)2Standard.Agarose3%.GreenCap.LampEnergy10E.O_HRD10591_15-08-30-949.txt Node
Date: Mon Jul 22 15:08:30 EDT 2019
User: cochatt
Spectrometer: HR+D1059
Trigger mode: 1
Integration Time (sec): 1.000000E-1
Scans to average: 1
Electric dark correction enabled: true
Nonlinearity correction enabled: false
Boxcar width: 0
XAxis mode: Wavelengths
Number of Pixels in Spectrum: 2048
>>>>>Begin Spectral Data<<<<<
223.165	-25.5
223.4	-25.5
223.635	-25.5
223.869	-12.5
224.104	-7.5
224.338	-2.5
224.573	-15.5
224.808	-11.5
225.042	6.5
225.277	8.5
225.511	-15.5
225.746	-12.5
225.98	17.5
226.215	9.5
226.449	10.5
226.683	23.5
226.918	8.5
227.152	18.5
227.387	38.5
227.621	32.5
227.856	48.5
228.09	39.5
228.324	55.5
228.559	48.5
228.793	54.5
229.027	45.5
229.262	57.5
229.496	62.5
229.73	61.5
229.964	58.5
230.199	68.5
230.433	66.5
230.667	74.5
230.901	80.5
231.136	80.5
231.37	63.5
231.604	90.5
231.838	80.5
232.072	88.5
232.306	92.5
232.541	72.5
232.775	73.5
233.009	90.5
233.243	86.5
233.477	76.5
233.711	94.5
233.945	66.5
234.179	80.5
234.413	71.5
234.647	77.5
234.881	83.5
235.115	66.5
235.349	91.5
235.583	75.5
235.817	71.5
236.051	78.5
236.285	74.5
236.519	76.5
236.753	65.5
236.987	77.5
237.221	82.5
237.455	86.5
237.689	79.5
237.922	80.5
238.156	65.5
238.39	76.5
238.624	78.5
238.858	72.5
239.091	75.5
239.325	78.5
239.559	78.5
239.793	72.5
240.027	86.5
240.26	77.5
240.494	87.5
240.728	72.5
240.961	75.5
241.195	75.5
241.429	66.5
241.662	83.5
241.896	78.5
242.13	65.5
242.363	69.5
242.597	85.5
242.83	68.5
243.064	83.5
243.298	84.5
243.531	81.5
243.765	67.5
243.998	72.5
244.232	84.5
244.465	65.5
244.699	66.5
244.932	84.5
245.166	84.5
245.399	88.5
245.633	88.5
245.866	82.5
246.099	77.5
246.333	88.5
246.566	58.5
246.8	86.5
247.033	65.5
247.266	75.5
247.5	78.5
247.733	75.5
247.966	64.5
248.2	83.5
248.433	74.5
248.666	73.5
248.899	85.5
249.133	78.5
249.366	89.5
249.599	79.5
249.832	89.5
250.066	74.5
250.299	79.5
250.532	74.5
250.765	82.5
250.998	74.5
251.231	83.5
251.465	68.5
251.698	74.5
251.931	80.5
252.164	63.5
252.397	74.5
252.63	94.5
252.863	85.5
253.096	78.5
253.329	64.5
253.562	79.5
253.795	72.5
254.028	72.5
254.261	85.5
254.494	75.5
254.727	80.5
254.96	82.5
255.193	84.5
255.426	84.5
255.659	76.5
255.892	82.5
256.124	79.5
256.357	84.5
256.59	66.5
256.823	60.5
257.056	78.5
257.289	85.5
257.521	93.5
257.754	83.5
257.987	77.5
258.22	79.5
258.452	82.5
258.685	65.5
258.918	72.5
259.151	96.5
259.383	79.5
259.616	80.5
259.849	70.5
260.081	87.5
260.314	73.5
260.547	74.5
260.779	76.5
261.012	86.5
261.244	74.5
261.477	86.5
261.71	89.5
261.942	76.5
262.175	76.5
262.407	72.5
262.64	77.5
262.872	77.5
263.105	86.5
263.337	84.5
263.57	84.5
263.802	78.5
264.035	87.5
264.267	89.5
264.499	87.5
264.732	87.5
264.964	83.5
265.197	78.5
265.429	95.5
265.661	83.5
265.894	68.5
266.126	78.5
266.358	83.5
266.591	73.5
266.823	90.5
267.055	85.5
267.287	74.5
267.52	68.5
267.752	77.5
267.984	83.5
268.216	78.5
268.448	81.5
268.681	94.5
268.913	91.5
269.145	77.5
269.377	81.5
269.609	78.5
269.841	88.5
270.073	78.5
270.306	86.5
270.538	93.5
270.77	88.5
271.002	76.5
271.234	84.5
271.466	96.5
271.698	85.5
271.93	74.5
272.162	73.5
272.394	86.5
272.626	73.5
272.858	81.5
273.09	83.5
273.322	67.5
273.553	75.5
273.785	65.5
274.017	70.5
274.249	79.5
274.481	68.5
274.713	79.5
274.945	82.5
275.176	89.5
275.408	71.5
275.64	89.5
275.872	77.5
276.104	86.5
276.335	88.5
276.567	75.5
276.799	68.5
277.031	73.5
277.262	75.5
277.494	86.5
277.726	81.5
277.957	77.5
278.189	77.5
278.421	72.5
278.652	78.5
278.884	71.5
279.115	81.5
279.347	75.5
279.579	88.5
279.81	72.5
280.042	89.5
280.273	89.5
280.505	84.5
280.736	73.5
280.968	80.5
281.199	89.5
281.431	73.5
281.662	70.5
281.894	78.5
282.125	88.5
282.356	81.5
282.588	84.5
282.819	71.5
283.051	88.5
283.282	78.5
283.513	73.5
283.745	85.5
283.976	97.5
284.207	68.5
284.439	79.5
284.67	64.5
284.901	75.5
285.132	81.5
285.364	74.5
285.595	84.5
285.826	76.5
286.057	74.5
286.288	73.5
286.52	89.5
286.751	69.5
286.982	74.5
287.213	92.5
287.444	89.5
287.675	83.5
287.906	73.5
288.138	65.5
288.369	75.5
288.6	82.5
288.831	86.5
289.062	72.5
289.293	85.5
289.524	83.5
289.755	86.5
289.986	69.5
290.217	90.5
290.448	80.5
290.679	90.5
290.91	102.5
291.141	73.5
291.371	85.5
291.602	80.5
291.833	84.5
292.064	88.5
292.295	72.5
292.526	96.5
292.757	75.5
292.987	84.5
293.218	81.5
293.449	77.5
293.68	83.5
293.91	91.5
294.141	76.5
294.372	83.5
294.603	74.5
294.833	96.5
295.064	79.5
295.295	88.5
295.525	75.5
295.756	80.5
295.987	95.5
296.217	76.5
296.448	73.5
296.679	91.5
296.909	75.5
297.14	93.5
297.37	83.5
297.601	79.5
297.831	74.5
298.062	74.5
298.292	92.5
298.523	81.5
298.753	72.5
298.984	78.5
299.214	85.5
299.445	92.5
299.675	97.5
299.905	74.5
300.136	77.5
300.366	79.5
300.597	86.5
300.827	79.5
301.057	78.5
301.288	78.5
301.518	76.5
301.748	100.5
301.979	85.5
302.209	74.5
302.439	77.5
302.669	74.5
302.9	76.5
303.13	84.5
303.36	85.5
303.59	84.5
303.82	83.5
304.051	96.5
304.281	86.5
304.511	97.5
304.741	83.5
304.971	90.5
305.201	70.5
305.431	72.5
305.661	80.5
305.891	76.5
306.121	91.5
306.352	69.5
306.582	77.5
306.812	74.5
307.042	82.5
307.272	85.5
307.502	80.5
307.731	81.5
307.961	81.5
308.191	87.5
308.421	88.5
308.651	81.5
308.881	82.5
309.111	97.5
309.341	83.5
309.571	86.5
309.8	83.5
310.03	80.5
310.26	72.5
310.49	76.5
310.72	81.5
310.949	69.5
311.179	88.5
311.409	85.5
311.639	90.5
311.868	73.5
312.098	84.5
312.328	83.5
312.557	74.5
312.787	70.5
313.017	87.5
313.246	71.5
313.476	76.5
313.706	85.5
313.935	92.5
314.165	79.5
314.394	78.5
314.624	88.5
314.853	83.5
315.083	78.5
315.312	77.5
315.542	78.5
315.771	89.5
316.001	96.5
316.23	94.5
316.46	68.5
316.689	71.5
316.919	72.5
317.148	81.5
317.377	75.5
317.607	82.5
317.836	91.5
318.065	66.5
318.295	85.5
318.524	87.5
318.753	97.5
318.983	88.5
319.212	90.5
319.441	74.5
319.67	91.5
319.9	68.5
320.129	77.5
320.358	84.5
320.587	83.5
320.816	70.5
321.046	78.5
321.275	85.5
321.504	73.5
321.733	68.5
321.962	91.5
322.191	77.5
322.42	84.5
322.649	85.5
322.878	97.5
323.108	72.5
323.337	91.5
323.566	92.5
323.795	77.5
324.024	93.5
324.253	93.5
324.482	82.5
324.71	93.5
324.939	88.5
325.168	89.5
325.397	86.5
325.626	66.5
325.855	77.5
326.084	69.5
326.313	70.5
326.542	74.5
326.77	80.5
326.999	72.5
327.228	75.5
327.457	84.5
327.686	94.5
327.914	86.5
328.143	88.5
328.372	85.5
328.6	74.5
328.829	84.5
329.058	93.5
329.287	89.5
329.515	85.5
329.744	75.5
329.972	83.5
330.201	90.5
330.43	82.5
330.658	79.5
330.887	64.5
331.115	85.5
331.344	86.5
331.572	102.5
331.801	83.5
332.03	84.5
332.258	80.5
332.486	81.5
332.715	79.5
332.943	89.5
333.172	71.5
333.4	60.5
333.629	61.5
333.857	85.5
334.085	76.5
334.314	84.5
334.542	75.5
334.771	84.5
334.999	76.5
335.227	82.5
335.455	73.5
335.684	78.5
335.912	74.5
336.14	78.5
336.369	73.5
336.597	91.5
336.825	94.5
337.053	91.5
337.281	91.5
337.51	78.5
337.738	81.5
337.966	85.5
338.194	93.5
338.422	88.5
338.65	78.5
338.878	78.5
339.106	80.5
339.334	71.5
339.562	83.5
339.79	90.5
340.018	80.5
340.246	68.5
340.474	78.5
340.702	79.5
340.93	73.5
341.158	80.5
341.386	80.5
341.614	73.5
341.842	87.5
342.07	99.5
342.298	78.5
342.526	77.5
342.754	85.5
342.981	79.5
343.209	75.5
343.437	85.5
343.665	79.5
343.893	85.5
344.12	74.5
344.348	79.5
344.576	86.5
344.804	79.5
345.031	85.5
345.259	94.5
345.487	80.5
345.714	83.5
345.942	72.5
346.17	89.5
346.397	89.5
346.625	93.5
346.853	76.5
347.08	85.5
347.308	97.5
347.535	69.5
347.763	73.5
347.99	90.5
348.218	81.5
348.445	83.5
348.673	84.5
348.9	81.5
349.128	81.5
349.355	84.5
349.583	86.5
349.81	81.5
350.037	74.5
350.265	83.5
350.492	83.5
350.72	68.5
350.947	75.5
351.174	84.5
351.402	74.5
351.629	78.5
351.856	80.5
352.083	75.5
352.311	80.5
352.538	81.5
352.765	75.5
352.992	72.5
353.22	84.5
353.447	73.5
353.674	90.5
353.901	82.5
354.128	71.5
354.355	65.5
354.583	69.5
354.81	84.5
355.037	76.5
355.264	79.5
355.491	77.5
355.718	68.5
355.945	78.5
356.172	74.5
356.399	74.5
356.626	73.5
356.853	69.5
357.08	82.5
357.307	76.5
357.534	84.5
357.761	81.5
357.988	75.5
358.215	77.5
358.441	80.5
358.668	80.5
358.895	72.5
359.122	78.5
359.349	72.5
359.576	73.5
359.802	73.5
360.029	81.5
360.256	85.5
360.483	70.5
360.709	80.5
360.936	87.5
361.163	76.5
361.39	81.5
361.616	83.5
361.843	84.5
362.07	80.5
362.296	71.5
362.523	72.5
362.749	85.5
362.976	87.5
363.203	95.5
363.429	83.5
363.656	76.5
363.882	77.5
364.109	79.5
364.335	79.5
364.562	71.5
364.788	81.5
365.015	79.5
365.241	71.5
365.468	79.5
365.694	92.5
365.92	89.5
366.147	86.5
366.373	74.5
366.599	98.5
366.826	77.5
367.052	85.5
367.278	74.5
367.505	72.5
367.731	79.5
367.957	82.5
368.184	81.5
368.41	77.5
368.636	87.5
368.862	92.5
369.089	80.5
369.315	71.5
369.541	86.5
369.767	86.5
369.993	92.5
370.219	81.5
370.445	80.5
370.672	81.5
370.898	84.5
371.124	95.5
371.35	72.5
371.576	73.5
371.802	91.5
372.028	97.5
372.254	79.5
372.48	81.5
372.706	84.5
372.932	82.5
373.158	80.5
373.384	71.5
373.61	70.5
373.835	78.5
374.061	82.5
374.287	82.5
374.513	90.5
374.739	77.5
374.965	85.5
375.191	80.5
375.416	66.5
375.642	74.5
375.868	83.5
376.094	89.5
376.319	73.5
376.545	87.5
376.771	73.5
376.997	79.5
377.222	94.5
377.448	86.5
377.674	74.5
377.899	81.5
378.125	72.5
378.35	82.5
378.576	72.5
378.802	88.5
379.027	80.5
379.253	91.5
379.478	84.5
379.704	75.5
379.929	86.5
380.155	82.5
380.38	82.5
380.606	80.5
380.831	85.5
381.057	74.5
381.282	82.5
381.507	82.5
381.733	86.5
381.958	77.5
382.184	78.5
382.409	77.5
382.634	80.5
382.86	83.5
383.085	93.5
383.31	99.5
383.535	73.5
383.761	86.5
383.986	89.5
384.211	78.5
384.436	89.5
384.662	78.5
384.887	88.5
385.112	77.5
385.337	86.5
385.562	79.5
385.787	73.5
386.013	88.5
386.238	80.5
386.463	77.5
386.688	85.5
386.913	100.5
387.138	81.5
387.363	92.5
387.588	66.5
387.813	86.5
388.038	89.5
388.263	90.5
388.488	81.5
388.713	85.5
388.938	63.5
389.163	80.5
389.387	79.5
389.612	86.5
389.837	86.5
390.062	94.5
390.287	98.5
390.512	77.5
390.736	88.5
390.961	79.5
391.186	87.5
391.411	89.5
391.636	98.5
391.86	73.5
392.085	78.5
392.31	86.5
392.534	93.5
392.759	92.5
392.984	79.5
393.208	92.5
393.433	97.5
393.658	84.5
393.882	93.5
394.107	106.5
394.331	92.5
394.556	92.5
394.78	94.5
395.005	91.5
395.229	81.5
395.454	81.5
395.678	92.5
395.903	82.5
396.127	86.5
396.352	79.5
396.576	92.5
396.801	84.5
397.025	80.5
397.249	85.5
397.474	80.5
397.698	76.5
397.922	78.5
398.147	90.5
398.371	81.5
398.595	83.5
398.82	85.5
399.044	96.5
399.268	90.5
399.492	95.5
399.717	85.5
399.941	89.5
400.165	94.5
400.389	82.5
400.613	97.5
400.837	101.5
401.062	97.5
401.286	76.5
401.51	95.5
401.734	99.5
401.958	92.5
402.182	97.5
402.406	99.5
402.63	81.5
402.854	82.5
403.078	94.5
403.302	102.5
403.526	90.5
403.75	100.5
403.974	95.5
404.198	104.5
404.422	108.5
404.645	82.5
404.869	104.5
405.093	102.5
405.317	81.5
405.541	93.5
405.765	105.5
405.988	88.5
406.212	79.5
406.436	99.5
406.66	101.5
406.883	94.5
407.107	84.5
407.331	94.5
407.555	100.5
407.778	103.5
408.002	84.5
408.226	103.5
408.449	91.5
408.673	106.5
408.896	98.5
409.12	84.5
409.344	90.5
409.567	85.5
409.791	102.5
410.014	99.5
410.238	90.5
410.461	111.5
410.685	102.5
410.908	88.5
411.132	95.5
411.355	95.5
411.578	112.5
411.802	101.5
412.025	96.5
412.249	93.5
412.472	95.5
412.695	83.5
412.919	89.5
413.142	93.5
413.365	89.5
413.589	95.5
413.812	101.5
414.035	91.5
414.258	95.5
414.482	97.5
414.705	88.5
414.928	103.5
415.151	97.5
415.374	95.5
415.597	101.5
415.821	97.5
416.044	79.5
416.267	88.5
416.49	99.5
416.713	98.5
416.936	100.5
417.159	91.5
417.382	115.5
417.605	93.5
417.828	97.5
418.051	106.5
418.274	105.5
418.497	95.5
418.72	106.5
418.943	109.5
419.166	106.5
419.389	100.5
419.611	90.5
419.834	90.5
420.057	100.5
420.28	86.5
420.503	104.5
420.726	92.5
420.948	102.5
421.171	100.5
421.394	102.5
421.617	108.5
421.839	112.5
422.062	107.5
422.285	105.5
422.507	98.5
422.73	113.5
422.953	101.5
423.175	101.5
423.398	93.5
423.621	98.5
423.843	89.5
424.066	112.5
424.288	100.5
424.511	94.5
424.733	86.5
424.956	109.5
425.178	100.5
425.401	99.5
425.623	90.5
425.846	111.5
426.068	107.5
426.291	104.5
426.513	97.5
426.735	105.5
426.958	97.5
427.18	97.5
427.402	104.5
427.625	91.5
427.847	84.5
428.069	97.5
428.292	100.5
428.514	77.5
428.736	103.5
428.958	98.5
429.181	89.5
429.403	101.5
429.625	100.5
429.847	93.5
430.069	104.5
430.292	98.5
430.514	111.5
430.736	96.5
430.958	89.5
431.18	103.5
431.402	94.5
431.624	96.5
431.846	91.5
432.068	79.5
432.29	78.5
432.512	88.5
432.734	96.5
432.956	96.5
433.178	97.5
433.4	95.5
433.622	104.5
433.844	110.5
434.066	95.5
434.287	80.5
434.509	96.5
434.731	85.5
434.953	91.5
435.175	88.5
435.397	118.5
435.618	92.5
435.84	110.5
436.062	88.5
436.284	85.5
436.505	98.5
436.727	113.5
436.949	107.5
437.17	93.5
437.392	103.5
437.614	100.5
437.835	93.5
438.057	94.5
438.278	93.5
438.5	99.5
438.721	103.5
438.943	106.5
439.165	98.5
439.386	99.5
439.608	97.5
439.829	108.5
440.05	115.5
440.272	97.5
440.493	99.5
440.715	108.5
440.936	103.5
441.158	103.5
441.379	121.5
441.6	110.5
441.822	117.5
442.043	105.5
442.264	105.5
442.486	102.5
442.707	119.5
442.928	95.5
443.149	111.5
443.371	113.5
443.592	102.5
443.813	103.5
444.034	111.5
444.255	111.5
444.476	92.5
444.698	90.5
444.919	97.5
445.14	221.5
445.361	159.5
445.582	106.5
445.803	111.5
446.024	128.5
446.245	114.5
446.466	102.5
446.687	111.5
446.908	111.5
447.129	102.5
447.35	120.5
447.571	94.5
447.792	108.5
448.013	112.5
448.234	88.5
448.455	97.5
448.675	100.5
448.896	112.5
449.117	109.5
449.338	116.5
449.559	95.5
449.779	109.5
450	98.5
450.221	108.5
450.442	96.5
450.662	115.5
450.883	95.5
451.104	100.5
451.324	110.5
451.545	99.5
451.766	108.5
451.986	89.5
452.207	111.5
452.428	88.5
452.648	88.5
452.869	100.5
453.089	94.5
453.31	109.5
453.53	85.5
453.751	90.5
453.971	95.5
454.192	88.5
454.412	95.5
454.633	93.5
454.853	87.5
455.073	91.5
455.294	94.5
455.514	83.5
455.734	104.5
455.955	94.5
456.175	88.5
456.395	81.5
456.616	85.5
456.836	77.5
457.056	93.5
457.276	90.5
457.497	98.5
457.717	89.5
457.937	87.5
458.157	100.5
458.377	84.5
458.598	82.5
458.818	79.5
459.038	78.5
459.258	79.5
459.478	82.5
459.698	73.5
459.918	85.5
460.138	95.5
460.358	80.5
460.578	86.5
460.798	89.5
461.018	103.5
461.238	95.5
461.458	89.5
461.678	95.5
461.898	95.5
462.118	92.5
462.338	97.5
462.558	79.5
462.777	92.5
462.997	93.5
463.217	96.5
463.437	90.5
463.657	97.5
463.876	98.5
464.096	102.5
464.316	83.5
464.536	84.5
464.755	98.5
464.975	117.5
465.195	99.5
465.414	104.5
465.634	85.5
465.854	97.5
466.073	95.5
466.293	83.5
466.512	97.5
466.732	117.5
466.951	92.5
467.171	88.5
467.391	100.5
467.61	111.5
467.829	97.5
468.049	100.5
468.268	96.5
468.488	86.5
468.707	86.5
468.927	110.5
469.146	103.5
469.365	101.5
469.585	96.5
469.804	113.5
470.023	115.5
470.243	104.5
470.462	114.5
470.681	108.5
470.901	102.5
471.12	108.5
471.339	111.5
471.558	105.5
471.777	117.5
471.997	101.5
472.216	87.5
472.435	88.5
472.654	90.5
472.873	91.5
473.092	96.5
473.311	114.5
473.53	87.5
473.749	99.5
473.968	100.5
474.187	94.5
474.406	116.5
474.625	97.5
474.844	100.5
475.063	95.5
475.282	104.5
475.501	97.5
475.72	106.5
475.939	103.5
476.158	89.5
476.377	91.5
476.596	98.5
476.814	93.5
477.033	75.5
477.252	95.5
477.471	103.5
477.69	105.5
477.908	114.5
478.127	99.5
478.346	110.5
478.564	108.5
478.783	103.5
479.002	106.5
479.22	82.5
479.439	97.5
479.658	110.5
479.876	80.5
480.095	91.5
480.313	97.5
480.532	97.5
480.751	93.5
480.969	85.5
481.188	76.5
481.406	98.5
481.624	84.5
481.843	85.5
482.061	84.5
482.28	84.5
482.498	102.5
482.717	92.5
482.935	98.5
483.153	123.5
483.372	100.5
483.59	110.5
483.808	101.5
484.027	108.5
484.245	100.5
484.463	111.5
484.681	124.5
484.9	114.5
485.118	117.5
485.336	110.5
485.554	85.5
485.772	89.5
485.99	87.5
486.209	95.5
486.427	82.5
486.645	102.5
486.863	87.5
487.081	110.5
487.299	116.5
487.517	105.5
487.735	110.5
487.953	138.5
488.171	121.5
488.389	101.5
488.607	108.5
488.825	103.5
489.043	94.5
489.261	117.5
489.479	97.5
489.696	108.5
489.914	99.5
490.132	108.5
490.35	124.5
490.568	132.5
490.786	126.5
491.003	124.5
491.221	134.5
491.439	120.5
491.657	139.5
491.874	127.5
492.092	159.5
492.31	145.5
492.527	152.5
492.745	133.5
492.963	133.5
493.18	134.5
493.398	120.5
493.615	126.5
493.833	128.5
494.05	121.5
494.268	133.5
494.485	138.5
494.703	123.5
494.92	128.5
495.138	136.5
495.355	108.5
495.573	108.5
495.79	120.5
496.008	129.5
496.225	112.5
496.442	112.5
496.66	115.5
496.877	134.5
497.094	121.5
497.312	117.5
497.529	120.5
497.746	115.5
497.963	108.5
498.181	93.5
498.398	87.5
498.615	79.5
498.832	103.5
499.049	97.5
499.267	109.5
499.484	112.5
499.701	86.5
499.918	108.5
500.135	112.5
500.352	109.5
500.569	108.5
500.786	114.5
501.003	122.5
501.22	113.5
501.437	101.5
501.654	114.5
501.871	94.5
502.088	99.5
502.305	96.5
502.522	98.5
502.739	103.5
502.956	92.5
503.172	99.5
503.389	106.5
503.606	104.5
503.823	109.5
504.04	95.5
504.256	103.5
504.473	93.5
504.69	98.5
504.907	112.5
505.123	112.5
505.34	97.5
505.557	103.5
505.773	98.5
505.99	109.5
506.207	95.5
506.423	110.5
506.64	108.5
506.856	101.5
507.073	96.5
507.289	84.5
507.506	102.5
507.722	103.5
507.939	99.5
508.155	112.5
508.372	112.5
508.588	93.5
508.805	89.5
509.021	91.5
509.238	88.5
509.454	100.5
509.67	90.5
509.887	97.5
510.103	94.5
510.319	84.5
510.536	78.5
510.752	69.5
510.968	87.5
511.184	79.5
511.401	79.5
511.617	89.5
511.833	73.5
512.049	69.5
512.265	88.5
512.481	79.5
512.698	81.5
512.914	92.5
513.13	67.5
513.346	85.5
513.562	78.5
513.778	99.5
513.994	79.5
514.21	90.5
514.426	83.5
514.642	91.5
514.858	78.5
515.074	83.5
515.29	84.5
515.506	98.5
515.721	88.5
515.937	80.5
516.153	100.5
516.369	95.5
516.585	81.5
516.801	74.5
517.016	100.5
517.232	86.5
517.448	98.5
517.664	93.5
517.879	86.5
518.095	85.5
518.311	97.5
518.527	73.5
518.742	95.5
518.958	81.5
519.173	86.5
519.389	82.5
519.605	100.5
519.82	81.5
520.036	93.5
520.251	82.5
520.467	86.5
520.682	96.5
520.898	92.5
521.113	82.5
521.329	88.5
521.544	88.5
521.76	82.5
521.975	85.5
522.19	91.5
522.406	92.5
522.621	94.5
522.836	100.5
523.052	108.5
523.267	109.5
523.482	92.5
523.698	90.5
523.913	86.5
524.128	100.5
524.343	93.5
524.559	103.5
524.774	106.5
524.989	85.5
525.204	107.5
525.419	92.5
525.634	90.5
525.849	92.5
526.064	94.5
526.28	82.5
526.495	75.5
526.71	74.5
526.925	84.5
527.14	80.5
527.355	75.5
527.57	95.5
527.785	85.5
527.999	78.5
528.214	103.5
528.429	92.5
528.644	98.5
528.859	112.5
529.074	94.5
529.289	130.5
529.503	128.5
529.718	106.5
529.933	78.5
530.148	88.5
530.363	88.5
530.577	89.5
530.792	91.5
531.007	89.5
531.221	80.5
531.436	68.5
531.651	69.5
531.865	88.5
532.08	78.5
532.295	89.5
532.509	84.5
532.724	76.5
532.938	95.5
533.153	82.5
533.367	91.5
533.582	108.5
533.796	97.5
534.011	88.5
534.225	93.5
534.44	86.5
534.654	100.5
534.868	105.5
535.083	91.5
535.297	79.5
535.511	80.5
535.726	78.5
535.94	88.5
