Data from Zn(NO3)2Standard.Agarose3%.GreenCap.LampEnergy5.5.E.O_HRD10591_15-02-15-768.txt Node
Date: Mon Jul 22 15:02:15 EDT 2019
User: cochatt
Spectrometer: HR+D1059
Trigger mode: 1
Integration Time (sec): 1.000000E-1
Scans to average: 1
Electric dark correction enabled: true
Nonlinearity correction enabled: false
Boxcar width: 0
XAxis mode: Wavelengths
Number of Pixels in Spectrum: 2048
>>>>>Begin Spectral Data<<<<<
223.165	-9.38
223.4	-9.38
223.635	-9.38
223.869	-14.38
224.104	-12.38
224.338	-14.38
224.573	-13.38
224.808	-20.38
225.042	-13.38
225.277	-0.38
225.511	1.62
225.746	12.62
225.98	-10.38
226.215	7.62
226.449	12.62
226.683	21.62
226.918	22.62
227.152	29.62
227.387	38.62
227.621	42.62
227.856	45.62
228.09	47.62
228.324	53.62
228.559	57.62
228.793	60.62
229.027	66.62
229.262	53.62
229.496	63.62
229.73	68.62
229.964	83.62
230.199	71.62
230.433	74.62
230.667	81.62
230.901	68.62
231.136	80.62
231.37	87.62
231.604	87.62
231.838	75.62
232.072	81.62
232.306	90.62
232.541	80.62
232.775	81.62
233.009	61.62
233.243	83.62
233.477	80.62
233.711	89.62
233.945	89.62
234.179	92.62
234.413	98.62
234.647	85.62
234.881	78.62
235.115	80.62
235.349	78.62
235.583	90.62
235.817	78.62
236.051	70.62
236.285	77.62
236.519	89.62
236.753	77.62
236.987	99.62
237.221	63.62
237.455	84.62
237.689	81.62
237.922	87.62
238.156	83.62
238.39	86.62
238.624	76.62
238.858	74.62
239.091	73.62
239.325	78.62
239.559	89.62
239.793	73.62
240.027	92.62
240.26	68.62
240.494	79.62
240.728	71.62
240.961	74.62
241.195	83.62
241.429	79.62
241.662	85.62
241.896	74.62
242.13	71.62
242.363	69.62
242.597	78.62
242.83	88.62
243.064	68.62
243.298	65.62
243.531	67.62
243.765	80.62
243.998	91.62
244.232	80.62
244.465	71.62
244.699	83.62
244.932	77.62
245.166	62.62
245.399	69.62
245.633	91.62
245.866	76.62
246.099	77.62
246.333	83.62
246.566	79.62
246.8	86.62
247.033	85.62
247.266	69.62
247.5	71.62
247.733	78.62
247.966	64.62
248.2	78.62
248.433	79.62
248.666	77.62
248.899	64.62
249.133	73.62
249.366	74.62
249.599	86.62
249.832	88.62
250.066	71.62
250.299	84.62
250.532	102.62
250.765	78.62
250.998	88.62
251.231	81.62
251.465	88.62
251.698	82.62
251.931	80.62
252.164	76.62
252.397	74.62
252.63	83.62
252.863	98.62
253.096	81.62
253.329	87.62
253.562	75.62
253.795	69.62
254.028	76.62
254.261	76.62
254.494	86.62
254.727	71.62
254.96	71.62
255.193	87.62
255.426	85.62
255.659	85.62
255.892	76.62
256.124	81.62
256.357	83.62
256.59	93.62
256.823	76.62
257.056	88.62
257.289	78.62
257.521	84.62
257.754	91.62
257.987	82.62
258.22	91.62
258.452	83.62
258.685	65.62
258.918	78.62
259.151	77.62
259.383	86.62
259.616	87.62
259.849	93.62
260.081	74.62
260.314	63.62
260.547	70.62
260.779	98.62
261.012	83.62
261.244	76.62
261.477	80.62
261.71	84.62
261.942	81.62
262.175	77.62
262.407	78.62
262.64	85.62
262.872	70.62
263.105	74.62
263.337	84.62
263.57	84.62
263.802	78.62
264.035	83.62
264.267	72.62
264.499	86.62
264.732	75.62
264.964	86.62
265.197	79.62
265.429	82.62
265.661	78.62
265.894	79.62
266.126	79.62
266.358	79.62
266.591	76.62
266.823	90.62
267.055	85.62
267.287	93.62
267.52	87.62
267.752	93.62
267.984	75.62
268.216	88.62
268.448	77.62
268.681	97.62
268.913	70.62
269.145	75.62
269.377	87.62
269.609	77.62
269.841	83.62
270.073	90.62
270.306	81.62
270.538	80.62
270.77	76.62
271.002	85.62
271.234	83.62
271.466	87.62
271.698	84.62
271.93	80.62
272.162	86.62
272.394	85.62
272.626	69.62
272.858	83.62
273.09	93.62
273.322	90.62
273.553	78.62
273.785	79.62
274.017	86.62
274.249	74.62
274.481	89.62
274.713	76.62
274.945	84.62
275.176	85.62
275.408	90.62
275.64	90.62
275.872	85.62
276.104	88.62
276.335	79.62
276.567	89.62
276.799	77.62
277.031	88.62
277.262	91.62
277.494	92.62
277.726	96.62
277.957	94.62
278.189	81.62
278.421	82.62
278.652	81.62
278.884	87.62
279.115	82.62
279.347	97.62
279.579	85.62
279.81	74.62
280.042	83.62
280.273	81.62
280.505	86.62
280.736	81.62
280.968	86.62
281.199	86.62
281.431	85.62
281.662	84.62
281.894	90.62
282.125	77.62
282.356	94.62
282.588	72.62
282.819	92.62
283.051	77.62
283.282	104.62
283.513	97.62
283.745	74.62
283.976	74.62
284.207	80.62
284.439	74.62
284.67	90.62
284.901	80.62
285.132	72.62
285.364	84.62
285.595	69.62
285.826	84.62
286.057	101.62
286.288	93.62
286.52	78.62
286.751	82.62
286.982	83.62
287.213	80.62
287.444	82.62
287.675	100.62
287.906	89.62
288.138	87.62
288.369	71.62
288.6	76.62
288.831	94.62
289.062	79.62
289.293	85.62
289.524	86.62
289.755	96.62
289.986	87.62
290.217	83.62
290.448	78.62
290.679	82.62
290.91	72.62
291.141	79.62
291.371	64.62
291.602	86.62
291.833	93.62
292.064	89.62
292.295	82.62
292.526	90.62
292.757	89.62
292.987	87.62
293.218	82.62
293.449	84.62
293.68	91.62
293.91	85.62
294.141	84.62
294.372	85.62
294.603	82.62
294.833	77.62
295.064	66.62
295.295	90.62
295.525	75.62
295.756	76.62
295.987	100.62
296.217	91.62
296.448	88.62
296.679	94.62
296.909	85.62
297.14	81.62
297.37	85.62
297.601	83.62
297.831	80.62
298.062	77.62
298.292	91.62
298.523	82.62
298.753	73.62
298.984	94.62
299.214	90.62
299.445	72.62
299.675	75.62
299.905	79.62
300.136	95.62
300.366	86.62
300.597	90.62
300.827	79.62
301.057	81.62
301.288	69.62
301.518	63.62
301.748	86.62
301.979	81.62
302.209	95.62
302.439	70.62
302.669	73.62
302.9	92.62
303.13	77.62
303.36	84.62
303.59	98.62
303.82	85.62
304.051	99.62
304.281	79.62
304.511	80.62
304.741	96.62
304.971	93.62
305.201	89.62
305.431	78.62
305.661	88.62
305.891	88.62
306.121	79.62
306.352	92.62
306.582	97.62
306.812	95.62
307.042	85.62
307.272	90.62
307.502	91.62
307.731	77.62
307.961	87.62
308.191	88.62
308.421	93.62
308.651	89.62
308.881	81.62
309.111	87.62
309.341	82.62
309.571	73.62
309.8	80.62
310.03	76.62
310.26	85.62
310.49	82.62
310.72	91.62
310.949	86.62
311.179	71.62
311.409	85.62
311.639	76.62
311.868	72.62
312.098	82.62
312.328	92.62
312.557	80.62
312.787	85.62
313.017	80.62
313.246	98.62
313.476	79.62
313.706	101.62
313.935	85.62
314.165	81.62
314.394	92.62
314.624	82.62
314.853	84.62
315.083	87.62
315.312	90.62
315.542	83.62
315.771	89.62
316.001	88.62
316.23	93.62
316.46	84.62
316.689	81.62
316.919	88.62
317.148	86.62
317.377	78.62
317.607	89.62
317.836	83.62
318.065	79.62
318.295	91.62
318.524	81.62
318.753	88.62
318.983	95.62
319.212	95.62
319.441	86.62
319.67	89.62
319.9	81.62
320.129	96.62
320.358	79.62
320.587	86.62
320.816	93.62
321.046	89.62
321.275	93.62
321.504	80.62
321.733	81.62
321.962	90.62
322.191	96.62
322.42	88.62
322.649	71.62
322.878	77.62
323.108	100.62
323.337	83.62
323.566	82.62
323.795	95.62
324.024	85.62
324.253	93.62
324.482	82.62
324.71	72.62
324.939	91.62
325.168	88.62
325.397	90.62
325.626	82.62
325.855	87.62
326.084	87.62
326.313	79.62
326.542	86.62
326.77	90.62
326.999	89.62
327.228	85.62
327.457	89.62
327.686	91.62
327.914	76.62
328.143	85.62
328.372	84.62
328.6	79.62
328.829	73.62
329.058	87.62
329.287	81.62
329.515	100.62
329.744	97.62
329.972	86.62
330.201	89.62
330.43	85.62
330.658	88.62
330.887	89.62
331.115	91.62
331.344	93.62
331.572	102.62
331.801	91.62
332.03	90.62
332.258	93.62
332.486	97.62
332.715	67.62
332.943	88.62
333.172	95.62
333.4	79.62
333.629	90.62
333.857	76.62
334.085	95.62
334.314	98.62
334.542	96.62
334.771	82.62
334.999	83.62
335.227	82.62
335.455	77.62
335.684	84.62
335.912	73.62
336.14	76.62
336.369	91.62
336.597	100.62
336.825	81.62
337.053	87.62
337.281	103.62
337.51	93.62
337.738	93.62
337.966	79.62
338.194	97.62
338.422	92.62
338.65	100.62
338.878	79.62
339.106	80.62
339.334	77.62
339.562	94.62
339.79	77.62
340.018	93.62
340.246	82.62
340.474	88.62
340.702	85.62
340.93	83.62
341.158	80.62
341.386	79.62
341.614	81.62
341.842	81.62
342.07	84.62
342.298	92.62
342.526	85.62
342.754	71.62
342.981	96.62
343.209	89.62
343.437	89.62
343.665	78.62
343.893	81.62
344.12	86.62
344.348	97.62
344.576	83.62
344.804	89.62
345.031	86.62
345.259	93.62
345.487	95.62
345.714	90.62
345.942	86.62
346.17	88.62
346.397	79.62
346.625	93.62
346.853	88.62
347.08	79.62
347.308	86.62
347.535	74.62
347.763	83.62
347.99	92.62
348.218	79.62
348.445	87.62
348.673	89.62
348.9	90.62
349.128	80.62
349.355	100.62
349.583	85.62
349.81	79.62
350.037	75.62
350.265	84.62
350.492	89.62
350.72	83.62
350.947	84.62
351.174	79.62
351.402	93.62
351.629	80.62
351.856	87.62
352.083	86.62
352.311	91.62
352.538	84.62
352.765	75.62
352.992	95.62
353.22	82.62
353.447	88.62
353.674	60.62
353.901	91.62
354.128	91.62
354.355	77.62
354.583	80.62
354.81	98.62
355.037	80.62
355.264	97.62
355.491	94.62
355.718	87.62
355.945	93.62
356.172	87.62
356.399	97.62
356.626	96.62
356.853	82.62
357.08	87.62
357.307	87.62
357.534	82.62
357.761	77.62
357.988	87.62
358.215	87.62
358.441	85.62
358.668	75.62
358.895	85.62
359.122	84.62
359.349	84.62
359.576	87.62
359.802	91.62
360.029	85.62
360.256	76.62
360.483	98.62
360.709	85.62
360.936	93.62
361.163	73.62
361.39	76.62
361.616	97.62
361.843	98.62
362.07	89.62
362.296	115.62
362.523	83.62
362.749	77.62
362.976	85.62
363.203	94.62
363.429	81.62
363.656	85.62
363.882	97.62
364.109	88.62
364.335	88.62
364.562	97.62
364.788	86.62
365.015	86.62
365.241	85.62
365.468	102.62
365.694	76.62
365.92	99.62
366.147	67.62
366.373	76.62
366.599	103.62
366.826	87.62
367.052	79.62
367.278	89.62
367.505	77.62
367.731	88.62
367.957	84.62
368.184	80.62
368.41	79.62
368.636	73.62
368.862	94.62
369.089	87.62
369.315	71.62
369.541	87.62
369.767	90.62
369.993	83.62
370.219	101.62
370.445	78.62
370.672	77.62
370.898	85.62
371.124	92.62
371.35	94.62
371.576	79.62
371.802	77.62
372.028	91.62
372.254	85.62
372.48	98.62
372.706	88.62
372.932	89.62
373.158	80.62
373.384	89.62
373.61	72.62
373.835	79.62
374.061	76.62
374.287	80.62
374.513	77.62
374.739	84.62
374.965	86.62
375.191	78.62
375.416	88.62
375.642	93.62
375.868	86.62
376.094	74.62
376.319	79.62
376.545	93.62
376.771	83.62
376.997	69.62
377.222	84.62
377.448	85.62
377.674	85.62
377.899	79.62
378.125	95.62
378.35	77.62
378.576	86.62
378.802	81.62
379.027	85.62
379.253	81.62
379.478	74.62
379.704	88.62
379.929	88.62
380.155	86.62
380.38	79.62
380.606	89.62
380.831	91.62
381.057	85.62
381.282	93.62
381.507	98.62
381.733	83.62
381.958	85.62
382.184	75.62
382.409	76.62
382.634	85.62
382.86	89.62
383.085	110.62
383.31	74.62
383.535	95.62
383.761	88.62
383.986	78.62
384.211	90.62
384.436	79.62
384.662	77.62
384.887	91.62
385.112	76.62
385.337	90.62
385.562	105.62
385.787	92.62
386.013	91.62
386.238	97.62
386.463	81.62
386.688	78.62
386.913	97.62
387.138	85.62
387.363	80.62
387.588	77.62
387.813	87.62
388.038	75.62
388.263	85.62
388.488	80.62
388.713	77.62
388.938	86.62
389.163	78.62
389.387	90.62
389.612	88.62
389.837	73.62
390.062	91.62
390.287	104.62
390.512	90.62
390.736	84.62
390.961	102.62
391.186	76.62
391.411	83.62
391.636	85.62
391.86	99.62
392.085	91.62
392.31	92.62
392.534	72.62
392.759	76.62
392.984	86.62
393.208	76.62
393.433	70.62
393.658	86.62
393.882	78.62
394.107	79.62
394.331	83.62
394.556	77.62
394.78	90.62
395.005	79.62
395.229	91.62
395.454	88.62
395.678	94.62
395.903	93.62
396.127	65.62
396.352	81.62
396.576	92.62
396.801	98.62
397.025	93.62
397.249	87.62
397.474	94.62
397.698	84.62
397.922	84.62
398.147	76.62
398.371	93.62
398.595	80.62
398.82	94.62
399.044	89.62
399.268	78.62
399.492	74.62
399.717	89.62
399.941	82.62
400.165	81.62
400.389	83.62
400.613	89.62
400.837	85.62
401.062	82.62
401.286	79.62
401.51	89.62
401.734	91.62
401.958	91.62
402.182	85.62
402.406	95.62
402.63	93.62
402.854	86.62
403.078	90.62
403.302	89.62
403.526	86.62
403.75	74.62
403.974	81.62
404.198	83.62
404.422	86.62
404.645	106.62
404.869	92.62
405.093	92.62
405.317	101.62
405.541	86.62
405.765	93.62
405.988	96.62
406.212	90.62
406.436	80.62
406.66	85.62
406.883	87.62
407.107	86.62
407.331	94.62
407.555	85.62
407.778	92.62
408.002	90.62
408.226	94.62
408.449	86.62
408.673	95.62
408.896	79.62
409.12	88.62
409.344	82.62
409.567	77.62
409.791	71.62
410.014	79.62
410.238	78.62
410.461	100.62
410.685	89.62
410.908	86.62
411.132	102.62
411.355	83.62
411.578	96.62
411.802	88.62
412.025	93.62
412.249	75.62
412.472	92.62
412.695	91.62
412.919	78.62
413.142	86.62
413.365	89.62
413.589	86.62
413.812	74.62
414.035	86.62
414.258	89.62
414.482	84.62
414.705	98.62
414.928	100.62
415.151	99.62
415.374	83.62
415.597	82.62
415.821	90.62
416.044	100.62
416.267	87.62
416.49	94.62
416.713	102.62
416.936	99.62
417.159	85.62
417.382	102.62
417.605	88.62
417.828	91.62
418.051	82.62
418.274	87.62
418.497	95.62
418.72	88.62
418.943	107.62
419.166	90.62
419.389	89.62
419.611	99.62
419.834	86.62
420.057	97.62
420.28	92.62
420.503	70.62
420.726	87.62
420.948	91.62
421.171	86.62
421.394	114.62
421.617	91.62
421.839	86.62
422.062	98.62
422.285	88.62
422.507	78.62
422.73	86.62
422.953	99.62
423.175	82.62
423.398	90.62
423.621	89.62
423.843	93.62
424.066	83.62
424.288	71.62
424.511	94.62
424.733	93.62
424.956	101.62
425.178	90.62
425.401	86.62
425.623	81.62
425.846	98.62
426.068	88.62
426.291	87.62
426.513	82.62
426.735	92.62
426.958	104.62
427.18	77.62
427.402	81.62
427.625	90.62
427.847	87.62
428.069	87.62
428.292	82.62
428.514	91.62
428.736	97.62
428.958	85.62
429.181	92.62
429.403	87.62
429.625	106.62
429.847	75.62
430.069	81.62
430.292	108.62
430.514	103.62
430.736	81.62
430.958	85.62
431.18	96.62
431.402	90.62
431.624	83.62
431.846	101.62
432.068	85.62
432.29	76.62
432.512	98.62
432.734	85.62
432.956	88.62
433.178	87.62
433.4	85.62
433.622	103.62
433.844	86.62
434.066	84.62
434.287	73.62
434.509	93.62
434.731	91.62
434.953	88.62
435.175	94.62
435.397	84.62
435.618	79.62
435.84	86.62
436.062	86.62
436.284	88.62
436.505	94.62
436.727	70.62
436.949	99.62
437.17	94.62
437.392	85.62
437.614	91.62
437.835	89.62
438.057	90.62
438.278	88.62
438.5	82.62
438.721	85.62
438.943	94.62
439.165	88.62
439.386	95.62
439.608	86.62
439.829	87.62
440.05	90.62
440.272	78.62
440.493	90.62
440.715	90.62
440.936	103.62
441.158	84.62
441.379	104.62
441.6	109.62
441.822	79.62
442.043	96.62
442.264	94.62
442.486	91.62
442.707	92.62
442.928	100.62
443.149	92.62
443.371	87.62
443.592	86.62
443.813	92.62
444.034	100.62
444.255	79.62
444.476	94.62
444.698	98.62
444.919	95.62
445.14	207.62
445.361	157.62
445.582	113.62
445.803	94.62
446.024	100.62
446.245	91.62
446.466	97.62
446.687	87.62
446.908	106.62
447.129	87.62
447.35	90.62
447.571	91.62
447.792	91.62
448.013	78.62
448.234	99.62
448.455	100.62
448.675	86.62
448.896	88.62
449.117	78.62
449.338	87.62
449.559	94.62
449.779	85.62
450	82.62
450.221	81.62
450.442	94.62
450.662	94.62
450.883	98.62
451.104	89.62
451.324	92.62
451.545	91.62
451.766	88.62
451.986	97.62
452.207	85.62
452.428	105.62
452.648	103.62
452.869	98.62
453.089	79.62
453.31	76.62
453.53	95.62
453.751	78.62
453.971	97.62
454.192	92.62
454.412	83.62
454.633	87.62
454.853	74.62
455.073	82.62
455.294	90.62
455.514	91.62
455.734	79.62
455.955	78.62
456.175	83.62
456.395	102.62
456.616	96.62
456.836	100.62
457.056	87.62
457.276	67.62
457.497	80.62
457.717	78.62
457.937	95.62
458.157	85.62
458.377	68.62
458.598	85.62
458.818	68.62
459.038	74.62
459.258	77.62
459.478	85.62
459.698	98.62
459.918	91.62
460.138	83.62
460.358	97.62
460.578	94.62
460.798	85.62
461.018	94.62
461.238	77.62
461.458	87.62
461.678	92.62
461.898	86.62
462.118	88.62
462.338	69.62
462.558	73.62
462.777	92.62
462.997	81.62
463.217	85.62
463.437	78.62
463.657	101.62
463.876	86.62
464.096	75.62
464.316	89.62
464.536	74.62
464.755	87.62
464.975	86.62
465.195	88.62
465.414	93.62
465.634	92.62
465.854	98.62
466.073	91.62
466.293	101.62
466.512	89.62
466.732	83.62
466.951	99.62
467.171	90.62
467.391	85.62
467.61	104.62
467.829	91.62
468.049	84.62
468.268	99.62
468.488	97.62
468.707	89.62
468.927	94.62
469.146	91.62
469.365	85.62
469.585	93.62
469.804	99.62
470.023	77.62
470.243	94.62
470.462	95.62
470.681	91.62
470.901	84.62
471.12	91.62
471.339	88.62
471.558	84.62
471.777	82.62
471.997	95.62
472.216	97.62
472.435	103.62
472.654	90.62
472.873	78.62
473.092	78.62
473.311	91.62
473.53	101.62
473.749	101.62
473.968	76.62
474.187	82.62
474.406	73.62
474.625	87.62
474.844	98.62
475.063	77.62
475.282	98.62
475.501	89.62
475.72	87.62
475.939	90.62
476.158	102.62
476.377	89.62
476.596	86.62
476.814	94.62
477.033	65.62
477.252	75.62
477.471	81.62
477.69	85.62
477.908	79.62
478.127	101.62
478.346	91.62
478.564	96.62
478.783	86.62
479.002	92.62
479.22	89.62
479.439	89.62
479.658	84.62
479.876	92.62
480.095	87.62
480.313	91.62
480.532	89.62
480.751	90.62
480.969	73.62
481.188	78.62
481.406	86.62
481.624	76.62
481.843	77.62
482.061	104.62
482.28	85.62
482.498	83.62
482.717	98.62
482.935	83.62
483.153	81.62
483.372	92.62
483.59	99.62
483.808	85.62
484.027	89.62
484.245	102.62
484.463	79.62
484.681	108.62
484.9	102.62
485.118	76.62
485.336	103.62
485.554	78.62
485.772	87.62
485.99	89.62
486.209	84.62
486.427	77.62
486.645	83.62
486.863	88.62
487.081	88.62
487.299	94.62
487.517	89.62
487.735	101.62
487.953	100.62
488.171	89.62
488.389	87.62
488.607	85.62
488.825	105.62
489.043	73.62
489.261	84.62
489.479	89.62
489.696	90.62
489.914	96.62
490.132	82.62
490.35	83.62
490.568	102.62
490.786	105.62
491.003	99.62
491.221	99.62
491.439	109.62
491.657	95.62
491.874	105.62
492.092	98.62
492.31	102.62
492.527	99.62
492.745	106.62
492.963	100.62
493.18	108.62
493.398	99.62
493.615	106.62
493.833	95.62
494.05	101.62
494.268	90.62
494.485	93.62
494.703	99.62
494.92	105.62
495.138	94.62
495.355	93.62
495.573	89.62
495.79	86.62
496.008	105.62
496.225	93.62
496.442	90.62
496.66	111.62
496.877	98.62
497.094	90.62
497.312	96.62
497.529	102.62
497.746	107.62
497.963	103.62
498.181	90.62
498.398	83.62
498.615	83.62
498.832	88.62
499.049	102.62
499.267	105.62
499.484	83.62
499.701	83.62
499.918	92.62
500.135	101.62
500.352	82.62
500.569	105.62
500.786	91.62
501.003	97.62
501.22	95.62
501.437	108.62
501.654	93.62
501.871	79.62
502.088	91.62
502.305	83.62
502.522	102.62
502.739	87.62
502.956	97.62
503.172	87.62
503.389	76.62
503.606	83.62
503.823	78.62
504.04	83.62
504.256	75.62
504.473	100.62
504.69	105.62
504.907	105.62
505.123	97.62
505.34	98.62
505.557	97.62
505.773	94.62
505.99	97.62
506.207	88.62
506.423	85.62
506.64	83.62
506.856	92.62
507.073	89.62
507.289	87.62
507.506	85.62
507.722	85.62
507.939	103.62
508.155	70.62
508.372	87.62
508.588	90.62
508.805	88.62
509.021	88.62
509.238	91.62
509.454	83.62
509.67	86.62
509.887	82.62
510.103	83.62
510.319	86.62
510.536	93.62
510.752	87.62
510.968	95.62
511.184	86.62
511.401	99.62
511.617	91.62
511.833	72.62
512.049	85.62
512.265	83.62
512.481	75.62
512.698	86.62
512.914	79.62
513.13	95.62
513.346	94.62
513.562	86.62
513.778	83.62
513.994	85.62
514.21	86.62
514.426	78.62
514.642	88.62
514.858	86.62
515.074	66.62
515.29	87.62
515.506	85.62
515.721	80.62
515.937	97.62
516.153	98.62
516.369	86.62
516.585	72.62
516.801	77.62
517.016	93.62
517.232	88.62
517.448	95.62
517.664	77.62
517.879	86.62
518.095	82.62
