Data from Zn(NO3)2Standard.Agarose3%.GreenCap.LampEnergy5.5.E.O_HRD10591_15-03-06-767.txt Node
Date: Mon Jul 22 15:03:06 EDT 2019
User: cochatt
Spectrometer: HR+D1059
Trigger mode: 1
Integration Time (sec): 1.000000E-1
Scans to average: 1
Electric dark correction enabled: true
Nonlinearity correction enabled: false
Boxcar width: 0
XAxis mode: Wavelengths
Number of Pixels in Spectrum: 2048
>>>>>Begin Spectral Data<<<<<
223.165	-27.69
223.4	-27.69
223.635	-27.69
223.869	-22.69
224.104	-8.69
224.338	-19.69
224.573	-10.69
224.808	-11.69
225.042	-10.69
225.277	-0.69
225.511	-5.69
225.746	-6.69
225.98	12.31
226.215	17.31
226.449	19.31
226.683	22.31
226.918	22.31
227.152	31.31
227.387	23.31
227.621	28.31
227.856	46.31
228.09	37.31
228.324	51.31
228.559	52.31
228.793	78.31
229.027	68.31
229.262	74.31
229.496	66.31
229.73	71.31
229.964	69.31
230.199	88.31
230.433	66.31
230.667	76.31
230.901	64.31
231.136	82.31
231.37	74.31
231.604	87.31
231.838	87.31
232.072	75.31
232.306	84.31
232.541	77.31
232.775	78.31
233.009	80.31
233.243	88.31
233.477	83.31
233.711	76.31
233.945	78.31
234.179	81.31
234.413	64.31
234.647	74.31
234.881	88.31
235.115	83.31
235.349	89.31
235.583	78.31
235.817	75.31
236.051	82.31
236.285	80.31
236.519	86.31
236.753	76.31
236.987	74.31
237.221	73.31
237.455	72.31
237.689	77.31
237.922	75.31
238.156	77.31
238.39	70.31
238.624	70.31
238.858	75.31
239.091	69.31
239.325	82.31
239.559	80.31
239.793	83.31
240.027	93.31
240.26	74.31
240.494	83.31
240.728	73.31
240.961	83.31
241.195	61.31
241.429	82.31
241.662	68.31
241.896	68.31
242.13	82.31
242.363	75.31
242.597	66.31
242.83	81.31
243.064	84.31
243.298	64.31
243.531	68.31
243.765	68.31
243.998	66.31
244.232	72.31
244.465	70.31
244.699	73.31
244.932	79.31
245.166	60.31
245.399	60.31
245.633	85.31
245.866	81.31
246.099	68.31
246.333	77.31
246.566	65.31
246.8	73.31
247.033	85.31
247.266	75.31
247.5	69.31
247.733	80.31
247.966	88.31
248.2	71.31
248.433	72.31
248.666	69.31
248.899	92.31
249.133	82.31
249.366	74.31
249.599	71.31
249.832	81.31
250.066	79.31
250.299	73.31
250.532	66.31
250.765	76.31
250.998	74.31
251.231	75.31
251.465	86.31
251.698	79.31
251.931	70.31
252.164	72.31
252.397	59.31
252.63	81.31
252.863	87.31
253.096	83.31
253.329	83.31
253.562	80.31
253.795	80.31
254.028	93.31
254.261	90.31
254.494	67.31
254.727	98.31
254.96	76.31
255.193	75.31
255.426	97.31
255.659	82.31
255.892	85.31
256.124	79.31
256.357	75.31
256.59	66.31
256.823	69.31
257.056	67.31
257.289	81.31
257.521	71.31
257.754	84.31
257.987	90.31
258.22	74.31
258.452	79.31
258.685	85.31
258.918	75.31
259.151	76.31
259.383	73.31
259.616	84.31
259.849	78.31
260.081	76.31
260.314	85.31
260.547	88.31
260.779	77.31
261.012	83.31
261.244	72.31
261.477	92.31
261.71	88.31
261.942	90.31
262.175	86.31
262.407	87.31
262.64	95.31
262.872	83.31
263.105	76.31
263.337	94.31
263.57	83.31
263.802	79.31
264.035	81.31
264.267	89.31
264.499	91.31
264.732	80.31
264.964	76.31
265.197	81.31
265.429	81.31
265.661	94.31
265.894	77.31
266.126	85.31
266.358	91.31
266.591	65.31
266.823	73.31
267.055	91.31
267.287	79.31
267.52	74.31
267.752	91.31
267.984	76.31
268.216	83.31
268.448	94.31
268.681	72.31
268.913	91.31
269.145	95.31
269.377	84.31
269.609	74.31
269.841	77.31
270.073	87.31
270.306	91.31
270.538	77.31
270.77	92.31
271.002	74.31
271.234	91.31
271.466	89.31
271.698	95.31
271.93	80.31
272.162	81.31
272.394	88.31
272.626	77.31
272.858	75.31
273.09	77.31
273.322	88.31
273.553	68.31
273.785	84.31
274.017	94.31
274.249	71.31
274.481	93.31
274.713	77.31
274.945	76.31
275.176	84.31
275.408	82.31
275.64	74.31
275.872	72.31
276.104	79.31
276.335	89.31
276.567	81.31
276.799	76.31
277.031	81.31
277.262	82.31
277.494	79.31
277.726	90.31
277.957	92.31
278.189	80.31
278.421	84.31
278.652	83.31
278.884	89.31
279.115	85.31
279.347	82.31
279.579	80.31
279.81	88.31
280.042	86.31
280.273	73.31
280.505	74.31
280.736	95.31
280.968	77.31
281.199	84.31
281.431	82.31
281.662	87.31
281.894	83.31
282.125	87.31
282.356	82.31
282.588	80.31
282.819	84.31
283.051	100.31
283.282	76.31
283.513	87.31
283.745	86.31
283.976	78.31
284.207	76.31
284.439	102.31
284.67	80.31
284.901	86.31
285.132	76.31
285.364	88.31
285.595	72.31
285.826	82.31
286.057	90.31
286.288	84.31
286.52	92.31
286.751	85.31
286.982	84.31
287.213	86.31
287.444	69.31
287.675	99.31
287.906	83.31
288.138	60.31
288.369	82.31
288.6	64.31
288.831	92.31
289.062	93.31
289.293	83.31
289.524	85.31
289.755	93.31
289.986	81.31
290.217	93.31
290.448	87.31
290.679	75.31
290.91	87.31
291.141	79.31
291.371	76.31
291.602	76.31
291.833	95.31
292.064	69.31
292.295	92.31
292.526	97.31
292.757	83.31
292.987	81.31
293.218	75.31
293.449	97.31
293.68	83.31
293.91	92.31
294.141	83.31
294.372	67.31
294.603	68.31
294.833	74.31
295.064	92.31
295.295	90.31
295.525	87.31
295.756	84.31
295.987	79.31
296.217	83.31
296.448	76.31
296.679	88.31
296.909	77.31
297.14	71.31
297.37	80.31
297.601	81.31
297.831	77.31
298.062	84.31
298.292	77.31
298.523	76.31
298.753	74.31
298.984	85.31
299.214	85.31
299.445	96.31
299.675	83.31
299.905	73.31
300.136	84.31
300.366	81.31
300.597	96.31
300.827	86.31
301.057	85.31
301.288	74.31
301.518	87.31
301.748	81.31
301.979	76.31
302.209	84.31
302.439	84.31
302.669	87.31
302.9	82.31
303.13	67.31
303.36	75.31
303.59	77.31
303.82	72.31
304.051	84.31
304.281	84.31
304.511	98.31
304.741	87.31
304.971	91.31
305.201	95.31
305.431	95.31
305.661	88.31
305.891	66.31
306.121	70.31
306.352	83.31
306.582	89.31
306.812	84.31
307.042	91.31
307.272	85.31
307.502	77.31
307.731	81.31
307.961	88.31
308.191	90.31
308.421	87.31
308.651	82.31
308.881	86.31
309.111	86.31
309.341	96.31
309.571	87.31
309.8	78.31
310.03	67.31
310.26	77.31
310.49	80.31
310.72	91.31
310.949	86.31
311.179	89.31
311.409	74.31
311.639	78.31
311.868	85.31
312.098	91.31
312.328	80.31
312.557	64.31
312.787	79.31
313.017	92.31
313.246	77.31
313.476	86.31
313.706	81.31
313.935	77.31
314.165	88.31
314.394	98.31
314.624	77.31
314.853	85.31
315.083	83.31
315.312	90.31
315.542	84.31
315.771	85.31
316.001	84.31
316.23	81.31
316.46	68.31
316.689	71.31
316.919	92.31
317.148	85.31
317.377	78.31
317.607	92.31
317.836	92.31
318.065	79.31
318.295	83.31
318.524	84.31
318.753	83.31
318.983	80.31
319.212	75.31
319.441	87.31
319.67	81.31
319.9	86.31
320.129	80.31
320.358	83.31
320.587	77.31
320.816	83.31
321.046	90.31
321.275	77.31
321.504	76.31
321.733	82.31
321.962	78.31
322.191	80.31
322.42	87.31
322.649	77.31
322.878	85.31
323.108	91.31
323.337	77.31
323.566	76.31
323.795	86.31
324.024	92.31
324.253	85.31
324.482	93.31
324.71	99.31
324.939	88.31
325.168	74.31
325.397	88.31
325.626	87.31
325.855	88.31
326.084	92.31
326.313	72.31
326.542	88.31
326.77	90.31
326.999	74.31
327.228	80.31
327.457	84.31
327.686	94.31
327.914	88.31
328.143	84.31
328.372	70.31
328.6	76.31
328.829	90.31
329.058	84.31
329.287	95.31
329.515	79.31
329.744	72.31
329.972	76.31
330.201	72.31
330.43	75.31
330.658	87.31
330.887	83.31
331.115	84.31
331.344	76.31
331.572	95.31
331.801	71.31
332.03	75.31
332.258	84.31
332.486	79.31
332.715	72.31
332.943	85.31
333.172	101.31
333.4	88.31
333.629	80.31
333.857	83.31
334.085	90.31
334.314	79.31
334.542	91.31
334.771	93.31
334.999	90.31
335.227	80.31
335.455	90.31
335.684	82.31
335.912	90.31
336.14	87.31
336.369	76.31
336.597	78.31
336.825	81.31
337.053	87.31
337.281	77.31
337.51	95.31
337.738	93.31
337.966	66.31
338.194	83.31
338.422	78.31
338.65	84.31
338.878	85.31
339.106	81.31
339.334	87.31
339.562	69.31
339.79	92.31
340.018	88.31
340.246	89.31
340.474	83.31
340.702	83.31
340.93	70.31
341.158	87.31
341.386	87.31
341.614	79.31
341.842	75.31
342.07	87.31
342.298	88.31
342.526	87.31
342.754	83.31
342.981	89.31
343.209	86.31
343.437	94.31
343.665	85.31
343.893	98.31
344.12	91.31
344.348	93.31
344.576	84.31
344.804	81.31
345.031	85.31
345.259	83.31
345.487	83.31
345.714	64.31
345.942	87.31
346.17	106.31
346.397	96.31
346.625	73.31
346.853	92.31
347.08	83.31
347.308	94.31
347.535	81.31
347.763	100.31
347.99	84.31
348.218	80.31
348.445	69.31
348.673	93.31
348.9	86.31
349.128	79.31
349.355	77.31
349.583	91.31
349.81	93.31
350.037	88.31
350.265	81.31
350.492	71.31
350.72	78.31
350.947	77.31
351.174	87.31
351.402	87.31
351.629	82.31
351.856	89.31
352.083	85.31
352.311	89.31
352.538	68.31
352.765	95.31
352.992	75.31
353.22	67.31
353.447	83.31
353.674	88.31
353.901	82.31
354.128	77.31
354.355	80.31
354.583	83.31
354.81	75.31
355.037	91.31
355.264	79.31
355.491	83.31
355.718	89.31
355.945	83.31
356.172	81.31
356.399	76.31
356.626	56.31
356.853	68.31
357.08	93.31
357.307	89.31
357.534	81.31
357.761	77.31
357.988	83.31
358.215	83.31
358.441	77.31
358.668	88.31
358.895	70.31
359.122	88.31
359.349	89.31
359.576	82.31
359.802	76.31
360.029	79.31
360.256	79.31
360.483	81.31
360.709	90.31
360.936	94.31
361.163	88.31
361.39	86.31
361.616	92.31
361.843	77.31
362.07	80.31
362.296	76.31
362.523	80.31
362.749	76.31
362.976	81.31
363.203	85.31
363.429	78.31
363.656	80.31
363.882	88.31
364.109	80.31
364.335	84.31
364.562	73.31
364.788	75.31
365.015	76.31
365.241	69.31
365.468	77.31
365.694	92.31
365.92	92.31
366.147	70.31
366.373	76.31
366.599	74.31
366.826	70.31
367.052	79.31
367.278	86.31
367.505	90.31
367.731	84.31
367.957	85.31
368.184	77.31
368.41	65.31
368.636	74.31
368.862	62.31
369.089	83.31
369.315	93.31
369.541	83.31
369.767	80.31
369.993	78.31
370.219	77.31
370.445	74.31
370.672	87.31
370.898	82.31
371.124	87.31
371.35	75.31
371.576	78.31
371.802	81.31
372.028	85.31
372.254	87.31
372.48	69.31
372.706	82.31
372.932	86.31
373.158	84.31
373.384	72.31
373.61	81.31
373.835	73.31
374.061	76.31
374.287	72.31
374.513	87.31
374.739	92.31
374.965	78.31
375.191	87.31
375.416	71.31
375.642	76.31
375.868	80.31
376.094	79.31
376.319	86.31
376.545	70.31
376.771	77.31
376.997	75.31
377.222	74.31
377.448	75.31
377.674	91.31
377.899	78.31
378.125	86.31
378.35	71.31
378.576	75.31
378.802	80.31
379.027	76.31
379.253	93.31
379.478	84.31
379.704	84.31
379.929	76.31
380.155	77.31
380.38	73.31
380.606	83.31
380.831	89.31
381.057	96.31
381.282	87.31
381.507	85.31
381.733	88.31
381.958	98.31
382.184	87.31
382.409	79.31
382.634	60.31
382.86	77.31
383.085	76.31
383.31	77.31
383.535	89.31
383.761	75.31
383.986	83.31
384.211	84.31
384.436	72.31
384.662	80.31
384.887	72.31
385.112	83.31
385.337	70.31
385.562	87.31
385.787	90.31
386.013	89.31
386.238	105.31
386.463	97.31
386.688	76.31
386.913	71.31
387.138	84.31
387.363	69.31
387.588	93.31
387.813	80.31
388.038	87.31
388.263	80.31
388.488	73.31
388.713	77.31
388.938	68.31
389.163	83.31
389.387	83.31
389.612	77.31
389.837	88.31
390.062	95.31
390.287	81.31
390.512	85.31
390.736	93.31
390.961	85.31
391.186	83.31
391.411	77.31
391.636	90.31
391.86	79.31
392.085	90.31
392.31	82.31
392.534	96.31
392.759	84.31
392.984	80.31
393.208	74.31
393.433	80.31
393.658	76.31
393.882	89.31
394.107	93.31
394.331	63.31
394.556	82.31
394.78	75.31
395.005	84.31
395.229	69.31
395.454	98.31
395.678	85.31
395.903	87.31
396.127	86.31
396.352	68.31
396.576	82.31
396.801	89.31
397.025	87.31
397.249	92.31
397.474	105.31
397.698	95.31
397.922	75.31
398.147	75.31
398.371	86.31
398.595	80.31
398.82	69.31
399.044	85.31
399.268	91.31
399.492	83.31
399.717	83.31
399.941	92.31
400.165	64.31
400.389	84.31
400.613	94.31
400.837	95.31
401.062	84.31
401.286	78.31
401.51	92.31
401.734	84.31
401.958	89.31
402.182	87.31
402.406	88.31
402.63	63.31
402.854	77.31
403.078	81.31
403.302	91.31
403.526	83.31
403.75	76.31
403.974	78.31
404.198	79.31
404.422	90.31
404.645	93.31
404.869	90.31
405.093	72.31
405.317	73.31
405.541	91.31
405.765	73.31
405.988	74.31
406.212	76.31
406.436	70.31
406.66	82.31
406.883	90.31
407.107	77.31
407.331	82.31
407.555	67.31
407.778	88.31
408.002	87.31
408.226	91.31
408.449	88.31
408.673	90.31
408.896	89.31
409.12	95.31
409.344	83.31
409.567	86.31
409.791	98.31
410.014	81.31
410.238	84.31
410.461	92.31
410.685	93.31
410.908	85.31
411.132	76.31
411.355	90.31
411.578	85.31
411.802	97.31
412.025	85.31
412.249	79.31
412.472	63.31
412.695	83.31
412.919	80.31
413.142	96.31
413.365	80.31
413.589	83.31
413.812	81.31
414.035	84.31
414.258	88.31
414.482	82.31
414.705	85.31
414.928	80.31
415.151	79.31
415.374	77.31
415.597	89.31
415.821	97.31
416.044	82.31
416.267	96.31
416.49	87.31
416.713	77.31
416.936	78.31
417.159	72.31
417.382	77.31
417.605	77.31
417.828	97.31
418.051	99.31
418.274	81.31
418.497	76.31
418.72	85.31
418.943	85.31
419.166	83.31
419.389	76.31
419.611	83.31
419.834	84.31
420.057	88.31
420.28	82.31
420.503	74.31
420.726	77.31
420.948	87.31
421.171	93.31
421.394	81.31
421.617	96.31
421.839	102.31
422.062	103.31
422.285	103.31
422.507	81.31
422.73	80.31
422.953	74.31
423.175	79.31
423.398	80.31
423.621	83.31
423.843	80.31
424.066	89.31
424.288	89.31
424.511	85.31
424.733	78.31
424.956	84.31
425.178	85.31
425.401	97.31
425.623	90.31
425.846	83.31
426.068	102.31
426.291	76.31
426.513	78.31
426.735	86.31
426.958	82.31
427.18	94.31
427.402	82.31
427.625	88.31
427.847	87.31
428.069	95.31
428.292	82.31
428.514	90.31
428.736	71.31
428.958	89.31
429.181	92.31
429.403	87.31
429.625	82.31
429.847	83.31
430.069	91.31
430.292	82.31
430.514	74.31
430.736	90.31
430.958	95.31
431.18	97.31
431.402	97.31
431.624	85.31
431.846	80.31
432.068	76.31
432.29	68.31
432.512	84.31
432.734	77.31
432.956	100.31
433.178	92.31
433.4	79.31
433.622	98.31
433.844	88.31
434.066	74.31
434.287	76.31
434.509	87.31
434.731	87.31
434.953	72.31
435.175	85.31
435.397	95.31
435.618	89.31
435.84	81.31
436.062	77.31
436.284	86.31
436.505	83.31
436.727	86.31
436.949	95.31
437.17	80.31
437.392	88.31
437.614	89.31
437.835	74.31
438.057	76.31
438.278	95.31
438.5	78.31
438.721	95.31
438.943	85.31
439.165	90.31
439.386	68.31
439.608	88.31
439.829	87.31
440.05	89.31
440.272	87.31
440.493	82.31
440.715	81.31
440.936	89.31
441.158	88.31
441.379	87.31
441.6	89.31
441.822	82.31
442.043	80.31
442.264	87.31
442.486	84.31
442.707	92.31
442.928	88.31
443.149	87.31
443.371	83.31
443.592	93.31
443.813	76.31
444.034	85.31
444.255	106.31
444.476	86.31
444.698	67.31
444.919	88.31
445.14	211.31
445.361	145.31
445.582	103.31
445.803	101.31
446.024	110.31
446.245	97.31
446.466	89.31
446.687	84.31
446.908	99.31
447.129	87.31
447.35	96.31
447.571	88.31
447.792	88.31
448.013	76.31
448.234	85.31
448.455	87.31
448.675	92.31
448.896	96.31
449.117	86.31
449.338	87.31
449.559	82.31
449.779	93.31
450	87.31
450.221	94.31
450.442	111.31
450.662	84.31
450.883	84.31
451.104	81.31
451.324	82.31
451.545	98.31
451.766	97.31
451.986	85.31
452.207	98.31
452.428	102.31
452.648	86.31
452.869	92.31
453.089	100.31
453.31	81.31
453.53	78.31
453.751	83.31
453.971	74.31
454.192	78.31
454.412	87.31
454.633	84.31
454.853	86.31
455.073	86.31
455.294	81.31
455.514	81.31
455.734	78.31
455.955	83.31
456.175	90.31
456.395	77.31
456.616	87.31
456.836	76.31
457.056	90.31
457.276	72.31
457.497	84.31
457.717	88.31
457.937	83.31
458.157	89.31
458.377	73.31
458.598	77.31
458.818	85.31
459.038	78.31
459.258	78.31
459.478	68.31
459.698	81.31
459.918	86.31
460.138	90.31
460.358	77.31
460.578	78.31
460.798	80.31
461.018	84.31
461.238	78.31
461.458	96.31
461.678	94.31
461.898	83.31
462.118	91.31
462.338	80.31
462.558	89.31
462.777	90.31
462.997	92.31
463.217	93.31
463.437	80.31
463.657	82.31
463.876	78.31
464.096	90.31
464.316	81.31
464.536	93.31
464.755	81.31
464.975	87.31
465.195	95.31
465.414	86.31
465.634	86.31
465.854	80.31
466.073	78.31
466.293	83.31
466.512	84.31
466.732	86.31
466.951	92.31
467.171	73.31
467.391	80.31
467.61	93.31
467.829	81.31
468.049	97.31
468.268	104.31
468.488	85.31
468.707	77.31
468.927	89.31
469.146	90.31
469.365	79.31
469.585	106.31
469.804	82.31
470.023	90.31
470.243	94.31
470.462	107.31
470.681	96.31
470.901	104.31
471.12	98.31
471.339	94.31
471.558	87.31
471.777	73.31
471.997	91.31
472.216	83.31
472.435	82.31
472.654	100.31
472.873	72.31
473.092	81.31
473.311	100.31
473.53	93.31
473.749	95.31
473.968	86.31
474.187	76.31
474.406	87.31
474.625	87.31
474.844	88.31
475.063	78.31
475.282	91.31
475.501	77.31
475.72	89.31
475.939	73.31
476.158	85.31
476.377	87.31
476.596	91.31
476.814	87.31
477.033	76.31
477.252	85.31
477.471	98.31
477.69	95.31
477.908	93.31
478.127	92.31
478.346	81.31
478.564	84.31
478.783	91.31
479.002	101.31
479.22	83.31
479.439	85.31
479.658	82.31
479.876	88.31
480.095	92.31
480.313	80.31
480.532	83.31
480.751	87.31
480.969	76.31
481.188	77.31
481.406	96.31
481.624	88.31
481.843	73.31
482.061	88.31
482.28	80.31
482.498	80.31
482.717	75.31
482.935	83.31
483.153	90.31
483.372	96.31
483.59	96.31
483.808	89.31
484.027	81.31
484.245	98.31
484.463	84.31
484.681	85.31
484.9	90.31
485.118	84.31
485.336	84.31
485.554	92.31
485.772	79.31
485.99	77.31
486.209	101.31
486.427	90.31
486.645	82.31
486.863	92.31
487.081	80.31
487.299	91.31
487.517	89.31
487.735	85.31
487.953	100.31
488.171	101.31
488.389	108.31
488.607	91.31
488.825	97.31
489.043	89.31
489.261	89.31
489.479	90.31
489.696	87.31
489.914	83.31
490.132	86.31
490.35	92.31
490.568	108.31
490.786	83.31
491.003	111.31
491.221	104.31
491.439	87.31
491.657	97.31
491.874	96.31
492.092	101.31
492.31	120.31
492.527	111.31
492.745	102.31
492.963	109.31
493.18	100.31
493.398	100.31
493.615	95.31
493.833	101.31
494.05	93.31
494.268	114.31
494.485	109.31
494.703	111.31
494.92	82.31
495.138	91.31
495.355	107.31
495.573	95.31
495.79	101.31
496.008	112.31
496.225	96.31
496.442	95.31
496.66	91.31
496.877	99.31
497.094	97.31
497.312	103.31
497.529	89.31
497.746	106.31
497.963	85.31
498.181	96.31
498.398	92.31
498.615	81.31
498.832	80.31
499.049	100.31
499.267	91.31
499.484	95.31
499.701	89.31
499.918	90.31
500.135	98.31
500.352	97.31
500.569	102.31
500.786	87.31
501.003	83.31
501.22	104.31
501.437	98.31
501.654	102.31
501.871	107.31
502.088	86.31
502.305	85.31
502.522	89.31
502.739	79.31
502.956	87.31
503.172	82.31
503.389	84.31
503.606	72.31
503.823	91.31
504.04	92.31
504.256	88.31
504.473	92.31
504.69	85.31
504.907	96.31
505.123	102.31
505.34	81.31
505.557	77.31
505.773	101.31
505.99	92.31
506.207	81.31
506.423	103.31
506.64	80.31
506.856	90.31
507.073	81.31
507.289	91.31
507.506	72.31
507.722	92.31
507.939	100.31
508.155	91.31
508.372	81.31
508.588	81.31
508.805	96.31
509.021	95.31
509.238	87.31
509.454	67.31
509.67	95.31
509.887	80.31
510.103	85.31
510.319	85.31
510.536	77.31
510.752	69.31
510.968	77.31
511.184	89.31
511.401	87.31
511.617	81.31
511.833	96.31
512.049	87.31
512.265	84.31
512.481	85.31
512.698	71.31
512.914	79.31
513.13	74.31
513.346	68.31
513.562	80.31
513.778	80.31
513.994	78.31
514.21	85.31
514.426	69.31
514.642	85.31
514.858	88.31
515.074	76.31
515.29	72.31
515.506	84.31
515.721	92.31
515.937	69.31
516.153	81.31
516.369	89.31
516.585	80.31
516.801	82.31
517.016	84.31
517.232	74.31
517.448	83.31
517.664	81.31
517.879	73.31
518.095	88.31
518.311	80.31
518.527	88.31
