Data from Zn(NO3)2Standard.Agarose3%.GreenCap.LampEnergy5.5.E.O_HRD10591_15-03-21-768.txt Node
Date: Mon Jul 22 15:03:21 EDT 2019
User: cochatt
Spectrometer: HR+D1059
Trigger mode: 1
Integration Time (sec): 1.000000E-1
Scans to average: 1
Electric dark correction enabled: true
Nonlinearity correction enabled: false
Boxcar width: 0
XAxis mode: Wavelengths
Number of Pixels in Spectrum: 2048
>>>>>Begin Spectral Data<<<<<
223.165	-28.5
223.4	-28.5
223.635	-28.5
223.869	-6.5
224.104	-10.5
224.338	-21.5
224.573	-16.5
224.808	-20.5
225.042	-12.5
225.277	-0.5
225.511	-7.5
225.746	-8.5
225.98	30.5
226.215	4.5
226.449	15.5
226.683	18.5
226.918	30.5
227.152	33.5
227.387	39.5
227.621	41.5
227.856	51.5
228.09	51.5
228.324	41.5
228.559	41.5
228.793	51.5
229.027	74.5
229.262	60.5
229.496	68.5
229.73	74.5
229.964	70.5
230.199	68.5
230.433	75.5
230.667	69.5
230.901	77.5
231.136	82.5
231.37	63.5
231.604	89.5
231.838	89.5
232.072	80.5
232.306	75.5
232.541	76.5
232.775	84.5
233.009	73.5
233.243	87.5
233.477	75.5
233.711	86.5
233.945	75.5
234.179	83.5
234.413	76.5
234.647	77.5
234.881	85.5
235.115	73.5
235.349	66.5
235.583	63.5
235.817	71.5
236.051	86.5
236.285	78.5
236.519	79.5
236.753	73.5
236.987	52.5
237.221	90.5
237.455	73.5
237.689	90.5
237.922	72.5
238.156	72.5
238.39	70.5
238.624	84.5
238.858	68.5
239.091	71.5
239.325	84.5
239.559	78.5
239.793	73.5
240.027	84.5
240.26	72.5
240.494	73.5
240.728	87.5
240.961	80.5
241.195	81.5
241.429	67.5
241.662	64.5
241.896	56.5
242.13	81.5
242.363	62.5
242.597	73.5
242.83	68.5
243.064	64.5
243.298	75.5
243.531	72.5
243.765	73.5
243.998	79.5
244.232	74.5
244.465	90.5
244.699	80.5
244.932	78.5
245.166	77.5
245.399	80.5
245.633	81.5
245.866	64.5
246.099	70.5
246.333	71.5
246.566	81.5
246.8	75.5
247.033	89.5
247.266	79.5
247.5	71.5
247.733	69.5
247.966	72.5
248.2	73.5
248.433	82.5
248.666	95.5
248.899	81.5
249.133	81.5
249.366	76.5
249.599	71.5
249.832	54.5
250.066	81.5
250.299	82.5
250.532	74.5
250.765	79.5
250.998	61.5
251.231	83.5
251.465	78.5
251.698	79.5
251.931	77.5
252.164	69.5
252.397	74.5
252.63	67.5
252.863	80.5
253.096	67.5
253.329	85.5
253.562	69.5
253.795	65.5
254.028	75.5
254.261	67.5
254.494	83.5
254.727	75.5
254.96	63.5
255.193	84.5
255.426	95.5
255.659	82.5
255.892	84.5
256.124	78.5
256.357	82.5
256.59	85.5
256.823	79.5
257.056	96.5
257.289	88.5
257.521	66.5
257.754	85.5
257.987	72.5
258.22	75.5
258.452	87.5
258.685	93.5
258.918	78.5
259.151	73.5
259.383	89.5
259.616	81.5
259.849	85.5
260.081	81.5
260.314	79.5
260.547	86.5
260.779	86.5
261.012	72.5
261.244	80.5
261.477	83.5
261.71	68.5
261.942	85.5
262.175	79.5
262.407	88.5
262.64	88.5
262.872	78.5
263.105	78.5
263.337	80.5
263.57	83.5
263.802	62.5
264.035	74.5
264.267	86.5
264.499	86.5
264.732	73.5
264.964	76.5
265.197	94.5
265.429	76.5
265.661	92.5
265.894	75.5
266.126	82.5
266.358	72.5
266.591	72.5
266.823	81.5
267.055	77.5
267.287	76.5
267.52	86.5
267.752	96.5
267.984	81.5
268.216	82.5
268.448	80.5
268.681	81.5
268.913	78.5
269.145	86.5
269.377	70.5
269.609	72.5
269.841	94.5
270.073	76.5
270.306	79.5
270.538	82.5
270.77	88.5
271.002	86.5
271.234	87.5
271.466	83.5
271.698	72.5
271.93	80.5
272.162	85.5
272.394	72.5
272.626	77.5
272.858	90.5
273.09	75.5
273.322	89.5
273.553	86.5
273.785	82.5
274.017	75.5
274.249	87.5
274.481	85.5
274.713	93.5
274.945	75.5
275.176	83.5
275.408	88.5
275.64	80.5
275.872	72.5
276.104	83.5
276.335	74.5
276.567	79.5
276.799	97.5
277.031	68.5
277.262	90.5
277.494	86.5
277.726	87.5
277.957	84.5
278.189	84.5
278.421	86.5
278.652	72.5
278.884	79.5
279.115	92.5
279.347	79.5
279.579	94.5
279.81	74.5
280.042	81.5
280.273	73.5
280.505	84.5
280.736	86.5
280.968	79.5
281.199	94.5
281.431	76.5
281.662	87.5
281.894	86.5
282.125	68.5
282.356	91.5
282.588	89.5
282.819	90.5
283.051	85.5
283.282	81.5
283.513	79.5
283.745	88.5
283.976	76.5
284.207	78.5
284.439	98.5
284.67	86.5
284.901	84.5
285.132	79.5
285.364	85.5
285.595	89.5
285.826	77.5
286.057	95.5
286.288	76.5
286.52	75.5
286.751	70.5
286.982	82.5
287.213	79.5
287.444	97.5
287.675	94.5
287.906	81.5
288.138	83.5
288.369	91.5
288.6	92.5
288.831	98.5
289.062	91.5
289.293	93.5
289.524	82.5
289.755	89.5
289.986	101.5
290.217	93.5
290.448	91.5
290.679	84.5
290.91	79.5
291.141	92.5
291.371	81.5
291.602	81.5
291.833	84.5
292.064	80.5
292.295	82.5
292.526	96.5
292.757	87.5
292.987	99.5
293.218	81.5
293.449	99.5
293.68	84.5
293.91	83.5
294.141	83.5
294.372	79.5
294.603	86.5
294.833	73.5
295.064	87.5
295.295	78.5
295.525	79.5
295.756	83.5
295.987	91.5
296.217	78.5
296.448	86.5
296.679	76.5
296.909	83.5
297.14	73.5
297.37	77.5
297.601	82.5
297.831	93.5
298.062	83.5
298.292	96.5
298.523	99.5
298.753	80.5
298.984	88.5
299.214	74.5
299.445	90.5
299.675	82.5
299.905	95.5
300.136	83.5
300.366	78.5
300.597	82.5
300.827	99.5
301.057	83.5
301.288	86.5
301.518	84.5
301.748	87.5
301.979	93.5
302.209	70.5
302.439	78.5
302.669	92.5
302.9	68.5
303.13	77.5
303.36	80.5
303.59	88.5
303.82	86.5
304.051	94.5
304.281	86.5
304.511	85.5
304.741	87.5
304.971	74.5
305.201	71.5
305.431	90.5
305.661	79.5
305.891	80.5
306.121	71.5
306.352	83.5
306.582	68.5
306.812	72.5
307.042	91.5
307.272	88.5
307.502	75.5
307.731	71.5
307.961	71.5
308.191	92.5
308.421	92.5
308.651	77.5
308.881	78.5
309.111	79.5
309.341	87.5
309.571	85.5
309.8	76.5
310.03	69.5
310.26	90.5
310.49	76.5
310.72	80.5
310.949	83.5
311.179	92.5
311.409	79.5
311.639	71.5
311.868	74.5
312.098	71.5
312.328	79.5
312.557	94.5
312.787	74.5
313.017	97.5
313.246	90.5
313.476	75.5
313.706	87.5
313.935	87.5
314.165	58.5
314.394	98.5
314.624	94.5
314.853	89.5
315.083	95.5
315.312	75.5
315.542	74.5
315.771	77.5
316.001	81.5
316.23	76.5
316.46	74.5
316.689	86.5
316.919	93.5
317.148	74.5
317.377	66.5
317.607	77.5
317.836	79.5
318.065	75.5
318.295	73.5
318.524	81.5
318.753	86.5
318.983	96.5
319.212	89.5
319.441	85.5
319.67	80.5
319.9	88.5
320.129	84.5
320.358	97.5
320.587	83.5
320.816	76.5
321.046	71.5
321.275	88.5
321.504	91.5
321.733	80.5
321.962	83.5
322.191	84.5
322.42	91.5
322.649	88.5
322.878	90.5
323.108	92.5
323.337	81.5
323.566	79.5
323.795	88.5
324.024	80.5
324.253	73.5
324.482	82.5
324.71	82.5
324.939	78.5
325.168	80.5
325.397	84.5
325.626	90.5
325.855	89.5
326.084	93.5
326.313	86.5
326.542	82.5
326.77	80.5
326.999	72.5
327.228	79.5
327.457	92.5
327.686	91.5
327.914	82.5
328.143	94.5
328.372	80.5
328.6	76.5
328.829	83.5
329.058	80.5
329.287	85.5
329.515	79.5
329.744	85.5
329.972	95.5
330.201	88.5
330.43	78.5
330.658	83.5
330.887	81.5
331.115	71.5
331.344	74.5
331.572	73.5
331.801	85.5
332.03	97.5
332.258	98.5
332.486	90.5
332.715	94.5
332.943	78.5
333.172	87.5
333.4	63.5
333.629	87.5
333.857	88.5
334.085	61.5
334.314	85.5
334.542	84.5
334.771	68.5
334.999	73.5
335.227	78.5
335.455	87.5
335.684	91.5
335.912	81.5
336.14	79.5
336.369	84.5
336.597	81.5
336.825	90.5
337.053	84.5
337.281	84.5
337.51	71.5
337.738	96.5
337.966	85.5
338.194	93.5
338.422	84.5
338.65	98.5
338.878	82.5
339.106	86.5
339.334	76.5
339.562	78.5
339.79	84.5
340.018	89.5
340.246	71.5
340.474	106.5
340.702	86.5
340.93	76.5
341.158	75.5
341.386	76.5
341.614	71.5
341.842	79.5
342.07	86.5
342.298	89.5
342.526	89.5
342.754	80.5
342.981	74.5
343.209	75.5
343.437	95.5
343.665	76.5
343.893	87.5
344.12	77.5
344.348	82.5
344.576	80.5
344.804	68.5
345.031	83.5
345.259	82.5
345.487	84.5
345.714	70.5
345.942	88.5
346.17	81.5
346.397	90.5
346.625	84.5
346.853	78.5
347.08	99.5
347.308	84.5
347.535	79.5
347.763	96.5
347.99	93.5
348.218	86.5
348.445	85.5
348.673	73.5
348.9	77.5
349.128	87.5
349.355	88.5
349.583	95.5
349.81	84.5
350.037	83.5
350.265	86.5
350.492	79.5
350.72	86.5
350.947	78.5
351.174	83.5
351.402	76.5
351.629	72.5
351.856	80.5
352.083	72.5
352.311	80.5
352.538	81.5
352.765	86.5
352.992	82.5
353.22	76.5
353.447	103.5
353.674	78.5
353.901	71.5
354.128	88.5
354.355	88.5
354.583	78.5
354.81	80.5
355.037	83.5
355.264	87.5
355.491	84.5
355.718	79.5
355.945	75.5
356.172	80.5
356.399	87.5
356.626	84.5
356.853	77.5
357.08	76.5
357.307	97.5
357.534	59.5
357.761	82.5
357.988	81.5
358.215	80.5
358.441	85.5
358.668	76.5
358.895	73.5
359.122	80.5
359.349	94.5
359.576	89.5
359.802	72.5
360.029	83.5
360.256	75.5
360.483	79.5
360.709	80.5
360.936	71.5
361.163	90.5
361.39	101.5
361.616	78.5
361.843	85.5
362.07	84.5
362.296	74.5
362.523	80.5
362.749	76.5
362.976	87.5
363.203	88.5
363.429	86.5
363.656	82.5
363.882	81.5
364.109	85.5
364.335	81.5
364.562	86.5
364.788	82.5
365.015	78.5
365.241	69.5
365.468	78.5
365.694	83.5
365.92	80.5
366.147	77.5
366.373	87.5
366.599	80.5
366.826	96.5
367.052	73.5
367.278	74.5
367.505	79.5
367.731	92.5
367.957	89.5
368.184	76.5
368.41	83.5
368.636	81.5
368.862	81.5
369.089	88.5
369.315	86.5
369.541	75.5
369.767	86.5
369.993	82.5
370.219	82.5
370.445	75.5
370.672	83.5
370.898	80.5
371.124	97.5
371.35	77.5
371.576	72.5
371.802	68.5
372.028	73.5
372.254	83.5
372.48	87.5
372.706	74.5
372.932	80.5
373.158	76.5
373.384	80.5
373.61	85.5
373.835	79.5
374.061	86.5
374.287	97.5
374.513	78.5
374.739	77.5
374.965	76.5
375.191	86.5
375.416	64.5
375.642	85.5
375.868	64.5
376.094	90.5
376.319	83.5
376.545	82.5
376.771	83.5
376.997	91.5
377.222	82.5
377.448	93.5
377.674	85.5
377.899	78.5
378.125	80.5
378.35	84.5
378.576	74.5
378.802	72.5
379.027	83.5
379.253	82.5
379.478	83.5
379.704	83.5
379.929	81.5
380.155	82.5
380.38	75.5
380.606	80.5
380.831	70.5
381.057	87.5
381.282	86.5
381.507	80.5
381.733	81.5
381.958	82.5
382.184	85.5
382.409	83.5
382.634	81.5
382.86	82.5
383.085	85.5
383.31	76.5
383.535	75.5
383.761	83.5
383.986	76.5
384.211	76.5
384.436	89.5
384.662	79.5
384.887	91.5
385.112	84.5
385.337	81.5
385.562	89.5
385.787	89.5
386.013	76.5
386.238	75.5
386.463	85.5
386.688	82.5
386.913	80.5
387.138	80.5
387.363	81.5
387.588	92.5
387.813	103.5
388.038	83.5
388.263	83.5
388.488	79.5
388.713	77.5
388.938	94.5
389.163	87.5
389.387	82.5
389.612	69.5
389.837	81.5
390.062	87.5
390.287	68.5
390.512	78.5
390.736	87.5
390.961	80.5
391.186	70.5
391.411	67.5
391.636	71.5
391.86	98.5
392.085	88.5
392.31	76.5
392.534	79.5
392.759	75.5
392.984	75.5
393.208	88.5
393.433	97.5
393.658	77.5
393.882	85.5
394.107	89.5
394.331	84.5
394.556	76.5
394.78	82.5
395.005	80.5
395.229	87.5
395.454	80.5
395.678	84.5
395.903	95.5
396.127	76.5
396.352	89.5
396.576	84.5
396.801	72.5
397.025	72.5
397.249	86.5
397.474	85.5
397.698	75.5
397.922	81.5
398.147	75.5
398.371	79.5
398.595	84.5
398.82	83.5
399.044	72.5
399.268	97.5
399.492	88.5
399.717	98.5
399.941	76.5
400.165	85.5
400.389	79.5
400.613	82.5
400.837	62.5
401.062	85.5
401.286	88.5
401.51	79.5
401.734	66.5
401.958	80.5
402.182	82.5
402.406	80.5
402.63	85.5
402.854	85.5
403.078	87.5
403.302	72.5
403.526	80.5
403.75	83.5
403.974	76.5
404.198	83.5
404.422	76.5
404.645	72.5
404.869	92.5
405.093	80.5
405.317	74.5
405.541	81.5
405.765	67.5
405.988	92.5
406.212	75.5
406.436	71.5
406.66	73.5
406.883	86.5
407.107	77.5
407.331	79.5
407.555	82.5
407.778	72.5
408.002	77.5
408.226	79.5
408.449	71.5
408.673	80.5
408.896	88.5
409.12	83.5
409.344	88.5
409.567	93.5
409.791	98.5
410.014	80.5
410.238	87.5
410.461	84.5
410.685	81.5
410.908	82.5
411.132	84.5
411.355	81.5
411.578	91.5
411.802	81.5
412.025	78.5
412.249	99.5
412.472	86.5
412.695	74.5
412.919	88.5
413.142	99.5
413.365	80.5
413.589	91.5
413.812	75.5
414.035	92.5
414.258	94.5
414.482	78.5
414.705	94.5
414.928	82.5
415.151	76.5
415.374	83.5
415.597	83.5
415.821	76.5
416.044	101.5
416.267	84.5
416.49	96.5
416.713	79.5
416.936	88.5
417.159	81.5
417.382	76.5
417.605	75.5
417.828	81.5
418.051	91.5
418.274	92.5
418.497	85.5
418.72	86.5
418.943	82.5
419.166	89.5
419.389	76.5
419.611	82.5
419.834	87.5
420.057	82.5
420.28	84.5
420.503	86.5
420.726	81.5
420.948	91.5
421.171	85.5
421.394	91.5
421.617	92.5
421.839	75.5
422.062	83.5
422.285	98.5
422.507	98.5
422.73	83.5
422.953	82.5
423.175	80.5
423.398	73.5
423.621	94.5
423.843	82.5
424.066	76.5
424.288	82.5
424.511	85.5
424.733	88.5
424.956	98.5
425.178	89.5
425.401	102.5
425.623	85.5
425.846	80.5
426.068	86.5
426.291	91.5
426.513	83.5
426.735	86.5
426.958	94.5
427.18	85.5
427.402	85.5
427.625	70.5
427.847	76.5
428.069	72.5
428.292	72.5
428.514	88.5
428.736	82.5
428.958	71.5
429.181	75.5
429.403	87.5
429.625	91.5
429.847	75.5
430.069	91.5
430.292	91.5
430.514	89.5
430.736	89.5
430.958	91.5
431.18	88.5
431.402	84.5
431.624	91.5
431.846	76.5
432.068	64.5
432.29	87.5
432.512	86.5
432.734	99.5
432.956	94.5
433.178	95.5
433.4	80.5
433.622	93.5
433.844	88.5
434.066	74.5
434.287	90.5
434.509	76.5
434.731	93.5
434.953	78.5
435.175	72.5
435.397	74.5
435.618	92.5
435.84	68.5
436.062	83.5
436.284	85.5
436.505	91.5
436.727	81.5
436.949	89.5
437.17	98.5
437.392	80.5
437.614	72.5
437.835	86.5
438.057	71.5
438.278	82.5
438.5	86.5
438.721	87.5
438.943	86.5
439.165	89.5
439.386	98.5
439.608	91.5
439.829	86.5
440.05	91.5
440.272	88.5
440.493	92.5
440.715	80.5
440.936	87.5
441.158	104.5
441.379	84.5
441.6	88.5
441.822	92.5
442.043	97.5
442.264	92.5
442.486	94.5
442.707	83.5
442.928	82.5
443.149	90.5
443.371	86.5
443.592	71.5
443.813	80.5
444.034	91.5
444.255	79.5
444.476	81.5
444.698	88.5
444.919	100.5
445.14	211.5
445.361	145.5
445.582	100.5
445.803	75.5
446.024	89.5
446.245	105.5
446.466	80.5
446.687	95.5
446.908	88.5
447.129	112.5
447.35	83.5
447.571	96.5
447.792	92.5
448.013	104.5
448.234	82.5
448.455	104.5
448.675	91.5
448.896	76.5
449.117	82.5
449.338	74.5
449.559	90.5
449.779	88.5
450	95.5
450.221	92.5
450.442	85.5
450.662	88.5
450.883	89.5
451.104	88.5
451.324	79.5
451.545	88.5
451.766	80.5
451.986	94.5
452.207	95.5
452.428	94.5
452.648	79.5
452.869	82.5
453.089	82.5
453.31	80.5
453.53	103.5
453.751	80.5
453.971	93.5
454.192	82.5
454.412	76.5
454.633	101.5
454.853	79.5
455.073	98.5
455.294	93.5
455.514	84.5
455.734	85.5
455.955	80.5
456.175	77.5
456.395	76.5
456.616	89.5
456.836	78.5
457.056	72.5
457.276	62.5
457.497	66.5
457.717	86.5
457.937	76.5
458.157	84.5
458.377	88.5
458.598	88.5
458.818	73.5
459.038	66.5
459.258	81.5
459.478	66.5
459.698	84.5
459.918	82.5
460.138	87.5
460.358	75.5
460.578	59.5
460.798	80.5
461.018	84.5
461.238	89.5
461.458	88.5
461.678	80.5
461.898	83.5
462.118	90.5
462.338	90.5
462.558	72.5
462.777	84.5
462.997	72.5
463.217	76.5
463.437	89.5
463.657	90.5
463.876	91.5
464.096	80.5
464.316	75.5
464.536	80.5
464.755	76.5
464.975	74.5
465.195	72.5
465.414	92.5
465.634	94.5
465.854	80.5
466.073	73.5
466.293	76.5
466.512	83.5
466.732	85.5
466.951	81.5
467.171	76.5
467.391	73.5
467.61	94.5
467.829	96.5
468.049	91.5
468.268	94.5
468.488	88.5
468.707	77.5
468.927	76.5
469.146	94.5
469.365	96.5
469.585	98.5
469.804	91.5
470.023	88.5
470.243	90.5
470.462	88.5
470.681	89.5
470.901	103.5
471.12	96.5
471.339	89.5
471.558	94.5
471.777	86.5
471.997	81.5
472.216	83.5
472.435	85.5
472.654	74.5
472.873	96.5
473.092	95.5
473.311	86.5
473.53	96.5
473.749	96.5
473.968	86.5
474.187	87.5
474.406	84.5
474.625	76.5
474.844	89.5
475.063	91.5
475.282	78.5
475.501	87.5
475.72	96.5
475.939	88.5
476.158	89.5
476.377	75.5
476.596	90.5
476.814	97.5
477.033	94.5
477.252	85.5
477.471	92.5
477.69	103.5
477.908	86.5
478.127	87.5
478.346	90.5
478.564	79.5
478.783	91.5
479.002	95.5
479.22	84.5
479.439	89.5
479.658	92.5
479.876	87.5
480.095	75.5
480.313	78.5
480.532	94.5
480.751	88.5
480.969	77.5
481.188	90.5
481.406	83.5
481.624	80.5
481.843	84.5
482.061	67.5
482.28	89.5
482.498	92.5
482.717	90.5
482.935	81.5
483.153	92.5
483.372	88.5
483.59	99.5
483.808	90.5
484.027	85.5
484.245	83.5
484.463	75.5
484.681	97.5
484.9	100.5
485.118	85.5
485.336	99.5
485.554	84.5
485.772	84.5
485.99	75.5
486.209	81.5
486.427	89.5
486.645	86.5
486.863	84.5
487.081	81.5
487.299	90.5
487.517	86.5
487.735	93.5
487.953	98.5
488.171	106.5
488.389	86.5
488.607	84.5
488.825	91.5
489.043	76.5
489.261	92.5
489.479	95.5
489.696	73.5
489.914	85.5
490.132	99.5
490.35	91.5
490.568	96.5
490.786	91.5
491.003	101.5
491.221	92.5
491.439	96.5
491.657	95.5
491.874	100.5
492.092	110.5
492.31	111.5
492.527	103.5
492.745	110.5
492.963	110.5
493.18	114.5
493.398	104.5
493.615	92.5
493.833	100.5
494.05	107.5
494.268	89.5
494.485	102.5
494.703	92.5
494.92	106.5
495.138	90.5
495.355	94.5
495.573	97.5
495.79	88.5
496.008	106.5
496.225	96.5
496.442	97.5
496.66	100.5
496.877	95.5
497.094	92.5
497.312	92.5
497.529	90.5
497.746	93.5
497.963	81.5
498.181	103.5
498.398	93.5
498.615	90.5
498.832	82.5
499.049	78.5
499.267	80.5
499.484	80.5
499.701	90.5
499.918	92.5
500.135	91.5
500.352	83.5
500.569	103.5
500.786	101.5
501.003	87.5
501.22	84.5
501.437	93.5
501.654	93.5
501.871	102.5
502.088	89.5
502.305	85.5
502.522	96.5
502.739	94.5
502.956	58.5
503.172	95.5
503.389	86.5
503.606	86.5
503.823	80.5
504.04	82.5
504.256	70.5
504.473	77.5
504.69	84.5
504.907	84.5
505.123	78.5
505.34	85.5
505.557	78.5
505.773	83.5
505.99	94.5
506.207	110.5
506.423	82.5
506.64	90.5
506.856	86.5
507.073	94.5
507.289	86.5
507.506	79.5
507.722	83.5
507.939	86.5
508.155	83.5
508.372	85.5
508.588	82.5
508.805	94.5
509.021	96.5
509.238	78.5
509.454	89.5
509.67	99.5
509.887	77.5
510.103	72.5
510.319	89.5
510.536	84.5
510.752	83.5
510.968	75.5
511.184	80.5
511.401	78.5
511.617	90.5
511.833	94.5
512.049	87.5
512.265	97.5
512.481	84.5
512.698	95.5
512.914	90.5
513.13	93.5
513.346	75.5
513.562	81.5
513.778	97.5
513.994	80.5
514.21	87.5
514.426	80.5
514.642	76.5
514.858	93.5
515.074	70.5
515.29	69.5
515.506	74.5
515.721	72.5
515.937	78.5
516.153	67.5
516.369	75.5
516.585	76.5
516.801	80.5
517.016	85.5
517.232	85.5
517.448	97.5
517.664	92.5
517.879	81.5
518.095	83.5
518.311	80.5
518.527	79.5
518.742	76.5
518.958	93.5
519.173	97.5
519.389	84.5
519.605	96.5
519.82	91.5
520.036	80.5
520.251	88.5
520.467	74.5
520.682	79.5
520.898	98.5
521.113	81.5
521.329	83.5
521.544	81.5
521.76	86.5
521.975	73.5
522.19	101.5
522.406	74.5
522.621	82.5
522.836	80.5
523.052	83.5
523.267	71.5
523.482	82.5
523.698	91.5
523.913	87.5
524.128	85.5
524.343	89.5
524.559	96.5
524.774	78.5
524.989	81.5
525.204	93.5
525.419	78.5
525.634	95.5
525.849	91.5
526.064	89.5
526.28	99.5
526.495	78.5
526.71	80.5
526.925	85.5
527.14	75.5
527.355	87.5
527.57	82.5
527.785	86.5
527.999	86.5
528.214	77.5
528.429	88.5
528.644	80.5
528.859	98.5
529.074	98.5
529.289	112.5
529.503	94.5
529.718	103.5
529.933	98.5
530.148	82.5
530.363	91.5
530.577	89.5
530.792	77.5
531.007	81.5
531.221	75.5
531.436	73.5
531.651	86.5
531.865	77.5
532.08	82.5
532.295	73.5
532.509	82.5
532.724	80.5
532.938	98.5
533.153	88.5
533.367	95.5
533.582	78.5
533.796	80.5
534.011	88.5
534.225	76.5
534.44	87.5
534.654	84.5
534.868	91.5
535.083	83.5
535.297	71.5
535.511	83.5
535.726	91.5
535.94	91.5
536.154	82.5
536.369	80.5
536.583	99.5
536.797	78.5
537.011	80.5
537.225	86.5
537.44	80.5
537.654	84.5
537.868	87.5
538.082	73.5
538.296	69.5
538.51	79.5
538.724	91.5
538.938	87.5
539.153	75.5
