Data from 1970.Penny.LincolnSideUp.Lamp.En5.5200Scan.07242019.P1_HRD10591_15-02-53-044.txt Node
Date: Wed Jul 24 15:02:53 EDT 2019
User: cochatt
Spectrometer: HR+D1059
Trigger mode: 1
Integration Time (sec): 1.000000E-1
Scans to average: 1
Electric dark correction enabled: true
Nonlinearity correction enabled: false
Boxcar width: 0
XAxis mode: Wavelengths
Number of Pixels in Spectrum: 2048
>>>>>Begin Spectral Data<<<<<
223.165	-6.88
223.4	-6.88
223.635	-6.88
223.869	-16.88
224.104	-34.88
224.338	-15.88
224.573	-11.88
224.808	-23.88
225.042	-3.88
225.277	-3.88
225.511	-4.88
225.746	0.12
225.98	8.12
226.215	9.12
226.449	9.12
226.683	25.12
226.918	32.12
227.152	39.12
227.387	27.12
227.621	44.12
227.856	46.12
228.09	26.12
228.324	48.12
228.559	62.12
228.793	122.12
229.027	334.12
229.262	382.12
229.496	416.12
229.73	545.12
229.964	680.12
230.199	492.12
230.433	392.12
230.667	372.12
230.901	376.12
231.136	333.12
231.37	338.12
231.604	334.12
231.838	349.12
232.072	339.12
232.306	337.12
232.541	351.12
232.775	344.12
233.009	325.12
233.243	375.12
233.477	342.12
233.711	358.12
233.945	377.12
234.179	380.12
234.413	363.12
234.647	384.12
234.881	368.12
235.115	388.12
235.349	400.12
235.583	405.12
235.817	432.12
236.051	463.12
236.285	439.12
236.519	438.12
236.753	471.12
236.987	572.12
237.221	867.12
237.455	1232.12
237.689	871.12
237.922	546.12
238.156	536.12
238.39	496.12
238.624	469.12
238.858	476.12
239.091	488.12
239.325	460.12
239.559	477.12
239.793	490.12
240.027	530.12
240.26	568.12
240.494	669.12
240.728	678.12
240.961	655.12
241.195	611.12
241.429	561.12
241.662	544.12
241.896	544.12
242.13	519.12
242.363	516.12
242.597	532.12
242.83	549.12
243.064	570.12
243.298	568.12
243.531	571.12
243.765	574.12
243.998	567.12
244.232	582.12
244.465	613.12
244.699	635.12
244.932	619.12
245.166	631.12
245.399	606.12
245.633	603.12
245.866	592.12
246.099	621.12
246.333	616.12
246.566	635.12
246.8	650.12
247.033	686.12
247.266	694.12
247.5	712.12
247.733	736.12
247.966	787.12
248.2	761.12
248.433	747.12
248.666	810.12
248.899	842.12
249.133	921.12
249.366	963.12
249.599	925.12
249.832	830.12
250.066	808.12
250.299	829.12
250.532	904.12
250.765	1000.12
250.998	1126.12
251.231	1174.12
251.465	1021.12
251.698	952.12
251.931	912.12
252.164	875.12
252.397	906.12
252.63	924.12
252.863	983.12
253.096	1032.12
253.329	1097.12
253.562	1084.12
253.795	1031.12
254.028	1008.12
254.261	1022.12
254.494	1090.12
254.727	1289.12
254.96	1473.12
255.193	1385.12
255.426	1172.12
255.659	1104.12
255.892	1070.12
256.124	1155.12
256.357	1138.12
256.59	1065.12
256.823	1026.12
257.056	979.12
257.289	952.12
257.521	964.12
257.754	972.12
257.987	954.12
258.22	998.12
258.452	968.12
258.685	977.12
258.918	971.12
259.151	969.12
259.383	1039.12
259.616	1072.12
259.849	1066.12
260.081	1120.12
260.314	1242.12
260.547	1289.12
260.779	1178.12
261.012	1113.12
261.244	1068.12
261.477	1033.12
261.71	1032.12
261.942	1037.12
262.175	1074.12
262.407	1089.12
262.64	999.12
262.872	979.12
263.105	996.12
263.337	989.12
263.57	981.12
263.802	976.12
264.035	978.12
264.267	982.12
264.499	984.12
264.732	1038.12
264.964	1014.12
265.197	1001.12
265.429	1011.12
265.661	1025.12
265.894	1036.12
266.126	1008.12
266.358	1013.12
266.591	1047.12
266.823	1086.12
267.055	1086.12
267.287	1073.12
267.52	1068.12
267.752	1055.12
267.984	1057.12
268.216	1064.12
268.448	1085.12
268.681	1096.12
268.913	1166.12
269.145	1290.12
269.377	1376.12
269.609	1346.12
269.841	1289.12
270.073	1333.12
270.306	1461.12
270.538	1609.12
270.77	1583.12
271.002	1478.12
271.234	1401.12
271.466	1395.12
271.698	1547.12
271.93	1594.12
272.162	1538.12
272.394	1518.12
272.626	1496.12
272.858	1362.12
273.09	1315.12
273.322	1294.12
273.553	1268.12
273.785	1234.12
274.017	1228.12
274.249	1268.12
274.481	1278.12
274.713	1252.12
274.945	1309.12
275.176	1284.12
275.408	1220.12
275.64	1254.12
275.872	1271.12
276.104	1269.12
276.335	1249.12
276.567	1294.12
276.799	1360.12
277.031	1446.12
277.262	1603.12
277.494	1567.12
277.726	1470.12
277.957	1379.12
278.189	1336.12
278.421	1330.12
278.652	1318.12
278.884	1328.12
279.115	1347.12
279.347	1314.12
279.579	1306.12
279.81	1306.12
280.042	1303.12
280.273	1286.12
280.505	1297.12
280.736	1336.12
280.968	1296.12
281.199	1297.12
281.431	1303.12
281.662	1302.12
281.894	1324.12
282.125	1330.12
282.356	1395.12
282.588	1461.12
282.819	1493.12
283.051	1390.12
283.282	1345.12
283.513	1381.12
283.745	1356.12
283.976	1362.12
284.207	1404.12
284.439	1410.12
284.67	1408.12
284.901	1371.12
285.132	1372.12
285.364	1384.12
285.595	1361.12
285.826	1348.12
286.057	1394.12
286.288	1379.12
286.52	1400.12
286.751	1392.12
286.982	1393.12
287.213	1403.12
287.444	1402.12
287.675	1433.12
287.906	1484.12
288.138	1558.12
288.369	1481.12
288.6	1502.12
288.831	1463.12
289.062	1483.12
289.293	1450.12
289.524	1420.12
289.755	1440.12
289.986	1447.12
290.217	1427.12
290.448	1400.12
290.679	1401.12
290.91	1452.12
291.141	1434.12
291.371	1464.12
291.602	1437.12
291.833	1449.12
292.064	1456.12
292.295	1412.12
292.526	1407.12
292.757	1452.12
292.987	1411.12
293.218	1411.12
293.449	1441.12
293.68	1436.12
293.91	1431.12
294.141	1456.12
294.372	1398.12
294.603	1453.12
294.833	1462.12
295.064	1426.12
295.295	1433.12
295.525	1453.12
295.756	1443.12
295.987	1491.12
296.217	1538.12
296.448	1612.12
296.679	1469.12
296.909	1490.12
297.14	1463.12
297.37	1502.12
297.601	1484.12
297.831	1441.12
298.062	1466.12
298.292	1539.12
298.523	1528.12
298.753	1541.12
298.984	1499.12
299.214	1544.12
299.445	1523.12
299.675	1514.12
299.905	1600.12
300.136	1551.12
300.366	1510.12
300.597	1515.12
300.827	1561.12
301.057	1595.12
301.288	1612.12
301.518	1628.12
301.748	1615.12
301.979	1630.12
302.209	1639.12
302.439	1672.12
302.669	1601.12
302.9	1644.12
303.13	1591.12
303.36	1640.12
303.59	1654.12
303.82	1644.12
304.051	1672.12
304.281	1657.12
304.511	1647.12
304.741	1611.12
304.971	1630.12
305.201	1605.12
305.431	1616.12
305.661	1596.12
305.891	1588.12
306.121	1588.12
306.352	1628.12
306.582	1635.12
306.812	1564.12
307.042	1582.12
307.272	1629.12
307.502	1596.12
307.731	1618.12
307.961	1625.12
308.191	1617.12
308.421	1603.12
308.651	1656.12
308.881	1621.12
309.111	1630.12
309.341	1636.12
309.571	1646.12
309.8	1717.12
310.03	1737.12
310.26	1744.12
310.49	1740.12
310.72	1799.12
310.949	1855.12
311.179	1822.12
311.409	1782.12
311.639	1772.12
311.868	1788.12
312.098	1778.12
312.328	1795.12
312.557	1867.12
312.787	1904.12
313.017	1946.12
313.246	1823.12
313.476	1812.12
313.706	1802.12
313.935	1811.12
314.165	1865.12
314.394	1939.12
314.624	1885.12
314.853	1890.12
315.083	1849.12
315.312	1812.12
315.542	1762.12
315.771	1754.12
316.001	1767.12
316.23	1769.12
316.46	1768.12
316.689	1810.12
316.919	1796.12
317.148	1867.12
317.377	1856.12
317.607	1835.12
317.836	1825.12
318.065	1824.12
318.295	1764.12
318.524	1793.12
318.753	1761.12
318.983	1774.12
319.212	1794.12
319.441	1828.12
319.67	1828.12
319.9	1822.12
320.129	1801.12
320.358	1806.12
320.587	1788.12
320.816	1809.12
321.046	1876.12
321.275	1873.12
321.504	1855.12
321.733	1900.12
321.962	1877.12
322.191	1918.12
322.42	1965.12
322.649	1999.12
322.878	2039.12
323.108	2103.12
323.337	2201.12
323.566	2199.12
323.795	2313.12
324.024	2490.12
324.253	2896.12
324.482	4246.12
324.71	7140.12
324.939	11842.12
325.168	9955.12
325.397	3953.12
325.626	2725.12
325.855	2324.12
326.084	2240.12
326.313	2212.12
326.542	2250.12
326.77	2443.12
326.999	2791.12
327.228	3970.12
327.457	6700.12
327.686	9102.12
327.914	4931.12
328.143	2995.12
328.372	2705.12
328.6	2619.12
328.829	2498.12
329.058	2544.12
329.287	2665.12
329.515	2513.12
329.744	2325.12
329.972	2278.12
330.201	2414.12
330.43	2545.12
330.658	2724.12
330.887	2809.12
331.115	2794.12
331.344	2444.12
331.572	2332.12
331.801	2336.12
332.03	2366.12
332.258	2267.12
332.486	2230.12
332.715	2279.12
332.943	2303.12
333.172	2357.12
333.4	2372.12
333.629	2451.12
333.857	2513.12
334.085	2522.12
334.314	2577.12
334.542	2708.12
334.771	2773.12
334.999	2582.12
335.227	2424.12
335.455	2354.12
335.684	2297.12
335.912	2313.12
336.14	2292.12
336.369	2305.12
336.597	2288.12
336.825	2296.12
337.053	2238.12
337.281	2240.12
337.51	2194.12
337.738	2214.12
337.966	2202.12
338.194	2196.12
338.422	2224.12
338.65	2165.12
338.878	2102.12
339.106	2102.12
339.334	2111.12
339.562	2102.12
339.79	2066.12
340.018	2094.12
340.246	2102.12
340.474	2097.12
340.702	2084.12
340.93	2068.12
341.158	2100.12
341.386	2100.12
341.614	2095.12
341.842	2127.12
342.07	2040.12
342.298	2029.12
342.526	2018.12
342.754	2057.12
342.981	1993.12
343.209	2060.12
343.437	2121.12
343.665	2147.12
343.893	2251.12
344.12	2295.12
344.348	2283.12
344.576	2198.12
344.804	2170.12
345.031	2144.12
345.259	2218.12
345.487	2136.12
345.714	2088.12
345.942	2025.12
346.17	2048.12
346.397	1985.12
346.625	1995.12
346.853	1995.12
347.08	2003.12
347.308	1987.12
347.535	2047.12
347.763	2009.12
347.99	2031.12
348.218	2018.12
348.445	2005.12
348.673	2004.12
348.9	1970.12
349.128	1952.12
349.355	1904.12
349.583	1921.12
349.81	1940.12
350.037	1890.12
350.265	1917.12
350.492	1899.12
350.72	1946.12
350.947	1936.12
351.174	1940.12
351.402	2044.12
351.629	2014.12
351.856	1960.12
352.083	1970.12
352.311	2018.12
352.538	2029.12
352.765	2019.12
352.992	1970.12
353.22	1945.12
353.447	1936.12
353.674	1894.12
353.901	1896.12
354.128	1865.12
354.355	1876.12
354.583	1859.12
354.81	1905.12
355.037	1863.12
355.264	1838.12
355.491	1879.12
355.718	1872.12
355.945	1857.12
356.172	1826.12
356.399	1842.12
356.626	1875.12
356.853	1872.12
357.08	1858.12
357.307	1804.12
357.534	1830.12
357.761	1855.12
357.988	1887.12
358.215	1818.12
358.441	1858.12
358.668	1876.12
358.895	1902.12
359.122	1916.12
359.349	1911.12
359.576	1920.12
359.802	2014.12
360.029	2163.12
360.256	2224.12
360.483	2139.12
360.709	1989.12
360.936	1971.12
361.163	1971.12
361.39	2020.12
361.616	2014.12
361.843	1927.12
362.07	1964.12
362.296	1955.12
362.523	1957.12
362.749	1984.12
362.976	1988.12
363.203	1919.12
363.429	1919.12
363.656	1932.12
363.882	1906.12
364.109	1874.12
364.335	1885.12
364.562	1927.12
364.788	1894.12
365.015	1860.12
365.241	1907.12
365.468	1918.12
365.694	1947.12
365.92	1942.12
366.147	1918.12
366.373	1928.12
366.599	1926.12
366.826	1959.12
367.052	1903.12
367.278	1908.12
367.505	1902.12
367.731	1970.12
367.957	1939.12
368.184	1921.12
368.41	1987.12
368.636	2046.12
368.862	2019.12
369.089	2019.12
369.315	1994.12
369.541	1936.12
369.767	1963.12
369.993	1967.12
370.219	1956.12
370.445	1943.12
370.672	1970.12
370.898	2009.12
371.124	2055.12
371.35	2014.12
371.576	2031.12
371.802	2006.12
372.028	1980.12
372.254	2004.12
372.48	1998.12
372.706	2037.12
372.932	2064.12
373.158	2056.12
373.384	2098.12
373.61	2035.12
373.835	2074.12
374.061	2045.12
374.287	2049.12
374.513	2069.12
374.739	2089.12
374.965	2131.12
375.191	2117.12
375.416	2166.12
375.642	2113.12
375.868	2096.12
376.094	2086.12
376.319	2050.12
376.545	2067.12
376.771	2078.12
376.997	2048.12
377.222	2018.12
377.448	2056.12
377.674	2066.12
377.899	2025.12
378.125	2022.12
378.35	2038.12
378.576	1993.12
378.802	2001.12
379.027	2048.12
379.253	2044.12
379.478	2031.12
379.704	2017.12
379.929	2077.12
380.155	2070.12
380.38	2060.12
380.606	2042.12
380.831	2089.12
381.057	2107.12
381.282	2099.12
381.507	2097.12
381.733	2068.12
381.958	2072.12
382.184	2100.12
382.409	2132.12
382.634	2171.12
382.86	2110.12
383.085	2184.12
383.31	2202.12
383.535	2207.12
383.761	2214.12
383.986	2306.12
384.211	2264.12
384.436	2242.12
384.662	2354.12
384.887	2345.12
385.112	2332.12
385.337	2342.12
385.562	2369.12
385.787	2376.12
386.013	2466.12
386.238	2475.12
386.463	2451.12
386.688	2432.12
386.913	2390.12
387.138	2422.12
387.363	2424.12
387.588	2359.12
387.813	2379.12
388.038	2381.12
388.263	2387.12
388.488	2419.12
388.713	2396.12
388.938	2430.12
389.163	2431.12
389.387	2451.12
389.612	2392.12
389.837	2378.12
390.062	2342.12
390.287	2388.12
390.512	2375.12
390.736	2394.12
390.961	2450.12
391.186	2441.12
391.411	2524.12
391.636	2526.12
391.86	2571.12
392.085	2614.12
392.31	2533.12
392.534	2635.12
392.759	2570.12
392.984	2553.12
393.208	2462.12
393.433	2481.12
393.658	2500.12
393.882	2455.12
394.107	2486.12
394.331	2527.12
394.556	2495.12
394.78	2484.12
395.005	2506.12
395.229	2486.12
395.454	2533.12
395.678	2704.12
395.903	2692.12
396.127	2795.12
396.352	2787.12
396.576	2622.12
396.801	2600.12
397.025	2622.12
397.249	2611.12
397.474	2660.12
397.698	2719.12
397.922	2764.12
398.147	2876.12
398.371	2913.12
398.595	2835.12
398.82	2903.12
399.044	3063.12
399.268	3204.12
399.492	3568.12
399.717	3834.12
399.941	4046.12
400.165	4010.12
400.389	3907.12
400.613	3444.12
400.837	3210.12
401.062	3040.12
401.286	3014.12
401.51	2960.12
401.734	2978.12
401.958	2922.12
402.182	3049.12
402.406	3022.12
402.63	3086.12
402.854	3073.12
403.078	3149.12
403.302	3163.12
403.526	3172.12
403.75	3156.12
403.974	3186.12
404.198	3240.12
404.422	3225.12
404.645	3252.12
404.869	3271.12
405.093	3446.12
405.317	3688.12
405.541	3937.12
405.765	3478.12
405.988	3255.12
406.212	3314.12
406.436	3478.12
406.66	3533.12
406.883	3429.12
407.107	3649.12
407.331	3934.12
407.555	4485.12
407.778	4390.12
408.002	3926.12
408.226	3658.12
408.449	3559.12
408.673	3510.12
408.896	3648.12
409.12	3958.12
409.344	3618.12
409.567	3274.12
409.791	3184.12
410.014	3155.12
410.238	3132.12
410.461	3158.12
410.685	3198.12
410.908	3247.12
411.132	3483.12
411.355	3654.12
411.578	3399.12
411.802	3093.12
412.025	3074.12
412.249	3157.12
412.472	3335.12
412.695	3598.12
412.919	3478.12
413.142	3181.12
413.365	3070.12
413.589	3017.12
413.812	3003.12
414.035	2930.12
414.258	2930.12
414.482	2981.12
414.705	2947.12
414.928	2908.12
415.151	2932.12
415.374	2919.12
415.597	2877.12
415.821	2889.12
416.044	2927.12
416.267	2970.12
416.49	2899.12
416.713	2855.12
416.936	2874.12
417.159	2890.12
417.382	2923.12
417.605	2998.12
417.828	3026.12
418.051	3118.12
418.274	3085.12
418.497	2926.12
418.72	2995.12
418.943	2940.12
419.166	3177.12
419.389	3390.12
419.611	3283.12
419.834	3178.12
420.057	3174.12
420.28	3231.12
420.503	3075.12
420.726	3038.12
420.948	3163.12
421.171	3423.12
421.394	3641.12
421.617	3203.12
421.839	3072.12
422.062	3088.12
422.285	3151.12
422.507	3569.12
422.73	4040.12
422.953	3806.12
423.175	3315.12
423.398	3206.12
423.621	3271.12
423.843	3486.12
424.066	3394.12
424.288	3348.12
424.511	3487.12
424.733	3873.12
424.956	4395.12
425.178	4053.12
425.401	4054.12
425.623	4267.12
425.846	3491.12
426.068	3246.12
426.291	3090.12
426.513	3128.12
426.735	3282.12
426.958	3506.12
427.18	4148.12
427.402	5109.12
427.625	5651.12
427.847	4512.12
428.069	3805.12
428.292	3377.12
428.514	3112.12
428.736	2947.12
428.958	2994.12
429.181	2888.12
429.403	2917.12
429.625	2910.12
429.847	3211.12
430.069	3750.12
430.292	3568.12
430.514	2982.12
430.736	2932.12
430.958	2874.12
431.18	2804.12
431.402	2758.12
431.624	2728.12
431.846	2700.12
432.068	2657.12
432.29	2702.12
432.512	2690.12
432.734	2862.12
432.956	2816.12
433.178	2889.12
433.4	2981.12
433.622	2787.12
433.844	2744.12
434.066	2744.12
434.287	2684.12
434.509	2750.12
434.731	2807.12
434.953	2944.12
435.175	3118.12
435.397	3256.12
435.618	3206.12
435.84	3453.12
436.062	4308.12
436.284	4906.12
436.505	3704.12
436.727	3258.12
436.949	3019.12
437.17	2922.12
437.392	2920.12
437.614	2956.12
437.835	3126.12
438.057	3819.12
438.278	4802.12
438.5	4690.12
438.721	5561.12
438.943	5106.12
439.165	3670.12
439.386	3355.12
439.608	3338.12
439.829	3341.12
440.05	3566.12
440.272	4015.12
440.493	3585.12
440.715	3206.12
440.936	3065.12
441.158	3064.12
441.379	3091.12
441.6	3203.12
441.822	3290.12
442.043	3638.12
442.264	4456.12
442.486	4775.12
442.707	3775.12
442.928	3439.12
443.149	3508.12
443.371	3729.12
443.592	4094.12
443.813	4951.12
444.034	5376.12
444.255	4060.12
444.476	3614.12
444.698	3544.12
444.919	3538.12
445.14	3667.12
445.361	3705.12
445.582	3772.12
445.803	4392.12
446.024	5288.12
446.245	5286.12
446.466	4645.12
446.687	3704.12
446.908	3320.12
447.129	3140.12
447.35	3012.12
447.571	2968.12
447.792	2940.12
448.013	2978.12
448.234	3101.12
448.455	3498.12
448.675	4568.12
448.896	5822.12
449.117	4352.12
449.338	4018.12
449.559	5123.12
449.779	6289.12
450	4250.12
450.221	3343.12
450.442	2972.12
450.662	2823.12
450.883	2818.12
451.104	2907.12
451.324	2838.12
451.545	2699.12
451.766	2600.12
451.986	2520.12
452.207	2519.12
452.428	2517.12
452.648	2567.12
452.869	2592.12
453.089	2583.12
453.31	2656.12
453.53	2546.12
453.751	2411.12
453.971	2427.12
454.192	2507.12
454.412	2457.12
454.633	2394.12
454.853	2420.12
455.073	2420.12
455.294	2756.12
455.514	3375.12
455.734	3082.12
455.955	2495.12
456.175	2335.12
456.395	2304.12
456.616	2252.12
456.836	2271.12
457.056	2214.12
457.276	2246.12
457.497	2281.12
457.717	2311.12
457.937	2316.12
458.157	2334.12
458.377	2352.12
458.598	2460.12
458.818	2778.12
459.038	3410.12
459.258	3655.12
459.478	2850.12
459.698	2627.12
459.918	2588.12
460.138	2688.12
460.358	2770.12
460.578	2789.12
460.798	2801.12
461.018	2905.12
461.238	2816.12
461.458	2763.12
461.678	2785.12
461.898	2738.12
462.118	2786.12
462.338	2880.12
462.558	2965.12
462.777	2962.12
462.997	3185.12
463.217	3337.12
463.437	3331.12
463.657	3145.12
463.876	3020.12
464.096	3074.12
464.316	3044.12
464.536	3098.12
464.755	3044.12
464.975	3034.12
465.195	3089.12
465.414	3364.12
465.634	2952.12
465.854	2747.12
466.073	2635.12
466.293	2598.12
466.512	2483.12
466.732	2520.12
466.951	2514.12
467.171	2487.12
467.391	2547.12
467.61	2550.12
467.829	2619.12
468.049	2567.12
468.268	2563.12
468.488	2471.12
468.707	2457.12
468.927	2449.12
469.146	2467.12
469.365	2493.12
469.585	2489.12
469.804	2578.12
470.023	2642.12
470.243	2569.12
470.462	2634.12
470.681	2706.12
470.901	2686.12
471.12	2644.12
471.339	2619.12
471.558	2635.12
471.777	2588.12
471.997	2473.12
472.216	2478.12
472.435	2586.12
472.654	2486.12
472.873	2371.12
473.092	2416.12
473.311	2391.12
473.53	2493.12
473.749	2543.12
473.968	2814.12
474.187	3731.12
474.406	3872.12
474.625	2842.12
474.844	2577.12
475.063	2521.12
475.282	2432.12
475.501	2464.12
475.72	2500.12
475.939	2518.12
476.158	2553.12
476.377	2578.12
476.596	2511.12
476.814	2549.12
477.033	2495.12
477.252	2549.12
477.471	2617.12
477.69	2695.12
477.908	2772.12
478.127	2807.12
478.346	2804.12
478.564	2868.12
478.783	2918.12
479.002	2894.12
479.22	2920.12
479.439	2977.12
479.658	3030.12
479.876	3017.12
480.095	3048.12
480.313	3301.12
480.532	3213.12
480.751	3098.12
480.969	3103.12
481.188	3267.12
481.406	3402.12
481.624	3043.12
481.843	2910.12
482.061	2814.12
482.28	2843.12
482.498	2801.12
482.717	2800.12
482.935	2794.12
483.153	2854.12
483.372	2899.12
483.59	2866.12
483.808	2818.12
484.027	2866.12
484.245	2793.12
484.463	2917.12
484.681	2967.12
484.9	2946.12
485.118	2952.12
485.336	2947.12
485.554	2918.12
485.772	2886.12
485.99	2889.12
486.209	2974.12
486.427	2966.12
486.645	3006.12
486.863	3133.12
487.081	3118.12
487.299	3031.12
487.517	3072.12
487.735	3164.12
487.953	3270.12
