Data from 1970.Penny.LincolnSideUp.Lamp.En5.5200Scan.07242019.P1_HRD10591_15-02-47-044.txt Node
Date: Wed Jul 24 15:02:47 EDT 2019
User: cochatt
Spectrometer: HR+D1059
Trigger mode: 1
Integration Time (sec): 1.000000E-1
Scans to average: 1
Electric dark correction enabled: true
Nonlinearity correction enabled: false
Boxcar width: 0
XAxis mode: Wavelengths
Number of Pixels in Spectrum: 2048
>>>>>Begin Spectral Data<<<<<
223.165	-22.06
223.4	-22.06
223.635	-22.06
223.869	-25.06
224.104	-26.06
224.338	-17.06
224.573	-15.06
224.808	-4.06
225.042	-13.06
225.277	8.94
225.511	-3.06
225.746	6.94
225.98	17.94
226.215	12.94
226.449	9.94
226.683	12.94
226.918	31.94
227.152	23.94
227.387	45.94
227.621	44.94
227.856	36.94
228.09	39.94
228.324	56.94
228.559	47.94
228.793	117.94
229.027	295.94
229.262	330.94
229.496	359.94
229.73	491.94
229.964	600.94
230.199	423.94
230.433	329.94
230.667	342.94
230.901	318.94
231.136	291.94
231.37	284.94
231.604	310.94
231.838	290.94
232.072	292.94
232.306	304.94
232.541	302.94
232.775	295.94
233.009	324.94
233.243	326.94
233.477	304.94
233.711	314.94
233.945	315.94
234.179	326.94
234.413	334.94
234.647	331.94
234.881	328.94
235.115	346.94
235.349	343.94
235.583	354.94
235.817	386.94
236.051	411.94
236.285	419.94
236.519	402.94
236.753	422.94
236.987	502.94
237.221	735.94
237.455	1092.94
237.689	723.94
237.922	479.94
238.156	461.94
238.39	450.94
238.624	415.94
238.858	410.94
239.091	403.94
239.325	408.94
239.559	408.94
239.793	429.94
240.027	466.94
240.26	516.94
240.494	604.94
240.728	591.94
240.961	589.94
241.195	523.94
241.429	495.94
241.662	474.94
241.896	471.94
242.13	456.94
242.363	461.94
242.597	462.94
242.83	474.94
243.064	500.94
243.298	506.94
243.531	486.94
243.765	480.94
243.998	493.94
244.232	516.94
244.465	522.94
244.699	541.94
244.932	556.94
245.166	529.94
245.399	551.94
245.633	547.94
245.866	555.94
246.099	539.94
246.333	561.94
246.566	589.94
246.8	580.94
247.033	588.94
247.266	608.94
247.5	636.94
247.733	676.94
247.966	667.94
248.2	671.94
248.433	683.94
248.666	686.94
248.899	732.94
249.133	810.94
249.366	824.94
249.599	781.94
249.832	710.94
250.066	702.94
250.299	725.94
250.532	763.94
250.765	830.94
250.998	964.94
251.231	974.94
251.465	893.94
251.698	829.94
251.931	814.94
252.164	801.94
252.397	778.94
252.63	825.94
252.863	866.94
253.096	881.94
253.329	965.94
253.562	965.94
253.795	894.94
254.028	869.94
254.261	887.94
254.494	936.94
254.727	1079.94
254.96	1277.94
255.193	1153.94
255.426	1016.94
255.659	972.94
255.892	904.94
256.124	956.94
256.357	979.94
256.59	872.94
256.823	854.94
257.056	828.94
257.289	845.94
257.521	850.94
257.754	844.94
257.987	841.94
258.22	866.94
258.452	817.94
258.685	836.94
258.918	854.94
259.151	848.94
259.383	890.94
259.616	901.94
259.849	920.94
260.081	966.94
260.314	1085.94
260.547	1094.94
260.779	1000.94
261.012	944.94
261.244	920.94
261.477	878.94
261.71	875.94
261.942	909.94
262.175	922.94
262.407	897.94
262.64	855.94
262.872	875.94
263.105	856.94
263.337	839.94
263.57	854.94
263.802	842.94
264.035	844.94
264.267	847.94
264.499	878.94
264.732	849.94
264.964	863.94
265.197	876.94
265.429	889.94
265.661	857.94
265.894	865.94
266.126	832.94
266.358	874.94
266.591	894.94
266.823	914.94
267.055	917.94
267.287	939.94
267.52	914.94
267.752	910.94
267.984	907.94
268.216	926.94
268.448	934.94
268.681	955.94
268.913	1026.94
269.145	1116.94
269.377	1177.94
269.609	1142.94
269.841	1098.94
270.073	1120.94
270.306	1226.94
270.538	1353.94
270.77	1329.94
271.002	1286.94
271.234	1190.94
271.466	1232.94
271.698	1320.94
271.93	1323.94
272.162	1350.94
272.394	1323.94
272.626	1278.94
272.858	1194.94
273.09	1148.94
273.322	1128.94
273.553	1067.94
273.785	1098.94
274.017	1080.94
274.249	1066.94
274.481	1080.94
274.713	1078.94
274.945	1104.94
275.176	1100.94
275.408	1079.94
275.64	1099.94
275.872	1090.94
276.104	1089.94
276.335	1107.94
276.567	1118.94
276.799	1176.94
277.031	1284.94
277.262	1360.94
277.494	1369.94
277.726	1272.94
277.957	1218.94
278.189	1155.94
278.421	1132.94
278.652	1081.94
278.884	1136.94
279.115	1103.94
279.347	1100.94
279.579	1111.94
279.81	1105.94
280.042	1089.94
280.273	1138.94
280.505	1133.94
280.736	1086.94
280.968	1110.94
281.199	1110.94
281.431	1147.94
281.662	1127.94
281.894	1122.94
282.125	1136.94
282.356	1190.94
282.588	1225.94
282.819	1255.94
283.051	1165.94
283.282	1151.94
283.513	1136.94
283.745	1176.94
283.976	1160.94
284.207	1183.94
284.439	1184.94
284.67	1151.94
284.901	1153.94
285.132	1192.94
285.364	1169.94
285.595	1182.94
285.826	1177.94
286.057	1193.94
286.288	1198.94
286.52	1197.94
286.751	1197.94
286.982	1178.94
287.213	1174.94
287.444	1209.94
287.675	1206.94
287.906	1231.94
288.138	1276.94
288.369	1245.94
288.6	1290.94
288.831	1239.94
289.062	1250.94
289.293	1261.94
289.524	1242.94
289.755	1218.94
289.986	1210.94
290.217	1180.94
290.448	1186.94
290.679	1206.94
290.91	1208.94
291.141	1201.94
291.371	1239.94
291.602	1217.94
291.833	1214.94
292.064	1230.94
292.295	1239.94
292.526	1198.94
292.757	1218.94
292.987	1199.94
293.218	1208.94
293.449	1254.94
293.68	1256.94
293.91	1180.94
294.141	1211.94
294.372	1208.94
294.603	1217.94
294.833	1234.94
295.064	1229.94
295.295	1228.94
295.525	1232.94
295.756	1245.94
295.987	1250.94
296.217	1330.94
296.448	1330.94
296.679	1255.94
296.909	1227.94
297.14	1234.94
297.37	1281.94
297.601	1260.94
297.831	1268.94
298.062	1254.94
298.292	1294.94
298.523	1339.94
298.753	1338.94
298.984	1294.94
299.214	1287.94
299.445	1276.94
299.675	1272.94
299.905	1328.94
300.136	1308.94
300.366	1305.94
300.597	1305.94
300.827	1318.94
301.057	1354.94
301.288	1385.94
301.518	1357.94
301.748	1342.94
301.979	1361.94
302.209	1396.94
302.439	1412.94
302.669	1371.94
302.9	1405.94
303.13	1370.94
303.36	1383.94
303.59	1368.94
303.82	1374.94
304.051	1386.94
304.281	1352.94
304.511	1348.94
304.741	1333.94
304.971	1376.94
305.201	1346.94
305.431	1346.94
305.661	1351.94
305.891	1330.94
306.121	1302.94
306.352	1348.94
306.582	1393.94
306.812	1352.94
307.042	1338.94
307.272	1352.94
307.502	1382.94
307.731	1396.94
307.961	1388.94
308.191	1341.94
308.421	1385.94
308.651	1346.94
308.881	1358.94
309.111	1389.94
309.341	1386.94
309.571	1396.94
309.8	1460.94
310.03	1437.94
310.26	1490.94
310.49	1472.94
310.72	1498.94
310.949	1538.94
311.179	1591.94
311.409	1517.94
311.639	1498.94
311.868	1463.94
312.098	1509.94
312.328	1523.94
312.557	1567.94
312.787	1612.94
313.017	1584.94
313.246	1563.94
313.476	1519.94
313.706	1507.94
313.935	1522.94
314.165	1572.94
314.394	1595.94
314.624	1612.94
314.853	1572.94
315.083	1510.94
315.312	1558.94
315.542	1535.94
315.771	1517.94
316.001	1491.94
316.23	1476.94
316.46	1500.94
316.689	1474.94
316.919	1552.94
317.148	1529.94
317.377	1565.94
317.607	1552.94
317.836	1490.94
318.065	1526.94
318.295	1520.94
318.524	1552.94
318.753	1495.94
318.983	1508.94
319.212	1512.94
319.441	1491.94
319.67	1579.94
319.9	1546.94
320.129	1517.94
320.358	1515.94
320.587	1532.94
320.816	1540.94
321.046	1566.94
321.275	1569.94
321.504	1512.94
321.733	1550.94
321.962	1583.94
322.191	1623.94
322.42	1668.94
322.649	1690.94
322.878	1678.94
323.108	1727.94
323.337	1809.94
323.566	1859.94
323.795	1957.94
324.024	2011.94
324.253	2386.94
324.482	3484.94
324.71	5930.94
324.939	9889.94
325.168	8118.94
325.397	3313.94
325.626	2262.94
325.855	1958.94
326.084	1855.94
326.313	1838.94
326.542	1824.94
326.77	2016.94
326.999	2332.94
327.228	3268.94
327.457	5474.94
327.686	7500.94
327.914	4071.94
328.143	2476.94
328.372	2270.94
328.6	2204.94
328.829	2092.94
329.058	2102.94
329.287	2204.94
329.515	2090.94
329.744	1934.94
329.972	1939.94
330.201	2021.94
330.43	2184.94
330.658	2258.94
330.887	2346.94
331.115	2288.94
331.344	2028.94
331.572	1926.94
331.801	1908.94
332.03	1969.94
332.258	1944.94
332.486	1873.94
332.715	1886.94
332.943	1901.94
333.172	1945.94
333.4	2016.94
333.629	2033.94
333.857	2087.94
334.085	2121.94
334.314	2162.94
334.542	2232.94
334.771	2328.94
334.999	2134.94
335.227	2065.94
335.455	2004.94
335.684	1962.94
335.912	1942.94
336.14	1901.94
336.369	1898.94
336.597	1925.94
336.825	1919.94
337.053	1893.94
337.281	1891.94
337.51	1856.94
337.738	1814.94
337.966	1825.94
338.194	1808.94
338.422	1830.94
338.65	1825.94
338.878	1791.94
339.106	1749.94
339.334	1739.94
339.562	1784.94
339.79	1746.94
340.018	1782.94
340.246	1751.94
340.474	1761.94
340.702	1793.94
340.93	1755.94
341.158	1757.94
341.386	1774.94
341.614	1732.94
341.842	1745.94
342.07	1749.94
342.298	1700.94
342.526	1733.94
342.754	1686.94
342.981	1690.94
343.209	1686.94
343.437	1815.94
343.665	1813.94
343.893	1880.94
344.12	1917.94
344.348	1901.94
344.576	1852.94
344.804	1865.94
345.031	1872.94
345.259	1840.94
345.487	1785.94
345.714	1748.94
345.942	1688.94
346.17	1699.94
346.397	1681.94
346.625	1671.94
346.853	1675.94
347.08	1644.94
347.308	1692.94
347.535	1712.94
347.763	1745.94
347.99	1674.94
348.218	1669.94
348.445	1708.94
348.673	1687.94
348.9	1678.94
349.128	1623.94
349.355	1603.94
349.583	1616.94
349.81	1611.94
350.037	1580.94
350.265	1590.94
350.492	1637.94
350.72	1620.94
350.947	1629.94
351.174	1693.94
351.402	1687.94
351.629	1687.94
351.856	1662.94
352.083	1680.94
352.311	1725.94
352.538	1675.94
352.765	1710.94
352.992	1666.94
353.22	1598.94
353.447	1629.94
353.674	1614.94
353.901	1576.94
354.128	1606.94
354.355	1581.94
354.583	1558.94
354.81	1546.94
355.037	1588.94
355.264	1574.94
355.491	1583.94
355.718	1539.94
355.945	1563.94
356.172	1562.94
356.399	1540.94
356.626	1529.94
356.853	1519.94
357.08	1552.94
357.307	1560.94
357.534	1565.94
357.761	1573.94
357.988	1589.94
358.215	1577.94
358.441	1561.94
358.668	1576.94
358.895	1574.94
359.122	1615.94
359.349	1617.94
359.576	1645.94
359.802	1722.94
360.029	1810.94
360.256	1880.94
360.483	1796.94
360.709	1676.94
360.936	1654.94
361.163	1624.94
361.39	1646.94
361.616	1669.94
361.843	1630.94
362.07	1652.94
362.296	1668.94
362.523	1671.94
362.749	1670.94
362.976	1654.94
363.203	1626.94
363.429	1631.94
363.656	1642.94
363.882	1639.94
364.109	1589.94
364.335	1620.94
364.562	1612.94
364.788	1604.94
365.015	1626.94
365.241	1593.94
365.468	1652.94
365.694	1685.94
365.92	1639.94
366.147	1622.94
366.373	1629.94
366.599	1649.94
366.826	1590.94
367.052	1612.94
367.278	1614.94
367.505	1625.94
367.731	1644.94
367.957	1608.94
368.184	1669.94
368.41	1644.94
368.636	1718.94
368.862	1708.94
369.089	1713.94
369.315	1676.94
369.541	1668.94
369.767	1661.94
369.993	1659.94
370.219	1686.94
370.445	1695.94
370.672	1692.94
370.898	1676.94
371.124	1657.94
371.35	1735.94
371.576	1676.94
371.802	1672.94
372.028	1697.94
372.254	1703.94
372.48	1709.94
372.706	1759.94
372.932	1749.94
373.158	1757.94
373.384	1770.94
373.61	1742.94
373.835	1724.94
374.061	1742.94
374.287	1761.94
374.513	1761.94
374.739	1799.94
374.965	1792.94
375.191	1856.94
375.416	1850.94
375.642	1765.94
375.868	1799.94
376.094	1797.94
376.319	1751.94
376.545	1736.94
376.771	1690.94
376.997	1730.94
377.222	1752.94
377.448	1716.94
377.674	1720.94
377.899	1721.94
378.125	1708.94
378.35	1728.94
378.576	1740.94
378.802	1729.94
379.027	1718.94
379.253	1717.94
379.478	1723.94
379.704	1734.94
379.929	1740.94
380.155	1776.94
380.38	1722.94
380.606	1756.94
380.831	1708.94
381.057	1740.94
381.282	1739.94
381.507	1753.94
381.733	1771.94
381.958	1791.94
382.184	1783.94
382.409	1765.94
382.634	1842.94
382.86	1814.94
383.085	1802.94
383.31	1833.94
383.535	1855.94
383.761	1877.94
383.986	1847.94
384.211	1946.94
384.436	1969.94
384.662	1966.94
384.887	1980.94
385.112	1959.94
385.337	1972.94
385.562	1990.94
385.787	2013.94
386.013	2031.94
386.238	2078.94
386.463	2046.94
386.688	2062.94
386.913	2026.94
387.138	2004.94
387.363	2008.94
387.588	1991.94
387.813	2009.94
388.038	2039.94
388.263	2004.94
388.488	2069.94
388.713	2043.94
388.938	2003.94
389.163	2057.94
389.387	2062.94
389.612	1933.94
389.837	2007.94
390.062	1978.94
390.287	2008.94
390.512	2016.94
390.736	2033.94
390.961	2045.94
391.186	2061.94
391.411	2112.94
391.636	2126.94
391.86	2158.94
392.085	2182.94
392.31	2192.94
392.534	2131.94
392.759	2145.94
392.984	2097.94
393.208	2116.94
393.433	2138.94
393.658	2145.94
393.882	2097.94
394.107	2096.94
394.331	2078.94
394.556	2103.94
394.78	2133.94
395.005	2116.94
395.229	2166.94
395.454	2143.94
395.678	2196.94
395.903	2220.94
396.127	2377.94
396.352	2348.94
396.576	2226.94
396.801	2161.94
397.025	2212.94
397.249	2201.94
397.474	2208.94
397.698	2271.94
397.922	2322.94
398.147	2389.94
398.371	2388.94
398.595	2375.94
398.82	2442.94
399.044	2548.94
399.268	2720.94
399.492	2932.94
399.717	3232.94
399.941	3372.94
400.165	3354.94
400.389	3269.94
400.613	2878.94
400.837	2658.94
401.062	2587.94
401.286	2525.94
401.51	2490.94
401.734	2466.94
401.958	2512.94
402.182	2508.94
402.406	2540.94
402.63	2569.94
402.854	2582.94
403.078	2629.94
403.302	2642.94
403.526	2663.94
403.75	2653.94
403.974	2676.94
404.198	2649.94
404.422	2746.94
404.645	2744.94
404.869	2688.94
405.093	2888.94
405.317	3135.94
405.541	3280.94
405.765	2898.94
405.988	2753.94
406.212	2801.94
406.436	2825.94
406.66	2946.94
406.883	2872.94
407.107	3077.94
407.331	3304.94
407.555	3741.94
407.778	3677.94
408.002	3286.94
408.226	2949.94
408.449	2972.94
408.673	2904.94
408.896	3049.94
409.12	3290.94
409.344	3056.94
409.567	2746.94
409.791	2703.94
410.014	2672.94
410.238	2645.94
410.461	2665.94
410.685	2693.94
410.908	2724.94
411.132	2896.94
411.355	3105.94
411.578	2896.94
411.802	2634.94
412.025	2606.94
412.249	2698.94
412.472	2782.94
412.695	3028.94
412.919	2917.94
413.142	2680.94
413.365	2580.94
413.589	2580.94
413.812	2492.94
414.035	2468.94
414.258	2494.94
414.482	2428.94
414.705	2466.94
414.928	2460.94
415.151	2486.94
415.374	2442.94
415.597	2431.94
415.821	2445.94
416.044	2447.94
416.267	2470.94
416.49	2454.94
416.713	2423.94
416.936	2454.94
417.159	2450.94
417.382	2499.94
417.605	2488.94
417.828	2568.94
418.051	2620.94
418.274	2570.94
418.497	2524.94
418.72	2561.94
418.943	2494.94
419.166	2665.94
419.389	2831.94
419.611	2756.94
419.834	2698.94
420.057	2676.94
420.28	2697.94
420.503	2625.94
420.726	2602.94
420.948	2673.94
421.171	2896.94
421.394	3003.94
421.617	2687.94
421.839	2598.94
422.062	2596.94
422.285	2633.94
422.507	2978.94
422.73	3478.94
422.953	3208.94
423.175	2815.94
423.398	2735.94
423.621	2727.94
423.843	2914.94
424.066	2877.94
424.288	2834.94
424.511	2939.94
424.733	3236.94
424.956	3728.94
425.178	3390.94
425.401	3420.94
425.623	3600.94
425.846	2936.94
426.068	2764.94
426.291	2682.94
426.513	2694.94
426.735	2748.94
426.958	2952.94
427.18	3502.94
427.402	4332.94
427.625	4802.94
427.847	3822.94
428.069	3230.94
428.292	2817.94
428.514	2619.94
428.736	2521.94
428.958	2516.94
429.181	2428.94
429.403	2435.94
429.625	2470.94
429.847	2700.94
430.069	3170.94
430.292	3010.94
430.514	2570.94
430.736	2462.94
430.958	2436.94
431.18	2390.94
431.402	2361.94
431.624	2283.94
431.846	2241.94
432.068	2185.94
432.29	2286.94
432.512	2294.94
432.734	2418.94
432.956	2392.94
433.178	2420.94
433.4	2540.94
433.622	2436.94
433.844	2364.94
434.066	2322.94
434.287	2315.94
434.509	2350.94
434.731	2425.94
434.953	2459.94
435.175	2626.94
435.397	2780.94
435.618	2734.94
435.84	2910.94
436.062	3652.94
436.284	4159.94
436.505	3160.94
436.727	2730.94
436.949	2587.94
437.17	2436.94
437.392	2440.94
437.614	2460.94
437.835	2619.94
438.057	3212.94
438.278	4060.94
438.5	3877.94
438.721	4807.94
438.943	4383.94
439.165	3149.94
439.386	2910.94
439.608	2770.94
439.829	2808.94
440.05	3049.94
440.272	3400.94
440.493	3058.94
440.715	2718.94
440.936	2613.94
441.158	2627.94
441.379	2592.94
441.6	2716.94
441.822	2860.94
442.043	3086.94
442.264	3743.94
442.486	4006.94
442.707	3160.94
442.928	2920.94
443.149	2937.94
443.371	3133.94
443.592	3387.94
443.813	4153.94
444.034	4632.94
444.255	3427.94
444.476	3051.94
444.698	3004.94
444.919	2980.94
445.14	3109.94
445.361	3059.94
445.582	3204.94
445.803	3688.94
446.024	4394.94
446.245	4369.94
446.466	3876.94
446.687	3119.94
446.908	2872.94
447.129	2667.94
447.35	2597.94
447.571	2525.94
447.792	2492.94
448.013	2515.94
448.234	2607.94
448.455	2983.94
448.675	3894.94
448.896	4913.94
449.117	3612.94
449.338	3364.94
449.559	4385.94
449.779	5324.94
450	3642.94
450.221	2848.94
450.442	2526.94
450.662	2411.94
450.883	2415.94
451.104	2433.94
451.324	2352.94
451.545	2293.94
451.766	2221.94
451.986	2158.94
452.207	2145.94
452.428	2139.94
452.648	2089.94
452.869	2160.94
453.089	2216.94
453.31	2200.94
453.53	2120.94
453.751	2054.94
453.971	2051.94
454.192	2113.94
454.412	2067.94
454.633	2056.94
454.853	2069.94
455.073	2067.94
455.294	2296.94
455.514	2800.94
455.734	2600.94
455.955	2078.94
456.175	1995.94
456.395	1938.94
456.616	1912.94
456.836	1916.94
457.056	1901.94
457.276	1862.94
457.497	1918.94
457.717	1960.94
457.937	1968.94
458.157	1977.94
458.377	1988.94
458.598	2064.94
458.818	2344.94
459.038	2859.94
459.258	3042.94
459.478	2496.94
459.698	2233.94
459.918	2256.94
460.138	2238.94
460.358	2341.94
460.578	2297.94
460.798	2368.94
461.018	2397.94
461.238	2378.94
461.458	2334.94
461.678	2318.94
461.898	2342.94
462.118	2342.94
462.338	2432.94
462.558	2456.94
462.777	2553.94
462.997	2650.94
463.217	2752.94
463.437	2729.94
463.657	2743.94
463.876	2609.94
464.096	2594.94
464.316	2571.94
464.536	2667.94
464.755	2574.94
464.975	2574.94
465.195	2615.94
465.414	2790.94
465.634	2506.94
465.854	2362.94
466.073	2226.94
466.293	2185.94
466.512	2161.94
466.732	2110.94
466.951	2138.94
467.171	2171.94
467.391	2176.94
467.61	2181.94
467.829	2253.94
468.049	2199.94
468.268	2143.94
468.488	2128.94
468.707	2101.94
468.927	2091.94
469.146	2097.94
469.365	2112.94
469.585	2096.94
469.804	2155.94
470.023	2214.94
470.243	2226.94
470.462	2305.94
470.681	2251.94
470.901	2286.94
471.12	2258.94
471.339	2232.94
471.558	2256.94
471.777	2233.94
471.997	2161.94
472.216	2113.94
472.435	2214.94
472.654	2096.94
472.873	2033.94
473.092	2033.94
473.311	2080.94
473.53	2121.94
473.749	2116.94
473.968	2350.94
474.187	3155.94
474.406	3191.94
474.625	2392.94
474.844	2183.94
475.063	2116.94
475.282	2091.94
475.501	2124.94
475.72	2136.94
475.939	2142.94
476.158	2195.94
476.377	2153.94
476.596	2117.94
476.814	2157.94
477.033	2159.94
477.252	2177.94
477.471	2253.94
477.69	2285.94
477.908	2330.94
478.127	2344.94
478.346	2439.94
478.564	2438.94
478.783	2460.94
479.002	2482.94
479.22	2491.94
479.439	2485.94
479.658	2538.94
479.876	2528.94
480.095	2565.94
480.313	2788.94
480.532	2702.94
480.751	2603.94
480.969	2604.94
481.188	2802.94
481.406	2884.94
481.624	2542.94
481.843	2460.94
482.061	2385.94
482.28	2397.94
482.498	2370.94
482.717	2323.94
482.935	2382.94
483.153	2468.94
483.372	2458.94
483.59	2441.94
483.808	2449.94
484.027	2428.94
484.245	2463.94
484.463	2461.94
484.681	2508.94
484.9	2495.94
485.118	2503.94
485.336	2481.94
485.554	2487.94
485.772	2450.94
485.99	2404.94
486.209	2484.94
486.427	2501.94
486.645	2545.94
486.863	2694.94
487.081	2605.94
487.299	2564.94
487.517	2583.94
487.735	2662.94
487.953	2801.94
488.171	2766.94
488.389	2733.94
