Data from 1970.Penny.LincolnSideUp.Lamp.En5.5200Scan.07242019.P1_HRD10591_15-02-50-045.txt Node
Date: Wed Jul 24 15:02:50 EDT 2019
User: cochatt
Spectrometer: HR+D1059
Trigger mode: 1
Integration Time (sec): 1.000000E-1
Scans to average: 1
Electric dark correction enabled: true
Nonlinearity correction enabled: false
Boxcar width: 0
XAxis mode: Wavelengths
Number of Pixels in Spectrum: 2048
>>>>>Begin Spectral Data<<<<<
223.165	-27.38
223.4	-27.38
223.635	-27.38
223.869	-24.38
224.104	-8.38
224.338	-10.38
224.573	-6.38
224.808	-22.38
225.042	1.62
225.277	-16.38
225.511	-1.38
225.746	-2.38
225.98	-1.38
226.215	18.62
226.449	17.62
226.683	19.62
226.918	26.62
227.152	36.62
227.387	43.62
227.621	45.62
227.856	43.62
228.09	46.62
228.324	64.62
228.559	59.62
228.793	138.62
229.027	319.62
229.262	391.62
229.496	444.62
229.73	556.62
229.964	714.62
230.199	513.62
230.433	373.62
230.667	360.62
230.901	362.62
231.136	339.62
231.37	339.62
231.604	360.62
231.838	351.62
232.072	348.62
232.306	339.62
232.541	355.62
232.775	364.62
233.009	384.62
233.243	365.62
233.477	376.62
233.711	377.62
233.945	387.62
234.179	400.62
234.413	407.62
234.647	389.62
234.881	381.62
235.115	431.62
235.349	429.62
235.583	422.62
235.817	435.62
236.051	467.62
236.285	463.62
236.519	475.62
236.753	514.62
236.987	597.62
237.221	882.62
237.455	1299.62
237.689	874.62
237.922	583.62
238.156	537.62
238.39	521.62
238.624	492.62
238.858	491.62
239.091	481.62
239.325	463.62
239.559	478.62
239.793	495.62
240.027	532.62
240.26	607.62
240.494	698.62
240.728	683.62
240.961	690.62
241.195	627.62
241.429	589.62
241.662	549.62
241.896	565.62
242.13	569.62
242.363	559.62
242.597	571.62
242.83	587.62
243.064	599.62
243.298	587.62
243.531	589.62
243.765	620.62
243.998	618.62
244.232	614.62
244.465	636.62
244.699	653.62
244.932	639.62
245.166	658.62
245.399	637.62
245.633	649.62
245.866	649.62
246.099	659.62
246.333	677.62
246.566	678.62
246.8	649.62
247.033	703.62
247.266	723.62
247.5	764.62
247.733	782.62
247.966	813.62
248.2	822.62
248.433	809.62
248.666	832.62
248.899	898.62
249.133	958.62
249.366	1005.62
249.599	923.62
249.832	851.62
250.066	835.62
250.299	855.62
250.532	905.62
250.765	998.62
250.998	1130.62
251.231	1149.62
251.465	1071.62
251.698	987.62
251.931	985.62
252.164	956.62
252.397	971.62
252.63	974.62
252.863	1005.62
253.096	1068.62
253.329	1157.62
253.562	1122.62
253.795	1067.62
254.028	1022.62
254.261	1064.62
254.494	1120.62
254.727	1362.62
254.96	1498.62
255.193	1394.62
255.426	1229.62
255.659	1143.62
255.892	1127.62
256.124	1177.62
256.357	1200.62
256.59	1103.62
256.823	1065.62
257.056	1023.62
257.289	1009.62
257.521	1018.62
257.754	1049.62
257.987	1068.62
258.22	991.62
258.452	1005.62
258.685	1003.62
258.918	1022.62
259.151	1059.62
259.383	1090.62
259.616	1116.62
259.849	1128.62
260.081	1206.62
260.314	1309.62
260.547	1338.62
260.779	1222.62
261.012	1161.62
261.244	1125.62
261.477	1098.62
261.71	1091.62
261.942	1087.62
262.175	1098.62
262.407	1111.62
262.64	1043.62
262.872	1039.62
263.105	1051.62
263.337	1062.62
263.57	1077.62
263.802	1032.62
264.035	1070.62
264.267	1071.62
264.499	1041.62
264.732	1053.62
264.964	1056.62
265.197	1037.62
265.429	1081.62
265.661	1058.62
265.894	1086.62
266.126	1097.62
266.358	1103.62
266.591	1087.62
266.823	1129.62
267.055	1158.62
267.287	1173.62
267.52	1127.62
267.752	1122.62
267.984	1128.62
268.216	1160.62
268.448	1139.62
268.681	1187.62
268.913	1225.62
269.145	1346.62
269.377	1453.62
269.609	1382.62
269.841	1371.62
270.073	1372.62
270.306	1501.62
270.538	1668.62
270.77	1631.62
271.002	1509.62
271.234	1466.62
271.466	1500.62
271.698	1619.62
271.93	1649.62
272.162	1642.62
272.394	1612.62
272.626	1543.62
272.858	1418.62
273.09	1419.62
273.322	1371.62
273.553	1369.62
273.785	1329.62
274.017	1347.62
274.249	1354.62
274.481	1360.62
274.713	1333.62
274.945	1373.62
275.176	1359.62
275.408	1383.62
275.64	1360.62
275.872	1289.62
276.104	1337.62
276.335	1339.62
276.567	1362.62
276.799	1462.62
277.031	1551.62
277.262	1649.62
277.494	1685.62
277.726	1563.62
277.957	1500.62
278.189	1474.62
278.421	1400.62
278.652	1379.62
278.884	1363.62
279.115	1374.62
279.347	1391.62
279.579	1369.62
279.81	1381.62
280.042	1404.62
280.273	1409.62
280.505	1390.62
280.736	1365.62
280.968	1422.62
281.199	1389.62
281.431	1441.62
281.662	1409.62
281.894	1433.62
282.125	1438.62
282.356	1492.62
282.588	1591.62
282.819	1573.62
283.051	1440.62
283.282	1449.62
283.513	1471.62
283.745	1506.62
283.976	1458.62
284.207	1500.62
284.439	1479.62
284.67	1449.62
284.901	1433.62
285.132	1450.62
285.364	1505.62
285.595	1459.62
285.826	1479.62
286.057	1507.62
286.288	1484.62
286.52	1513.62
286.751	1459.62
286.982	1493.62
287.213	1481.62
287.444	1519.62
287.675	1557.62
287.906	1566.62
288.138	1617.62
288.369	1618.62
288.6	1595.62
288.831	1607.62
289.062	1598.62
289.293	1513.62
289.524	1569.62
289.755	1510.62
289.986	1533.62
290.217	1544.62
290.448	1504.62
290.679	1523.62
290.91	1537.62
291.141	1529.62
291.371	1514.62
291.602	1538.62
291.833	1479.62
292.064	1538.62
292.295	1536.62
292.526	1514.62
292.757	1525.62
292.987	1483.62
293.218	1531.62
293.449	1539.62
293.68	1536.62
293.91	1527.62
294.141	1530.62
294.372	1536.62
294.603	1560.62
294.833	1573.62
295.064	1553.62
295.295	1541.62
295.525	1567.62
295.756	1569.62
295.987	1597.62
296.217	1672.62
296.448	1699.62
296.679	1599.62
296.909	1579.62
297.14	1571.62
297.37	1621.62
297.601	1592.62
297.831	1574.62
298.062	1576.62
298.292	1592.62
298.523	1636.62
298.753	1661.62
298.984	1614.62
299.214	1659.62
299.445	1629.62
299.675	1667.62
299.905	1657.62
300.136	1639.62
300.366	1658.62
300.597	1658.62
300.827	1715.62
301.057	1734.62
301.288	1723.62
301.518	1709.62
301.748	1694.62
301.979	1771.62
302.209	1760.62
302.439	1755.62
302.669	1732.62
302.9	1781.62
303.13	1732.62
303.36	1713.62
303.59	1720.62
303.82	1743.62
304.051	1796.62
304.281	1737.62
304.511	1730.62
304.741	1697.62
304.971	1720.62
305.201	1715.62
305.431	1712.62
305.661	1711.62
305.891	1696.62
306.121	1721.62
306.352	1736.62
306.582	1762.62
306.812	1713.62
307.042	1710.62
307.272	1712.62
307.502	1719.62
307.731	1740.62
307.961	1721.62
308.191	1701.62
308.421	1726.62
308.651	1723.62
308.881	1758.62
309.111	1785.62
309.341	1742.62
309.571	1751.62
309.8	1783.62
310.03	1851.62
310.26	1867.62
310.49	1870.62
310.72	1903.62
310.949	1933.62
311.179	1998.62
311.409	1922.62
311.639	1888.62
311.868	1883.62
312.098	1891.62
312.328	1894.62
312.557	1957.62
312.787	2040.62
313.017	2017.62
313.246	1957.62
313.476	1849.62
313.706	1948.62
313.935	1900.62
314.165	1994.62
314.394	2029.62
314.624	2041.62
314.853	1977.62
315.083	1954.62
315.312	1947.62
315.542	1913.62
315.771	1913.62
316.001	1916.62
316.23	1911.62
316.46	1896.62
316.689	1951.62
316.919	1928.62
317.148	1955.62
317.377	1993.62
317.607	1950.62
317.836	1969.62
318.065	1934.62
318.295	1893.62
318.524	1900.62
318.753	1922.62
318.983	1900.62
319.212	1909.62
319.441	1915.62
319.67	1948.62
319.9	1894.62
320.129	1889.62
320.358	1901.62
320.587	1936.62
320.816	1963.62
321.046	1962.62
321.275	1994.62
321.504	1973.62
321.733	2006.62
321.962	2033.62
322.191	2057.62
322.42	2126.62
322.649	2139.62
322.878	2171.62
323.108	2140.62
323.337	2273.62
323.566	2333.62
323.795	2425.62
324.024	2601.62
324.253	2930.62
324.482	4249.62
324.71	7250.62
324.939	11881.62
325.168	9861.62
325.397	4007.62
325.626	2751.62
325.855	2463.62
326.084	2379.62
326.313	2297.62
326.542	2343.62
326.77	2557.62
326.999	2918.62
327.228	4081.62
327.457	6747.62
327.686	8918.62
327.914	4903.62
328.143	3061.62
328.372	2797.62
328.6	2731.62
328.829	2616.62
329.058	2717.62
329.287	2699.62
329.515	2577.62
329.744	2378.62
329.972	2394.62
330.201	2516.62
330.43	2675.62
330.658	2757.62
330.887	2854.62
331.115	2871.62
331.344	2519.62
331.572	2443.62
331.801	2438.62
332.03	2465.62
332.258	2403.62
332.486	2399.62
332.715	2375.62
332.943	2431.62
333.172	2485.62
333.4	2544.62
333.629	2597.62
333.857	2684.62
334.085	2703.62
334.314	2718.62
334.542	2824.62
334.771	2913.62
334.999	2689.62
335.227	2602.62
335.455	2515.62
335.684	2482.62
335.912	2441.62
336.14	2401.62
336.369	2433.62
336.597	2455.62
336.825	2444.62
337.053	2427.62
337.281	2427.62
337.51	2373.62
337.738	2349.62
337.966	2381.62
338.194	2363.62
338.422	2363.62
338.65	2265.62
338.878	2254.62
339.106	2219.62
339.334	2289.62
339.562	2270.62
339.79	2262.62
340.018	2226.62
340.246	2229.62
340.474	2249.62
340.702	2276.62
340.93	2249.62
341.158	2215.62
341.386	2247.62
341.614	2233.62
341.842	2216.62
342.07	2178.62
342.298	2205.62
342.526	2219.62
342.754	2175.62
342.981	2165.62
343.209	2169.62
343.437	2283.62
343.665	2341.62
343.893	2429.62
344.12	2474.62
344.348	2435.62
344.576	2437.62
344.804	2348.62
345.031	2331.62
345.259	2395.62
345.487	2288.62
345.714	2241.62
345.942	2193.62
346.17	2187.62
346.397	2189.62
346.625	2117.62
346.853	2114.62
347.08	2154.62
347.308	2149.62
347.535	2138.62
347.763	2160.62
347.99	2158.62
348.218	2172.62
348.445	2141.62
348.673	2154.62
348.9	2087.62
349.128	2098.62
349.355	2057.62
349.583	2073.62
349.81	2041.62
350.037	2055.62
350.265	2063.62
350.492	2043.62
350.72	2059.62
350.947	2054.62
351.174	2102.62
351.402	2159.62
351.629	2140.62
351.856	2097.62
352.083	2155.62
352.311	2155.62
352.538	2181.62
352.765	2128.62
352.992	2128.62
353.22	2042.62
353.447	2117.62
353.674	2058.62
353.901	2051.62
354.128	2017.62
354.355	2023.62
354.583	2013.62
354.81	2050.62
355.037	2009.62
355.264	1984.62
355.491	1990.62
355.718	1997.62
355.945	2015.62
356.172	2011.62
356.399	2041.62
356.626	2014.62
356.853	1976.62
357.08	1969.62
357.307	1998.62
357.534	1987.62
357.761	2009.62
357.988	1992.62
358.215	2007.62
358.441	1994.62
358.668	1990.62
358.895	2035.62
359.122	2032.62
359.349	2057.62
359.576	2113.62
359.802	2211.62
360.029	2288.62
360.256	2366.62
360.483	2280.62
360.709	2136.62
360.936	2151.62
361.163	2142.62
361.39	2126.62
361.616	2152.62
361.843	2126.62
362.07	2119.62
362.296	2132.62
362.523	2175.62
362.749	2099.62
362.976	2076.62
363.203	2089.62
363.429	2047.62
363.656	2075.62
363.882	2054.62
364.109	2065.62
364.335	2030.62
364.562	2067.62
364.788	2037.62
365.015	2081.62
365.241	2051.62
365.468	2062.62
365.694	2127.62
365.92	2114.62
366.147	2105.62
366.373	2127.62
366.599	2077.62
366.826	2071.62
367.052	2057.62
367.278	2073.62
367.505	2069.62
367.731	2061.62
367.957	2079.62
368.184	2074.62
368.41	2101.62
368.636	2168.62
368.862	2181.62
369.089	2173.62
369.315	2085.62
369.541	2097.62
369.767	2118.62
369.993	2150.62
370.219	2135.62
370.445	2147.62
370.672	2150.62
370.898	2101.62
371.124	2157.62
371.35	2160.62
371.576	2188.62
371.802	2201.62
372.028	2179.62
372.254	2163.62
372.48	2193.62
372.706	2209.62
372.932	2265.62
373.158	2255.62
373.384	2265.62
373.61	2212.62
373.835	2218.62
374.061	2201.62
374.287	2223.62
374.513	2236.62
374.739	2303.62
374.965	2315.62
375.191	2332.62
375.416	2315.62
375.642	2251.62
375.868	2287.62
376.094	2204.62
376.319	2233.62
376.545	2248.62
376.771	2211.62
376.997	2183.62
377.222	2227.62
377.448	2207.62
377.674	2215.62
377.899	2175.62
378.125	2183.62
378.35	2213.62
378.576	2190.62
378.802	2167.62
379.027	2160.62
379.253	2205.62
379.478	2206.62
379.704	2220.62
379.929	2225.62
380.155	2227.62
380.38	2215.62
380.606	2235.62
380.831	2238.62
381.057	2279.62
381.282	2203.62
381.507	2216.62
381.733	2286.62
381.958	2245.62
382.184	2281.62
382.409	2279.62
382.634	2296.62
382.86	2321.62
383.085	2349.62
383.31	2398.62
383.535	2365.62
383.761	2426.62
383.986	2428.62
384.211	2460.62
384.436	2500.62
384.662	2498.62
384.887	2550.62
385.112	2525.62
385.337	2530.62
385.562	2600.62
385.787	2568.62
386.013	2624.62
386.238	2621.62
386.463	2646.62
386.688	2667.62
386.913	2576.62
387.138	2560.62
387.363	2581.62
387.588	2540.62
387.813	2575.62
388.038	2637.62
388.263	2636.62
388.488	2661.62
388.713	2637.62
388.938	2555.62
389.163	2601.62
389.387	2608.62
389.612	2627.62
389.837	2613.62
390.062	2534.62
390.287	2581.62
390.512	2564.62
390.736	2571.62
390.961	2635.62
391.186	2636.62
391.411	2672.62
391.636	2730.62
391.86	2734.62
392.085	2799.62
392.31	2771.62
392.534	2757.62
392.759	2755.62
392.984	2720.62
393.208	2721.62
393.433	2689.62
393.658	2679.62
393.882	2643.62
394.107	2669.62
394.331	2656.62
394.556	2656.62
394.78	2754.62
395.005	2743.62
395.229	2751.62
395.454	2844.62
395.678	2860.62
395.903	2882.62
396.127	3027.62
396.352	3001.62
396.576	2829.62
396.801	2785.62
397.025	2843.62
397.249	2813.62
397.474	2896.62
397.698	2941.62
397.922	2990.62
398.147	3105.62
398.371	3113.62
398.595	3082.62
398.82	3153.62
399.044	3256.62
399.268	3465.62
399.492	3755.62
399.717	4143.62
399.941	4331.62
400.165	4369.62
400.389	4253.62
400.613	3730.62
400.837	3362.62
401.062	3278.62
401.286	3220.62
401.51	3186.62
401.734	3141.62
401.958	3230.62
402.182	3178.62
402.406	3299.62
402.63	3271.62
402.854	3337.62
403.078	3343.62
403.302	3382.62
403.526	3442.62
403.75	3485.62
403.974	3468.62
404.198	3421.62
404.422	3485.62
404.645	3445.62
404.869	3503.62
405.093	3711.62
405.317	3963.62
405.541	4206.62
405.765	3678.62
405.988	3533.62
406.212	3601.62
406.436	3633.62
406.66	3757.62
406.883	3691.62
407.107	3955.62
407.331	4273.62
407.555	4680.62
407.778	4718.62
408.002	4148.62
408.226	3831.62
408.449	3831.62
408.673	3784.62
408.896	3878.62
409.12	4281.62
409.344	3889.62
409.567	3534.62
409.791	3484.62
410.014	3424.62
410.238	3351.62
410.461	3344.62
410.685	3401.62
410.908	3466.62
411.132	3637.62
411.355	3938.62
411.578	3676.62
411.802	3387.62
412.025	3283.62
412.249	3397.62
412.472	3541.62
412.695	3813.62
412.919	3648.62
413.142	3337.62
413.365	3239.62
413.589	3301.62
413.812	3180.62
414.035	3175.62
414.258	3203.62
414.482	3184.62
414.705	3136.62
414.928	3102.62
415.151	3162.62
415.374	3141.62
415.597	3096.62
415.821	3129.62
416.044	3175.62
416.267	3209.62
416.49	3119.62
416.713	3030.62
416.936	3105.62
417.159	3149.62
417.382	3207.62
417.605	3151.62
417.828	3251.62
418.051	3308.62
418.274	3260.62
418.497	3147.62
418.72	3188.62
418.943	3125.62
419.166	3361.62
419.389	3560.62
419.611	3559.62
419.834	3381.62
420.057	3385.62
420.28	3390.62
420.503	3335.62
420.726	3271.62
420.948	3330.62
421.171	3631.62
421.394	3814.62
421.617	3392.62
421.839	3269.62
422.062	3276.62
422.285	3343.62
422.507	3760.62
422.73	4337.62
422.953	4033.62
423.175	3558.62
423.398	3473.62
423.621	3439.62
423.843	3613.62
424.066	3661.62
424.288	3570.62
424.511	3635.62
424.733	4089.62
424.956	4692.62
425.178	4306.62
425.401	4333.62
425.623	4578.62
425.846	3703.62
426.068	3405.62
426.291	3353.62
426.513	3349.62
426.735	3494.62
426.958	3769.62
427.18	4369.62
427.402	5420.62
427.625	5968.62
427.847	4658.62
428.069	4041.62
428.292	3591.62
428.514	3225.62
428.736	3125.62
428.958	3200.62
429.181	3053.62
429.403	3075.62
429.625	3152.62
429.847	3362.62
430.069	3954.62
430.292	3771.62
430.514	3222.62
430.736	3097.62
430.958	3053.62
431.18	2978.62
431.402	2951.62
431.624	2892.62
431.846	2834.62
432.068	2882.62
432.29	2915.62
432.512	2887.62
432.734	3030.62
432.956	2967.62
433.178	3071.62
433.4	3119.62
433.622	3002.62
433.844	2992.62
434.066	2896.62
434.287	2902.62
434.509	2994.62
434.731	3048.62
434.953	3158.62
435.175	3287.62
435.397	3494.62
435.618	3469.62
435.84	3631.62
436.062	4543.62
436.284	5138.62
436.505	3901.62
436.727	3497.62
436.949	3208.62
437.17	3175.62
437.392	3092.62
437.614	3133.62
437.835	3319.62
438.057	4027.62
438.278	4992.62
438.5	4919.62
438.721	5919.62
438.943	5387.62
439.165	3953.62
439.386	3635.62
439.608	3495.62
439.829	3488.62
440.05	3735.62
440.272	4142.62
440.493	3767.62
440.715	3436.62
440.936	3256.62
441.158	3211.62
441.379	3274.62
441.6	3376.62
441.822	3502.62
442.043	3865.62
442.264	4677.62
442.486	4930.62
442.707	3935.62
442.928	3628.62
443.149	3724.62
443.371	3903.62
443.592	4254.62
443.813	5120.62
444.034	5636.62
444.255	4309.62
444.476	3825.62
444.698	3704.62
444.919	3766.62
445.14	3943.62
445.361	3787.62
445.582	3951.62
445.803	4587.62
446.024	5567.62
446.245	5470.62
446.466	4836.62
446.687	3871.62
446.908	3593.62
447.129	3288.62
447.35	3223.62
447.571	3201.62
447.792	3134.62
448.013	3165.62
448.234	3253.62
448.455	3635.62
448.675	4850.62
448.896	6056.62
449.117	4508.62
449.338	4207.62
449.559	5353.62
449.779	6628.62
450	4465.62
450.221	3513.62
450.442	3183.62
450.662	3004.62
450.883	3011.62
451.104	2989.62
451.324	2982.62
451.545	2843.62
451.766	2827.62
451.986	2705.62
452.207	2659.62
452.428	2693.62
452.648	2663.62
452.869	2691.62
453.089	2779.62
453.31	2781.62
453.53	2688.62
453.751	2593.62
453.971	2565.62
454.192	2621.62
454.412	2610.62
454.633	2567.62
454.853	2597.62
455.073	2646.62
455.294	2845.62
455.514	3541.62
455.734	3299.62
455.955	2683.62
456.175	2516.62
456.395	2424.62
456.616	2435.62
456.836	2426.62
457.056	2421.62
457.276	2385.62
457.497	2481.62
457.717	2464.62
457.937	2494.62
458.157	2517.62
458.377	2530.62
458.598	2691.62
458.818	2934.62
459.038	3528.62
459.258	3845.62
459.478	3073.62
459.698	2889.62
459.918	2819.62
460.138	2893.62
460.358	2950.62
460.578	3004.62
460.798	3023.62
461.018	3095.62
461.238	3027.62
461.458	3028.62
461.678	2994.62
461.898	2989.62
462.118	3017.62
462.338	3119.62
462.558	3210.62
462.777	3230.62
462.997	3386.62
463.217	3520.62
463.437	3573.62
463.657	3417.62
463.876	3299.62
464.096	3287.62
464.316	3297.62
464.536	3317.62
464.755	3257.62
464.975	3228.62
465.195	3304.62
465.414	3562.62
465.634	3130.62
465.854	2945.62
466.073	2831.62
466.293	2766.62
466.512	2692.62
466.732	2664.62
466.951	2750.62
467.171	2712.62
467.391	2760.62
467.61	2736.62
467.829	2775.62
468.049	2761.62
468.268	2686.62
468.488	2643.62
468.707	2590.62
468.927	2619.62
469.146	2648.62
469.365	2660.62
469.585	2661.62
469.804	2707.62
470.023	2822.62
470.243	2786.62
470.462	2844.62
470.681	2885.62
470.901	2876.62
471.12	2790.62
471.339	2806.62
471.558	2802.62
471.777	2775.62
471.997	2749.62
472.216	2671.62
472.435	2697.62
472.654	2662.62
472.873	2562.62
473.092	2539.62
473.311	2583.62
473.53	2666.62
473.749	2700.62
473.968	2949.62
474.187	3861.62
474.406	4058.62
474.625	3009.62
474.844	2694.62
475.063	2693.62
475.282	2642.62
475.501	2664.62
475.72	2700.62
475.939	2700.62
476.158	2760.62
476.377	2706.62
476.596	2719.62
476.814	2777.62
477.033	2739.62
477.252	2706.62
477.471	2805.62
477.69	2909.62
477.908	2945.62
478.127	3017.62
478.346	3035.62
478.564	3063.62
478.783	3087.62
479.002	3101.62
479.22	3129.62
479.439	3175.62
479.658	3223.62
479.876	3190.62
480.095	3277.62
480.313	3549.62
480.532	3463.62
480.751	3318.62
480.969	3353.62
481.188	3434.62
481.406	3539.62
481.624	3235.62
481.843	3161.62
482.061	3081.62
482.28	3058.62
482.498	2981.62
482.717	3010.62
482.935	3020.62
483.153	3062.62
483.372	3136.62
483.59	3109.62
483.808	3055.62
484.027	3049.62
484.245	3027.62
484.463	3116.62
484.681	3178.62
484.9	3135.62
485.118	3167.62
485.336	3191.62
485.554	3114.62
485.772	3120.62
485.99	3143.62
486.209	3113.62
486.427	3178.62
486.645	3258.62
486.863	3359.62
487.081	3321.62
487.299	3238.62
487.517	3254.62
