Data from 1970.Penny.LincolnSideUp.Lamp.En5.5200Scan.07242019.P1_HRD10591_15-02-52-044.txt Node
Date: Wed Jul 24 15:02:52 EDT 2019
User: cochatt
Spectrometer: HR+D1059
Trigger mode: 1
Integration Time (sec): 1.000000E-1
Scans to average: 1
Electric dark correction enabled: true
Nonlinearity correction enabled: false
Boxcar width: 0
XAxis mode: Wavelengths
Number of Pixels in Spectrum: 2048
>>>>>Begin Spectral Data<<<<<
223.165	-30.06
223.4	-30.06
223.635	-30.06
223.869	-15.06
224.104	-23.06
224.338	-0.06
224.573	-5.06
224.808	-19.06
225.042	-10.06
225.277	5.94
225.511	-10.06
225.746	2.94
225.98	6.94
226.215	6.94
226.449	12.94
226.683	12.94
226.918	23.94
227.152	39.94
227.387	27.94
227.621	45.94
227.856	39.94
228.09	48.94
228.324	48.94
228.559	56.94
228.793	136.94
229.027	297.94
229.262	325.94
229.496	374.94
229.73	469.94
229.964	593.94
230.199	415.94
230.433	336.94
230.667	298.94
230.901	307.94
231.136	287.94
231.37	296.94
231.604	284.94
231.838	299.94
232.072	266.94
232.306	293.94
232.541	289.94
232.775	297.94
233.009	311.94
233.243	318.94
233.477	287.94
233.711	319.94
233.945	319.94
234.179	298.94
234.413	322.94
234.647	309.94
234.881	332.94
235.115	317.94
235.349	355.94
235.583	363.94
235.817	363.94
236.051	378.94
236.285	382.94
236.519	382.94
236.753	399.94
236.987	472.94
237.221	719.94
237.455	1079.94
237.689	690.94
237.922	483.94
238.156	463.94
238.39	422.94
238.624	383.94
238.858	395.94
239.091	380.94
239.325	367.94
239.559	399.94
239.793	418.94
240.027	442.94
240.26	497.94
240.494	585.94
240.728	578.94
240.961	555.94
241.195	515.94
241.429	460.94
241.662	442.94
241.896	433.94
242.13	423.94
242.363	414.94
242.597	443.94
242.83	451.94
243.064	475.94
243.298	471.94
243.531	474.94
243.765	493.94
243.998	478.94
244.232	474.94
244.465	505.94
244.699	505.94
244.932	506.94
245.166	538.94
245.399	494.94
245.633	518.94
245.866	494.94
246.099	498.94
246.333	537.94
246.566	546.94
246.8	551.94
247.033	535.94
247.266	572.94
247.5	602.94
247.733	632.94
247.966	637.94
248.2	646.94
248.433	636.94
248.666	634.94
248.899	695.94
249.133	773.94
249.366	829.94
249.599	752.94
249.832	677.94
250.066	664.94
250.299	694.94
250.532	718.94
250.765	841.94
250.998	976.94
251.231	977.94
251.465	847.94
251.698	799.94
251.931	773.94
252.164	750.94
252.397	760.94
252.63	764.94
252.863	804.94
253.096	877.94
253.329	924.94
253.562	905.94
253.795	861.94
254.028	848.94
254.261	856.94
254.494	913.94
254.727	1041.94
254.96	1257.94
255.193	1137.94
255.426	969.94
255.659	913.94
255.892	897.94
256.124	929.94
256.357	927.94
256.59	882.94
256.823	826.94
257.056	814.94
257.289	785.94
257.521	802.94
257.754	796.94
257.987	779.94
258.22	794.94
258.452	791.94
258.685	791.94
258.918	805.94
259.151	813.94
259.383	810.94
259.616	873.94
259.849	863.94
260.081	926.94
260.314	1042.94
260.547	1056.94
260.779	972.94
261.012	908.94
261.244	857.94
261.477	835.94
261.71	843.94
261.942	845.94
262.175	871.94
262.407	874.94
262.64	815.94
262.872	817.94
263.105	821.94
263.337	802.94
263.57	793.94
263.802	798.94
264.035	809.94
264.267	791.94
264.499	809.94
264.732	833.94
264.964	781.94
265.197	794.94
265.429	812.94
265.661	806.94
265.894	810.94
266.126	831.94
266.358	798.94
266.591	844.94
266.823	857.94
267.055	835.94
267.287	856.94
267.52	837.94
267.752	864.94
267.984	886.94
268.216	866.94
268.448	871.94
268.681	921.94
268.913	958.94
269.145	1037.94
269.377	1141.94
269.609	1086.94
269.841	1042.94
270.073	1089.94
270.306	1186.94
270.538	1327.94
270.77	1308.94
271.002	1203.94
271.234	1133.94
271.466	1181.94
271.698	1273.94
271.93	1255.94
272.162	1285.94
272.394	1233.94
272.626	1206.94
272.858	1112.94
273.09	1061.94
273.322	1039.94
273.553	993.94
273.785	1029.94
274.017	1006.94
274.249	1037.94
274.481	1018.94
274.713	1019.94
274.945	1057.94
275.176	1041.94
275.408	985.94
275.64	1029.94
275.872	1029.94
276.104	1018.94
276.335	1001.94
276.567	1043.94
276.799	1116.94
277.031	1209.94
277.262	1303.94
277.494	1266.94
277.726	1176.94
277.957	1122.94
278.189	1096.94
278.421	1083.94
278.652	1075.94
278.884	1035.94
279.115	1049.94
279.347	1051.94
279.579	1043.94
279.81	1019.94
280.042	1030.94
280.273	1057.94
280.505	1051.94
280.736	1057.94
280.968	1035.94
281.199	1011.94
281.431	1053.94
281.662	1049.94
281.894	1049.94
282.125	1040.94
282.356	1125.94
282.588	1209.94
282.819	1172.94
283.051	1098.94
283.282	1062.94
283.513	1061.94
283.745	1136.94
283.976	1113.94
284.207	1129.94
284.439	1094.94
284.67	1118.94
284.901	1095.94
285.132	1100.94
285.364	1098.94
285.595	1067.94
285.826	1093.94
286.057	1103.94
286.288	1123.94
286.52	1100.94
286.751	1087.94
286.982	1124.94
287.213	1109.94
287.444	1112.94
287.675	1131.94
287.906	1172.94
288.138	1209.94
288.369	1189.94
288.6	1171.94
288.831	1176.94
289.062	1149.94
289.293	1154.94
289.524	1132.94
289.755	1145.94
289.986	1141.94
290.217	1141.94
290.448	1127.94
290.679	1141.94
290.91	1118.94
291.141	1171.94
291.371	1144.94
291.602	1127.94
291.833	1138.94
292.064	1124.94
292.295	1110.94
292.526	1116.94
292.757	1131.94
292.987	1107.94
293.218	1126.94
293.449	1138.94
293.68	1153.94
293.91	1117.94
294.141	1156.94
294.372	1148.94
294.603	1143.94
294.833	1107.94
295.064	1153.94
295.295	1136.94
295.525	1134.94
295.756	1166.94
295.987	1150.94
296.217	1245.94
296.448	1249.94
296.679	1211.94
296.909	1153.94
297.14	1143.94
297.37	1169.94
297.601	1188.94
297.831	1164.94
298.062	1173.94
298.292	1195.94
298.523	1237.94
298.753	1225.94
298.984	1186.94
299.214	1193.94
299.445	1199.94
299.675	1213.94
299.905	1187.94
300.136	1199.94
300.366	1217.94
300.597	1211.94
300.827	1209.94
301.057	1262.94
301.288	1292.94
301.518	1274.94
301.748	1273.94
301.979	1265.94
302.209	1276.94
302.439	1262.94
302.669	1288.94
302.9	1259.94
303.13	1238.94
303.36	1271.94
303.59	1267.94
303.82	1314.94
304.051	1349.94
304.281	1291.94
304.511	1265.94
304.741	1265.94
304.971	1264.94
305.201	1258.94
305.431	1237.94
305.661	1242.94
305.891	1283.94
306.121	1261.94
306.352	1272.94
306.582	1323.94
306.812	1282.94
307.042	1259.94
307.272	1271.94
307.502	1296.94
307.731	1271.94
307.961	1269.94
308.191	1264.94
308.421	1255.94
308.651	1265.94
308.881	1285.94
309.111	1321.94
309.341	1278.94
309.571	1321.94
309.8	1360.94
310.03	1346.94
310.26	1352.94
310.49	1382.94
310.72	1409.94
310.949	1442.94
311.179	1492.94
311.409	1403.94
311.639	1375.94
311.868	1375.94
312.098	1403.94
312.328	1435.94
312.557	1448.94
312.787	1521.94
313.017	1489.94
313.246	1466.94
313.476	1428.94
313.706	1426.94
313.935	1466.94
314.165	1450.94
314.394	1536.94
314.624	1497.94
314.853	1443.94
315.083	1476.94
315.312	1425.94
315.542	1394.94
315.771	1413.94
316.001	1375.94
316.23	1421.94
316.46	1401.94
316.689	1435.94
316.919	1418.94
317.148	1457.94
317.377	1442.94
317.607	1422.94
317.836	1416.94
318.065	1398.94
318.295	1414.94
318.524	1407.94
318.753	1399.94
318.983	1406.94
319.212	1381.94
319.441	1442.94
319.67	1421.94
319.9	1401.94
320.129	1410.94
320.358	1403.94
320.587	1405.94
320.816	1456.94
321.046	1474.94
321.275	1427.94
321.504	1445.94
321.733	1463.94
321.962	1489.94
322.191	1508.94
322.42	1591.94
322.649	1629.94
322.878	1629.94
323.108	1587.94
323.337	1684.94
323.566	1767.94
323.795	1858.94
324.024	1940.94
324.253	2307.94
324.482	3348.94
324.71	5767.94
324.939	9711.94
325.168	7945.94
325.397	3165.94
325.626	2135.94
325.855	1863.94
326.084	1799.94
326.313	1770.94
326.542	1799.94
326.77	1916.94
326.999	2179.94
327.228	3116.94
327.457	5389.94
327.686	7260.94
327.914	3915.94
328.143	2382.94
328.372	2189.94
328.6	2067.94
328.829	1970.94
329.058	1999.94
329.287	2116.94
329.515	1981.94
329.744	1838.94
329.972	1797.94
330.201	1905.94
330.43	2024.94
330.658	2177.94
330.887	2192.94
331.115	2195.94
331.344	1920.94
331.572	1824.94
331.801	1836.94
332.03	1870.94
332.258	1832.94
332.486	1729.94
332.715	1737.94
332.943	1826.94
333.172	1829.94
333.4	1833.94
333.629	1878.94
333.857	1948.94
334.085	1987.94
334.314	1998.94
334.542	2182.94
334.771	2195.94
334.999	2024.94
335.227	1919.94
335.455	1891.94
335.684	1809.94
335.912	1774.94
336.14	1732.94
336.369	1769.94
336.597	1815.94
336.825	1795.94
337.053	1758.94
337.281	1713.94
337.51	1740.94
337.738	1739.94
337.966	1720.94
338.194	1707.94
338.422	1721.94
338.65	1662.94
338.878	1680.94
339.106	1633.94
339.334	1689.94
339.562	1625.94
339.79	1633.94
340.018	1620.94
340.246	1625.94
340.474	1669.94
340.702	1638.94
340.93	1598.94
341.158	1614.94
341.386	1609.94
341.614	1662.94
341.842	1633.94
342.07	1630.94
342.298	1618.94
342.526	1614.94
342.754	1566.94
342.981	1574.94
343.209	1604.94
343.437	1647.94
343.665	1660.94
343.893	1721.94
344.12	1773.94
344.348	1762.94
344.576	1730.94
344.804	1726.94
345.031	1737.94
345.259	1765.94
345.487	1693.94
345.714	1656.94
345.942	1615.94
346.17	1572.94
346.397	1549.94
346.625	1530.94
346.853	1545.94
347.08	1544.94
347.308	1594.94
347.535	1631.94
347.763	1584.94
347.99	1586.94
348.218	1620.94
348.445	1623.94
348.673	1622.94
348.9	1573.94
349.128	1538.94
349.355	1487.94
349.583	1519.94
349.81	1520.94
350.037	1483.94
350.265	1523.94
350.492	1506.94
350.72	1487.94
350.947	1483.94
351.174	1549.94
351.402	1574.94
351.629	1561.94
351.856	1514.94
352.083	1563.94
352.311	1605.94
352.538	1637.94
352.765	1624.94
352.992	1564.94
353.22	1516.94
353.447	1544.94
353.674	1522.94
353.901	1514.94
354.128	1478.94
354.355	1474.94
354.583	1463.94
354.81	1495.94
355.037	1499.94
355.264	1449.94
355.491	1464.94
355.718	1447.94
355.945	1446.94
356.172	1458.94
356.399	1452.94
356.626	1490.94
356.853	1487.94
357.08	1435.94
357.307	1484.94
357.534	1475.94
357.761	1460.94
357.988	1466.94
358.215	1468.94
358.441	1484.94
358.668	1474.94
358.895	1488.94
359.122	1518.94
359.349	1501.94
359.576	1548.94
359.802	1601.94
360.029	1725.94
360.256	1774.94
360.483	1701.94
360.709	1596.94
360.936	1533.94
361.163	1563.94
361.39	1539.94
361.616	1583.94
361.843	1538.94
362.07	1557.94
362.296	1589.94
362.523	1566.94
362.749	1580.94
362.976	1551.94
363.203	1537.94
363.429	1518.94
363.656	1565.94
363.882	1495.94
364.109	1478.94
364.335	1501.94
364.562	1544.94
364.788	1510.94
365.015	1525.94
365.241	1531.94
365.468	1530.94
365.694	1538.94
365.92	1517.94
366.147	1529.94
366.373	1530.94
366.599	1512.94
366.826	1533.94
367.052	1501.94
367.278	1496.94
367.505	1518.94
367.731	1514.94
367.957	1514.94
368.184	1502.94
368.41	1576.94
368.636	1591.94
368.862	1631.94
369.089	1591.94
369.315	1555.94
369.541	1529.94
369.767	1546.94
369.993	1525.94
370.219	1557.94
370.445	1559.94
370.672	1562.94
370.898	1561.94
371.124	1593.94
371.35	1599.94
371.576	1603.94
371.802	1596.94
372.028	1570.94
372.254	1570.94
372.48	1607.94
372.706	1575.94
372.932	1599.94
373.158	1648.94
373.384	1590.94
373.61	1610.94
373.835	1633.94
374.061	1607.94
374.287	1616.94
374.513	1653.94
374.739	1669.94
374.965	1697.94
375.191	1690.94
375.416	1687.94
375.642	1672.94
375.868	1628.94
376.094	1647.94
376.319	1662.94
376.545	1634.94
376.771	1625.94
376.997	1600.94
377.222	1644.94
377.448	1671.94
377.674	1621.94
377.899	1589.94
378.125	1579.94
378.35	1571.94
378.576	1583.94
378.802	1603.94
379.027	1626.94
379.253	1638.94
379.478	1564.94
379.704	1600.94
379.929	1612.94
380.155	1644.94
380.38	1622.94
380.606	1642.94
380.831	1641.94
381.057	1609.94
381.282	1622.94
381.507	1653.94
381.733	1659.94
381.958	1648.94
382.184	1643.94
382.409	1688.94
382.634	1676.94
382.86	1681.94
383.085	1687.94
383.31	1695.94
383.535	1756.94
383.761	1716.94
383.986	1742.94
384.211	1761.94
384.436	1801.94
384.662	1785.94
384.887	1830.94
385.112	1828.94
385.337	1903.94
385.562	1832.94
385.787	1865.94
386.013	1874.94
386.238	1895.94
386.463	1935.94
386.688	1867.94
386.913	1851.94
387.138	1876.94
387.363	1863.94
387.588	1841.94
387.813	1877.94
388.038	1848.94
388.263	1893.94
388.488	1911.94
388.713	1909.94
388.938	1903.94
389.163	1866.94
389.387	1925.94
389.612	1891.94
389.837	1834.94
390.062	1843.94
390.287	1842.94
390.512	1856.94
390.736	1893.94
390.961	1921.94
391.186	1861.94
391.411	1932.94
391.636	1982.94
391.86	1984.94
392.085	2045.94
392.31	2007.94
392.534	1998.94
392.759	2021.94
392.984	1980.94
393.208	1971.94
393.433	1970.94
393.658	1948.94
393.882	1925.94
394.107	1914.94
394.331	1939.94
394.556	1949.94
394.78	2006.94
395.005	1975.94
395.229	1983.94
395.454	2032.94
395.678	2012.94
395.903	2111.94
396.127	2178.94
396.352	2173.94
396.576	2049.94
396.801	2021.94
397.025	2017.94
397.249	2074.94
397.474	2037.94
397.698	2111.94
397.922	2162.94
398.147	2255.94
398.371	2235.94
398.595	2230.94
398.82	2231.94
399.044	2376.94
399.268	2475.94
399.492	2759.94
399.717	2965.94
399.941	3062.94
400.165	3119.94
400.389	3050.94
400.613	2718.94
400.837	2474.94
401.062	2361.94
401.286	2340.94
401.51	2317.94
401.734	2307.94
401.958	2317.94
402.182	2298.94
402.406	2322.94
402.63	2406.94
402.854	2421.94
403.078	2455.94
403.302	2476.94
403.526	2511.94
403.75	2460.94
403.974	2469.94
404.198	2455.94
404.422	2539.94
404.645	2582.94
404.869	2587.94
405.093	2688.94
405.317	2942.94
405.541	3055.94
405.765	2724.94
405.988	2557.94
406.212	2590.94
406.436	2668.94
406.66	2727.94
406.883	2693.94
407.107	2896.94
407.331	3131.94
407.555	3417.94
407.778	3469.94
408.002	3125.94
408.226	2778.94
408.449	2766.94
408.673	2761.94
408.896	2889.94
409.12	3106.94
409.344	2867.94
409.567	2608.94
409.791	2491.94
410.014	2477.94
410.238	2451.94
410.461	2486.94
410.685	2467.94
410.908	2553.94
411.132	2721.94
411.355	2843.94
411.578	2718.94
411.802	2489.94
412.025	2441.94
412.249	2475.94
412.472	2611.94
412.695	2823.94
412.919	2741.94
413.142	2470.94
413.365	2432.94
413.589	2417.94
413.812	2327.94
414.035	2319.94
414.258	2303.94
414.482	2319.94
414.705	2286.94
414.928	2309.94
415.151	2310.94
415.374	2282.94
415.597	2276.94
415.821	2258.94
416.044	2319.94
416.267	2293.94
416.49	2252.94
416.713	2251.94
416.936	2326.94
417.159	2277.94
417.382	2329.94
417.605	2358.94
417.828	2409.94
418.051	2481.94
418.274	2413.94
418.497	2352.94
418.72	2370.94
418.943	2337.94
419.166	2517.94
419.389	2635.94
419.611	2606.94
419.834	2496.94
420.057	2502.94
420.28	2521.94
420.503	2487.94
420.726	2437.94
420.948	2463.94
421.171	2720.94
421.394	2841.94
421.617	2525.94
421.839	2458.94
422.062	2397.94
422.285	2485.94
422.507	2758.94
422.73	3239.94
422.953	3030.94
423.175	2645.94
423.398	2529.94
423.621	2624.94
423.843	2670.94
424.066	2702.94
424.288	2676.94
424.511	2772.94
424.733	3056.94
424.956	3559.94
425.178	3210.94
425.401	3245.94
425.623	3450.94
425.846	2731.94
426.068	2569.94
426.291	2498.94
426.513	2492.94
426.735	2514.94
426.958	2787.94
427.18	3278.94
427.402	4095.94
427.625	4485.94
427.847	3622.94
428.069	3072.94
428.292	2664.94
428.514	2464.94
428.736	2317.94
428.958	2293.94
429.181	2311.94
429.403	2285.94
429.625	2368.94
429.847	2572.94
430.069	2942.94
430.292	2885.94
430.514	2402.94
430.736	2360.94
430.958	2282.94
431.18	2219.94
431.402	2192.94
431.624	2107.94
431.846	2147.94
432.068	2096.94
432.29	2110.94
432.512	2165.94
432.734	2262.94
432.956	2243.94
433.178	2315.94
433.4	2329.94
433.622	2274.94
433.844	2245.94
434.066	2149.94
434.287	2101.94
434.509	2151.94
434.731	2224.94
434.953	2335.94
435.175	2496.94
435.397	2614.94
435.618	2582.94
435.84	2812.94
436.062	3456.94
436.284	3906.94
436.505	2928.94
436.727	2681.94
436.949	2463.94
437.17	2379.94
437.392	2353.94
437.614	2383.94
437.835	2472.94
438.057	3045.94
438.278	3772.94
438.5	3740.94
438.721	4457.94
438.943	4137.94
439.165	2972.94
439.386	2728.94
439.608	2673.94
439.829	2671.94
440.05	2838.94
440.272	3245.94
440.493	2841.94
440.715	2625.94
440.936	2509.94
441.158	2428.94
441.379	2457.94
441.6	2543.94
441.822	2700.94
442.043	2916.94
442.264	3566.94
442.486	3816.94
442.707	3020.94
442.928	2737.94
443.149	2836.94
443.371	2973.94
443.592	3213.94
443.813	3940.94
444.034	4414.94
444.255	3310.94
444.476	2864.94
444.698	2754.94
444.919	2825.94
445.14	2910.94
445.361	2923.94
445.582	3056.94
445.803	3483.94
446.024	4219.94
446.245	4224.94
446.466	3721.94
446.687	2953.94
446.908	2700.94
447.129	2499.94
447.35	2435.94
447.571	2401.94
447.792	2323.94
448.013	2383.94
448.234	2515.94
448.455	2839.94
448.675	3704.94
448.896	4625.94
449.117	3435.94
449.338	3178.94
449.559	4125.94
449.779	5038.94
450	3432.94
450.221	2693.94
450.442	2417.94
450.662	2261.94
450.883	2279.94
451.104	2294.94
451.324	2322.94
451.545	2145.94
451.766	2110.94
451.986	2009.94
452.207	1995.94
452.428	1981.94
452.648	1998.94
452.869	1987.94
453.089	2060.94
453.31	2043.94
453.53	2000.94
453.751	1924.94
453.971	1897.94
454.192	1981.94
454.412	1985.94
454.633	1919.94
454.853	1929.94
455.073	1935.94
455.294	2168.94
455.514	2635.94
455.734	2496.94
455.955	2017.94
456.175	1887.94
456.395	1810.94
456.616	1803.94
456.836	1785.94
457.056	1794.94
457.276	1723.94
457.497	1787.94
457.717	1816.94
457.937	1853.94
458.157	1818.94
458.377	1840.94
458.598	1965.94
458.818	2198.94
459.038	2711.94
459.258	2947.94
459.478	2293.94
459.698	2089.94
459.918	2095.94
460.138	2081.94
460.358	2127.94
460.578	2162.94
460.798	2198.94
461.018	2231.94
461.238	2214.94
461.458	2153.94
461.678	2213.94
461.898	2196.94
462.118	2194.94
462.338	2246.94
462.558	2238.94
462.777	2299.94
462.997	2446.94
463.217	2571.94
463.437	2566.94
463.657	2441.94
463.876	2385.94
464.096	2350.94
464.316	2337.94
464.536	2399.94
464.755	2374.94
464.975	2369.94
465.195	2407.94
465.414	2667.94
465.634	2347.94
465.854	2170.94
466.073	2115.94
466.293	2073.94
466.512	2010.94
466.732	2007.94
466.951	2007.94
467.171	2013.94
467.391	2026.94
467.61	2067.94
467.829	2071.94
468.049	2028.94
468.268	2016.94
468.488	1975.94
468.707	1993.94
468.927	1935.94
469.146	1956.94
469.365	1998.94
469.585	1934.94
469.804	2062.94
470.023	2062.94
470.243	2051.94
470.462	2084.94
470.681	2186.94
470.901	2124.94
471.12	2073.94
471.339	2086.94
471.558	2157.94
471.777	2112.94
471.997	2005.94
472.216	2005.94
472.435	2083.94
472.654	1990.94
472.873	1929.94
473.092	1918.94
473.311	1902.94
473.53	1971.94
473.749	2015.94
473.968	2206.94
474.187	3009.94
474.406	3009.94
474.625	2298.94
474.844	2109.94
475.063	1979.94
475.282	2009.94
475.501	1949.94
475.72	1980.94
475.939	1978.94
476.158	2024.94
476.377	2047.94
476.596	1970.94
476.814	2001.94
477.033	1992.94
477.252	2010.94
477.471	2043.94
477.69	2075.94
477.908	2172.94
478.127	2195.94
478.346	2224.94
478.564	2284.94
478.783	2295.94
479.002	2311.94
479.22	2361.94
479.439	2319.94
479.658	2361.94
479.876	2364.94
480.095	2389.94
480.313	2613.94
480.532	2536.94
480.751	2415.94
480.969	2439.94
481.188	2593.94
481.406	2746.94
481.624	2431.94
481.843	2298.94
482.061	2157.94
482.28	2241.94
482.498	2215.94
482.717	2203.94
482.935	2248.94
483.153	2338.94
483.372	2354.94
483.59	2307.94
483.808	2245.94
484.027	2207.94
484.245	2226.94
484.463	2286.94
484.681	2351.94
484.9	2334.94
485.118	2388.94
485.336	2329.94
485.554	2336.94
485.772	2288.94
485.99	2288.94
486.209	2317.94
486.427	2339.94
486.645	2379.94
486.863	2485.94
487.081	2487.94
487.299	2414.94
487.517	2405.94
487.735	2513.94
487.953	2569.94
488.171	2574.94
488.389	2591.94
488.607	2526.94
