Data from 1970.Penny.LincolnSideUp.Lamp.En5.5200Scan.07242019.P1_HRD10591_15-02-35-044.txt Node
Date: Wed Jul 24 15:02:35 EDT 2019
User: cochatt
Spectrometer: HR+D1059
Trigger mode: 1
Integration Time (sec): 1.000000E-1
Scans to average: 1
Electric dark correction enabled: true
Nonlinearity correction enabled: false
Boxcar width: 0
XAxis mode: Wavelengths
Number of Pixels in Spectrum: 2048
>>>>>Begin Spectral Data<<<<<
223.165	-16.81
223.4	-16.81
223.635	-16.81
223.869	-21.81
224.104	-36.81
224.338	-10.81
224.573	-17.81
224.808	1.19
225.042	6.19
225.277	-5.81
225.511	-0.81
225.746	-4.81
225.98	5.19
226.215	5.19
226.449	10.19
226.683	28.19
226.918	27.19
227.152	32.19
227.387	30.19
227.621	36.19
227.856	57.19
228.09	50.19
228.324	66.19
228.559	59.19
228.793	223.19
229.027	623.19
229.262	756.19
229.496	930.19
229.73	1348.19
229.964	1813.19
230.199	1206.19
230.433	836.19
230.667	748.19
230.901	722.19
231.136	590.19
231.37	571.19
231.604	566.19
231.838	538.19
232.072	555.19
232.306	568.19
232.541	572.19
232.775	540.19
233.009	548.19
233.243	540.19
233.477	553.19
233.711	572.19
233.945	587.19
234.179	575.19
234.413	585.19
234.647	585.19
234.881	597.19
235.115	599.19
235.349	616.19
235.583	658.19
235.817	650.19
236.051	782.19
236.285	765.19
236.519	723.19
236.753	770.19
236.987	1021.19
237.221	1679.19
237.455	2597.19
237.689	1671.19
237.922	981.19
238.156	900.19
238.39	849.19
238.624	815.19
238.858	754.19
239.091	718.19
239.325	737.19
239.559	795.19
239.793	864.19
240.027	914.19
240.26	1056.19
240.494	1315.19
240.728	1174.19
240.961	1123.19
241.195	962.19
241.429	851.19
241.662	875.19
241.896	826.19
242.13	767.19
242.363	761.19
242.597	750.19
242.83	795.19
243.064	808.19
243.298	794.19
243.531	829.19
243.765	834.19
243.998	853.19
244.232	895.19
244.465	908.19
244.699	935.19
244.932	867.19
245.166	872.19
245.399	843.19
245.633	820.19
245.866	846.19
246.099	854.19
246.333	870.19
246.566	880.19
246.8	894.19
247.033	910.19
247.266	963.19
247.5	1011.19
247.733	1169.19
247.966	1334.19
248.2	1519.19
248.433	1506.19
248.666	1294.19
248.899	1356.19
249.133	1572.19
249.366	1767.19
249.599	1731.19
249.832	1354.19
250.066	1121.19
250.299	1158.19
250.532	1248.19
250.765	1434.19
250.998	1778.19
251.231	1830.19
251.465	1544.19
251.698	1469.19
251.931	1498.19
252.164	1408.19
252.397	1332.19
252.63	1362.19
252.863	1441.19
253.096	1634.19
253.329	1800.19
253.562	1652.19
253.795	1494.19
254.028	1415.19
254.261	1470.19
254.494	1615.19
254.727	2082.19
254.96	2458.19
255.193	2098.19
255.426	1760.19
255.659	1537.19
255.892	1502.19
256.124	1499.19
256.357	1515.19
256.59	1433.19
256.823	1402.19
257.056	1387.19
257.289	1370.19
257.521	1412.19
257.754	1440.19
257.987	1388.19
258.22	1348.19
258.452	1360.19
258.685	1370.19
258.918	1383.19
259.151	1434.19
259.383	1508.19
259.616	1555.19
259.849	1643.19
260.081	1791.19
260.314	2140.19
260.547	2047.19
260.779	1815.19
261.012	1692.19
261.244	1651.19
261.477	1638.19
261.71	1754.19
261.942	2126.19
262.175	2699.19
262.407	2456.19
262.64	1846.19
262.872	1652.19
263.105	1651.19
263.337	1621.19
263.57	1607.19
263.802	1504.19
264.035	1528.19
264.267	1468.19
264.499	1457.19
264.732	1460.19
264.964	1529.19
265.197	1468.19
265.429	1474.19
265.661	1432.19
265.894	1470.19
266.126	1453.19
266.358	1478.19
266.591	1500.19
266.823	1622.19
267.055	1610.19
267.287	1634.19
267.52	1586.19
267.752	1576.19
267.984	1610.19
268.216	1635.19
268.448	1602.19
268.681	1660.19
268.913	1757.19
269.145	1996.19
269.377	2206.19
269.609	2054.19
269.841	1978.19
270.073	2072.19
270.306	2343.19
270.538	2711.19
270.77	2614.19
271.002	2272.19
271.234	2167.19
271.466	2326.19
271.698	2581.19
271.93	2636.19
272.162	2663.19
272.394	2596.19
272.626	2439.19
272.858	2236.19
273.09	2065.19
273.322	2047.19
273.553	1964.19
273.785	1930.19
274.017	1975.19
274.249	2023.19
274.481	2098.19
274.713	2109.19
274.945	2205.19
275.176	2188.19
275.408	2158.19
275.64	2127.19
275.872	2127.19
276.104	2116.19
276.335	2138.19
276.567	2377.19
276.799	2843.19
277.031	3333.19
277.262	3202.19
277.494	2866.19
277.726	2500.19
277.957	2329.19
278.189	2190.19
278.421	2182.19
278.652	2154.19
278.884	2180.19
279.115	2236.19
279.347	2752.19
279.579	3929.19
279.81	5526.19
280.042	4546.19
280.273	3642.19
280.505	4152.19
280.736	3356.19
280.968	2288.19
281.199	2058.19
281.431	2039.19
281.662	2006.19
281.894	2015.19
282.125	2129.19
282.356	2511.19
282.588	3280.19
282.819	3435.19
283.051	2352.19
283.282	2049.19
283.513	2081.19
283.745	2092.19
283.976	2122.19
284.207	2183.19
284.439	2144.19
284.67	2079.19
284.901	2152.19
285.132	2330.19
285.364	2599.19
285.595	2618.19
285.826	2182.19
286.057	2118.19
286.288	2086.19
286.52	2056.19
286.751	2053.19
286.982	2058.19
287.213	2023.19
287.444	2062.19
287.675	2158.19
287.906	2298.19
288.138	2528.19
288.369	2692.19
288.6	2696.19
288.831	2383.19
289.062	2144.19
289.293	2181.19
289.524	2116.19
289.755	2069.19
289.986	2084.19
290.217	2057.19
290.448	2027.19
290.679	2060.19
290.91	2030.19
291.141	2032.19
291.371	2079.19
291.602	2026.19
291.833	2030.19
292.064	2076.19
292.295	2099.19
292.526	2159.19
292.757	2130.19
292.987	2127.19
293.218	2098.19
293.449	2139.19
293.68	2124.19
293.91	2137.19
294.141	2077.19
294.372	2116.19
294.603	2080.19
294.833	2100.19
295.064	2131.19
295.295	2125.19
295.525	2167.19
295.756	2224.19
295.987	2459.19
296.217	3094.19
296.448	3435.19
296.679	2492.19
296.909	2158.19
297.14	2121.19
297.37	2166.19
297.601	2188.19
297.831	2176.19
298.062	2231.19
298.292	2266.19
298.523	2326.19
298.753	2294.19
298.984	2298.19
299.214	2275.19
299.445	2237.19
299.675	2308.19
299.905	2449.19
300.136	2438.19
300.366	2343.19
300.597	2298.19
300.827	2422.19
301.057	2582.19
301.288	2872.19
301.518	2741.19
301.748	2503.19
301.979	2531.19
302.209	2615.19
302.439	2726.19
302.669	2618.19
302.9	2453.19
303.13	2394.19
303.36	2486.19
303.59	2608.19
303.82	2866.19
304.051	2819.19
304.281	2410.19
304.511	2267.19
304.741	2294.19
304.971	2306.19
305.201	2299.19
305.431	2356.19
305.661	2351.19
305.891	2362.19
306.121	2389.19
306.352	2571.19
306.582	2784.19
306.812	2610.19
307.042	2477.19
307.272	2495.19
307.502	2580.19
307.731	2676.19
307.961	2582.19
308.191	2570.19
308.421	2605.19
308.651	2634.19
308.881	2718.19
309.111	2912.19
309.341	2926.19
309.571	3192.19
309.8	3234.19
310.03	3370.19
310.26	3674.19
310.49	3516.19
310.72	3638.19
310.949	4230.19
311.179	4390.19
311.409	3551.19
311.639	3264.19
311.868	3378.19
312.098	3367.19
312.328	3485.19
312.557	3980.19
312.787	4518.19
313.017	4482.19
313.246	3632.19
313.476	3194.19
313.706	3193.19
313.935	3365.19
314.165	3778.19
314.394	4171.19
314.624	4024.19
314.853	3620.19
315.083	3462.19
315.312	3198.19
315.542	3129.19
315.771	3230.19
316.001	3590.19
316.23	3896.19
316.46	3576.19
316.689	3363.19
316.919	3418.19
317.148	3612.19
317.377	3636.19
317.607	3712.19
317.836	4046.19
318.065	4547.19
318.295	4853.19
318.524	3998.19
318.753	3430.19
318.983	3202.19
319.212	3257.19
319.441	3503.19
319.67	3654.19
319.9	3250.19
320.129	3032.19
320.358	3060.19
320.587	3136.19
320.816	3317.19
321.046	3582.19
321.275	3478.19
321.504	3392.19
321.733	3398.19
321.962	3547.19
322.191	3878.19
322.42	4225.19
322.649	4683.19
322.878	4841.19
323.108	5062.19
323.337	5780.19
323.566	6453.19
323.795	7484.19
324.024	8316.19
324.253	11146.19
324.482	15727.19
324.71	15728.19
324.939	15728.19
325.168	15728.19
325.397	15510.19
325.626	9454.19
325.855	6775.19
326.084	5806.19
326.313	5632.19
326.542	5958.19
326.77	7115.19
326.999	9708.19
327.228	14555.19
327.457	15728.19
327.686	15728.19
327.914	15728.19
328.143	13483.19
328.372	11483.19
328.6	8938.19
328.829	7352.19
329.058	8051.19
329.287	8905.19
329.515	7230.19
329.744	5502.19
329.972	5194.19
330.201	5618.19
330.43	6844.19
330.658	7967.19
330.887	9567.19
331.115	9513.19
331.344	6091.19
331.572	5092.19
331.801	5315.19
332.03	5302.19
332.258	4732.19
332.486	4165.19
332.715	3945.19
332.943	3879.19
333.172	3995.19
333.4	4040.19
333.629	4158.19
333.857	4493.19
334.085	4684.19
334.314	4783.19
334.542	5474.19
334.771	6018.19
334.999	5259.19
335.227	4942.19
335.455	4115.19
335.684	3904.19
335.912	3778.19
336.14	3798.19
336.369	4013.19
336.597	4187.19
336.825	4294.19
337.053	3848.19
337.281	3729.19
337.51	3806.19
337.738	3799.19
337.966	3982.19
338.194	4620.19
338.422	5427.19
338.65	4998.19
338.878	3790.19
339.106	3497.19
339.334	3421.19
339.562	3442.19
339.79	3394.19
340.018	3484.19
340.246	3577.19
340.474	3817.19
340.702	3677.19
340.93	3454.19
341.158	3374.19
341.386	3596.19
341.614	3775.19
341.842	3747.19
342.07	3456.19
342.298	3390.19
342.526	3269.19
342.754	3151.19
342.981	3002.19
343.209	3012.19
343.437	3094.19
343.665	3177.19
343.893	3338.19
344.12	3342.19
344.348	3347.19
344.576	3484.19
344.804	3697.19
345.031	4000.19
345.259	4356.19
345.487	3998.19
345.714	3807.19
345.942	3610.19
346.17	3431.19
346.397	3373.19
346.625	3376.19
346.853	3427.19
347.08	3292.19
347.308	3471.19
347.535	3759.19
347.763	4058.19
347.99	3874.19
348.218	3719.19
348.445	4160.19
348.673	4194.19
348.9	3554.19
349.128	3351.19
349.355	3159.19
349.583	3169.19
349.81	3203.19
350.037	3188.19
350.265	3068.19
350.492	3164.19
350.72	3187.19
350.947	3366.19
351.174	3716.19
351.402	4094.19
351.629	3909.19
351.856	3735.19
352.083	3936.19
352.311	4254.19
352.538	4418.19
352.765	4416.19
352.992	4005.19
353.22	3788.19
353.447	3690.19
353.674	3523.19
353.901	3062.19
354.128	2950.19
354.355	2923.19
354.583	2976.19
354.81	3018.19
355.037	2823.19
355.264	2681.19
355.491	2690.19
355.718	2700.19
355.945	2747.19
356.172	2715.19
356.399	2667.19
356.626	2702.19
356.853	2772.19
357.08	2707.19
357.307	2809.19
357.534	2798.19
357.761	2806.19
357.988	2830.19
358.215	2927.19
358.441	2944.19
358.668	2980.19
358.895	2999.19
359.122	3020.19
359.349	3254.19
359.576	3572.19
359.802	4328.19
360.029	5439.19
360.256	6034.19
360.483	5260.19
360.709	3952.19
360.936	3548.19
361.163	3588.19
361.39	3803.19
361.616	3980.19
361.843	3653.19
362.07	3670.19
362.296	3943.19
362.523	3798.19
362.749	3669.19
362.976	3511.19
363.203	3304.19
363.429	3214.19
363.656	3263.19
363.882	3222.19
364.109	3100.19
364.335	3123.19
364.562	3171.19
364.788	3182.19
365.015	3127.19
365.241	3178.19
365.468	3323.19
365.694	3512.19
365.92	3532.19
366.147	3324.19
366.373	3172.19
366.599	3039.19
366.826	3018.19
367.052	2981.19
367.278	2972.19
367.505	3059.19
367.731	3079.19
367.957	3130.19
368.184	3111.19
368.41	3314.19
368.636	3641.19
368.862	3610.19
369.089	3261.19
369.315	3078.19
369.541	3026.19
369.767	3048.19
369.993	3066.19
370.219	3214.19
370.445	3142.19
370.672	3129.19
370.898	3126.19
371.124	3047.19
371.35	3050.19
371.576	2880.19
371.802	2782.19
372.028	2870.19
372.254	2852.19
372.48	2855.19
372.706	2844.19
372.932	2883.19
373.158	2843.19
373.384	3029.19
373.61	3222.19
373.835	3493.19
374.061	3549.19
374.287	3343.19
374.513	3292.19
374.739	3154.19
374.965	3083.19
375.191	3031.19
375.416	3030.19
375.642	2939.19
375.868	3034.19
376.094	3195.19
376.319	3149.19
376.545	2996.19
376.771	2832.19
376.997	2831.19
377.222	2841.19
377.448	2852.19
377.674	2805.19
377.899	2773.19
378.125	2792.19
378.35	2697.19
378.576	2802.19
378.802	2764.19
379.027	2732.19
379.253	2767.19
379.478	2742.19
379.704	2790.19
379.929	2886.19
380.155	2951.19
380.38	2974.19
380.606	3030.19
380.831	2971.19
381.057	2876.19
381.282	2895.19
381.507	2981.19
381.733	3040.19
381.958	3026.19
382.184	3098.19
382.409	3103.19
382.634	3126.19
382.86	3117.19
383.085	3175.19
383.31	3226.19
383.535	3263.19
383.761	3214.19
383.986	3329.19
384.211	3318.19
384.436	3183.19
384.662	3210.19
384.887	3363.19
385.112	3352.19
385.337	3459.19
385.562	3466.19
385.787	3519.19
386.013	3771.19
386.238	4104.19
386.463	4174.19
386.688	3725.19
386.913	3527.19
387.138	3502.19
387.363	3524.19
387.588	3288.19
387.813	3375.19
388.038	3382.19
388.263	3553.19
388.488	3654.19
388.713	3408.19
388.938	3321.19
389.163	3380.19
389.387	3282.19
389.612	3229.19
389.837	3221.19
390.062	3269.19
390.287	3292.19
390.512	3220.19
390.736	3321.19
390.961	3352.19
391.186	3345.19
391.411	3406.19
391.636	3545.19
391.86	3626.19
392.085	3712.19
392.31	3877.19
392.534	4195.19
392.759	4628.19
392.984	5905.19
393.208	10241.19
393.433	15728.19
393.658	15728.19
393.882	10582.19
394.107	5060.19
394.331	4242.19
394.556	4130.19
394.78	3945.19
395.005	3726.19
395.229	3572.19
395.454	3646.19
395.678	3850.19
395.903	4052.19
396.127	4718.19
396.352	5442.19
396.576	6200.19
396.801	10059.19
397.025	15328.19
397.249	11884.19
397.474	5207.19
397.698	4285.19
397.922	4128.19
398.147	4162.19
398.371	4071.19
398.595	3909.19
398.82	3891.19
399.044	4071.19
399.268	4196.19
399.492	4507.19
399.717	4834.19
399.941	5191.19
400.165	5421.19
400.389	5501.19
400.613	4802.19
400.837	4395.19
401.062	4230.19
401.286	4197.19
401.51	4221.19
401.734	4121.19
401.958	4235.19
402.182	4382.19
402.406	4837.19
402.63	5018.19
402.854	4730.19
403.078	4544.19
403.302	4574.19
403.526	4605.19
403.75	4506.19
403.974	4449.19
404.198	4338.19
404.422	4556.19
404.645	4660.19
404.869	4673.19
405.093	4975.19
405.317	5371.19
405.541	5787.19
405.765	5174.19
405.988	5051.19
406.212	5315.19
406.436	6440.19
406.66	6735.19
406.883	5782.19
407.107	5686.19
407.331	6087.19
407.555	6916.19
407.778	6839.19
408.002	5971.19
408.226	5302.19
408.449	5008.19
408.673	4940.19
408.896	5231.19
409.12	5712.19
409.344	5066.19
409.567	4511.19
409.791	4358.19
410.014	4263.19
410.238	4185.19
410.461	4259.19
410.685	4271.19
410.908	4498.19
411.132	4829.19
411.355	5286.19
411.578	4743.19
411.802	4302.19
412.025	4136.19
412.249	4244.19
412.472	4518.19
412.695	4910.19
412.919	4630.19
413.142	4183.19
413.365	4024.19
413.589	3985.19
413.812	3908.19
414.035	3848.19
414.258	3790.19
414.482	3780.19
414.705	3826.19
414.928	3804.19
415.151	3822.19
415.374	3801.19
415.597	3719.19
415.821	3802.19
416.044	3822.19
416.267	3915.19
416.49	3778.19
416.713	3772.19
416.936	3791.19
417.159	3807.19
417.382	4018.19
417.605	3939.19
417.828	4252.19
418.051	4556.19
418.274	4148.19
418.497	3939.19
418.72	3935.19
418.943	3885.19
419.166	4023.19
419.389	4201.19
419.611	4198.19
419.834	4156.19
420.057	4199.19
420.28	4069.19
420.503	3990.19
420.726	3974.19
420.948	4194.19
421.171	4810.19
421.394	5238.19
421.617	4380.19
421.839	4250.19
422.062	4120.19
422.285	4376.19
422.507	5479.19
422.73	8028.19
422.953	9458.19
423.175	5600.19
423.398	4632.19
423.621	4393.19
423.843	4731.19
424.066	4645.19
424.288	4602.19
424.511	4886.19
424.733	5570.19
424.956	6883.19
425.178	6507.19
425.401	6357.19
425.623	6657.19
425.846	5195.19
426.068	4871.19
426.291	4948.19
426.513	4744.19
426.735	4841.19
426.958	5327.19
427.18	6649.19
427.402	8732.19
427.625	10926.19
427.847	10471.19
428.069	7512.19
428.292	5730.19
428.514	4998.19
428.736	4581.19
428.958	4530.19
429.181	4386.19
429.403	4286.19
429.625	4335.19
429.847	4797.19
430.069	5965.19
430.292	5970.19
430.514	4968.19
430.736	4414.19
430.958	4262.19
431.18	3994.19
431.402	3828.19
431.624	3743.19
431.846	3728.19
432.068	3829.19
432.29	3780.19
432.512	3750.19
432.734	3969.19
432.956	3985.19
433.178	4275.19
433.4	4548.19
433.622	4100.19
433.844	3861.19
434.066	3838.19
434.287	3704.19
434.509	3789.19
434.731	3901.19
434.953	4089.19
435.175	4390.19
435.397	4740.19
435.618	4777.19
435.84	5438.19
436.062	7135.19
436.284	8035.19
436.505	5966.19
436.727	5388.19
436.949	4633.19
437.17	4406.19
437.392	4407.19
437.614	4624.19
437.835	5412.19
438.057	7635.19
438.278	8886.19
438.5	8041.19
438.721	9308.19
438.943	8418.19
439.165	6021.19
439.386	5404.19
439.608	5477.19
439.829	5842.19
440.05	6914.19
440.272	8307.19
440.493	6926.19
440.715	5563.19
440.936	4998.19
441.158	4774.19
441.379	4728.19
441.6	5013.19
441.822	5501.19
442.043	6011.19
442.264	7406.19
442.486	8009.19
442.707	6185.19
442.928	5877.19
443.149	6379.19
443.371	7069.19
443.592	7400.19
443.813	8734.19
444.034	9132.19
444.255	6536.19
444.476	5540.19
444.698	5227.19
444.919	5218.19
445.14	5463.19
445.361	6150.19
445.582	7324.19
445.803	9398.19
446.024	10955.19
446.245	10338.19
446.466	9037.19
446.687	6475.19
446.908	5466.19
447.129	5052.19
447.35	4735.19
447.571	4717.19
447.792	4607.19
448.013	4771.19
448.234	5202.19
448.455	6008.19
448.675	7806.19
448.896	9621.19
449.117	7152.19
449.338	6702.19
449.559	8687.19
449.779	10403.19
450	7140.19
450.221	5449.19
450.442	4808.19
450.662	4775.19
450.883	5333.19
451.104	6139.19
451.324	5714.19
451.545	4742.19
451.766	4306.19
451.986	4091.19
452.207	3981.19
452.428	3980.19
452.648	4072.19
452.869	4402.19
453.089	4670.19
453.31	4922.19
453.53	4619.19
453.751	4286.19
453.971	4491.19
454.192	5338.19
454.412	5006.19
454.633	4258.19
454.853	4007.19
455.073	3984.19
455.294	4535.19
455.514	6097.19
455.734	5660.19
455.955	3981.19
456.175	3575.19
456.395	3455.19
456.616	3387.19
456.836	3398.19
457.056	3300.19
457.276	3282.19
457.497	3421.19
457.717	3405.19
457.937	3571.19
458.157	3676.19
458.377	3863.19
458.598	4448.19
458.818	6491.19
459.038	9233.19
459.258	8531.19
459.478	5660.19
459.698	4588.19
459.918	4150.19
460.138	4044.19
460.358	4034.19
460.578	4015.19
460.798	4114.19
461.018	4293.19
461.238	3874.19
461.458	3818.19
461.678	3746.19
461.898	3814.19
462.118	3764.19
462.338	3871.19
462.558	3960.19
462.777	3986.19
462.997	4142.19
463.217	4214.19
463.437	4253.19
463.657	4217.19
463.876	4147.19
464.096	4179.19
464.316	4405.19
464.536	4678.19
464.755	4631.19
464.975	4813.19
465.195	6734.19
465.414	10447.19
465.634	6850.19
465.854	5038.19
466.073	4319.19
466.293	4033.19
466.512	3868.19
466.732	3759.19
466.951	3719.19
467.171	3723.19
467.391	3811.19
467.61	4295.19
467.829	4731.19
468.049	4191.19
468.268	4046.19
468.488	3802.19
468.707	3512.19
468.927	3503.19
469.146	3538.19
469.365	3548.19
469.585	3497.19
469.804	3841.19
470.023	4294.19
470.243	4234.19
470.462	4337.19
470.681	5064.19
470.901	4742.19
471.12	4029.19
471.339	3874.19
471.558	3970.19
471.777	3896.19
471.997	3660.19
472.216	3754.19
472.435	4541.19
472.654	4108.19
472.873	3548.19
473.092	3450.19
473.311	3429.19
473.53	3534.19
473.749	3685.19
473.968	4352.19
474.187	6437.19
474.406	6687.19
474.625	4395.19
474.844	3738.19
475.063	3550.19
475.282	3536.19
475.501	3562.19
475.72	3581.19
475.939	3587.19
476.158	3635.19
476.377	3635.19
476.596	3668.19
476.814	3968.19
477.033	4078.19
477.252	3917.19
477.471	3810.19
477.69	3923.19
477.908	3978.19
478.127	4024.19
478.346	3953.19
478.564	3995.19
478.783	4210.19
479.002	4301.19
479.22	4436.19
479.439	4807.19
479.658	5342.19
479.876	5176.19
480.095	4932.19
480.313	5378.19
480.532	4933.19
480.751	4690.19
480.969	4938.19
481.188	5951.19
481.406	7087.19
481.624	5104.19
481.843	4500.19
482.061	4222.19
482.28	4219.19
482.498	4171.19
482.717	4165.19
482.935	4254.19
483.153	4183.19
483.372	4215.19
483.59	4207.19
483.808	4122.19
484.027	4107.19
484.245	4170.19
484.463	4295.19
484.681	4375.19
484.9	4281.19
485.118	4296.19
485.336	4339.19
485.554	4351.19
485.772	4321.19
485.99	4252.19
486.209	4368.19
486.427	4453.19
486.645	4790.19
486.863	5477.19
