Data from Location3.07152019.Energy5.Lamp.07192019.3%Agarose_HRD10591_15-17-23-269.txt Node
Date: Fri Jul 19 15:17:23 EDT 2019
User: cochatt
Spectrometer: HR+D1059
Trigger mode: 1
Integration Time (sec): 1.000000E-1
Scans to average: 1
Electric dark correction enabled: true
Nonlinearity correction enabled: false
Boxcar width: 0
XAxis mode: Wavelengths
Number of Pixels in Spectrum: 2048
>>>>>Begin Spectral Data<<<<<
223.165	-19.12
223.4	-19.12
223.635	-19.12
223.869	-12.12
224.104	-18.12
224.338	-23.12
224.573	-16.12
224.808	-8.12
225.042	-7.12
225.277	-7.12
225.511	7.88
225.746	2.88
225.98	-7.12
226.215	19.88
226.449	15.88
226.683	20.88
226.918	16.88
227.152	33.88
227.387	40.88
227.621	39.88
227.856	55.88
228.09	52.88
228.324	51.88
228.559	53.88
228.793	49.88
229.027	68.88
229.262	73.88
229.496	60.88
229.73	67.88
229.964	79.88
230.199	73.88
230.433	65.88
230.667	84.88
230.901	76.88
231.136	72.88
231.37	79.88
231.604	84.88
231.838	72.88
232.072	89.88
232.306	90.88
232.541	71.88
232.775	94.88
233.009	101.88
233.243	95.88
233.477	94.88
233.711	73.88
233.945	86.88
234.179	77.88
234.413	93.88
234.647	94.88
234.881	81.88
235.115	75.88
235.349	94.88
235.583	85.88
235.817	71.88
236.051	64.88
236.285	83.88
236.519	69.88
236.753	68.88
236.987	79.88
237.221	84.88
237.455	88.88
237.689	73.88
237.922	77.88
238.156	89.88
238.39	80.88
238.624	88.88
238.858	71.88
239.091	76.88
239.325	77.88
239.559	89.88
239.793	77.88
240.027	85.88
240.26	83.88
240.494	65.88
240.728	89.88
240.961	79.88
241.195	74.88
241.429	97.88
241.662	87.88
241.896	70.88
242.13	82.88
242.363	84.88
242.597	68.88
242.83	87.88
243.064	73.88
243.298	84.88
243.531	78.88
243.765	66.88
243.998	87.88
244.232	93.88
244.465	85.88
244.699	92.88
244.932	107.88
245.166	76.88
245.399	99.88
245.633	83.88
245.866	72.88
246.099	81.88
246.333	87.88
246.566	76.88
246.8	88.88
247.033	71.88
247.266	67.88
247.5	75.88
247.733	77.88
247.966	78.88
248.2	76.88
248.433	77.88
248.666	80.88
248.899	86.88
249.133	80.88
249.366	79.88
249.599	87.88
249.832	83.88
250.066	91.88
250.299	97.88
250.532	85.88
250.765	83.88
250.998	67.88
251.231	84.88
251.465	89.88
251.698	54.88
251.931	73.88
252.164	82.88
252.397	89.88
252.63	73.88
252.863	86.88
253.096	73.88
253.329	83.88
253.562	81.88
253.795	59.88
254.028	75.88
254.261	92.88
254.494	84.88
254.727	92.88
254.96	83.88
255.193	81.88
255.426	81.88
255.659	95.88
255.892	71.88
256.124	72.88
256.357	76.88
256.59	68.88
256.823	89.88
257.056	84.88
257.289	81.88
257.521	87.88
257.754	98.88
257.987	89.88
258.22	84.88
258.452	74.88
258.685	79.88
258.918	84.88
259.151	80.88
259.383	73.88
259.616	82.88
259.849	90.88
260.081	70.88
260.314	74.88
260.547	90.88
260.779	68.88
261.012	73.88
261.244	85.88
261.477	87.88
261.71	73.88
261.942	55.88
262.175	84.88
262.407	74.88
262.64	81.88
262.872	82.88
263.105	94.88
263.337	80.88
263.57	74.88
263.802	86.88
264.035	89.88
264.267	88.88
264.499	87.88
264.732	96.88
264.964	75.88
265.197	90.88
265.429	74.88
265.661	71.88
265.894	75.88
266.126	83.88
266.358	80.88
266.591	73.88
266.823	93.88
267.055	79.88
267.287	78.88
267.52	91.88
267.752	76.88
267.984	83.88
268.216	80.88
268.448	83.88
268.681	77.88
268.913	92.88
269.145	96.88
269.377	90.88
269.609	88.88
269.841	74.88
270.073	77.88
270.306	87.88
270.538	87.88
270.77	88.88
271.002	88.88
271.234	95.88
271.466	95.88
271.698	79.88
271.93	81.88
272.162	78.88
272.394	90.88
272.626	76.88
272.858	91.88
273.09	80.88
273.322	85.88
273.553	80.88
273.785	83.88
274.017	85.88
274.249	81.88
274.481	98.88
274.713	101.88
274.945	93.88
275.176	101.88
275.408	98.88
275.64	94.88
275.872	87.88
276.104	101.88
276.335	81.88
276.567	75.88
276.799	75.88
277.031	83.88
277.262	86.88
277.494	88.88
277.726	83.88
277.957	88.88
278.189	88.88
278.421	84.88
278.652	86.88
278.884	89.88
279.115	91.88
279.347	94.88
279.579	86.88
279.81	92.88
280.042	88.88
280.273	74.88
280.505	93.88
280.736	92.88
280.968	92.88
281.199	86.88
281.431	81.88
281.662	98.88
281.894	97.88
282.125	88.88
282.356	86.88
282.588	83.88
282.819	85.88
283.051	89.88
283.282	83.88
283.513	92.88
283.745	75.88
283.976	82.88
284.207	72.88
284.439	86.88
284.67	89.88
284.901	91.88
285.132	75.88
285.364	86.88
285.595	84.88
285.826	87.88
286.057	79.88
286.288	80.88
286.52	91.88
286.751	80.88
286.982	96.88
287.213	77.88
287.444	92.88
287.675	85.88
287.906	74.88
288.138	100.88
288.369	79.88
288.6	80.88
288.831	93.88
289.062	74.88
289.293	84.88
289.524	77.88
289.755	79.88
289.986	92.88
290.217	99.88
290.448	81.88
290.679	94.88
290.91	113.88
291.141	78.88
291.371	103.88
291.602	101.88
291.833	85.88
292.064	92.88
292.295	96.88
292.526	82.88
292.757	76.88
292.987	87.88
293.218	76.88
293.449	86.88
293.68	83.88
293.91	89.88
294.141	83.88
294.372	89.88
294.603	79.88
294.833	71.88
295.064	81.88
295.295	93.88
295.525	86.88
295.756	79.88
295.987	85.88
296.217	87.88
296.448	72.88
296.679	77.88
296.909	80.88
297.14	100.88
297.37	92.88
297.601	81.88
297.831	79.88
298.062	92.88
298.292	92.88
298.523	77.88
298.753	75.88
298.984	89.88
299.214	83.88
299.445	90.88
299.675	83.88
299.905	81.88
300.136	77.88
300.366	86.88
300.597	78.88
300.827	95.88
301.057	100.88
301.288	84.88
301.518	96.88
301.748	90.88
301.979	90.88
302.209	85.88
302.439	89.88
302.669	98.88
302.9	89.88
303.13	72.88
303.36	87.88
303.59	99.88
303.82	83.88
304.051	93.88
304.281	85.88
304.511	83.88
304.741	82.88
304.971	87.88
305.201	92.88
305.431	83.88
305.661	85.88
305.891	89.88
306.121	81.88
306.352	88.88
306.582	80.88
306.812	92.88
307.042	87.88
307.272	87.88
307.502	98.88
307.731	83.88
307.961	87.88
308.191	88.88
308.421	77.88
308.651	88.88
308.881	85.88
309.111	81.88
309.341	84.88
309.571	85.88
309.8	94.88
310.03	83.88
310.26	91.88
310.49	91.88
310.72	87.88
310.949	89.88
311.179	82.88
311.409	93.88
311.639	89.88
311.868	88.88
312.098	88.88
312.328	96.88
312.557	97.88
312.787	87.88
313.017	96.88
313.246	83.88
313.476	74.88
313.706	77.88
313.935	95.88
314.165	83.88
314.394	88.88
314.624	100.88
314.853	73.88
315.083	86.88
315.312	91.88
315.542	85.88
315.771	96.88
316.001	85.88
316.23	86.88
316.46	94.88
316.689	83.88
316.919	94.88
317.148	94.88
317.377	88.88
317.607	98.88
317.836	77.88
318.065	100.88
318.295	89.88
318.524	85.88
318.753	73.88
318.983	81.88
319.212	90.88
319.441	82.88
319.67	90.88
319.9	84.88
320.129	71.88
320.358	79.88
320.587	76.88
320.816	90.88
321.046	90.88
321.275	83.88
321.504	103.88
321.733	97.88
321.962	80.88
322.191	82.88
322.42	83.88
322.649	85.88
322.878	96.88
323.108	90.88
323.337	88.88
323.566	83.88
323.795	95.88
324.024	87.88
324.253	84.88
324.482	80.88
324.71	88.88
324.939	96.88
325.168	95.88
325.397	87.88
325.626	76.88
325.855	97.88
326.084	85.88
326.313	85.88
326.542	91.88
326.77	79.88
326.999	78.88
327.228	78.88
327.457	94.88
327.686	92.88
327.914	85.88
328.143	66.88
328.372	93.88
328.6	81.88
328.829	82.88
329.058	101.88
329.287	75.88
329.515	78.88
329.744	82.88
329.972	95.88
330.201	95.88
330.43	104.88
330.658	90.88
330.887	88.88
331.115	90.88
331.344	90.88
331.572	85.88
331.801	84.88
332.03	97.88
332.258	101.88
332.486	84.88
332.715	93.88
332.943	75.88
333.172	90.88
333.4	82.88
333.629	83.88
333.857	81.88
334.085	90.88
334.314	84.88
334.542	86.88
334.771	80.88
334.999	80.88
335.227	87.88
335.455	86.88
335.684	83.88
335.912	84.88
336.14	91.88
336.369	80.88
336.597	83.88
336.825	96.88
337.053	87.88
337.281	94.88
337.51	87.88
337.738	88.88
337.966	99.88
338.194	99.88
338.422	87.88
338.65	85.88
338.878	86.88
339.106	78.88
339.334	97.88
339.562	83.88
339.79	77.88
340.018	91.88
340.246	82.88
340.474	75.88
340.702	86.88
340.93	87.88
341.158	100.88
341.386	88.88
341.614	97.88
341.842	85.88
342.07	104.88
342.298	88.88
342.526	81.88
342.754	96.88
342.981	78.88
343.209	95.88
343.437	82.88
343.665	100.88
343.893	82.88
344.12	78.88
344.348	77.88
344.576	77.88
344.804	84.88
345.031	92.88
345.259	95.88
345.487	95.88
345.714	84.88
345.942	94.88
346.17	87.88
346.397	84.88
346.625	95.88
346.853	86.88
347.08	82.88
347.308	97.88
347.535	77.88
347.763	87.88
347.99	86.88
348.218	82.88
348.445	82.88
348.673	90.88
348.9	89.88
349.128	85.88
349.355	83.88
349.583	76.88
349.81	92.88
350.037	81.88
350.265	86.88
350.492	88.88
350.72	87.88
350.947	81.88
351.174	93.88
351.402	94.88
351.629	79.88
351.856	81.88
352.083	85.88
352.311	91.88
352.538	91.88
352.765	92.88
352.992	88.88
353.22	98.88
353.447	90.88
353.674	86.88
353.901	94.88
354.128	74.88
354.355	93.88
354.583	69.88
354.81	88.88
355.037	101.88
355.264	89.88
355.491	69.88
355.718	94.88
355.945	78.88
356.172	87.88
356.399	93.88
356.626	89.88
356.853	81.88
357.08	84.88
357.307	102.88
357.534	68.88
357.761	89.88
357.988	82.88
358.215	97.88
358.441	74.88
358.668	89.88
358.895	86.88
359.122	89.88
359.349	88.88
359.576	84.88
359.802	72.88
360.029	88.88
360.256	92.88
360.483	78.88
360.709	65.88
360.936	83.88
361.163	65.88
361.39	76.88
361.616	102.88
361.843	79.88
362.07	79.88
362.296	90.88
362.523	91.88
362.749	104.88
362.976	88.88
363.203	88.88
363.429	89.88
363.656	87.88
363.882	93.88
364.109	72.88
364.335	75.88
364.562	84.88
364.788	82.88
365.015	83.88
365.241	95.88
365.468	95.88
365.694	75.88
365.92	74.88
366.147	81.88
366.373	98.88
366.599	95.88
366.826	86.88
367.052	91.88
367.278	64.88
367.505	78.88
367.731	98.88
367.957	85.88
368.184	77.88
368.41	93.88
368.636	88.88
368.862	81.88
369.089	89.88
369.315	95.88
369.541	78.88
369.767	85.88
369.993	84.88
370.219	87.88
370.445	86.88
370.672	85.88
370.898	82.88
371.124	83.88
371.35	82.88
371.576	88.88
371.802	76.88
372.028	85.88
372.254	99.88
372.48	84.88
372.706	82.88
372.932	92.88
373.158	83.88
373.384	83.88
373.61	83.88
373.835	79.88
374.061	105.88
374.287	70.88
374.513	82.88
374.739	87.88
374.965	75.88
375.191	83.88
375.416	88.88
375.642	95.88
375.868	100.88
376.094	81.88
376.319	71.88
376.545	70.88
376.771	94.88
376.997	75.88
377.222	90.88
377.448	93.88
377.674	88.88
377.899	100.88
378.125	106.88
378.35	87.88
378.576	75.88
378.802	98.88
379.027	91.88
379.253	106.88
379.478	78.88
379.704	91.88
379.929	92.88
380.155	82.88
380.38	78.88
380.606	92.88
380.831	94.88
381.057	95.88
381.282	81.88
381.507	77.88
381.733	93.88
381.958	109.88
382.184	89.88
382.409	84.88
382.634	85.88
382.86	75.88
383.085	88.88
383.31	75.88
383.535	81.88
383.761	76.88
383.986	79.88
384.211	90.88
384.436	81.88
384.662	79.88
384.887	91.88
385.112	82.88
385.337	73.88
385.562	81.88
385.787	100.88
386.013	96.88
386.238	89.88
386.463	75.88
386.688	80.88
386.913	77.88
387.138	86.88
387.363	77.88
387.588	94.88
387.813	87.88
388.038	80.88
388.263	95.88
388.488	92.88
388.713	91.88
388.938	86.88
389.163	88.88
389.387	96.88
389.612	80.88
389.837	81.88
390.062	90.88
390.287	89.88
390.512	87.88
390.736	91.88
390.961	86.88
391.186	95.88
391.411	74.88
391.636	89.88
391.86	81.88
392.085	84.88
392.31	94.88
392.534	89.88
392.759	91.88
392.984	77.88
393.208	84.88
393.433	87.88
393.658	93.88
393.882	90.88
394.107	89.88
394.331	92.88
394.556	95.88
394.78	80.88
395.005	82.88
395.229	83.88
395.454	84.88
395.678	82.88
395.903	86.88
396.127	88.88
396.352	88.88
396.576	97.88
396.801	82.88
397.025	74.88
397.249	99.88
397.474	96.88
397.698	97.88
397.922	109.88
398.147	83.88
398.371	91.88
398.595	85.88
398.82	79.88
399.044	82.88
399.268	89.88
399.492	101.88
399.717	81.88
399.941	92.88
400.165	83.88
400.389	77.88
400.613	90.88
400.837	89.88
401.062	89.88
401.286	83.88
401.51	89.88
401.734	89.88
401.958	88.88
402.182	92.88
402.406	93.88
402.63	96.88
402.854	90.88
403.078	85.88
403.302	92.88
403.526	91.88
403.75	97.88
403.974	94.88
404.198	96.88
404.422	95.88
404.645	82.88
404.869	81.88
405.093	83.88
405.317	80.88
405.541	95.88
405.765	93.88
405.988	78.88
406.212	92.88
406.436	89.88
406.66	103.88
406.883	97.88
407.107	92.88
407.331	96.88
407.555	99.88
407.778	74.88
408.002	100.88
408.226	89.88
408.449	94.88
408.673	81.88
408.896	89.88
409.12	91.88
409.344	88.88
409.567	95.88
409.791	98.88
410.014	91.88
410.238	77.88
410.461	93.88
410.685	90.88
410.908	94.88
411.132	91.88
411.355	79.88
411.578	100.88
411.802	88.88
412.025	104.88
412.249	90.88
412.472	99.88
412.695	87.88
412.919	91.88
413.142	95.88
413.365	98.88
413.589	80.88
413.812	92.88
414.035	98.88
414.258	82.88
414.482	77.88
414.705	87.88
414.928	96.88
415.151	102.88
415.374	101.88
415.597	92.88
415.821	89.88
416.044	96.88
416.267	89.88
416.49	95.88
416.713	82.88
416.936	90.88
417.159	91.88
417.382	88.88
417.605	94.88
417.828	90.88
418.051	112.88
418.274	83.88
418.497	92.88
418.72	112.88
418.943	99.88
419.166	99.88
419.389	95.88
419.611	81.88
419.834	91.88
420.057	96.88
420.28	89.88
420.503	89.88
420.726	91.88
420.948	106.88
421.171	90.88
421.394	92.88
421.617	103.88
421.839	98.88
422.062	79.88
422.285	99.88
422.507	94.88
422.73	81.88
422.953	91.88
423.175	101.88
423.398	88.88
423.621	118.88
423.843	101.88
424.066	98.88
424.288	100.88
424.511	89.88
424.733	85.88
424.956	96.88
425.178	96.88
425.401	85.88
425.623	110.88
425.846	101.88
426.068	94.88
426.291	96.88
426.513	92.88
426.735	106.88
426.958	89.88
427.18	96.88
427.402	108.88
427.625	88.88
427.847	91.88
428.069	107.88
428.292	88.88
428.514	90.88
428.736	105.88
428.958	94.88
429.181	94.88
429.403	83.88
429.625	94.88
429.847	86.88
430.069	91.88
430.292	101.88
430.514	98.88
430.736	84.88
430.958	107.88
431.18	81.88
431.402	85.88
431.624	79.88
431.846	83.88
432.068	99.88
432.29	100.88
432.512	97.88
432.734	85.88
432.956	97.88
433.178	102.88
433.4	107.88
433.622	94.88
433.844	103.88
434.066	88.88
434.287	94.88
434.509	74.88
434.731	89.88
434.953	81.88
435.175	85.88
435.397	84.88
435.618	107.88
435.84	87.88
436.062	92.88
436.284	91.88
436.505	100.88
436.727	100.88
436.949	101.88
437.17	83.88
437.392	86.88
437.614	87.88
437.835	82.88
438.057	87.88
438.278	84.88
438.5	86.88
438.721	111.88
438.943	97.88
439.165	102.88
439.386	91.88
439.608	96.88
439.829	96.88
440.05	111.88
440.272	111.88
440.493	108.88
440.715	109.88
440.936	87.88
441.158	90.88
441.379	95.88
441.6	91.88
441.822	87.88
442.043	86.88
442.264	97.88
442.486	114.88
442.707	102.88
442.928	107.88
443.149	90.88
443.371	93.88
443.592	82.88
443.813	90.88
444.034	98.88
444.255	85.88
444.476	93.88
444.698	90.88
444.919	103.88
445.14	246.88
445.361	146.88
445.582	105.88
445.803	87.88
446.024	114.88
446.245	114.88
446.466	91.88
446.687	108.88
446.908	98.88
447.129	95.88
447.35	92.88
447.571	104.88
447.792	96.88
448.013	97.88
448.234	90.88
448.455	93.88
448.675	89.88
448.896	90.88
449.117	99.88
449.338	93.88
449.559	96.88
449.779	91.88
450	100.88
450.221	101.88
450.442	106.88
450.662	81.88
450.883	107.88
451.104	109.88
451.324	90.88
451.545	86.88
451.766	100.88
451.986	103.88
452.207	106.88
452.428	96.88
452.648	80.88
452.869	96.88
453.089	108.88
453.31	88.88
453.53	87.88
453.751	98.88
453.971	88.88
454.192	90.88
454.412	88.88
454.633	84.88
454.853	86.88
455.073	92.88
455.294	90.88
455.514	92.88
455.734	67.88
455.955	100.88
456.175	84.88
456.395	109.88
456.616	96.88
456.836	85.88
457.056	95.88
457.276	97.88
457.497	96.88
457.717	82.88
457.937	97.88
458.157	96.88
458.377	79.88
458.598	81.88
458.818	89.88
459.038	85.88
459.258	97.88
459.478	77.88
459.698	87.88
459.918	93.88
460.138	87.88
460.358	95.88
460.578	83.88
460.798	82.88
461.018	93.88
461.238	84.88
461.458	99.88
461.678	100.88
461.898	103.88
462.118	93.88
462.338	91.88
462.558	85.88
462.777	93.88
462.997	86.88
463.217	91.88
463.437	86.88
463.657	92.88
463.876	93.88
464.096	96.88
464.316	80.88
464.536	98.88
464.755	92.88
464.975	84.88
465.195	90.88
465.414	87.88
465.634	80.88
465.854	90.88
466.073	84.88
466.293	86.88
466.512	79.88
466.732	99.88
466.951	88.88
467.171	97.88
467.391	93.88
467.61	104.88
467.829	90.88
468.049	100.88
468.268	87.88
468.488	111.88
468.707	105.88
468.927	85.88
469.146	101.88
469.365	111.88
469.585	109.88
469.804	102.88
470.023	98.88
470.243	91.88
470.462	101.88
470.681	92.88
470.901	87.88
471.12	98.88
471.339	100.88
471.558	88.88
471.777	114.88
471.997	95.88
472.216	91.88
472.435	89.88
472.654	94.88
472.873	90.88
473.092	88.88
473.311	91.88
473.53	92.88
473.749	81.88
473.968	88.88
474.187	100.88
474.406	89.88
474.625	89.88
474.844	92.88
475.063	94.88
475.282	109.88
475.501	96.88
475.72	90.88
475.939	85.88
476.158	105.88
476.377	90.88
476.596	100.88
476.814	90.88
477.033	86.88
477.252	86.88
477.471	101.88
477.69	122.88
477.908	101.88
478.127	99.88
478.346	84.88
478.564	111.88
478.783	91.88
479.002	103.88
479.22	90.88
479.439	99.88
479.658	98.88
479.876	94.88
480.095	77.88
480.313	100.88
480.532	96.88
480.751	93.88
480.969	78.88
481.188	82.88
481.406	98.88
481.624	98.88
481.843	89.88
482.061	75.88
482.28	90.88
482.498	97.88
482.717	86.88
482.935	103.88
483.153	78.88
483.372	100.88
483.59	98.88
483.808	115.88
484.027	106.88
484.245	105.88
484.463	103.88
484.681	108.88
484.9	107.88
485.118	103.88
485.336	106.88
485.554	102.88
485.772	87.88
485.99	92.88
486.209	87.88
486.427	87.88
486.645	96.88
486.863	93.88
487.081	98.88
487.299	104.88
487.517	102.88
487.735	106.88
487.953	122.88
488.171	121.88
488.389	115.88
488.607	108.88
488.825	101.88
489.043	105.88
489.261	96.88
489.479	95.88
489.696	95.88
489.914	106.88
490.132	93.88
490.35	100.88
490.568	120.88
490.786	123.88
491.003	107.88
491.221	127.88
491.439	104.88
491.657	123.88
491.874	115.88
492.092	129.88
492.31	126.88
492.527	123.88
492.745	107.88
492.963	105.88
493.18	122.88
493.398	117.88
493.615	104.88
493.833	111.88
494.05	112.88
494.268	114.88
494.485	134.88
494.703	106.88
494.92	108.88
495.138	116.88
495.355	119.88
495.573	99.88
495.79	104.88
496.008	108.88
496.225	128.88
496.442	123.88
496.66	120.88
496.877	115.88
497.094	121.88
497.312	109.88
497.529	104.88
497.746	103.88
497.963	95.88
498.181	105.88
498.398	102.88
498.615	95.88
498.832	93.88
499.049	85.88
499.267	93.88
499.484	108.88
499.701	107.88
499.918	116.88
500.135	99.88
500.352	93.88
500.569	105.88
500.786	107.88
501.003	99.88
501.22	114.88
501.437	110.88
501.654	96.88
501.871	102.88
502.088	111.88
502.305	92.88
502.522	99.88
502.739	92.88
502.956	94.88
503.172	88.88
503.389	109.88
503.606	84.88
503.823	91.88
504.04	99.88
504.256	112.88
504.473	97.88
504.69	106.88
504.907	97.88
505.123	88.88
505.34	99.88
505.557	101.88
505.773	114.88
505.99	104.88
506.207	112.88
506.423	88.88
506.64	97.88
506.856	106.88
507.073	91.88
507.289	93.88
507.506	97.88
507.722	92.88
507.939	84.88
508.155	106.88
508.372	100.88
508.588	93.88
508.805	87.88
509.021	89.88
509.238	92.88
509.454	91.88
509.67	77.88
509.887	81.88
510.103	85.88
510.319	88.88
510.536	99.88
510.752	83.88
510.968	83.88
511.184	88.88
511.401	89.88
511.617	85.88
511.833	83.88
512.049	97.88
512.265	88.88
512.481	80.88
512.698	89.88
512.914	84.88
513.13	104.88
513.346	89.88
513.562	91.88
513.778	88.88
513.994	81.88
514.21	98.88
514.426	92.88
514.642	95.88
514.858	86.88
515.074	97.88
515.29	102.88
515.506	95.88
515.721	93.88
515.937	99.88
516.153	99.88
516.369	92.88
516.585	85.88
516.801	87.88
