Data from Location3.07152019.Energy5.Lamp.07192019.3%Agarose_HRD10591_15-18-35-270.txt Node
Date: Fri Jul 19 15:18:35 EDT 2019
User: cochatt
Spectrometer: HR+D1059
Trigger mode: 1
Integration Time (sec): 1.000000E-1
Scans to average: 1
Electric dark correction enabled: true
Nonlinearity correction enabled: false
Boxcar width: 0
XAxis mode: Wavelengths
Number of Pixels in Spectrum: 2048
>>>>>Begin Spectral Data<<<<<
223.165	-21.44
223.4	-21.44
223.635	-21.44
223.869	-18.44
224.104	-11.44
224.338	0.56
224.573	-11.44
224.808	-23.44
225.042	-6.44
225.277	0.56
225.511	-7.44
225.746	-11.44
225.98	7.56
226.215	2.56
226.449	9.56
226.683	25.56
226.918	33.56
227.152	31.56
227.387	33.56
227.621	33.56
227.856	35.56
228.09	40.56
228.324	58.56
228.559	70.56
228.793	60.56
229.027	64.56
229.262	70.56
229.496	66.56
229.73	70.56
229.964	68.56
230.199	86.56
230.433	76.56
230.667	78.56
230.901	77.56
231.136	84.56
231.37	64.56
231.604	79.56
231.838	72.56
232.072	84.56
232.306	80.56
232.541	74.56
232.775	85.56
233.009	88.56
233.243	92.56
233.477	84.56
233.711	87.56
233.945	101.56
234.179	77.56
234.413	82.56
234.647	76.56
234.881	79.56
235.115	78.56
235.349	86.56
235.583	64.56
235.817	71.56
236.051	84.56
236.285	74.56
236.519	80.56
236.753	85.56
236.987	76.56
237.221	81.56
237.455	93.56
237.689	82.56
237.922	84.56
238.156	63.56
238.39	80.56
238.624	78.56
238.858	78.56
239.091	76.56
239.325	77.56
239.559	75.56
239.793	73.56
240.027	77.56
240.26	81.56
240.494	77.56
240.728	65.56
240.961	68.56
241.195	79.56
241.429	82.56
241.662	67.56
241.896	74.56
242.13	71.56
242.363	85.56
242.597	67.56
242.83	80.56
243.064	89.56
243.298	75.56
243.531	74.56
243.765	75.56
243.998	81.56
244.232	84.56
244.465	82.56
244.699	85.56
244.932	90.56
245.166	84.56
245.399	89.56
245.633	86.56
245.866	69.56
246.099	81.56
246.333	76.56
246.566	73.56
246.8	73.56
247.033	81.56
247.266	91.56
247.5	76.56
247.733	87.56
247.966	84.56
248.2	89.56
248.433	88.56
248.666	69.56
248.899	78.56
249.133	70.56
249.366	88.56
249.599	93.56
249.832	84.56
250.066	73.56
250.299	80.56
250.532	84.56
250.765	74.56
250.998	85.56
251.231	93.56
251.465	85.56
251.698	81.56
251.931	74.56
252.164	78.56
252.397	76.56
252.63	91.56
252.863	77.56
253.096	86.56
253.329	89.56
253.562	65.56
253.795	88.56
254.028	74.56
254.261	75.56
254.494	77.56
254.727	88.56
254.96	77.56
255.193	73.56
255.426	81.56
255.659	85.56
255.892	88.56
256.124	75.56
256.357	84.56
256.59	91.56
256.823	91.56
257.056	70.56
257.289	98.56
257.521	79.56
257.754	89.56
257.987	85.56
258.22	80.56
258.452	78.56
258.685	86.56
258.918	88.56
259.151	83.56
259.383	89.56
259.616	72.56
259.849	80.56
260.081	76.56
260.314	78.56
260.547	105.56
260.779	72.56
261.012	82.56
261.244	74.56
261.477	94.56
261.71	79.56
261.942	88.56
262.175	84.56
262.407	77.56
262.64	89.56
262.872	78.56
263.105	72.56
263.337	75.56
263.57	90.56
263.802	79.56
264.035	92.56
264.267	92.56
264.499	81.56
264.732	83.56
264.964	77.56
265.197	90.56
265.429	85.56
265.661	79.56
265.894	92.56
266.126	90.56
266.358	88.56
266.591	81.56
266.823	90.56
267.055	78.56
267.287	81.56
267.52	71.56
267.752	97.56
267.984	86.56
268.216	84.56
268.448	88.56
268.681	73.56
268.913	93.56
269.145	89.56
269.377	82.56
269.609	84.56
269.841	73.56
270.073	78.56
270.306	85.56
270.538	87.56
270.77	100.56
271.002	76.56
271.234	81.56
271.466	84.56
271.698	89.56
271.93	94.56
272.162	90.56
272.394	102.56
272.626	94.56
272.858	70.56
273.09	98.56
273.322	86.56
273.553	81.56
273.785	88.56
274.017	86.56
274.249	92.56
274.481	82.56
274.713	92.56
274.945	92.56
275.176	98.56
275.408	94.56
275.64	93.56
275.872	81.56
276.104	94.56
276.335	88.56
276.567	80.56
276.799	77.56
277.031	89.56
277.262	93.56
277.494	88.56
277.726	87.56
277.957	91.56
278.189	86.56
278.421	79.56
278.652	76.56
278.884	76.56
279.115	87.56
279.347	83.56
279.579	84.56
279.81	98.56
280.042	78.56
280.273	96.56
280.505	83.56
280.736	82.56
280.968	93.56
281.199	84.56
281.431	78.56
281.662	86.56
281.894	75.56
282.125	85.56
282.356	87.56
282.588	98.56
282.819	83.56
283.051	94.56
283.282	88.56
283.513	85.56
283.745	100.56
283.976	75.56
284.207	86.56
284.439	88.56
284.67	75.56
284.901	80.56
285.132	89.56
285.364	84.56
285.595	102.56
285.826	83.56
286.057	89.56
286.288	94.56
286.52	90.56
286.751	86.56
286.982	91.56
287.213	86.56
287.444	75.56
287.675	94.56
287.906	95.56
288.138	88.56
288.369	87.56
288.6	86.56
288.831	87.56
289.062	100.56
289.293	82.56
289.524	91.56
289.755	82.56
289.986	97.56
290.217	75.56
290.448	82.56
290.679	94.56
290.91	82.56
291.141	88.56
291.371	78.56
291.602	84.56
291.833	91.56
292.064	109.56
292.295	96.56
292.526	96.56
292.757	94.56
292.987	77.56
293.218	92.56
293.449	96.56
293.68	96.56
293.91	71.56
294.141	86.56
294.372	70.56
294.603	96.56
294.833	95.56
295.064	84.56
295.295	85.56
295.525	89.56
295.756	74.56
295.987	85.56
296.217	97.56
296.448	90.56
296.679	80.56
296.909	81.56
297.14	99.56
297.37	91.56
297.601	97.56
297.831	91.56
298.062	89.56
298.292	87.56
298.523	84.56
298.753	97.56
298.984	90.56
299.214	92.56
299.445	93.56
299.675	94.56
299.905	85.56
300.136	84.56
300.366	88.56
300.597	88.56
300.827	77.56
301.057	85.56
301.288	79.56
301.518	97.56
301.748	96.56
301.979	96.56
302.209	83.56
302.439	94.56
302.669	86.56
302.9	87.56
303.13	98.56
303.36	81.56
303.59	97.56
303.82	91.56
304.051	89.56
304.281	90.56
304.511	87.56
304.741	89.56
304.971	91.56
305.201	91.56
305.431	97.56
305.661	101.56
305.891	81.56
306.121	87.56
306.352	82.56
306.582	75.56
306.812	81.56
307.042	84.56
307.272	82.56
307.502	91.56
307.731	93.56
307.961	86.56
308.191	96.56
308.421	85.56
308.651	88.56
308.881	90.56
309.111	98.56
309.341	102.56
309.571	88.56
309.8	95.56
310.03	84.56
310.26	95.56
310.49	83.56
310.72	76.56
310.949	82.56
311.179	87.56
311.409	89.56
311.639	83.56
311.868	92.56
312.098	88.56
312.328	82.56
312.557	80.56
312.787	87.56
313.017	91.56
313.246	84.56
313.476	87.56
313.706	80.56
313.935	77.56
314.165	86.56
314.394	89.56
314.624	93.56
314.853	88.56
315.083	80.56
315.312	78.56
315.542	83.56
315.771	82.56
316.001	96.56
316.23	72.56
316.46	82.56
316.689	80.56
316.919	96.56
317.148	93.56
317.377	90.56
317.607	100.56
317.836	74.56
318.065	81.56
318.295	92.56
318.524	93.56
318.753	71.56
318.983	79.56
319.212	88.56
319.441	91.56
319.67	86.56
319.9	82.56
320.129	74.56
320.358	77.56
320.587	71.56
320.816	89.56
321.046	83.56
321.275	93.56
321.504	87.56
321.733	92.56
321.962	78.56
322.191	81.56
322.42	94.56
322.649	99.56
322.878	80.56
323.108	94.56
323.337	78.56
323.566	91.56
323.795	96.56
324.024	96.56
324.253	77.56
324.482	87.56
324.71	81.56
324.939	90.56
325.168	91.56
325.397	87.56
325.626	84.56
325.855	88.56
326.084	92.56
326.313	94.56
326.542	91.56
326.77	86.56
326.999	88.56
327.228	81.56
327.457	101.56
327.686	96.56
327.914	86.56
328.143	90.56
328.372	89.56
328.6	93.56
328.829	85.56
329.058	88.56
329.287	90.56
329.515	95.56
329.744	100.56
329.972	87.56
330.201	91.56
330.43	80.56
330.658	99.56
330.887	73.56
331.115	75.56
331.344	87.56
331.572	100.56
331.801	84.56
332.03	77.56
332.258	84.56
332.486	87.56
332.715	89.56
332.943	73.56
333.172	82.56
333.4	84.56
333.629	78.56
333.857	92.56
334.085	87.56
334.314	92.56
334.542	85.56
334.771	82.56
334.999	89.56
335.227	85.56
335.455	76.56
335.684	89.56
335.912	97.56
336.14	90.56
336.369	78.56
336.597	78.56
336.825	86.56
337.053	91.56
337.281	91.56
337.51	86.56
337.738	82.56
337.966	81.56
338.194	82.56
338.422	81.56
338.65	86.56
338.878	85.56
339.106	92.56
339.334	90.56
339.562	97.56
339.79	81.56
340.018	85.56
340.246	75.56
340.474	81.56
340.702	82.56
340.93	91.56
341.158	99.56
341.386	99.56
341.614	72.56
341.842	78.56
342.07	85.56
342.298	82.56
342.526	82.56
342.754	81.56
342.981	83.56
343.209	79.56
343.437	73.56
343.665	78.56
343.893	86.56
344.12	83.56
344.348	93.56
344.576	84.56
344.804	86.56
345.031	95.56
345.259	90.56
345.487	94.56
345.714	83.56
345.942	83.56
346.17	98.56
346.397	106.56
346.625	78.56
346.853	80.56
347.08	73.56
347.308	79.56
347.535	91.56
347.763	92.56
347.99	88.56
348.218	86.56
348.445	80.56
348.673	103.56
348.9	90.56
349.128	93.56
349.355	85.56
349.583	98.56
349.81	80.56
350.037	80.56
350.265	96.56
350.492	92.56
350.72	75.56
350.947	75.56
351.174	86.56
351.402	77.56
351.629	97.56
351.856	88.56
352.083	96.56
352.311	86.56
352.538	76.56
352.765	84.56
352.992	80.56
353.22	88.56
353.447	77.56
353.674	94.56
353.901	92.56
354.128	93.56
354.355	89.56
354.583	89.56
354.81	86.56
355.037	85.56
355.264	89.56
355.491	100.56
355.718	88.56
355.945	85.56
356.172	106.56
356.399	78.56
356.626	99.56
356.853	89.56
357.08	103.56
357.307	98.56
357.534	87.56
357.761	71.56
357.988	68.56
358.215	95.56
358.441	71.56
358.668	72.56
358.895	93.56
359.122	77.56
359.349	75.56
359.576	92.56
359.802	83.56
360.029	86.56
360.256	92.56
360.483	90.56
360.709	98.56
360.936	90.56
361.163	88.56
361.39	83.56
361.616	92.56
361.843	89.56
362.07	91.56
362.296	89.56
362.523	89.56
362.749	89.56
362.976	96.56
363.203	82.56
363.429	80.56
363.656	80.56
363.882	78.56
364.109	82.56
364.335	79.56
364.562	85.56
364.788	94.56
365.015	80.56
365.241	90.56
365.468	87.56
365.694	79.56
365.92	83.56
366.147	77.56
366.373	87.56
366.599	88.56
366.826	88.56
367.052	89.56
367.278	91.56
367.505	80.56
367.731	95.56
367.957	88.56
368.184	91.56
368.41	94.56
368.636	77.56
368.862	86.56
369.089	86.56
369.315	84.56
369.541	86.56
369.767	81.56
369.993	90.56
370.219	91.56
370.445	75.56
370.672	89.56
370.898	104.56
371.124	87.56
371.35	79.56
371.576	94.56
371.802	88.56
372.028	79.56
372.254	86.56
372.48	85.56
372.706	78.56
372.932	84.56
373.158	94.56
373.384	89.56
373.61	99.56
373.835	85.56
374.061	78.56
374.287	81.56
374.513	83.56
374.739	80.56
374.965	92.56
375.191	91.56
375.416	76.56
375.642	109.56
375.868	88.56
376.094	89.56
376.319	85.56
376.545	80.56
376.771	69.56
376.997	100.56
377.222	86.56
377.448	70.56
377.674	86.56
377.899	96.56
378.125	86.56
378.35	90.56
378.576	75.56
378.802	86.56
379.027	93.56
379.253	82.56
379.478	85.56
379.704	85.56
379.929	91.56
380.155	89.56
380.38	78.56
380.606	88.56
380.831	91.56
381.057	89.56
381.282	91.56
381.507	89.56
381.733	85.56
381.958	88.56
382.184	88.56
382.409	93.56
382.634	87.56
382.86	92.56
383.085	91.56
383.31	83.56
383.535	96.56
383.761	89.56
383.986	89.56
384.211	95.56
384.436	94.56
384.662	78.56
384.887	85.56
385.112	91.56
385.337	93.56
385.562	78.56
385.787	77.56
386.013	92.56
386.238	88.56
386.463	90.56
386.688	84.56
386.913	92.56
387.138	92.56
387.363	78.56
387.588	86.56
387.813	104.56
388.038	96.56
388.263	92.56
388.488	89.56
388.713	91.56
388.938	81.56
389.163	94.56
389.387	88.56
389.612	103.56
389.837	103.56
390.062	83.56
390.287	89.56
390.512	90.56
390.736	82.56
390.961	89.56
391.186	86.56
391.411	103.56
391.636	87.56
391.86	91.56
392.085	84.56
392.31	93.56
392.534	86.56
392.759	97.56
392.984	81.56
393.208	92.56
393.433	89.56
393.658	89.56
393.882	96.56
394.107	89.56
394.331	90.56
394.556	77.56
394.78	93.56
395.005	91.56
395.229	91.56
395.454	86.56
395.678	93.56
395.903	89.56
396.127	87.56
396.352	95.56
396.576	85.56
396.801	83.56
397.025	81.56
397.249	85.56
397.474	97.56
397.698	78.56
397.922	86.56
398.147	88.56
398.371	87.56
398.595	73.56
398.82	81.56
399.044	77.56
399.268	81.56
399.492	93.56
399.717	93.56
399.941	91.56
400.165	103.56
400.389	94.56
400.613	86.56
400.837	110.56
401.062	84.56
401.286	87.56
401.51	99.56
401.734	92.56
401.958	102.56
402.182	87.56
402.406	76.56
402.63	86.56
402.854	103.56
403.078	95.56
403.302	91.56
403.526	92.56
403.75	82.56
403.974	101.56
404.198	93.56
404.422	89.56
404.645	97.56
404.869	93.56
405.093	79.56
405.317	104.56
405.541	108.56
405.765	76.56
405.988	88.56
406.212	102.56
406.436	89.56
406.66	88.56
406.883	84.56
407.107	81.56
407.331	89.56
407.555	71.56
407.778	96.56
408.002	89.56
408.226	93.56
408.449	94.56
408.673	79.56
408.896	100.56
409.12	83.56
409.344	89.56
409.567	86.56
409.791	88.56
410.014	96.56
410.238	81.56
410.461	99.56
410.685	90.56
410.908	95.56
411.132	112.56
411.355	97.56
411.578	85.56
411.802	93.56
412.025	91.56
412.249	90.56
412.472	100.56
412.695	78.56
412.919	89.56
413.142	103.56
413.365	98.56
413.589	96.56
413.812	93.56
414.035	114.56
414.258	88.56
414.482	104.56
414.705	103.56
414.928	101.56
415.151	94.56
415.374	91.56
415.597	93.56
415.821	91.56
416.044	98.56
416.267	98.56
416.49	82.56
416.713	86.56
416.936	87.56
417.159	89.56
417.382	96.56
417.605	92.56
417.828	101.56
418.051	93.56
418.274	95.56
418.497	87.56
418.72	98.56
418.943	92.56
419.166	90.56
419.389	101.56
419.611	89.56
419.834	92.56
420.057	101.56
420.28	90.56
420.503	93.56
420.726	90.56
420.948	92.56
421.171	87.56
421.394	95.56
421.617	101.56
421.839	92.56
422.062	101.56
422.285	100.56
422.507	105.56
422.73	88.56
422.953	80.56
423.175	97.56
423.398	102.56
423.621	102.56
423.843	90.56
424.066	84.56
424.288	94.56
424.511	108.56
424.733	96.56
424.956	104.56
425.178	91.56
425.401	86.56
425.623	108.56
425.846	102.56
426.068	98.56
426.291	89.56
426.513	100.56
426.735	94.56
426.958	89.56
427.18	117.56
427.402	95.56
427.625	95.56
427.847	86.56
428.069	96.56
428.292	93.56
428.514	112.56
428.736	106.56
428.958	92.56
429.181	97.56
429.403	98.56
429.625	94.56
429.847	105.56
430.069	100.56
430.292	97.56
430.514	92.56
430.736	92.56
430.958	104.56
431.18	103.56
431.402	101.56
431.624	93.56
431.846	77.56
432.068	79.56
432.29	82.56
432.512	91.56
432.734	96.56
432.956	101.56
433.178	95.56
433.4	104.56
433.622	108.56
433.844	89.56
434.066	93.56
434.287	96.56
434.509	81.56
434.731	99.56
434.953	92.56
435.175	96.56
435.397	100.56
435.618	93.56
435.84	84.56
436.062	94.56
436.284	100.56
436.505	101.56
436.727	99.56
436.949	109.56
437.17	91.56
437.392	108.56
437.614	95.56
437.835	84.56
438.057	82.56
438.278	81.56
438.5	89.56
438.721	100.56
438.943	102.56
439.165	110.56
439.386	99.56
439.608	107.56
439.829	111.56
440.05	100.56
440.272	96.56
440.493	110.56
440.715	86.56
440.936	113.56
441.158	98.56
441.379	91.56
441.6	101.56
441.822	106.56
442.043	97.56
442.264	89.56
442.486	102.56
442.707	86.56
442.928	99.56
443.149	97.56
443.371	103.56
443.592	81.56
443.813	83.56
444.034	111.56
444.255	97.56
444.476	99.56
444.698	108.56
444.919	91.56
445.14	249.56
445.361	144.56
445.582	105.56
445.803	94.56
446.024	105.56
446.245	87.56
446.466	96.56
446.687	100.56
446.908	96.56
447.129	87.56
447.35	99.56
447.571	100.56
447.792	96.56
448.013	99.56
448.234	105.56
448.455	107.56
448.675	107.56
448.896	109.56
449.117	99.56
449.338	100.56
449.559	93.56
449.779	107.56
450	97.56
450.221	91.56
450.442	94.56
450.662	100.56
450.883	106.56
451.104	115.56
451.324	100.56
451.545	100.56
451.766	104.56
451.986	100.56
452.207	99.56
452.428	97.56
452.648	97.56
452.869	90.56
453.089	93.56
453.31	98.56
453.53	85.56
453.751	92.56
453.971	99.56
454.192	87.56
454.412	85.56
454.633	88.56
454.853	94.56
455.073	100.56
455.294	86.56
455.514	100.56
455.734	99.56
455.955	82.56
456.175	85.56
456.395	101.56
456.616	93.56
456.836	89.56
457.056	91.56
457.276	98.56
457.497	88.56
457.717	103.56
457.937	105.56
458.157	88.56
458.377	91.56
458.598	83.56
458.818	86.56
459.038	88.56
459.258	89.56
459.478	82.56
459.698	89.56
459.918	90.56
460.138	92.56
460.358	84.56
460.578	89.56
460.798	90.56
461.018	97.56
461.238	89.56
461.458	92.56
461.678	96.56
461.898	82.56
462.118	90.56
462.338	78.56
462.558	93.56
462.777	96.56
462.997	89.56
463.217	93.56
463.437	92.56
463.657	72.56
463.876	83.56
464.096	92.56
464.316	77.56
464.536	100.56
464.755	86.56
464.975	101.56
465.195	102.56
465.414	96.56
465.634	86.56
465.854	100.56
466.073	89.56
466.293	94.56
466.512	112.56
466.732	88.56
466.951	93.56
467.171	101.56
467.391	106.56
467.61	89.56
467.829	97.56
468.049	100.56
468.268	103.56
468.488	87.56
468.707	101.56
468.927	82.56
469.146	99.56
469.365	96.56
469.585	105.56
469.804	104.56
470.023	114.56
470.243	104.56
470.462	110.56
470.681	93.56
470.901	104.56
471.12	96.56
471.339	99.56
471.558	92.56
471.777	96.56
471.997	108.56
472.216	92.56
472.435	93.56
472.654	78.56
472.873	96.56
473.092	83.56
473.311	93.56
473.53	101.56
473.749	100.56
473.968	99.56
474.187	93.56
474.406	108.56
474.625	99.56
474.844	103.56
475.063	100.56
475.282	90.56
475.501	96.56
475.72	96.56
475.939	99.56
476.158	88.56
476.377	98.56
476.596	91.56
476.814	90.56
477.033	97.56
477.252	93.56
477.471	97.56
477.69	99.56
477.908	110.56
478.127	109.56
478.346	88.56
478.564	98.56
478.783	96.56
479.002	104.56
479.22	93.56
479.439	105.56
479.658	100.56
479.876	69.56
480.095	84.56
480.313	86.56
480.532	87.56
480.751	96.56
480.969	82.56
481.188	88.56
481.406	76.56
481.624	92.56
481.843	90.56
482.061	103.56
482.28	96.56
482.498	88.56
482.717	97.56
482.935	101.56
483.153	110.56
483.372	102.56
483.59	99.56
483.808	105.56
484.027	82.56
484.245	105.56
484.463	103.56
484.681	102.56
484.9	95.56
485.118	103.56
485.336	104.56
485.554	94.56
485.772	93.56
485.99	86.56
486.209	73.56
486.427	78.56
486.645	92.56
486.863	104.56
487.081	109.56
487.299	105.56
487.517	106.56
487.735	105.56
487.953	110.56
488.171	117.56
488.389	123.56
488.607	100.56
488.825	95.56
489.043	91.56
489.261	91.56
489.479	98.56
489.696	116.56
489.914	98.56
490.132	105.56
490.35	111.56
490.568	101.56
490.786	108.56
491.003	104.56
491.221	107.56
491.439	129.56
491.657	130.56
491.874	139.56
492.092	119.56
492.31	128.56
492.527	143.56
492.745	126.56
492.963	104.56
493.18	122.56
493.398	114.56
493.615	109.56
493.833	117.56
494.05	115.56
494.268	127.56
494.485	120.56
494.703	114.56
494.92	118.56
495.138	115.56
495.355	93.56
495.573	118.56
495.79	106.56
496.008	92.56
496.225	106.56
496.442	106.56
496.66	105.56
496.877	98.56
497.094	115.56
497.312	109.56
497.529	102.56
497.746	100.56
497.963	88.56
498.181	104.56
498.398	98.56
498.615	93.56
498.832	92.56
499.049	96.56
499.267	91.56
499.484	106.56
499.701	93.56
499.918	105.56
500.135	116.56
500.352	107.56
500.569	99.56
500.786	109.56
501.003	88.56
501.22	98.56
501.437	113.56
501.654	105.56
501.871	97.56
502.088	98.56
502.305	89.56
502.522	91.56
502.739	96.56
502.956	100.56
503.172	96.56
503.389	89.56
503.606	101.56
503.823	103.56
504.04	100.56
504.256	104.56
504.473	100.56
504.69	97.56
504.907	89.56
505.123	108.56
505.34	78.56
505.557	112.56
505.773	95.56
505.99	92.56
506.207	78.56
506.423	107.56
506.64	110.56
506.856	96.56
507.073	99.56
507.289	99.56
507.506	98.56
507.722	97.56
507.939	89.56
508.155	90.56
508.372	97.56
508.588	101.56
508.805	102.56
509.021	100.56
509.238	110.56
509.454	87.56
509.67	80.56
509.887	83.56
510.103	92.56
510.319	93.56
510.536	76.56
510.752	93.56
510.968	79.56
511.184	66.56
511.401	86.56
511.617	95.56
511.833	93.56
512.049	80.56
512.265	82.56
512.481	78.56
512.698	83.56
512.914	82.56
513.13	100.56
513.346	91.56
513.562	78.56
513.778	89.56
513.994	94.56
514.21	77.56
514.426	78.56
514.642	94.56
514.858	103.56
515.074	105.56
515.29	86.56
515.506	84.56
515.721	92.56
515.937	91.56
516.153	88.56
516.369	86.56
516.585	74.56
