Data from Location3.07152019.Energy5.Lamp.07192019.3%Agarose_HRD10591_15-19-20-270.txt Node
Date: Fri Jul 19 15:19:20 EDT 2019
User: cochatt
Spectrometer: HR+D1059
Trigger mode: 1
Integration Time (sec): 1.000000E-1
Scans to average: 1
Electric dark correction enabled: true
Nonlinearity correction enabled: false
Boxcar width: 0
XAxis mode: Wavelengths
Number of Pixels in Spectrum: 2048
>>>>>Begin Spectral Data<<<<<
223.165	-26.38
223.4	-26.38
223.635	-26.38
223.869	-19.38
224.104	-11.38
224.338	1.62
224.573	-12.38
224.808	-0.38
225.042	-16.38
225.277	-24.38
225.511	-2.38
225.746	4.62
225.98	4.62
226.215	15.62
226.449	11.62
226.683	19.62
226.918	24.62
227.152	30.62
227.387	32.62
227.621	35.62
227.856	68.62
228.09	40.62
228.324	50.62
228.559	54.62
228.793	56.62
229.027	58.62
229.262	71.62
229.496	63.62
229.73	66.62
229.964	73.62
230.199	68.62
230.433	77.62
230.667	66.62
230.901	75.62
231.136	84.62
231.37	81.62
231.604	77.62
231.838	68.62
232.072	95.62
232.306	89.62
232.541	94.62
232.775	88.62
233.009	70.62
233.243	89.62
233.477	85.62
233.711	73.62
233.945	78.62
234.179	82.62
234.413	72.62
234.647	87.62
234.881	77.62
235.115	88.62
235.349	81.62
235.583	71.62
235.817	59.62
236.051	68.62
236.285	69.62
236.519	72.62
236.753	72.62
236.987	74.62
237.221	84.62
237.455	64.62
237.689	74.62
237.922	77.62
238.156	78.62
238.39	74.62
238.624	80.62
238.858	83.62
239.091	67.62
239.325	81.62
239.559	92.62
239.793	60.62
240.027	77.62
240.26	72.62
240.494	70.62
240.728	81.62
240.961	74.62
241.195	74.62
241.429	67.62
241.662	73.62
241.896	70.62
242.13	71.62
242.363	74.62
242.597	65.62
242.83	82.62
243.064	73.62
243.298	80.62
243.531	80.62
243.765	67.62
243.998	76.62
244.232	78.62
244.465	85.62
244.699	78.62
244.932	74.62
245.166	74.62
245.399	93.62
245.633	74.62
245.866	70.62
246.099	71.62
246.333	68.62
246.566	83.62
246.8	75.62
247.033	81.62
247.266	69.62
247.5	77.62
247.733	71.62
247.966	73.62
248.2	71.62
248.433	73.62
248.666	71.62
248.899	75.62
249.133	70.62
249.366	70.62
249.599	82.62
249.832	78.62
250.066	72.62
250.299	66.62
250.532	74.62
250.765	85.62
250.998	71.62
251.231	81.62
251.465	73.62
251.698	85.62
251.931	78.62
252.164	71.62
252.397	74.62
252.63	97.62
252.863	93.62
253.096	87.62
253.329	75.62
253.562	73.62
253.795	75.62
254.028	85.62
254.261	85.62
254.494	66.62
254.727	92.62
254.96	78.62
255.193	76.62
255.426	76.62
255.659	84.62
255.892	63.62
256.124	92.62
256.357	62.62
256.59	82.62
256.823	85.62
257.056	87.62
257.289	80.62
257.521	84.62
257.754	78.62
257.987	84.62
258.22	79.62
258.452	74.62
258.685	77.62
258.918	83.62
259.151	71.62
259.383	85.62
259.616	90.62
259.849	87.62
260.081	86.62
260.314	91.62
260.547	71.62
260.779	82.62
261.012	81.62
261.244	75.62
261.477	93.62
261.71	80.62
261.942	72.62
262.175	81.62
262.407	86.62
262.64	78.62
262.872	86.62
263.105	75.62
263.337	73.62
263.57	78.62
263.802	86.62
264.035	65.62
264.267	78.62
264.499	85.62
264.732	73.62
264.964	77.62
265.197	60.62
265.429	71.62
265.661	83.62
265.894	77.62
266.126	81.62
266.358	89.62
266.591	77.62
266.823	92.62
267.055	69.62
267.287	81.62
267.52	89.62
267.752	85.62
267.984	71.62
268.216	59.62
268.448	88.62
268.681	94.62
268.913	85.62
269.145	79.62
269.377	87.62
269.609	72.62
269.841	81.62
270.073	87.62
270.306	83.62
270.538	68.62
270.77	81.62
271.002	67.62
271.234	89.62
271.466	88.62
271.698	82.62
271.93	80.62
272.162	77.62
272.394	84.62
272.626	90.62
272.858	78.62
273.09	86.62
273.322	71.62
273.553	80.62
273.785	86.62
274.017	71.62
274.249	88.62
274.481	95.62
274.713	85.62
274.945	82.62
275.176	87.62
275.408	84.62
275.64	87.62
275.872	73.62
276.104	82.62
276.335	78.62
276.567	82.62
276.799	77.62
277.031	80.62
277.262	81.62
277.494	82.62
277.726	79.62
277.957	87.62
278.189	96.62
278.421	76.62
278.652	79.62
278.884	86.62
279.115	88.62
279.347	87.62
279.579	94.62
279.81	74.62
280.042	68.62
280.273	79.62
280.505	82.62
280.736	92.62
280.968	82.62
281.199	86.62
281.431	81.62
281.662	88.62
281.894	89.62
282.125	87.62
282.356	80.62
282.588	70.62
282.819	83.62
283.051	83.62
283.282	79.62
283.513	88.62
283.745	76.62
283.976	68.62
284.207	89.62
284.439	81.62
284.67	89.62
284.901	79.62
285.132	77.62
285.364	79.62
285.595	75.62
285.826	83.62
286.057	74.62
286.288	77.62
286.52	90.62
286.751	85.62
286.982	76.62
287.213	75.62
287.444	95.62
287.675	77.62
287.906	89.62
288.138	67.62
288.369	72.62
288.6	84.62
288.831	84.62
289.062	77.62
289.293	74.62
289.524	81.62
289.755	80.62
289.986	77.62
290.217	92.62
290.448	74.62
290.679	94.62
290.91	92.62
291.141	85.62
291.371	92.62
291.602	108.62
291.833	78.62
292.064	84.62
292.295	85.62
292.526	84.62
292.757	72.62
292.987	88.62
293.218	76.62
293.449	69.62
293.68	78.62
293.91	89.62
294.141	82.62
294.372	77.62
294.603	76.62
294.833	78.62
295.064	79.62
295.295	76.62
295.525	80.62
295.756	69.62
295.987	91.62
296.217	86.62
296.448	83.62
296.679	84.62
296.909	94.62
297.14	89.62
297.37	91.62
297.601	76.62
297.831	89.62
298.062	78.62
298.292	80.62
298.523	83.62
298.753	82.62
298.984	89.62
299.214	77.62
299.445	87.62
299.675	69.62
299.905	73.62
300.136	90.62
300.366	87.62
300.597	86.62
300.827	76.62
301.057	81.62
301.288	84.62
301.518	69.62
301.748	72.62
301.979	82.62
302.209	84.62
302.439	85.62
302.669	92.62
302.9	88.62
303.13	80.62
303.36	89.62
303.59	67.62
303.82	85.62
304.051	93.62
304.281	89.62
304.511	78.62
304.741	92.62
304.971	85.62
305.201	79.62
305.431	84.62
305.661	87.62
305.891	80.62
306.121	82.62
306.352	74.62
306.582	82.62
306.812	80.62
307.042	89.62
307.272	81.62
307.502	77.62
307.731	96.62
307.961	89.62
308.191	82.62
308.421	93.62
308.651	85.62
308.881	89.62
309.111	84.62
309.341	73.62
309.571	89.62
309.8	77.62
310.03	80.62
310.26	80.62
310.49	73.62
310.72	85.62
310.949	83.62
311.179	83.62
311.409	95.62
311.639	81.62
311.868	88.62
312.098	77.62
312.328	92.62
312.557	78.62
312.787	68.62
313.017	78.62
313.246	76.62
313.476	76.62
313.706	80.62
313.935	91.62
314.165	78.62
314.394	79.62
314.624	102.62
314.853	76.62
315.083	78.62
315.312	81.62
315.542	71.62
315.771	78.62
316.001	89.62
316.23	93.62
316.46	86.62
316.689	65.62
316.919	82.62
317.148	83.62
317.377	92.62
317.607	87.62
317.836	66.62
318.065	100.62
318.295	77.62
318.524	69.62
318.753	83.62
318.983	84.62
319.212	78.62
319.441	77.62
319.67	70.62
319.9	86.62
320.129	89.62
320.358	74.62
320.587	85.62
320.816	88.62
321.046	86.62
321.275	84.62
321.504	84.62
321.733	97.62
321.962	70.62
322.191	81.62
322.42	94.62
322.649	87.62
322.878	94.62
323.108	94.62
323.337	80.62
323.566	75.62
323.795	72.62
324.024	71.62
324.253	82.62
324.482	82.62
324.71	77.62
324.939	78.62
325.168	73.62
325.397	91.62
325.626	86.62
325.855	75.62
326.084	80.62
326.313	82.62
326.542	80.62
326.77	87.62
326.999	78.62
327.228	85.62
327.457	85.62
327.686	87.62
327.914	89.62
328.143	88.62
328.372	78.62
328.6	79.62
328.829	88.62
329.058	85.62
329.287	73.62
329.515	82.62
329.744	105.62
329.972	81.62
330.201	92.62
330.43	88.62
330.658	91.62
330.887	93.62
331.115	79.62
331.344	82.62
331.572	80.62
331.801	86.62
332.03	95.62
332.258	83.62
332.486	84.62
332.715	79.62
332.943	84.62
333.172	87.62
333.4	103.62
333.629	69.62
333.857	74.62
334.085	94.62
334.314	85.62
334.542	73.62
334.771	90.62
334.999	86.62
335.227	77.62
335.455	88.62
335.684	88.62
335.912	83.62
336.14	92.62
336.369	91.62
336.597	67.62
336.825	92.62
337.053	94.62
337.281	74.62
337.51	78.62
337.738	80.62
337.966	64.62
338.194	75.62
338.422	94.62
338.65	82.62
338.878	87.62
339.106	86.62
339.334	82.62
339.562	85.62
339.79	72.62
340.018	86.62
340.246	88.62
340.474	74.62
340.702	75.62
340.93	78.62
341.158	79.62
341.386	77.62
341.614	73.62
341.842	89.62
342.07	84.62
342.298	75.62
342.526	86.62
342.754	85.62
342.981	79.62
343.209	71.62
343.437	81.62
343.665	93.62
343.893	92.62
344.12	103.62
344.348	86.62
344.576	79.62
344.804	93.62
345.031	80.62
345.259	88.62
345.487	70.62
345.714	92.62
345.942	73.62
346.17	69.62
346.397	93.62
346.625	70.62
346.853	88.62
347.08	68.62
347.308	86.62
347.535	73.62
347.763	80.62
347.99	82.62
348.218	85.62
348.445	84.62
348.673	85.62
348.9	77.62
349.128	79.62
349.355	95.62
349.583	79.62
349.81	80.62
350.037	83.62
350.265	89.62
350.492	79.62
350.72	86.62
350.947	75.62
351.174	96.62
351.402	92.62
351.629	82.62
351.856	82.62
352.083	76.62
352.311	74.62
352.538	88.62
352.765	88.62
352.992	88.62
353.22	87.62
353.447	72.62
353.674	84.62
353.901	80.62
354.128	77.62
354.355	79.62
354.583	68.62
354.81	72.62
355.037	94.62
355.264	83.62
355.491	92.62
355.718	88.62
355.945	95.62
356.172	84.62
356.399	84.62
356.626	81.62
356.853	93.62
357.08	71.62
357.307	82.62
357.534	78.62
357.761	88.62
357.988	84.62
358.215	82.62
358.441	72.62
358.668	84.62
358.895	80.62
359.122	74.62
359.349	79.62
359.576	89.62
359.802	84.62
360.029	75.62
360.256	65.62
360.483	83.62
360.709	89.62
360.936	95.62
361.163	78.62
361.39	77.62
361.616	75.62
361.843	87.62
362.07	86.62
362.296	80.62
362.523	77.62
362.749	72.62
362.976	83.62
363.203	85.62
363.429	92.62
363.656	81.62
363.882	85.62
364.109	71.62
364.335	82.62
364.562	75.62
364.788	83.62
365.015	78.62
365.241	88.62
365.468	88.62
365.694	72.62
365.92	70.62
366.147	85.62
366.373	85.62
366.599	81.62
366.826	83.62
367.052	71.62
367.278	77.62
367.505	77.62
367.731	77.62
367.957	70.62
368.184	88.62
368.41	92.62
368.636	87.62
368.862	81.62
369.089	84.62
369.315	70.62
369.541	82.62
369.767	77.62
369.993	72.62
370.219	93.62
370.445	89.62
370.672	62.62
370.898	88.62
371.124	82.62
371.35	95.62
371.576	98.62
371.802	72.62
372.028	93.62
372.254	84.62
372.48	77.62
372.706	82.62
372.932	81.62
373.158	83.62
373.384	80.62
373.61	76.62
373.835	91.62
374.061	88.62
374.287	71.62
374.513	86.62
374.739	87.62
374.965	85.62
375.191	84.62
375.416	83.62
375.642	92.62
375.868	78.62
376.094	70.62
376.319	76.62
376.545	84.62
376.771	83.62
376.997	95.62
377.222	83.62
377.448	89.62
377.674	86.62
377.899	91.62
378.125	81.62
378.35	88.62
378.576	76.62
378.802	70.62
379.027	84.62
379.253	77.62
379.478	77.62
379.704	82.62
379.929	102.62
380.155	85.62
380.38	87.62
380.606	101.62
380.831	76.62
381.057	74.62
381.282	77.62
381.507	75.62
381.733	73.62
381.958	88.62
382.184	79.62
382.409	94.62
382.634	91.62
382.86	90.62
383.085	70.62
383.31	90.62
383.535	93.62
383.761	84.62
383.986	93.62
384.211	86.62
384.436	82.62
384.662	85.62
384.887	76.62
385.112	73.62
385.337	87.62
385.562	82.62
385.787	94.62
386.013	93.62
386.238	98.62
386.463	88.62
386.688	103.62
386.913	92.62
387.138	96.62
387.363	77.62
387.588	86.62
387.813	100.62
388.038	92.62
388.263	93.62
388.488	83.62
388.713	79.62
388.938	74.62
389.163	84.62
389.387	80.62
389.612	72.62
389.837	87.62
390.062	88.62
390.287	89.62
390.512	88.62
390.736	79.62
390.961	72.62
391.186	91.62
391.411	104.62
391.636	83.62
391.86	95.62
392.085	75.62
392.31	97.62
392.534	99.62
392.759	90.62
392.984	89.62
393.208	88.62
393.433	98.62
393.658	83.62
393.882	82.62
394.107	87.62
394.331	83.62
394.556	85.62
394.78	100.62
395.005	83.62
395.229	81.62
395.454	94.62
395.678	75.62
395.903	96.62
396.127	81.62
396.352	83.62
396.576	82.62
396.801	76.62
397.025	86.62
397.249	85.62
397.474	96.62
397.698	86.62
397.922	102.62
398.147	81.62
398.371	83.62
398.595	78.62
398.82	81.62
399.044	86.62
399.268	83.62
399.492	78.62
399.717	99.62
399.941	84.62
400.165	90.62
400.389	96.62
400.613	87.62
400.837	90.62
401.062	69.62
401.286	83.62
401.51	93.62
401.734	89.62
401.958	83.62
402.182	75.62
402.406	89.62
402.63	73.62
402.854	91.62
403.078	91.62
403.302	83.62
403.526	94.62
403.75	93.62
403.974	81.62
404.198	88.62
404.422	96.62
404.645	94.62
404.869	86.62
405.093	92.62
405.317	99.62
405.541	79.62
405.765	87.62
405.988	86.62
406.212	84.62
406.436	97.62
406.66	100.62
406.883	78.62
407.107	95.62
407.331	102.62
407.555	94.62
407.778	98.62
408.002	76.62
408.226	98.62
408.449	92.62
408.673	99.62
408.896	96.62
409.12	98.62
409.344	87.62
409.567	87.62
409.791	91.62
410.014	88.62
410.238	85.62
410.461	100.62
410.685	89.62
410.908	89.62
411.132	87.62
411.355	86.62
411.578	96.62
411.802	70.62
412.025	103.62
412.249	91.62
412.472	82.62
412.695	89.62
412.919	82.62
413.142	80.62
413.365	85.62
413.589	100.62
413.812	100.62
414.035	93.62
414.258	92.62
414.482	86.62
414.705	86.62
414.928	85.62
415.151	100.62
415.374	112.62
415.597	84.62
415.821	84.62
416.044	83.62
416.267	82.62
416.49	98.62
416.713	95.62
416.936	100.62
417.159	89.62
417.382	82.62
417.605	95.62
417.828	93.62
418.051	86.62
418.274	94.62
418.497	86.62
418.72	106.62
418.943	86.62
419.166	82.62
419.389	98.62
419.611	82.62
419.834	106.62
420.057	87.62
420.28	89.62
420.503	94.62
420.726	103.62
420.948	100.62
421.171	93.62
421.394	110.62
421.617	103.62
421.839	88.62
422.062	93.62
422.285	92.62
422.507	93.62
422.73	87.62
422.953	85.62
423.175	100.62
423.398	80.62
423.621	102.62
423.843	103.62
424.066	104.62
424.288	106.62
424.511	86.62
424.733	97.62
424.956	96.62
425.178	100.62
425.401	94.62
425.623	96.62
425.846	86.62
426.068	96.62
426.291	91.62
426.513	92.62
426.735	93.62
426.958	117.62
427.18	102.62
427.402	97.62
427.625	97.62
427.847	96.62
428.069	100.62
428.292	84.62
428.514	93.62
428.736	88.62
428.958	87.62
429.181	96.62
429.403	106.62
429.625	78.62
429.847	87.62
430.069	96.62
430.292	96.62
430.514	94.62
430.736	95.62
430.958	92.62
431.18	97.62
431.402	102.62
431.624	90.62
431.846	79.62
432.068	78.62
432.29	82.62
432.512	85.62
432.734	106.62
432.956	97.62
433.178	94.62
433.4	106.62
433.622	98.62
433.844	88.62
434.066	83.62
434.287	85.62
434.509	91.62
434.731	86.62
434.953	95.62
435.175	95.62
435.397	79.62
435.618	85.62
435.84	83.62
436.062	94.62
436.284	87.62
436.505	92.62
436.727	87.62
436.949	85.62
437.17	94.62
437.392	100.62
437.614	93.62
437.835	97.62
438.057	89.62
438.278	94.62
438.5	90.62
438.721	89.62
438.943	89.62
439.165	95.62
439.386	98.62
439.608	96.62
439.829	113.62
440.05	106.62
440.272	107.62
440.493	103.62
440.715	101.62
440.936	97.62
441.158	102.62
441.379	106.62
441.6	95.62
441.822	100.62
442.043	117.62
442.264	105.62
442.486	84.62
442.707	116.62
442.928	105.62
443.149	93.62
443.371	99.62
443.592	97.62
443.813	95.62
444.034	87.62
444.255	95.62
444.476	100.62
444.698	83.62
444.919	72.62
445.14	232.62
445.361	154.62
445.582	97.62
445.803	110.62
446.024	93.62
446.245	116.62
446.466	110.62
446.687	101.62
446.908	107.62
447.129	106.62
447.35	103.62
447.571	101.62
447.792	111.62
448.013	79.62
448.234	93.62
448.455	90.62
448.675	98.62
448.896	116.62
449.117	102.62
449.338	115.62
449.559	99.62
449.779	90.62
450	123.62
450.221	94.62
450.442	106.62
450.662	106.62
450.883	90.62
451.104	104.62
451.324	105.62
451.545	76.62
451.766	94.62
451.986	97.62
452.207	86.62
452.428	98.62
452.648	105.62
452.869	98.62
453.089	92.62
453.31	77.62
453.53	89.62
453.751	89.62
453.971	81.62
454.192	83.62
454.412	87.62
454.633	98.62
454.853	86.62
455.073	91.62
455.294	103.62
455.514	96.62
455.734	90.62
455.955	92.62
456.175	82.62
456.395	80.62
456.616	103.62
456.836	99.62
457.056	85.62
457.276	99.62
457.497	76.62
457.717	74.62
457.937	88.62
458.157	78.62
458.377	92.62
458.598	85.62
458.818	82.62
459.038	77.62
459.258	87.62
459.478	88.62
459.698	80.62
459.918	87.62
460.138	101.62
460.358	83.62
460.578	96.62
460.798	89.62
461.018	96.62
461.238	94.62
461.458	85.62
461.678	84.62
461.898	90.62
462.118	89.62
462.338	81.62
462.558	94.62
462.777	91.62
462.997	97.62
463.217	84.62
463.437	86.62
463.657	84.62
463.876	101.62
464.096	81.62
464.316	89.62
464.536	80.62
464.755	92.62
464.975	93.62
465.195	87.62
465.414	102.62
465.634	105.62
465.854	98.62
466.073	89.62
466.293	88.62
466.512	93.62
466.732	98.62
466.951	109.62
467.171	88.62
467.391	109.62
467.61	109.62
467.829	108.62
468.049	98.62
468.268	93.62
468.488	102.62
468.707	97.62
468.927	90.62
469.146	94.62
469.365	94.62
469.585	108.62
469.804	105.62
470.023	97.62
470.243	83.62
470.462	86.62
470.681	82.62
470.901	104.62
471.12	99.62
471.339	92.62
471.558	97.62
471.777	92.62
471.997	89.62
472.216	89.62
472.435	90.62
472.654	90.62
472.873	98.62
473.092	89.62
473.311	84.62
473.53	88.62
473.749	88.62
473.968	93.62
474.187	89.62
474.406	108.62
474.625	94.62
474.844	94.62
475.063	101.62
475.282	78.62
475.501	91.62
475.72	81.62
475.939	108.62
476.158	100.62
476.377	95.62
476.596	86.62
476.814	83.62
477.033	89.62
477.252	89.62
477.471	87.62
477.69	96.62
477.908	91.62
478.127	91.62
478.346	104.62
478.564	95.62
478.783	89.62
479.002	95.62
479.22	104.62
479.439	98.62
479.658	89.62
479.876	90.62
480.095	81.62
480.313	90.62
480.532	96.62
480.751	95.62
480.969	87.62
481.188	100.62
481.406	85.62
481.624	73.62
481.843	78.62
482.061	96.62
482.28	95.62
482.498	91.62
482.717	92.62
482.935	85.62
483.153	100.62
483.372	108.62
483.59	94.62
483.808	94.62
484.027	87.62
484.245	95.62
484.463	108.62
484.681	112.62
484.9	96.62
485.118	93.62
485.336	93.62
485.554	86.62
485.772	102.62
485.99	76.62
486.209	88.62
486.427	72.62
486.645	78.62
486.863	80.62
487.081	86.62
487.299	100.62
487.517	101.62
487.735	113.62
487.953	105.62
488.171	117.62
488.389	105.62
488.607	97.62
488.825	91.62
489.043	97.62
489.261	100.62
489.479	101.62
489.696	95.62
489.914	114.62
490.132	88.62
490.35	95.62
490.568	109.62
490.786	99.62
491.003	110.62
491.221	100.62
491.439	119.62
491.657	112.62
491.874	130.62
492.092	135.62
492.31	128.62
492.527	128.62
492.745	104.62
492.963	104.62
493.18	118.62
493.398	117.62
493.615	102.62
493.833	101.62
494.05	108.62
494.268	102.62
494.485	101.62
494.703	102.62
494.92	117.62
495.138	108.62
495.355	112.62
495.573	101.62
495.79	101.62
496.008	101.62
496.225	113.62
496.442	102.62
496.66	108.62
496.877	101.62
497.094	102.62
497.312	91.62
497.529	94.62
497.746	92.62
497.963	86.62
498.181	106.62
498.398	84.62
498.615	89.62
498.832	76.62
499.049	95.62
499.267	86.62
499.484	98.62
499.701	106.62
499.918	96.62
500.135	87.62
500.352	93.62
500.569	96.62
500.786	94.62
501.003	93.62
501.22	109.62
501.437	80.62
501.654	102.62
501.871	103.62
502.088	102.62
502.305	92.62
502.522	102.62
502.739	96.62
502.956	98.62
503.172	109.62
503.389	92.62
503.606	105.62
503.823	95.62
504.04	102.62
504.256	89.62
504.473	100.62
504.69	95.62
504.907	96.62
505.123	95.62
505.34	90.62
505.557	105.62
505.773	90.62
505.99	109.62
506.207	89.62
506.423	104.62
506.64	88.62
506.856	94.62
507.073	92.62
507.289	99.62
507.506	98.62
507.722	103.62
507.939	84.62
508.155	91.62
508.372	84.62
508.588	94.62
508.805	98.62
509.021	81.62
509.238	74.62
509.454	77.62
509.67	88.62
509.887	92.62
510.103	76.62
510.319	95.62
510.536	88.62
510.752	91.62
510.968	76.62
511.184	84.62
511.401	89.62
511.617	82.62
511.833	88.62
512.049	68.62
512.265	99.62
512.481	89.62
512.698	96.62
512.914	81.62
513.13	83.62
513.346	86.62
513.562	89.62
513.778	86.62
513.994	75.62
514.21	79.62
514.426	94.62
514.642	93.62
514.858	88.62
515.074	80.62
515.29	100.62
515.506	81.62
515.721	82.62
515.937	84.62
516.153	79.62
516.369	77.62
516.585	79.62
516.801	86.62
517.016	71.62
517.232	83.62
