Data from Location3.07152019.Energy5.Lamp.07192019.3%Agarose_HRD10591_15-17-50-269.txt Node
Date: Fri Jul 19 15:17:50 EDT 2019
User: cochatt
Spectrometer: HR+D1059
Trigger mode: 1
Integration Time (sec): 1.000000E-1
Scans to average: 1
Electric dark correction enabled: true
Nonlinearity correction enabled: false
Boxcar width: 0
XAxis mode: Wavelengths
Number of Pixels in Spectrum: 2048
>>>>>Begin Spectral Data<<<<<
223.165	-19.62
223.4	-19.62
223.635	-19.62
223.869	-29.62
224.104	-22.62
224.338	-13.62
224.573	-10.62
224.808	-20.62
225.042	4.38
225.277	-0.62
225.511	-5.62
225.746	-1.62
225.98	12.38
226.215	12.38
226.449	18.38
226.683	13.38
226.918	29.38
227.152	34.38
227.387	37.38
227.621	35.38
227.856	36.38
228.09	54.38
228.324	44.38
228.559	49.38
228.793	56.38
229.027	66.38
229.262	66.38
229.496	64.38
229.73	69.38
229.964	73.38
230.199	55.38
230.433	88.38
230.667	64.38
230.901	69.38
231.136	72.38
231.37	78.38
231.604	73.38
231.838	69.38
232.072	71.38
232.306	67.38
232.541	74.38
232.775	86.38
233.009	92.38
233.243	76.38
233.477	73.38
233.711	80.38
233.945	104.38
234.179	89.38
234.413	89.38
234.647	81.38
234.881	66.38
235.115	80.38
235.349	95.38
235.583	85.38
235.817	86.38
236.051	84.38
236.285	63.38
236.519	82.38
236.753	75.38
236.987	89.38
237.221	85.38
237.455	84.38
237.689	88.38
237.922	67.38
238.156	70.38
238.39	69.38
238.624	75.38
238.858	85.38
239.091	84.38
239.325	74.38
239.559	78.38
239.793	76.38
240.027	84.38
240.26	67.38
240.494	69.38
240.728	71.38
240.961	73.38
241.195	70.38
241.429	77.38
241.662	84.38
241.896	72.38
242.13	86.38
242.363	83.38
242.597	80.38
242.83	71.38
243.064	78.38
243.298	79.38
243.531	91.38
243.765	79.38
243.998	85.38
244.232	70.38
244.465	82.38
244.699	75.38
244.932	74.38
245.166	85.38
245.399	63.38
245.633	63.38
245.866	74.38
246.099	61.38
246.333	85.38
246.566	93.38
246.8	78.38
247.033	74.38
247.266	72.38
247.5	86.38
247.733	76.38
247.966	74.38
248.2	76.38
248.433	69.38
248.666	77.38
248.899	79.38
249.133	86.38
249.366	74.38
249.599	76.38
249.832	69.38
250.066	78.38
250.299	67.38
250.532	84.38
250.765	64.38
250.998	56.38
251.231	78.38
251.465	73.38
251.698	72.38
251.931	93.38
252.164	72.38
252.397	78.38
252.63	81.38
252.863	68.38
253.096	70.38
253.329	69.38
253.562	79.38
253.795	76.38
254.028	73.38
254.261	76.38
254.494	90.38
254.727	77.38
254.96	87.38
255.193	84.38
255.426	79.38
255.659	81.38
255.892	88.38
256.124	80.38
256.357	76.38
256.59	72.38
256.823	81.38
257.056	74.38
257.289	67.38
257.521	77.38
257.754	65.38
257.987	81.38
258.22	78.38
258.452	78.38
258.685	97.38
258.918	77.38
259.151	65.38
259.383	92.38
259.616	80.38
259.849	67.38
260.081	73.38
260.314	74.38
260.547	73.38
260.779	83.38
261.012	87.38
261.244	67.38
261.477	69.38
261.71	68.38
261.942	79.38
262.175	72.38
262.407	84.38
262.64	71.38
262.872	72.38
263.105	70.38
263.337	88.38
263.57	82.38
263.802	91.38
264.035	80.38
264.267	58.38
264.499	86.38
264.732	71.38
264.964	85.38
265.197	78.38
265.429	82.38
265.661	88.38
265.894	86.38
266.126	76.38
266.358	71.38
266.591	70.38
266.823	93.38
267.055	70.38
267.287	78.38
267.52	73.38
267.752	85.38
267.984	90.38
268.216	82.38
268.448	75.38
268.681	72.38
268.913	81.38
269.145	75.38
269.377	70.38
269.609	88.38
269.841	89.38
270.073	91.38
270.306	79.38
270.538	77.38
270.77	70.38
271.002	75.38
271.234	84.38
271.466	76.38
271.698	77.38
271.93	80.38
272.162	88.38
272.394	78.38
272.626	82.38
272.858	77.38
273.09	75.38
273.322	81.38
273.553	86.38
273.785	76.38
274.017	65.38
274.249	84.38
274.481	98.38
274.713	82.38
274.945	84.38
275.176	82.38
275.408	90.38
275.64	82.38
275.872	82.38
276.104	83.38
276.335	73.38
276.567	70.38
276.799	81.38
277.031	95.38
277.262	92.38
277.494	88.38
277.726	81.38
277.957	81.38
278.189	84.38
278.421	89.38
278.652	84.38
278.884	69.38
279.115	79.38
279.347	100.38
279.579	80.38
279.81	82.38
280.042	83.38
280.273	84.38
280.505	80.38
280.736	65.38
280.968	74.38
281.199	73.38
281.431	81.38
281.662	67.38
281.894	86.38
282.125	88.38
282.356	84.38
282.588	84.38
282.819	86.38
283.051	69.38
283.282	78.38
283.513	78.38
283.745	69.38
283.976	82.38
284.207	88.38
284.439	82.38
284.67	85.38
284.901	79.38
285.132	86.38
285.364	103.38
285.595	82.38
285.826	88.38
286.057	85.38
286.288	81.38
286.52	91.38
286.751	74.38
286.982	96.38
287.213	86.38
287.444	74.38
287.675	94.38
287.906	97.38
288.138	80.38
288.369	79.38
288.6	84.38
288.831	79.38
289.062	90.38
289.293	88.38
289.524	75.38
289.755	82.38
289.986	73.38
290.217	84.38
290.448	85.38
290.679	86.38
290.91	86.38
291.141	69.38
291.371	83.38
291.602	87.38
291.833	88.38
292.064	82.38
292.295	86.38
292.526	89.38
292.757	82.38
292.987	89.38
293.218	80.38
293.449	79.38
293.68	80.38
293.91	79.38
294.141	85.38
294.372	74.38
294.603	78.38
294.833	80.38
295.064	72.38
295.295	92.38
295.525	80.38
295.756	90.38
295.987	90.38
296.217	86.38
296.448	84.38
296.679	84.38
296.909	80.38
297.14	90.38
297.37	97.38
297.601	97.38
297.831	75.38
298.062	87.38
298.292	85.38
298.523	81.38
298.753	74.38
298.984	87.38
299.214	72.38
299.445	99.38
299.675	92.38
299.905	81.38
300.136	92.38
300.366	74.38
300.597	80.38
300.827	81.38
301.057	80.38
301.288	86.38
301.518	87.38
301.748	93.38
301.979	81.38
302.209	71.38
302.439	84.38
302.669	81.38
302.9	81.38
303.13	82.38
303.36	90.38
303.59	76.38
303.82	78.38
304.051	89.38
304.281	81.38
304.511	80.38
304.741	86.38
304.971	96.38
305.201	101.38
305.431	82.38
305.661	87.38
305.891	73.38
306.121	90.38
306.352	84.38
306.582	83.38
306.812	86.38
307.042	91.38
307.272	86.38
307.502	95.38
307.731	93.38
307.961	67.38
308.191	75.38
308.421	87.38
308.651	94.38
308.881	68.38
309.111	80.38
309.341	88.38
309.571	71.38
309.8	88.38
310.03	82.38
310.26	87.38
310.49	89.38
310.72	98.38
310.949	80.38
311.179	78.38
311.409	88.38
311.639	97.38
311.868	95.38
312.098	65.38
312.328	84.38
312.557	73.38
312.787	85.38
313.017	84.38
313.246	83.38
313.476	95.38
313.706	90.38
313.935	85.38
314.165	96.38
314.394	98.38
314.624	66.38
314.853	83.38
315.083	75.38
315.312	83.38
315.542	95.38
315.771	82.38
316.001	88.38
316.23	80.38
316.46	80.38
316.689	92.38
316.919	87.38
317.148	89.38
317.377	91.38
317.607	93.38
317.836	83.38
318.065	86.38
318.295	86.38
318.524	88.38
318.753	74.38
318.983	68.38
319.212	80.38
319.441	89.38
319.67	87.38
319.9	68.38
320.129	74.38
320.358	75.38
320.587	91.38
320.816	81.38
321.046	86.38
321.275	69.38
321.504	65.38
321.733	66.38
321.962	78.38
322.191	85.38
322.42	93.38
322.649	88.38
322.878	85.38
323.108	87.38
323.337	71.38
323.566	82.38
323.795	76.38
324.024	84.38
324.253	78.38
324.482	90.38
324.71	83.38
324.939	94.38
325.168	84.38
325.397	92.38
325.626	83.38
325.855	92.38
326.084	76.38
326.313	77.38
326.542	78.38
326.77	86.38
326.999	87.38
327.228	80.38
327.457	74.38
327.686	79.38
327.914	78.38
328.143	82.38
328.372	84.38
328.6	96.38
328.829	80.38
329.058	87.38
329.287	83.38
329.515	82.38
329.744	89.38
329.972	87.38
330.201	84.38
330.43	71.38
330.658	85.38
330.887	92.38
331.115	85.38
331.344	86.38
331.572	89.38
331.801	73.38
332.03	79.38
332.258	81.38
332.486	95.38
332.715	85.38
332.943	64.38
333.172	79.38
333.4	88.38
333.629	71.38
333.857	83.38
334.085	79.38
334.314	82.38
334.542	87.38
334.771	78.38
334.999	73.38
335.227	78.38
335.455	87.38
335.684	80.38
335.912	91.38
336.14	87.38
336.369	81.38
336.597	78.38
336.825	100.38
337.053	79.38
337.281	76.38
337.51	87.38
337.738	81.38
337.966	81.38
338.194	88.38
338.422	71.38
338.65	78.38
338.878	84.38
339.106	92.38
339.334	85.38
339.562	76.38
339.79	95.38
340.018	81.38
340.246	87.38
340.474	68.38
340.702	85.38
340.93	68.38
341.158	84.38
341.386	85.38
341.614	90.38
341.842	77.38
342.07	84.38
342.298	69.38
342.526	81.38
342.754	103.38
342.981	96.38
343.209	72.38
343.437	70.38
343.665	67.38
343.893	77.38
344.12	86.38
344.348	93.38
344.576	82.38
344.804	76.38
345.031	82.38
345.259	82.38
345.487	89.38
345.714	87.38
345.942	75.38
346.17	59.38
346.397	54.38
346.625	74.38
346.853	80.38
347.08	78.38
347.308	91.38
347.535	70.38
347.763	78.38
347.99	78.38
348.218	96.38
348.445	75.38
348.673	71.38
348.9	73.38
349.128	73.38
349.355	78.38
349.583	84.38
349.81	88.38
350.037	88.38
350.265	75.38
350.492	81.38
350.72	72.38
350.947	78.38
351.174	85.38
351.402	69.38
351.629	88.38
351.856	80.38
352.083	82.38
352.311	93.38
352.538	87.38
352.765	82.38
352.992	79.38
353.22	85.38
353.447	89.38
353.674	74.38
353.901	67.38
354.128	76.38
354.355	87.38
354.583	84.38
354.81	85.38
355.037	92.38
355.264	76.38
355.491	76.38
355.718	83.38
355.945	95.38
356.172	72.38
356.399	77.38
356.626	82.38
356.853	90.38
357.08	79.38
357.307	81.38
357.534	81.38
357.761	82.38
357.988	80.38
358.215	68.38
358.441	78.38
358.668	81.38
358.895	75.38
359.122	81.38
359.349	87.38
359.576	96.38
359.802	100.38
360.029	78.38
360.256	85.38
360.483	84.38
360.709	78.38
360.936	88.38
361.163	84.38
361.39	75.38
361.616	97.38
361.843	64.38
362.07	87.38
362.296	90.38
362.523	82.38
362.749	76.38
362.976	90.38
363.203	77.38
363.429	78.38
363.656	78.38
363.882	82.38
364.109	78.38
364.335	86.38
364.562	78.38
364.788	89.38
365.015	78.38
365.241	87.38
365.468	73.38
365.694	67.38
365.92	84.38
366.147	77.38
366.373	75.38
366.599	94.38
366.826	79.38
367.052	71.38
367.278	80.38
367.505	90.38
367.731	93.38
367.957	94.38
368.184	66.38
368.41	84.38
368.636	87.38
368.862	85.38
369.089	82.38
369.315	85.38
369.541	82.38
369.767	64.38
369.993	66.38
370.219	96.38
370.445	79.38
370.672	97.38
370.898	78.38
371.124	83.38
371.35	77.38
371.576	74.38
371.802	78.38
372.028	90.38
372.254	73.38
372.48	78.38
372.706	78.38
372.932	79.38
373.158	86.38
373.384	83.38
373.61	89.38
373.835	81.38
374.061	97.38
374.287	85.38
374.513	74.38
374.739	90.38
374.965	77.38
375.191	87.38
375.416	72.38
375.642	72.38
375.868	88.38
376.094	73.38
376.319	89.38
376.545	88.38
376.771	77.38
376.997	76.38
377.222	79.38
377.448	90.38
377.674	79.38
377.899	80.38
378.125	85.38
378.35	99.38
378.576	81.38
378.802	89.38
379.027	81.38
379.253	75.38
379.478	85.38
379.704	69.38
379.929	98.38
380.155	88.38
380.38	86.38
380.606	79.38
380.831	79.38
381.057	84.38
381.282	84.38
381.507	79.38
381.733	81.38
381.958	68.38
382.184	74.38
382.409	87.38
382.634	85.38
382.86	94.38
383.085	89.38
383.31	81.38
383.535	82.38
383.761	73.38
383.986	94.38
384.211	89.38
384.436	76.38
384.662	73.38
384.887	72.38
385.112	85.38
385.337	83.38
385.562	88.38
385.787	84.38
386.013	97.38
386.238	74.38
386.463	72.38
386.688	97.38
386.913	77.38
387.138	81.38
387.363	83.38
387.588	81.38
387.813	88.38
388.038	82.38
388.263	80.38
388.488	88.38
388.713	85.38
388.938	84.38
389.163	70.38
389.387	85.38
389.612	77.38
389.837	96.38
390.062	72.38
390.287	91.38
390.512	84.38
390.736	85.38
390.961	89.38
391.186	87.38
391.411	83.38
391.636	74.38
391.86	95.38
392.085	97.38
392.31	96.38
392.534	90.38
392.759	69.38
392.984	98.38
393.208	108.38
393.433	86.38
393.658	93.38
393.882	87.38
394.107	74.38
394.331	73.38
394.556	88.38
394.78	82.38
395.005	81.38
395.229	80.38
395.454	77.38
395.678	84.38
395.903	92.38
396.127	91.38
396.352	86.38
396.576	86.38
396.801	75.38
397.025	82.38
397.249	78.38
397.474	82.38
397.698	96.38
397.922	84.38
398.147	82.38
398.371	85.38
398.595	96.38
398.82	81.38
399.044	90.38
399.268	73.38
399.492	86.38
399.717	92.38
399.941	92.38
400.165	79.38
400.389	86.38
400.613	76.38
400.837	81.38
401.062	78.38
401.286	84.38
401.51	80.38
401.734	95.38
401.958	83.38
402.182	98.38
402.406	87.38
402.63	88.38
402.854	81.38
403.078	84.38
403.302	74.38
403.526	91.38
403.75	82.38
403.974	98.38
404.198	94.38
404.422	78.38
404.645	86.38
404.869	78.38
405.093	78.38
405.317	82.38
405.541	79.38
405.765	85.38
405.988	104.38
406.212	91.38
406.436	71.38
406.66	85.38
406.883	97.38
407.107	75.38
407.331	79.38
407.555	80.38
407.778	98.38
408.002	92.38
408.226	76.38
408.449	88.38
408.673	74.38
408.896	94.38
409.12	96.38
409.344	87.38
409.567	90.38
409.791	87.38
410.014	79.38
410.238	92.38
410.461	85.38
410.685	99.38
410.908	89.38
411.132	106.38
411.355	86.38
411.578	94.38
411.802	85.38
412.025	88.38
412.249	89.38
412.472	73.38
412.695	84.38
412.919	74.38
413.142	80.38
413.365	85.38
413.589	90.38
413.812	84.38
414.035	101.38
414.258	95.38
414.482	100.38
414.705	81.38
414.928	88.38
415.151	83.38
415.374	71.38
415.597	104.38
415.821	100.38
416.044	84.38
416.267	86.38
416.49	86.38
416.713	88.38
416.936	107.38
417.159	91.38
417.382	103.38
417.605	88.38
417.828	85.38
418.051	80.38
418.274	97.38
418.497	89.38
418.72	87.38
418.943	90.38
419.166	73.38
419.389	89.38
419.611	81.38
419.834	74.38
420.057	97.38
420.28	94.38
420.503	94.38
420.726	81.38
420.948	91.38
421.171	91.38
421.394	103.38
421.617	89.38
421.839	94.38
422.062	93.38
422.285	90.38
422.507	80.38
422.73	87.38
422.953	96.38
423.175	104.38
423.398	87.38
423.621	98.38
423.843	81.38
424.066	95.38
424.288	90.38
424.511	85.38
424.733	95.38
424.956	86.38
425.178	93.38
425.401	97.38
425.623	78.38
425.846	105.38
426.068	106.38
426.291	87.38
426.513	90.38
426.735	97.38
426.958	97.38
427.18	92.38
427.402	87.38
427.625	93.38
427.847	90.38
428.069	93.38
428.292	88.38
428.514	92.38
428.736	74.38
428.958	82.38
429.181	86.38
429.403	95.38
429.625	99.38
429.847	91.38
430.069	109.38
430.292	94.38
430.514	99.38
430.736	90.38
430.958	94.38
431.18	79.38
431.402	75.38
431.624	77.38
431.846	86.38
432.068	96.38
432.29	92.38
432.512	94.38
432.734	79.38
432.956	79.38
433.178	97.38
433.4	99.38
433.622	100.38
433.844	95.38
434.066	91.38
434.287	85.38
434.509	100.38
434.731	86.38
434.953	86.38
435.175	70.38
435.397	84.38
435.618	86.38
435.84	81.38
436.062	97.38
436.284	110.38
436.505	85.38
436.727	88.38
436.949	83.38
437.17	99.38
437.392	83.38
437.614	89.38
437.835	89.38
438.057	85.38
438.278	79.38
438.5	86.38
438.721	87.38
438.943	88.38
439.165	90.38
439.386	102.38
439.608	98.38
439.829	103.38
440.05	91.38
440.272	106.38
440.493	100.38
440.715	82.38
440.936	100.38
441.158	102.38
441.379	102.38
441.6	109.38
441.822	110.38
442.043	89.38
442.264	114.38
442.486	89.38
442.707	85.38
442.928	92.38
443.149	81.38
443.371	92.38
443.592	96.38
443.813	87.38
444.034	89.38
444.255	97.38
444.476	74.38
444.698	93.38
444.919	101.38
445.14	178.38
445.361	128.38
445.582	102.38
445.803	102.38
446.024	86.38
446.245	108.38
446.466	88.38
446.687	102.38
446.908	96.38
447.129	101.38
447.35	99.38
447.571	93.38
447.792	103.38
448.013	99.38
448.234	96.38
448.455	98.38
448.675	100.38
448.896	81.38
449.117	86.38
449.338	97.38
449.559	108.38
449.779	97.38
450	74.38
450.221	89.38
450.442	70.38
450.662	92.38
450.883	97.38
451.104	84.38
451.324	97.38
451.545	88.38
451.766	97.38
451.986	95.38
452.207	108.38
452.428	101.38
452.648	99.38
452.869	83.38
453.089	85.38
453.31	86.38
453.53	85.38
453.751	84.38
453.971	73.38
454.192	77.38
454.412	76.38
454.633	67.38
454.853	80.38
455.073	75.38
455.294	93.38
455.514	82.38
455.734	74.38
455.955	89.38
456.175	86.38
456.395	73.38
456.616	77.38
456.836	93.38
457.056	100.38
457.276	80.38
457.497	91.38
457.717	88.38
457.937	80.38
458.157	92.38
458.377	95.38
458.598	87.38
458.818	99.38
459.038	85.38
459.258	65.38
459.478	68.38
459.698	84.38
459.918	81.38
460.138	91.38
460.358	85.38
460.578	101.38
460.798	85.38
461.018	84.38
461.238	88.38
461.458	76.38
461.678	93.38
461.898	80.38
462.118	93.38
462.338	103.38
462.558	88.38
462.777	94.38
462.997	78.38
463.217	89.38
463.437	95.38
463.657	90.38
463.876	97.38
464.096	83.38
464.316	81.38
464.536	90.38
464.755	101.38
464.975	84.38
465.195	94.38
465.414	90.38
465.634	77.38
465.854	91.38
466.073	92.38
466.293	92.38
466.512	89.38
466.732	80.38
466.951	86.38
467.171	102.38
467.391	92.38
467.61	99.38
467.829	90.38
468.049	94.38
468.268	93.38
468.488	88.38
468.707	104.38
468.927	96.38
469.146	93.38
469.365	93.38
469.585	95.38
469.804	105.38
470.023	88.38
470.243	97.38
470.462	98.38
470.681	103.38
470.901	105.38
471.12	94.38
471.339	108.38
471.558	103.38
471.777	88.38
471.997	102.38
472.216	90.38
472.435	92.38
472.654	87.38
472.873	82.38
473.092	104.38
473.311	84.38
473.53	93.38
473.749	92.38
473.968	95.38
474.187	79.38
474.406	66.38
474.625	79.38
474.844	95.38
475.063	101.38
475.282	94.38
475.501	89.38
475.72	92.38
475.939	95.38
476.158	90.38
476.377	81.38
476.596	80.38
476.814	89.38
477.033	99.38
477.252	86.38
477.471	82.38
477.69	90.38
477.908	111.38
478.127	101.38
478.346	97.38
478.564	100.38
478.783	91.38
479.002	98.38
479.22	87.38
479.439	93.38
479.658	78.38
479.876	94.38
480.095	89.38
480.313	83.38
480.532	99.38
480.751	91.38
480.969	94.38
481.188	65.38
481.406	90.38
481.624	80.38
481.843	69.38
482.061	96.38
482.28	101.38
482.498	86.38
482.717	88.38
482.935	103.38
483.153	114.38
483.372	90.38
483.59	89.38
483.808	98.38
484.027	109.38
484.245	89.38
484.463	94.38
484.681	97.38
484.9	87.38
485.118	106.38
485.336	100.38
485.554	81.38
485.772	83.38
485.99	87.38
486.209	90.38
486.427	91.38
486.645	98.38
486.863	96.38
487.081	105.38
487.299	90.38
487.517	87.38
487.735	111.38
487.953	114.38
488.171	117.38
488.389	109.38
488.607	118.38
488.825	105.38
489.043	84.38
489.261	78.38
489.479	80.38
489.696	100.38
489.914	93.38
490.132	111.38
490.35	108.38
490.568	102.38
490.786	103.38
491.003	113.38
491.221	95.38
491.439	126.38
491.657	110.38
491.874	118.38
492.092	131.38
492.31	121.38
492.527	128.38
492.745	119.38
492.963	110.38
493.18	112.38
493.398	114.38
493.615	101.38
493.833	95.38
494.05	87.38
494.268	91.38
494.485	99.38
494.703	112.38
494.92	110.38
495.138	104.38
495.355	104.38
495.573	102.38
495.79	100.38
496.008	104.38
496.225	88.38
496.442	104.38
496.66	105.38
496.877	95.38
497.094	97.38
497.312	96.38
497.529	87.38
497.746	97.38
497.963	107.38
498.181	87.38
498.398	82.38
498.615	86.38
498.832	88.38
499.049	88.38
499.267	88.38
499.484	84.38
499.701	87.38
499.918	95.38
500.135	84.38
500.352	97.38
500.569	107.38
500.786	99.38
501.003	110.38
501.22	94.38
501.437	101.38
501.654	103.38
501.871	102.38
502.088	81.38
502.305	97.38
502.522	93.38
502.739	85.38
502.956	97.38
503.172	97.38
503.389	77.38
503.606	89.38
503.823	92.38
504.04	95.38
504.256	84.38
504.473	93.38
504.69	95.38
504.907	105.38
505.123	102.38
505.34	86.38
505.557	87.38
505.773	94.38
505.99	84.38
506.207	99.38
506.423	87.38
506.64	85.38
506.856	82.38
507.073	94.38
507.289	92.38
507.506	96.38
507.722	83.38
507.939	100.38
508.155	82.38
508.372	84.38
508.588	94.38
508.805	98.38
509.021	98.38
509.238	91.38
509.454	92.38
509.67	86.38
509.887	77.38
510.103	86.38
510.319	95.38
510.536	80.38
510.752	87.38
510.968	82.38
511.184	69.38
511.401	76.38
511.617	103.38
511.833	77.38
512.049	74.38
512.265	88.38
512.481	90.38
512.698	91.38
512.914	90.38
513.13	82.38
513.346	74.38
513.562	82.38
513.778	97.38
513.994	90.38
514.21	83.38
514.426	97.38
514.642	94.38
514.858	85.38
515.074	96.38
515.29	97.38
515.506	88.38
515.721	95.38
515.937	89.38
516.153	71.38
516.369	65.38
516.585	86.38
516.801	79.38
517.016	83.38
517.232	89.38
517.448	87.38
517.664	81.38
517.879	77.38
