Data from Location3.07152019.Energy5.Lamp.07192019.3%Agarose_HRD10591_15-16-36-270.txt Node
Date: Fri Jul 19 15:16:36 EDT 2019
User: cochatt
Spectrometer: HR+D1059
Trigger mode: 1
Integration Time (sec): 1.000000E-1
Scans to average: 1
Electric dark correction enabled: true
Nonlinearity correction enabled: false
Boxcar width: 0
XAxis mode: Wavelengths
Number of Pixels in Spectrum: 2048
>>>>>Begin Spectral Data<<<<<
223.165	-9.75
223.4	-9.75
223.635	-9.75
223.869	-12.75
224.104	-16.75
224.338	-15.75
224.573	-25.75
224.808	-17.75
225.042	0.25
225.277	-12.75
225.511	1.25
225.746	-2.75
225.98	9.25
226.215	11.25
226.449	31.25
226.683	9.25
226.918	16.25
227.152	35.25
227.387	32.25
227.621	38.25
227.856	35.25
228.09	38.25
228.324	51.25
228.559	51.25
228.793	64.25
229.027	57.25
229.262	52.25
229.496	75.25
229.73	65.25
229.964	75.25
230.199	75.25
230.433	61.25
230.667	67.25
230.901	82.25
231.136	72.25
231.37	71.25
231.604	82.25
231.838	81.25
232.072	73.25
232.306	65.25
232.541	69.25
232.775	71.25
233.009	79.25
233.243	70.25
233.477	78.25
233.711	89.25
233.945	88.25
234.179	84.25
234.413	80.25
234.647	77.25
234.881	86.25
235.115	81.25
235.349	96.25
235.583	72.25
235.817	81.25
236.051	81.25
236.285	83.25
236.519	80.25
236.753	85.25
236.987	85.25
237.221	82.25
237.455	85.25
237.689	90.25
237.922	72.25
238.156	73.25
238.39	84.25
238.624	74.25
238.858	90.25
239.091	87.25
239.325	94.25
239.559	74.25
239.793	82.25
240.027	60.25
240.26	78.25
240.494	67.25
240.728	87.25
240.961	75.25
241.195	73.25
241.429	71.25
241.662	74.25
241.896	77.25
242.13	67.25
242.363	67.25
242.597	71.25
242.83	79.25
243.064	70.25
243.298	79.25
243.531	90.25
243.765	73.25
243.998	70.25
244.232	61.25
244.465	72.25
244.699	74.25
244.932	69.25
245.166	66.25
245.399	66.25
245.633	84.25
245.866	78.25
246.099	80.25
246.333	73.25
246.566	78.25
246.8	74.25
247.033	86.25
247.266	81.25
247.5	64.25
247.733	64.25
247.966	81.25
248.2	78.25
248.433	81.25
248.666	89.25
248.899	80.25
249.133	77.25
249.366	79.25
249.599	57.25
249.832	75.25
250.066	75.25
250.299	75.25
250.532	90.25
250.765	79.25
250.998	76.25
251.231	62.25
251.465	75.25
251.698	85.25
251.931	81.25
252.164	71.25
252.397	77.25
252.63	74.25
252.863	81.25
253.096	75.25
253.329	75.25
253.562	67.25
253.795	75.25
254.028	85.25
254.261	89.25
254.494	79.25
254.727	82.25
254.96	69.25
255.193	81.25
255.426	79.25
255.659	78.25
255.892	78.25
256.124	73.25
256.357	74.25
256.59	91.25
256.823	81.25
257.056	80.25
257.289	80.25
257.521	78.25
257.754	83.25
257.987	84.25
258.22	74.25
258.452	73.25
258.685	82.25
258.918	84.25
259.151	98.25
259.383	75.25
259.616	87.25
259.849	88.25
260.081	101.25
260.314	85.25
260.547	80.25
260.779	63.25
261.012	78.25
261.244	78.25
261.477	79.25
261.71	79.25
261.942	73.25
262.175	95.25
262.407	73.25
262.64	81.25
262.872	87.25
263.105	87.25
263.337	80.25
263.57	84.25
263.802	78.25
264.035	76.25
264.267	73.25
264.499	74.25
264.732	83.25
264.964	82.25
265.197	83.25
265.429	65.25
265.661	85.25
265.894	68.25
266.126	89.25
266.358	85.25
266.591	78.25
266.823	68.25
267.055	81.25
267.287	89.25
267.52	88.25
267.752	94.25
267.984	90.25
268.216	81.25
268.448	78.25
268.681	87.25
268.913	90.25
269.145	86.25
269.377	91.25
269.609	83.25
269.841	93.25
270.073	83.25
270.306	85.25
270.538	71.25
270.77	78.25
271.002	84.25
271.234	85.25
271.466	81.25
271.698	92.25
271.93	85.25
272.162	92.25
272.394	67.25
272.626	83.25
272.858	94.25
273.09	85.25
273.322	91.25
273.553	94.25
273.785	94.25
274.017	90.25
274.249	86.25
274.481	97.25
274.713	79.25
274.945	63.25
275.176	88.25
275.408	91.25
275.64	75.25
275.872	84.25
276.104	73.25
276.335	94.25
276.567	86.25
276.799	75.25
277.031	90.25
277.262	95.25
277.494	89.25
277.726	99.25
277.957	98.25
278.189	97.25
278.421	79.25
278.652	80.25
278.884	75.25
279.115	75.25
279.347	79.25
279.579	78.25
279.81	78.25
280.042	80.25
280.273	99.25
280.505	85.25
280.736	87.25
280.968	94.25
281.199	98.25
281.431	86.25
281.662	79.25
281.894	71.25
282.125	70.25
282.356	71.25
282.588	87.25
282.819	86.25
283.051	89.25
283.282	82.25
283.513	93.25
283.745	91.25
283.976	72.25
284.207	86.25
284.439	93.25
284.67	74.25
284.901	94.25
285.132	86.25
285.364	82.25
285.595	72.25
285.826	79.25
286.057	79.25
286.288	77.25
286.52	91.25
286.751	86.25
286.982	89.25
287.213	84.25
287.444	89.25
287.675	90.25
287.906	80.25
288.138	80.25
288.369	88.25
288.6	66.25
288.831	76.25
289.062	80.25
289.293	77.25
289.524	80.25
289.755	91.25
289.986	71.25
290.217	87.25
290.448	82.25
290.679	85.25
290.91	83.25
291.141	70.25
291.371	94.25
291.602	87.25
291.833	96.25
292.064	90.25
292.295	85.25
292.526	81.25
292.757	75.25
292.987	82.25
293.218	78.25
293.449	79.25
293.68	85.25
293.91	75.25
294.141	81.25
294.372	95.25
294.603	91.25
294.833	82.25
295.064	83.25
295.295	90.25
295.525	82.25
295.756	81.25
295.987	90.25
296.217	77.25
296.448	85.25
296.679	91.25
296.909	89.25
297.14	74.25
297.37	83.25
297.601	87.25
297.831	92.25
298.062	81.25
298.292	79.25
298.523	86.25
298.753	70.25
298.984	80.25
299.214	75.25
299.445	78.25
299.675	75.25
299.905	82.25
300.136	69.25
300.366	77.25
300.597	72.25
300.827	85.25
301.057	70.25
301.288	83.25
301.518	85.25
301.748	85.25
301.979	89.25
302.209	90.25
302.439	88.25
302.669	78.25
302.9	86.25
303.13	75.25
303.36	79.25
303.59	77.25
303.82	83.25
304.051	75.25
304.281	81.25
304.511	79.25
304.741	98.25
304.971	88.25
305.201	77.25
305.431	94.25
305.661	89.25
305.891	91.25
306.121	80.25
306.352	74.25
306.582	83.25
306.812	81.25
307.042	93.25
307.272	85.25
307.502	82.25
307.731	75.25
307.961	85.25
308.191	94.25
308.421	87.25
308.651	84.25
308.881	85.25
309.111	88.25
309.341	75.25
309.571	70.25
309.8	91.25
310.03	72.25
310.26	88.25
310.49	78.25
310.72	96.25
310.949	91.25
311.179	81.25
311.409	74.25
311.639	77.25
311.868	90.25
312.098	82.25
312.328	76.25
312.557	88.25
312.787	83.25
313.017	82.25
313.246	79.25
313.476	80.25
313.706	67.25
313.935	84.25
314.165	99.25
314.394	99.25
314.624	92.25
314.853	72.25
315.083	82.25
315.312	79.25
315.542	74.25
315.771	77.25
316.001	71.25
316.23	66.25
316.46	77.25
316.689	83.25
316.919	85.25
317.148	70.25
317.377	72.25
317.607	88.25
317.836	80.25
318.065	86.25
318.295	83.25
318.524	79.25
318.753	87.25
318.983	81.25
319.212	96.25
319.441	106.25
319.67	89.25
319.9	76.25
320.129	85.25
320.358	68.25
320.587	98.25
320.816	98.25
321.046	94.25
321.275	88.25
321.504	76.25
321.733	84.25
321.962	75.25
322.191	79.25
322.42	75.25
322.649	83.25
322.878	85.25
323.108	80.25
323.337	91.25
323.566	91.25
323.795	81.25
324.024	92.25
324.253	82.25
324.482	85.25
324.71	82.25
324.939	73.25
325.168	69.25
325.397	74.25
325.626	85.25
325.855	80.25
326.084	78.25
326.313	79.25
326.542	80.25
326.77	87.25
326.999	85.25
327.228	74.25
327.457	94.25
327.686	97.25
327.914	83.25
328.143	75.25
328.372	84.25
328.6	84.25
328.829	75.25
329.058	74.25
329.287	81.25
329.515	80.25
329.744	82.25
329.972	89.25
330.201	86.25
330.43	71.25
330.658	71.25
330.887	83.25
331.115	99.25
331.344	63.25
331.572	86.25
331.801	88.25
332.03	95.25
332.258	87.25
332.486	89.25
332.715	74.25
332.943	93.25
333.172	76.25
333.4	76.25
333.629	73.25
333.857	74.25
334.085	79.25
334.314	72.25
334.542	71.25
334.771	80.25
334.999	85.25
335.227	83.25
335.455	68.25
335.684	72.25
335.912	79.25
336.14	72.25
336.369	98.25
336.597	84.25
336.825	85.25
337.053	74.25
337.281	91.25
337.51	86.25
337.738	105.25
337.966	67.25
338.194	87.25
338.422	75.25
338.65	87.25
338.878	89.25
339.106	74.25
339.334	89.25
339.562	81.25
339.79	89.25
340.018	90.25
340.246	72.25
340.474	88.25
340.702	84.25
340.93	74.25
341.158	72.25
341.386	78.25
341.614	81.25
341.842	95.25
342.07	96.25
342.298	77.25
342.526	79.25
342.754	74.25
342.981	79.25
343.209	86.25
343.437	82.25
343.665	83.25
343.893	79.25
344.12	85.25
344.348	69.25
344.576	82.25
344.804	82.25
345.031	87.25
345.259	77.25
345.487	83.25
345.714	84.25
345.942	82.25
346.17	84.25
346.397	89.25
346.625	93.25
346.853	80.25
347.08	83.25
347.308	86.25
347.535	77.25
347.763	89.25
347.99	87.25
348.218	87.25
348.445	82.25
348.673	89.25
348.9	102.25
349.128	74.25
349.355	83.25
349.583	87.25
349.81	89.25
350.037	96.25
350.265	61.25
350.492	88.25
350.72	82.25
350.947	90.25
351.174	81.25
351.402	78.25
351.629	83.25
351.856	90.25
352.083	104.25
352.311	96.25
352.538	94.25
352.765	84.25
352.992	90.25
353.22	79.25
353.447	78.25
353.674	96.25
353.901	65.25
354.128	78.25
354.355	83.25
354.583	73.25
354.81	81.25
355.037	92.25
355.264	76.25
355.491	80.25
355.718	87.25
355.945	85.25
356.172	77.25
356.399	72.25
356.626	77.25
356.853	83.25
357.08	89.25
357.307	85.25
357.534	82.25
357.761	85.25
357.988	94.25
358.215	74.25
358.441	75.25
358.668	72.25
358.895	72.25
359.122	78.25
359.349	99.25
359.576	85.25
359.802	81.25
360.029	88.25
360.256	89.25
360.483	86.25
360.709	83.25
360.936	94.25
361.163	83.25
361.39	83.25
361.616	88.25
361.843	75.25
362.07	75.25
362.296	71.25
362.523	91.25
362.749	81.25
362.976	66.25
363.203	89.25
363.429	73.25
363.656	68.25
363.882	90.25
364.109	77.25
364.335	82.25
364.562	84.25
364.788	98.25
365.015	83.25
365.241	85.25
365.468	73.25
365.694	67.25
365.92	90.25
366.147	87.25
366.373	81.25
366.599	94.25
366.826	74.25
367.052	81.25
367.278	81.25
367.505	88.25
367.731	74.25
367.957	85.25
368.184	87.25
368.41	80.25
368.636	83.25
368.862	83.25
369.089	62.25
369.315	74.25
369.541	81.25
369.767	90.25
369.993	74.25
370.219	73.25
370.445	81.25
370.672	88.25
370.898	75.25
371.124	93.25
371.35	91.25
371.576	91.25
371.802	76.25
372.028	74.25
372.254	67.25
372.48	80.25
372.706	77.25
372.932	78.25
373.158	71.25
373.384	87.25
373.61	100.25
373.835	68.25
374.061	67.25
374.287	92.25
374.513	85.25
374.739	85.25
374.965	88.25
375.191	90.25
375.416	71.25
375.642	88.25
375.868	74.25
376.094	91.25
376.319	79.25
376.545	79.25
376.771	90.25
376.997	100.25
377.222	94.25
377.448	88.25
377.674	87.25
377.899	78.25
378.125	98.25
378.35	97.25
378.576	84.25
378.802	95.25
379.027	85.25
379.253	80.25
379.478	94.25
379.704	101.25
379.929	87.25
380.155	85.25
380.38	81.25
380.606	82.25
380.831	71.25
381.057	91.25
381.282	82.25
381.507	92.25
381.733	89.25
381.958	83.25
382.184	88.25
382.409	86.25
382.634	93.25
382.86	79.25
383.085	78.25
383.31	79.25
383.535	89.25
383.761	83.25
383.986	83.25
384.211	96.25
384.436	91.25
384.662	85.25
384.887	80.25
385.112	74.25
385.337	75.25
385.562	71.25
385.787	74.25
386.013	102.25
386.238	64.25
386.463	88.25
386.688	90.25
386.913	75.25
387.138	82.25
387.363	99.25
387.588	91.25
387.813	83.25
388.038	79.25
388.263	93.25
388.488	73.25
388.713	81.25
388.938	91.25
389.163	76.25
389.387	92.25
389.612	93.25
389.837	70.25
390.062	78.25
390.287	74.25
390.512	87.25
390.736	69.25
390.961	88.25
391.186	67.25
391.411	77.25
391.636	89.25
391.86	91.25
392.085	84.25
392.31	94.25
392.534	81.25
392.759	80.25
392.984	75.25
393.208	96.25
393.433	88.25
393.658	70.25
393.882	87.25
394.107	86.25
394.331	82.25
394.556	89.25
394.78	100.25
395.005	89.25
395.229	95.25
395.454	90.25
395.678	91.25
395.903	96.25
396.127	89.25
396.352	95.25
396.576	92.25
396.801	75.25
397.025	83.25
397.249	100.25
397.474	113.25
397.698	86.25
397.922	93.25
398.147	90.25
398.371	79.25
398.595	103.25
398.82	92.25
399.044	90.25
399.268	85.25
399.492	89.25
399.717	86.25
399.941	88.25
400.165	84.25
400.389	85.25
400.613	95.25
400.837	96.25
401.062	89.25
401.286	90.25
401.51	78.25
401.734	93.25
401.958	89.25
402.182	79.25
402.406	84.25
402.63	83.25
402.854	91.25
403.078	82.25
403.302	101.25
403.526	85.25
403.75	87.25
403.974	92.25
404.198	85.25
404.422	99.25
404.645	90.25
404.869	89.25
405.093	91.25
405.317	101.25
405.541	88.25
405.765	90.25
405.988	88.25
406.212	75.25
406.436	81.25
406.66	92.25
406.883	81.25
407.107	86.25
407.331	73.25
407.555	81.25
407.778	98.25
408.002	89.25
408.226	89.25
408.449	87.25
408.673	77.25
408.896	91.25
409.12	79.25
409.344	89.25
409.567	74.25
409.791	91.25
410.014	93.25
410.238	97.25
410.461	82.25
410.685	84.25
410.908	101.25
411.132	88.25
411.355	74.25
411.578	87.25
411.802	83.25
412.025	81.25
412.249	96.25
412.472	89.25
412.695	91.25
412.919	95.25
413.142	93.25
413.365	86.25
413.589	81.25
413.812	80.25
414.035	87.25
414.258	83.25
414.482	89.25
414.705	79.25
414.928	103.25
415.151	91.25
415.374	98.25
415.597	96.25
415.821	98.25
416.044	101.25
416.267	106.25
416.49	79.25
416.713	98.25
416.936	79.25
417.159	96.25
417.382	94.25
417.605	86.25
417.828	98.25
418.051	103.25
418.274	90.25
418.497	80.25
418.72	85.25
418.943	89.25
419.166	94.25
419.389	91.25
419.611	97.25
419.834	81.25
420.057	103.25
420.28	81.25
420.503	93.25
420.726	90.25
420.948	91.25
421.171	97.25
421.394	94.25
421.617	96.25
421.839	101.25
422.062	98.25
422.285	102.25
422.507	81.25
422.73	94.25
422.953	103.25
423.175	90.25
423.398	102.25
423.621	78.25
423.843	104.25
424.066	103.25
424.288	89.25
424.511	95.25
424.733	83.25
424.956	93.25
425.178	89.25
425.401	105.25
425.623	94.25
425.846	109.25
426.068	89.25
426.291	101.25
426.513	99.25
426.735	85.25
426.958	79.25
427.18	89.25
427.402	89.25
427.625	88.25
427.847	91.25
428.069	96.25
428.292	105.25
428.514	99.25
428.736	97.25
428.958	93.25
429.181	90.25
429.403	87.25
429.625	105.25
429.847	91.25
430.069	103.25
430.292	95.25
430.514	95.25
430.736	99.25
430.958	97.25
431.18	98.25
431.402	91.25
431.624	75.25
431.846	81.25
432.068	82.25
432.29	96.25
432.512	91.25
432.734	90.25
432.956	106.25
433.178	86.25
433.4	92.25
433.622	83.25
433.844	84.25
434.066	91.25
434.287	88.25
434.509	80.25
434.731	86.25
434.953	77.25
435.175	83.25
435.397	87.25
435.618	82.25
435.84	94.25
436.062	103.25
436.284	74.25
436.505	96.25
436.727	96.25
436.949	100.25
437.17	91.25
437.392	89.25
437.614	81.25
437.835	84.25
438.057	95.25
438.278	98.25
438.5	92.25
438.721	88.25
438.943	90.25
439.165	100.25
439.386	92.25
439.608	90.25
439.829	119.25
440.05	84.25
440.272	87.25
440.493	92.25
440.715	106.25
440.936	105.25
441.158	98.25
441.379	112.25
441.6	100.25
441.822	98.25
442.043	100.25
442.264	86.25
442.486	99.25
442.707	97.25
442.928	86.25
443.149	77.25
443.371	88.25
443.592	94.25
443.813	96.25
444.034	98.25
444.255	110.25
444.476	107.25
444.698	109.25
444.919	103.25
445.14	168.25
445.361	131.25
445.582	90.25
445.803	97.25
446.024	103.25
446.245	94.25
446.466	90.25
446.687	101.25
446.908	89.25
447.129	113.25
447.35	101.25
447.571	112.25
447.792	104.25
448.013	80.25
448.234	109.25
448.455	101.25
448.675	101.25
448.896	98.25
449.117	86.25
449.338	90.25
449.559	97.25
449.779	103.25
450	94.25
450.221	95.25
450.442	88.25
450.662	100.25
450.883	89.25
451.104	109.25
451.324	92.25
451.545	84.25
451.766	93.25
451.986	84.25
452.207	84.25
452.428	90.25
452.648	87.25
452.869	82.25
453.089	90.25
453.31	95.25
453.53	75.25
453.751	88.25
453.971	96.25
454.192	82.25
454.412	102.25
454.633	98.25
454.853	94.25
455.073	96.25
455.294	89.25
455.514	78.25
455.734	111.25
455.955	87.25
456.175	81.25
456.395	93.25
456.616	98.25
456.836	83.25
457.056	87.25
457.276	93.25
457.497	86.25
457.717	81.25
457.937	83.25
458.157	91.25
458.377	77.25
458.598	82.25
458.818	95.25
459.038	81.25
459.258	79.25
459.478	90.25
459.698	88.25
459.918	70.25
460.138	87.25
460.358	84.25
460.578	102.25
460.798	104.25
461.018	78.25
461.238	99.25
461.458	96.25
461.678	74.25
461.898	104.25
462.118	96.25
462.338	91.25
462.558	101.25
462.777	90.25
462.997	89.25
463.217	95.25
463.437	85.25
463.657	93.25
463.876	85.25
464.096	96.25
464.316	71.25
464.536	90.25
464.755	85.25
464.975	82.25
465.195	94.25
465.414	81.25
465.634	81.25
465.854	94.25
466.073	81.25
466.293	89.25
466.512	94.25
466.732	93.25
466.951	87.25
467.171	90.25
467.391	89.25
467.61	78.25
467.829	91.25
468.049	86.25
468.268	99.25
468.488	89.25
468.707	87.25
468.927	105.25
469.146	96.25
469.365	81.25
469.585	97.25
469.804	94.25
470.023	91.25
470.243	107.25
470.462	101.25
470.681	105.25
470.901	104.25
471.12	100.25
471.339	98.25
471.558	109.25
471.777	104.25
471.997	93.25
472.216	102.25
472.435	103.25
472.654	93.25
472.873	90.25
473.092	94.25
473.311	92.25
473.53	99.25
473.749	92.25
473.968	90.25
474.187	92.25
474.406	94.25
474.625	102.25
474.844	95.25
475.063	87.25
475.282	87.25
475.501	78.25
475.72	99.25
475.939	102.25
476.158	92.25
476.377	86.25
476.596	101.25
476.814	82.25
477.033	85.25
477.252	103.25
477.471	91.25
477.69	86.25
477.908	95.25
478.127	85.25
478.346	97.25
478.564	109.25
478.783	90.25
479.002	89.25
479.22	85.25
479.439	92.25
479.658	102.25
479.876	84.25
480.095	78.25
480.313	95.25
480.532	99.25
480.751	87.25
480.969	85.25
481.188	82.25
481.406	80.25
481.624	88.25
481.843	81.25
482.061	95.25
482.28	70.25
482.498	99.25
482.717	92.25
482.935	89.25
483.153	100.25
483.372	123.25
483.59	104.25
483.808	97.25
484.027	85.25
484.245	101.25
484.463	100.25
484.681	122.25
484.9	107.25
485.118	108.25
485.336	102.25
485.554	83.25
485.772	87.25
485.99	104.25
486.209	78.25
486.427	91.25
486.645	93.25
486.863	91.25
487.081	102.25
487.299	91.25
487.517	99.25
487.735	115.25
487.953	120.25
488.171	118.25
488.389	88.25
488.607	107.25
488.825	89.25
489.043	97.25
489.261	106.25
489.479	105.25
489.696	103.25
489.914	90.25
490.132	104.25
490.35	98.25
490.568	90.25
490.786	102.25
491.003	88.25
491.221	100.25
491.439	113.25
491.657	109.25
491.874	104.25
492.092	125.25
492.31	119.25
492.527	115.25
492.745	119.25
492.963	118.25
493.18	97.25
493.398	110.25
493.615	109.25
493.833	118.25
494.05	105.25
494.268	109.25
494.485	108.25
494.703	120.25
494.92	118.25
495.138	98.25
495.355	114.25
495.573	113.25
495.79	95.25
496.008	106.25
496.225	98.25
496.442	100.25
496.66	104.25
496.877	95.25
497.094	107.25
497.312	78.25
497.529	105.25
497.746	109.25
497.963	90.25
498.181	96.25
498.398	79.25
498.615	97.25
498.832	87.25
499.049	89.25
499.267	94.25
499.484	97.25
499.701	96.25
499.918	86.25
500.135	90.25
500.352	102.25
500.569	103.25
500.786	106.25
501.003	110.25
501.22	87.25
501.437	91.25
501.654	82.25
501.871	97.25
502.088	109.25
502.305	102.25
502.522	100.25
502.739	103.25
502.956	93.25
503.172	91.25
503.389	96.25
503.606	89.25
503.823	97.25
504.04	98.25
504.256	102.25
504.473	87.25
504.69	93.25
504.907	111.25
505.123	104.25
505.34	93.25
505.557	85.25
505.773	101.25
505.99	97.25
506.207	83.25
506.423	94.25
506.64	98.25
506.856	91.25
507.073	86.25
507.289	97.25
507.506	92.25
507.722	92.25
507.939	86.25
508.155	89.25
508.372	90.25
508.588	90.25
508.805	93.25
509.021	104.25
509.238	84.25
509.454	96.25
509.67	87.25
509.887	79.25
510.103	86.25
510.319	75.25
510.536	87.25
510.752	90.25
510.968	74.25
511.184	84.25
511.401	80.25
511.617	87.25
511.833	76.25
512.049	76.25
512.265	87.25
512.481	91.25
512.698	83.25
512.914	77.25
513.13	78.25
513.346	97.25
513.562	96.25
513.778	86.25
513.994	92.25
514.21	83.25
514.426	69.25
514.642	79.25
514.858	88.25
515.074	85.25
515.29	84.25
515.506	78.25
515.721	83.25
515.937	69.25
516.153	77.25
516.369	86.25
516.585	95.25
516.801	93.25
517.016	74.25
517.232	76.25
517.448	81.25
