Data from Location3.07152019.Energy5.Lamp.07192019.3%Agarose_HRD10591_15-19-05-270.txt Node
Date: Fri Jul 19 15:19:05 EDT 2019
User: cochatt
Spectrometer: HR+D1059
Trigger mode: 1
Integration Time (sec): 1.000000E-1
Scans to average: 1
Electric dark correction enabled: true
Nonlinearity correction enabled: false
Boxcar width: 0
XAxis mode: Wavelengths
Number of Pixels in Spectrum: 2048
>>>>>Begin Spectral Data<<<<<
223.165	-26.19
223.4	-26.19
223.635	-26.19
223.869	-11.19
224.104	-22.19
224.338	-13.19
224.573	-11.19
224.808	-5.19
225.042	-9.19
225.277	-4.19
225.511	-3.19
225.746	8.81
225.98	-0.19
226.215	3.81
226.449	28.81
226.683	27.81
226.918	15.81
227.152	20.81
227.387	15.81
227.621	34.81
227.856	41.81
228.09	33.81
228.324	50.81
228.559	47.81
228.793	67.81
229.027	47.81
229.262	50.81
229.496	59.81
229.73	67.81
229.964	69.81
230.199	87.81
230.433	77.81
230.667	70.81
230.901	68.81
231.136	78.81
231.37	70.81
231.604	79.81
231.838	61.81
232.072	82.81
232.306	69.81
232.541	74.81
232.775	73.81
233.009	64.81
233.243	71.81
233.477	78.81
233.711	72.81
233.945	66.81
234.179	71.81
234.413	78.81
234.647	76.81
234.881	76.81
235.115	72.81
235.349	71.81
235.583	84.81
235.817	72.81
236.051	77.81
236.285	63.81
236.519	76.81
236.753	64.81
236.987	75.81
237.221	66.81
237.455	70.81
237.689	67.81
237.922	69.81
238.156	71.81
238.39	61.81
238.624	60.81
238.858	62.81
239.091	77.81
239.325	53.81
239.559	58.81
239.793	70.81
240.027	70.81
240.26	60.81
240.494	77.81
240.728	80.81
240.961	73.81
241.195	70.81
241.429	85.81
241.662	71.81
241.896	63.81
242.13	64.81
242.363	78.81
242.597	69.81
242.83	57.81
243.064	63.81
243.298	81.81
243.531	84.81
243.765	67.81
243.998	73.81
244.232	81.81
244.465	76.81
244.699	67.81
244.932	74.81
245.166	79.81
245.399	69.81
245.633	65.81
245.866	65.81
246.099	74.81
246.333	70.81
246.566	82.81
246.8	89.81
247.033	75.81
247.266	52.81
247.5	78.81
247.733	72.81
247.966	65.81
248.2	66.81
248.433	68.81
248.666	65.81
248.899	79.81
249.133	70.81
249.366	66.81
249.599	65.81
249.832	75.81
250.066	70.81
250.299	62.81
250.532	73.81
250.765	83.81
250.998	89.81
251.231	91.81
251.465	60.81
251.698	77.81
251.931	79.81
252.164	79.81
252.397	69.81
252.63	81.81
252.863	63.81
253.096	79.81
253.329	85.81
253.562	89.81
253.795	89.81
254.028	77.81
254.261	77.81
254.494	76.81
254.727	71.81
254.96	74.81
255.193	71.81
255.426	77.81
255.659	67.81
255.892	78.81
256.124	76.81
256.357	86.81
256.59	72.81
256.823	65.81
257.056	68.81
257.289	71.81
257.521	65.81
257.754	65.81
257.987	66.81
258.22	63.81
258.452	70.81
258.685	78.81
258.918	82.81
259.151	81.81
259.383	78.81
259.616	76.81
259.849	77.81
260.081	69.81
260.314	81.81
260.547	72.81
260.779	68.81
261.012	80.81
261.244	70.81
261.477	72.81
261.71	92.81
261.942	63.81
262.175	70.81
262.407	81.81
262.64	81.81
262.872	82.81
263.105	74.81
263.337	86.81
263.57	60.81
263.802	57.81
264.035	71.81
264.267	72.81
264.499	80.81
264.732	77.81
264.964	97.81
265.197	77.81
265.429	77.81
265.661	71.81
265.894	75.81
266.126	66.81
266.358	73.81
266.591	73.81
266.823	81.81
267.055	84.81
267.287	77.81
267.52	85.81
267.752	90.81
267.984	77.81
268.216	71.81
268.448	86.81
268.681	53.81
268.913	81.81
269.145	68.81
269.377	89.81
269.609	80.81
269.841	84.81
270.073	90.81
270.306	68.81
270.538	68.81
270.77	64.81
271.002	78.81
271.234	79.81
271.466	81.81
271.698	68.81
271.93	73.81
272.162	91.81
272.394	81.81
272.626	77.81
272.858	67.81
273.09	92.81
273.322	85.81
273.553	70.81
273.785	86.81
274.017	74.81
274.249	72.81
274.481	77.81
274.713	89.81
274.945	79.81
275.176	69.81
275.408	96.81
275.64	81.81
275.872	86.81
276.104	82.81
276.335	83.81
276.567	79.81
276.799	66.81
277.031	77.81
277.262	80.81
277.494	87.81
277.726	75.81
277.957	87.81
278.189	78.81
278.421	83.81
278.652	86.81
278.884	69.81
279.115	85.81
279.347	71.81
279.579	61.81
279.81	72.81
280.042	80.81
280.273	80.81
280.505	60.81
280.736	85.81
280.968	73.81
281.199	80.81
281.431	65.81
281.662	77.81
281.894	74.81
282.125	66.81
282.356	76.81
282.588	73.81
282.819	76.81
283.051	84.81
283.282	82.81
283.513	79.81
283.745	89.81
283.976	96.81
284.207	68.81
284.439	75.81
284.67	86.81
284.901	80.81
285.132	88.81
285.364	85.81
285.595	67.81
285.826	71.81
286.057	84.81
286.288	77.81
286.52	78.81
286.751	78.81
286.982	72.81
287.213	76.81
287.444	87.81
287.675	92.81
287.906	80.81
288.138	79.81
288.369	81.81
288.6	81.81
288.831	64.81
289.062	72.81
289.293	77.81
289.524	94.81
289.755	92.81
289.986	69.81
290.217	71.81
290.448	85.81
290.679	84.81
290.91	64.81
291.141	79.81
291.371	74.81
291.602	86.81
291.833	80.81
292.064	83.81
292.295	87.81
292.526	75.81
292.757	62.81
292.987	95.81
293.218	79.81
293.449	94.81
293.68	68.81
293.91	78.81
294.141	75.81
294.372	79.81
294.603	82.81
294.833	77.81
295.064	70.81
295.295	69.81
295.525	82.81
295.756	79.81
295.987	74.81
296.217	78.81
296.448	79.81
296.679	70.81
296.909	86.81
297.14	86.81
297.37	92.81
297.601	77.81
297.831	87.81
298.062	82.81
298.292	76.81
298.523	87.81
298.753	82.81
298.984	64.81
299.214	81.81
299.445	75.81
299.675	78.81
299.905	86.81
300.136	80.81
300.366	76.81
300.597	79.81
300.827	79.81
301.057	71.81
301.288	90.81
301.518	79.81
301.748	75.81
301.979	81.81
302.209	72.81
302.439	69.81
302.669	70.81
302.9	62.81
303.13	84.81
303.36	82.81
303.59	91.81
303.82	84.81
304.051	82.81
304.281	76.81
304.511	96.81
304.741	86.81
304.971	81.81
305.201	82.81
305.431	77.81
305.661	71.81
305.891	85.81
306.121	86.81
306.352	83.81
306.582	77.81
306.812	79.81
307.042	76.81
307.272	70.81
307.502	81.81
307.731	81.81
307.961	74.81
308.191	85.81
308.421	75.81
308.651	74.81
308.881	87.81
309.111	84.81
309.341	71.81
309.571	71.81
309.8	88.81
310.03	85.81
310.26	87.81
310.49	94.81
310.72	84.81
310.949	74.81
311.179	74.81
311.409	76.81
311.639	77.81
311.868	75.81
312.098	91.81
312.328	79.81
312.557	76.81
312.787	97.81
313.017	96.81
313.246	85.81
313.476	87.81
313.706	72.81
313.935	72.81
314.165	74.81
314.394	78.81
314.624	71.81
314.853	76.81
315.083	77.81
315.312	79.81
315.542	67.81
315.771	77.81
316.001	77.81
316.23	70.81
316.46	73.81
316.689	72.81
316.919	83.81
317.148	72.81
317.377	79.81
317.607	89.81
317.836	69.81
318.065	71.81
318.295	80.81
318.524	71.81
318.753	68.81
318.983	90.81
319.212	75.81
319.441	84.81
319.67	80.81
319.9	81.81
320.129	91.81
320.358	79.81
320.587	80.81
320.816	70.81
321.046	84.81
321.275	76.81
321.504	71.81
321.733	77.81
321.962	80.81
322.191	79.81
322.42	91.81
322.649	87.81
322.878	64.81
323.108	87.81
323.337	82.81
323.566	89.81
323.795	81.81
324.024	74.81
324.253	72.81
324.482	79.81
324.71	87.81
324.939	78.81
325.168	75.81
325.397	76.81
325.626	78.81
325.855	85.81
326.084	66.81
326.313	68.81
326.542	68.81
326.77	81.81
326.999	78.81
327.228	77.81
327.457	81.81
327.686	84.81
327.914	89.81
328.143	88.81
328.372	66.81
328.6	72.81
328.829	65.81
329.058	79.81
329.287	83.81
329.515	70.81
329.744	81.81
329.972	70.81
330.201	76.81
330.43	88.81
330.658	78.81
330.887	69.81
331.115	71.81
331.344	85.81
331.572	74.81
331.801	83.81
332.03	76.81
332.258	67.81
332.486	83.81
332.715	75.81
332.943	75.81
333.172	84.81
333.4	72.81
333.629	81.81
333.857	77.81
334.085	84.81
334.314	85.81
334.542	70.81
334.771	83.81
334.999	79.81
335.227	84.81
335.455	72.81
335.684	101.81
335.912	93.81
336.14	82.81
336.369	83.81
336.597	73.81
336.825	78.81
337.053	82.81
337.281	82.81
337.51	64.81
337.738	79.81
337.966	73.81
338.194	79.81
338.422	77.81
338.65	93.81
338.878	77.81
339.106	82.81
339.334	76.81
339.562	69.81
339.79	83.81
340.018	86.81
340.246	70.81
340.474	94.81
340.702	74.81
340.93	79.81
341.158	79.81
341.386	68.81
341.614	73.81
341.842	79.81
342.07	89.81
342.298	83.81
342.526	87.81
342.754	73.81
342.981	79.81
343.209	85.81
343.437	83.81
343.665	72.81
343.893	83.81
344.12	76.81
344.348	86.81
344.576	65.81
344.804	85.81
345.031	80.81
345.259	82.81
345.487	82.81
345.714	82.81
345.942	88.81
346.17	76.81
346.397	83.81
346.625	78.81
346.853	87.81
347.08	70.81
347.308	81.81
347.535	73.81
347.763	81.81
347.99	74.81
348.218	79.81
348.445	78.81
348.673	75.81
348.9	92.81
349.128	98.81
349.355	78.81
349.583	86.81
349.81	102.81
350.037	65.81
350.265	66.81
350.492	78.81
350.72	73.81
350.947	73.81
351.174	74.81
351.402	75.81
351.629	76.81
351.856	86.81
352.083	71.81
352.311	70.81
352.538	64.81
352.765	95.81
352.992	71.81
353.22	79.81
353.447	80.81
353.674	88.81
353.901	87.81
354.128	86.81
354.355	68.81
354.583	93.81
354.81	85.81
355.037	79.81
355.264	90.81
355.491	76.81
355.718	81.81
355.945	85.81
356.172	80.81
356.399	84.81
356.626	80.81
356.853	79.81
357.08	60.81
357.307	65.81
357.534	96.81
357.761	87.81
357.988	90.81
358.215	72.81
358.441	72.81
358.668	79.81
358.895	65.81
359.122	73.81
359.349	77.81
359.576	86.81
359.802	78.81
360.029	75.81
360.256	76.81
360.483	95.81
360.709	80.81
360.936	86.81
361.163	77.81
361.39	68.81
361.616	70.81
361.843	83.81
362.07	87.81
362.296	60.81
362.523	78.81
362.749	73.81
362.976	89.81
363.203	89.81
363.429	86.81
363.656	62.81
363.882	73.81
364.109	79.81
364.335	92.81
364.562	74.81
364.788	89.81
365.015	79.81
365.241	76.81
365.468	77.81
365.694	82.81
365.92	75.81
366.147	75.81
366.373	75.81
366.599	85.81
366.826	82.81
367.052	90.81
367.278	64.81
367.505	72.81
367.731	84.81
367.957	72.81
368.184	72.81
368.41	86.81
368.636	78.81
368.862	78.81
369.089	82.81
369.315	83.81
369.541	74.81
369.767	83.81
369.993	87.81
370.219	82.81
370.445	77.81
370.672	77.81
370.898	72.81
371.124	78.81
371.35	81.81
371.576	65.81
371.802	91.81
372.028	69.81
372.254	66.81
372.48	75.81
372.706	75.81
372.932	99.81
373.158	81.81
373.384	71.81
373.61	78.81
373.835	93.81
374.061	83.81
374.287	70.81
374.513	69.81
374.739	75.81
374.965	81.81
375.191	79.81
375.416	76.81
375.642	78.81
375.868	74.81
376.094	83.81
376.319	97.81
376.545	69.81
376.771	81.81
376.997	92.81
377.222	77.81
377.448	83.81
377.674	83.81
377.899	71.81
378.125	79.81
378.35	84.81
378.576	81.81
378.802	71.81
379.027	78.81
379.253	76.81
379.478	77.81
379.704	67.81
379.929	72.81
380.155	79.81
380.38	84.81
380.606	82.81
380.831	91.81
381.057	89.81
381.282	80.81
381.507	79.81
381.733	84.81
381.958	81.81
382.184	62.81
382.409	97.81
382.634	93.81
382.86	91.81
383.085	88.81
383.31	72.81
383.535	79.81
383.761	77.81
383.986	87.81
384.211	72.81
384.436	68.81
384.662	83.81
384.887	89.81
385.112	87.81
385.337	84.81
385.562	78.81
385.787	87.81
386.013	88.81
386.238	88.81
386.463	91.81
386.688	81.81
386.913	76.81
387.138	93.81
387.363	81.81
387.588	92.81
387.813	88.81
388.038	78.81
388.263	72.81
388.488	78.81
388.713	88.81
388.938	79.81
389.163	79.81
389.387	83.81
389.612	78.81
389.837	95.81
390.062	86.81
390.287	91.81
390.512	87.81
390.736	78.81
390.961	81.81
391.186	82.81
391.411	74.81
391.636	78.81
391.86	98.81
392.085	75.81
392.31	86.81
392.534	89.81
392.759	80.81
392.984	90.81
393.208	69.81
393.433	85.81
393.658	89.81
393.882	95.81
394.107	98.81
394.331	86.81
394.556	80.81
394.78	80.81
395.005	90.81
395.229	91.81
395.454	81.81
395.678	84.81
395.903	92.81
396.127	84.81
396.352	86.81
396.576	86.81
396.801	86.81
397.025	96.81
397.249	59.81
397.474	95.81
397.698	93.81
397.922	101.81
398.147	88.81
398.371	88.81
398.595	78.81
398.82	69.81
399.044	80.81
399.268	100.81
399.492	81.81
399.717	75.81
399.941	65.81
400.165	90.81
400.389	90.81
400.613	80.81
400.837	88.81
401.062	74.81
401.286	70.81
401.51	77.81
401.734	69.81
401.958	94.81
402.182	83.81
402.406	78.81
402.63	70.81
402.854	90.81
403.078	79.81
403.302	84.81
403.526	81.81
403.75	78.81
403.974	70.81
404.198	84.81
404.422	87.81
404.645	81.81
404.869	90.81
405.093	82.81
405.317	82.81
405.541	80.81
405.765	67.81
405.988	91.81
406.212	81.81
406.436	74.81
406.66	90.81
406.883	80.81
407.107	83.81
407.331	86.81
407.555	80.81
407.778	90.81
408.002	79.81
408.226	75.81
408.449	91.81
408.673	86.81
408.896	81.81
409.12	96.81
409.344	98.81
409.567	73.81
409.791	87.81
410.014	87.81
410.238	98.81
410.461	89.81
410.685	80.81
410.908	84.81
411.132	85.81
411.355	83.81
411.578	79.81
411.802	93.81
412.025	93.81
412.249	84.81
412.472	81.81
412.695	85.81
412.919	86.81
413.142	82.81
413.365	79.81
413.589	77.81
413.812	88.81
414.035	95.81
414.258	90.81
414.482	85.81
414.705	82.81
414.928	89.81
415.151	83.81
415.374	85.81
415.597	78.81
415.821	94.81
416.044	85.81
416.267	92.81
416.49	92.81
416.713	85.81
416.936	94.81
417.159	90.81
417.382	96.81
417.605	83.81
417.828	87.81
418.051	84.81
418.274	95.81
418.497	89.81
418.72	80.81
418.943	103.81
419.166	90.81
419.389	83.81
419.611	77.81
419.834	89.81
420.057	87.81
420.28	86.81
420.503	88.81
420.726	87.81
420.948	86.81
421.171	85.81
421.394	84.81
421.617	87.81
421.839	101.81
422.062	97.81
422.285	70.81
422.507	95.81
422.73	73.81
422.953	82.81
423.175	72.81
423.398	79.81
423.621	96.81
423.843	97.81
424.066	90.81
424.288	91.81
424.511	89.81
424.733	96.81
424.956	97.81
425.178	88.81
425.401	93.81
425.623	95.81
425.846	91.81
426.068	91.81
426.291	86.81
426.513	85.81
426.735	89.81
426.958	108.81
427.18	94.81
427.402	79.81
427.625	96.81
427.847	75.81
428.069	84.81
428.292	78.81
428.514	78.81
428.736	84.81
428.958	95.81
429.181	87.81
429.403	91.81
429.625	93.81
429.847	93.81
430.069	81.81
430.292	95.81
430.514	92.81
430.736	97.81
430.958	88.81
431.18	94.81
431.402	94.81
431.624	89.81
431.846	78.81
432.068	85.81
432.29	83.81
432.512	92.81
432.734	76.81
432.956	84.81
433.178	100.81
433.4	86.81
433.622	99.81
433.844	86.81
434.066	102.81
434.287	81.81
434.509	70.81
434.731	85.81
434.953	79.81
435.175	86.81
435.397	100.81
435.618	83.81
435.84	87.81
436.062	90.81
436.284	94.81
436.505	89.81
436.727	87.81
436.949	63.81
437.17	81.81
437.392	84.81
437.614	76.81
437.835	81.81
438.057	78.81
438.278	92.81
438.5	98.81
438.721	81.81
438.943	81.81
439.165	100.81
439.386	96.81
439.608	95.81
439.829	86.81
440.05	88.81
440.272	94.81
440.493	87.81
440.715	83.81
440.936	84.81
441.158	96.81
441.379	106.81
441.6	90.81
441.822	100.81
442.043	96.81
442.264	80.81
442.486	94.81
442.707	94.81
442.928	87.81
443.149	93.81
443.371	94.81
443.592	79.81
443.813	81.81
444.034	78.81
444.255	98.81
444.476	90.81
444.698	93.81
444.919	95.81
445.14	194.81
445.361	151.81
445.582	90.81
445.803	101.81
446.024	102.81
446.245	100.81
446.466	99.81
446.687	97.81
446.908	99.81
447.129	98.81
447.35	86.81
447.571	96.81
447.792	100.81
448.013	88.81
448.234	88.81
448.455	105.81
448.675	88.81
448.896	94.81
449.117	98.81
449.338	83.81
449.559	80.81
449.779	90.81
450	98.81
450.221	88.81
450.442	89.81
450.662	90.81
450.883	87.81
451.104	85.81
451.324	95.81
451.545	85.81
451.766	102.81
451.986	87.81
452.207	90.81
452.428	85.81
452.648	75.81
452.869	89.81
453.089	82.81
453.31	76.81
453.53	71.81
453.751	95.81
453.971	94.81
454.192	83.81
454.412	82.81
454.633	90.81
454.853	80.81
455.073	76.81
455.294	87.81
455.514	69.81
455.734	87.81
455.955	82.81
456.175	82.81
456.395	69.81
456.616	81.81
456.836	82.81
457.056	82.81
457.276	78.81
457.497	79.81
457.717	71.81
457.937	83.81
458.157	75.81
458.377	75.81
458.598	72.81
458.818	78.81
459.038	70.81
459.258	89.81
459.478	86.81
459.698	86.81
459.918	69.81
460.138	78.81
460.358	86.81
460.578	96.81
460.798	85.81
461.018	76.81
461.238	79.81
461.458	86.81
461.678	93.81
461.898	101.81
462.118	80.81
462.338	89.81
462.558	93.81
462.777	69.81
462.997	81.81
463.217	84.81
463.437	79.81
463.657	66.81
463.876	92.81
464.096	86.81
464.316	79.81
464.536	88.81
464.755	85.81
464.975	82.81
465.195	95.81
465.414	81.81
465.634	90.81
465.854	94.81
466.073	98.81
466.293	86.81
466.512	86.81
466.732	89.81
466.951	83.81
467.171	85.81
467.391	95.81
467.61	93.81
467.829	87.81
468.049	92.81
468.268	89.81
468.488	78.81
468.707	92.81
468.927	98.81
469.146	96.81
469.365	96.81
469.585	92.81
469.804	79.81
470.023	96.81
470.243	90.81
470.462	88.81
470.681	103.81
470.901	94.81
471.12	87.81
471.339	102.81
471.558	92.81
471.777	89.81
471.997	103.81
472.216	89.81
472.435	94.81
472.654	88.81
472.873	75.81
473.092	96.81
473.311	101.81
473.53	98.81
473.749	94.81
473.968	82.81
474.187	70.81
474.406	85.81
474.625	92.81
474.844	88.81
475.063	85.81
475.282	100.81
475.501	82.81
475.72	92.81
475.939	81.81
476.158	84.81
476.377	91.81
476.596	95.81
476.814	94.81
477.033	89.81
477.252	85.81
477.471	96.81
477.69	84.81
477.908	90.81
478.127	81.81
478.346	85.81
478.564	89.81
478.783	94.81
479.002	88.81
479.22	113.81
479.439	95.81
479.658	94.81
479.876	66.81
480.095	100.81
480.313	89.81
480.532	90.81
480.751	84.81
480.969	92.81
481.188	62.81
481.406	77.81
481.624	91.81
481.843	84.81
482.061	82.81
482.28	85.81
482.498	94.81
482.717	77.81
482.935	87.81
483.153	93.81
483.372	99.81
483.59	78.81
483.808	92.81
484.027	85.81
484.245	93.81
484.463	81.81
484.681	98.81
484.9	92.81
485.118	88.81
485.336	83.81
485.554	82.81
485.772	84.81
485.99	78.81
486.209	90.81
486.427	71.81
486.645	86.81
486.863	65.81
487.081	89.81
487.299	83.81
487.517	84.81
487.735	84.81
487.953	115.81
488.171	105.81
488.389	114.81
488.607	96.81
488.825	101.81
489.043	89.81
489.261	88.81
489.479	83.81
489.696	81.81
489.914	102.81
490.132	82.81
490.35	95.81
490.568	100.81
490.786	116.81
491.003	107.81
491.221	109.81
491.439	111.81
491.657	112.81
491.874	119.81
492.092	127.81
492.31	131.81
492.527	124.81
492.745	110.81
492.963	105.81
493.18	95.81
493.398	97.81
493.615	114.81
493.833	107.81
494.05	88.81
494.268	110.81
494.485	101.81
494.703	112.81
494.92	97.81
495.138	113.81
495.355	108.81
495.573	109.81
495.79	82.81
496.008	102.81
496.225	98.81
496.442	106.81
496.66	110.81
496.877	98.81
497.094	94.81
497.312	84.81
497.529	90.81
497.746	96.81
497.963	94.81
498.181	89.81
498.398	75.81
498.615	65.81
498.832	89.81
499.049	70.81
499.267	83.81
499.484	85.81
499.701	86.81
499.918	79.81
500.135	86.81
500.352	98.81
500.569	106.81
500.786	95.81
501.003	93.81
501.22	103.81
501.437	89.81
501.654	99.81
501.871	96.81
502.088	85.81
502.305	91.81
502.522	89.81
502.739	94.81
502.956	70.81
503.172	86.81
503.389	89.81
503.606	75.81
503.823	82.81
504.04	98.81
504.256	103.81
504.473	93.81
504.69	94.81
504.907	93.81
505.123	93.81
505.34	98.81
505.557	93.81
505.773	89.81
505.99	78.81
506.207	87.81
506.423	90.81
506.64	104.81
506.856	78.81
507.073	91.81
507.289	80.81
507.506	79.81
507.722	92.81
507.939	91.81
508.155	93.81
508.372	91.81
508.588	87.81
508.805	87.81
509.021	76.81
509.238	78.81
509.454	82.81
509.67	73.81
509.887	85.81
510.103	76.81
510.319	75.81
510.536	77.81
510.752	75.81
510.968	84.81
511.184	83.81
511.401	82.81
511.617	81.81
511.833	86.81
512.049	85.81
512.265	70.81
512.481	91.81
512.698	79.81
512.914	83.81
513.13	77.81
513.346	70.81
513.562	76.81
513.778	68.81
513.994	88.81
514.21	82.81
514.426	79.81
514.642	75.81
514.858	82.81
515.074	84.81
515.29	74.81
515.506	79.81
515.721	81.81
515.937	86.81
516.153	82.81
516.369	84.81
516.585	94.81
516.801	77.81
517.016	91.81
517.232	70.81
517.448	79.81
517.664	88.81
517.879	87.81
518.095	81.81
518.311	73.81
518.527	74.81
518.742	91.81
