Data from Location3.07152019.Energy5.Lamp.07192019.3%Agarose_HRD10591_15-18-28-270.txt Node
Date: Fri Jul 19 15:18:28 EDT 2019
User: cochatt
Spectrometer: HR+D1059
Trigger mode: 1
Integration Time (sec): 1.000000E-1
Scans to average: 1
Electric dark correction enabled: true
Nonlinearity correction enabled: false
Boxcar width: 0
XAxis mode: Wavelengths
Number of Pixels in Spectrum: 2048
>>>>>Begin Spectral Data<<<<<
223.165	-23.62
223.4	-23.62
223.635	-23.62
223.869	-10.62
224.104	-18.62
224.338	-5.62
224.573	-0.62
224.808	-0.62
225.042	-1.62
225.277	-13.62
225.511	-15.62
225.746	-3.62
225.98	-3.62
226.215	24.38
226.449	13.38
226.683	20.38
226.918	8.38
227.152	31.38
227.387	28.38
227.621	40.38
227.856	43.38
228.09	39.38
228.324	29.38
228.559	44.38
228.793	38.38
229.027	51.38
229.262	63.38
229.496	59.38
229.73	62.38
229.964	69.38
230.199	66.38
230.433	63.38
230.667	68.38
230.901	69.38
231.136	76.38
231.37	60.38
231.604	79.38
231.838	59.38
232.072	62.38
232.306	63.38
232.541	84.38
232.775	75.38
233.009	87.38
233.243	71.38
233.477	83.38
233.711	81.38
233.945	82.38
234.179	66.38
234.413	73.38
234.647	73.38
234.881	90.38
235.115	85.38
235.349	74.38
235.583	73.38
235.817	63.38
236.051	67.38
236.285	88.38
236.519	77.38
236.753	81.38
236.987	83.38
237.221	78.38
237.455	77.38
237.689	65.38
237.922	74.38
238.156	82.38
238.39	84.38
238.624	69.38
238.858	61.38
239.091	65.38
239.325	75.38
239.559	80.38
239.793	72.38
240.027	79.38
240.26	71.38
240.494	63.38
240.728	76.38
240.961	73.38
241.195	69.38
241.429	80.38
241.662	82.38
241.896	79.38
242.13	57.38
242.363	73.38
242.597	76.38
242.83	59.38
243.064	80.38
243.298	77.38
243.531	55.38
243.765	71.38
243.998	73.38
244.232	78.38
244.465	66.38
244.699	82.38
244.932	88.38
245.166	80.38
245.399	76.38
245.633	81.38
245.866	67.38
246.099	91.38
246.333	80.38
246.566	75.38
246.8	73.38
247.033	79.38
247.266	73.38
247.5	78.38
247.733	84.38
247.966	76.38
248.2	85.38
248.433	89.38
248.666	80.38
248.899	77.38
249.133	81.38
249.366	68.38
249.599	76.38
249.832	65.38
250.066	86.38
250.299	68.38
250.532	92.38
250.765	74.38
250.998	65.38
251.231	67.38
251.465	91.38
251.698	68.38
251.931	84.38
252.164	73.38
252.397	68.38
252.63	63.38
252.863	87.38
253.096	66.38
253.329	81.38
253.562	87.38
253.795	70.38
254.028	77.38
254.261	85.38
254.494	73.38
254.727	79.38
254.96	77.38
255.193	81.38
255.426	83.38
255.659	77.38
255.892	91.38
256.124	68.38
256.357	78.38
256.59	72.38
256.823	73.38
257.056	84.38
257.289	86.38
257.521	84.38
257.754	92.38
257.987	66.38
258.22	80.38
258.452	87.38
258.685	76.38
258.918	76.38
259.151	77.38
259.383	74.38
259.616	86.38
259.849	87.38
260.081	74.38
260.314	87.38
260.547	81.38
260.779	76.38
261.012	85.38
261.244	76.38
261.477	77.38
261.71	88.38
261.942	74.38
262.175	64.38
262.407	77.38
262.64	79.38
262.872	98.38
263.105	78.38
263.337	69.38
263.57	69.38
263.802	83.38
264.035	77.38
264.267	84.38
264.499	75.38
264.732	76.38
264.964	83.38
265.197	84.38
265.429	76.38
265.661	65.38
265.894	70.38
266.126	85.38
266.358	75.38
266.591	75.38
266.823	77.38
267.055	78.38
267.287	70.38
267.52	84.38
267.752	73.38
267.984	74.38
268.216	84.38
268.448	84.38
268.681	75.38
268.913	73.38
269.145	75.38
269.377	81.38
269.609	76.38
269.841	63.38
270.073	78.38
270.306	75.38
270.538	71.38
270.77	72.38
271.002	79.38
271.234	80.38
271.466	88.38
271.698	69.38
271.93	79.38
272.162	78.38
272.394	94.38
272.626	79.38
272.858	76.38
273.09	88.38
273.322	74.38
273.553	88.38
273.785	77.38
274.017	84.38
274.249	95.38
274.481	72.38
274.713	83.38
274.945	79.38
275.176	80.38
275.408	87.38
275.64	78.38
275.872	82.38
276.104	85.38
276.335	82.38
276.567	85.38
276.799	86.38
277.031	87.38
277.262	87.38
277.494	84.38
277.726	82.38
277.957	77.38
278.189	73.38
278.421	86.38
278.652	88.38
278.884	69.38
279.115	81.38
279.347	72.38
279.579	78.38
279.81	82.38
280.042	96.38
280.273	82.38
280.505	87.38
280.736	83.38
280.968	80.38
281.199	84.38
281.431	87.38
281.662	76.38
281.894	81.38
282.125	83.38
282.356	87.38
282.588	83.38
282.819	70.38
283.051	69.38
283.282	78.38
283.513	79.38
283.745	64.38
283.976	96.38
284.207	86.38
284.439	64.38
284.67	70.38
284.901	79.38
285.132	78.38
285.364	83.38
285.595	88.38
285.826	79.38
286.057	87.38
286.288	69.38
286.52	83.38
286.751	74.38
286.982	89.38
287.213	70.38
287.444	86.38
287.675	78.38
287.906	87.38
288.138	74.38
288.369	73.38
288.6	76.38
288.831	77.38
289.062	81.38
289.293	84.38
289.524	82.38
289.755	66.38
289.986	73.38
290.217	81.38
290.448	76.38
290.679	89.38
290.91	86.38
291.141	76.38
291.371	63.38
291.602	77.38
291.833	88.38
292.064	77.38
292.295	77.38
292.526	86.38
292.757	87.38
292.987	94.38
293.218	82.38
293.449	81.38
293.68	74.38
293.91	79.38
294.141	80.38
294.372	87.38
294.603	76.38
294.833	87.38
295.064	71.38
295.295	64.38
295.525	84.38
295.756	84.38
295.987	84.38
296.217	94.38
296.448	71.38
296.679	92.38
296.909	84.38
297.14	92.38
297.37	96.38
297.601	87.38
297.831	95.38
298.062	77.38
298.292	75.38
298.523	78.38
298.753	78.38
298.984	89.38
299.214	70.38
299.445	88.38
299.675	74.38
299.905	95.38
300.136	85.38
300.366	83.38
300.597	75.38
300.827	64.38
301.057	73.38
301.288	94.38
301.518	82.38
301.748	77.38
301.979	79.38
302.209	87.38
302.439	88.38
302.669	69.38
302.9	80.38
303.13	79.38
303.36	92.38
303.59	82.38
303.82	75.38
304.051	69.38
304.281	80.38
304.511	81.38
304.741	81.38
304.971	71.38
305.201	93.38
305.431	99.38
305.661	76.38
305.891	82.38
306.121	100.38
306.352	84.38
306.582	63.38
306.812	75.38
307.042	72.38
307.272	74.38
307.502	82.38
307.731	88.38
307.961	94.38
308.191	93.38
308.421	74.38
308.651	87.38
308.881	72.38
309.111	88.38
309.341	77.38
309.571	81.38
309.8	84.38
310.03	83.38
310.26	81.38
310.49	69.38
310.72	73.38
310.949	87.38
311.179	79.38
311.409	60.38
311.639	91.38
311.868	84.38
312.098	86.38
312.328	69.38
312.557	85.38
312.787	85.38
313.017	80.38
313.246	97.38
313.476	87.38
313.706	72.38
313.935	78.38
314.165	82.38
314.394	78.38
314.624	95.38
314.853	77.38
315.083	95.38
315.312	71.38
315.542	77.38
315.771	82.38
316.001	87.38
316.23	73.38
316.46	83.38
316.689	86.38
316.919	88.38
317.148	76.38
317.377	92.38
317.607	84.38
317.836	83.38
318.065	77.38
318.295	81.38
318.524	87.38
318.753	87.38
318.983	87.38
319.212	80.38
319.441	86.38
319.67	98.38
319.9	92.38
320.129	82.38
320.358	72.38
320.587	84.38
320.816	87.38
321.046	81.38
321.275	87.38
321.504	80.38
321.733	84.38
321.962	80.38
322.191	87.38
322.42	71.38
322.649	90.38
322.878	84.38
323.108	96.38
323.337	76.38
323.566	91.38
323.795	92.38
324.024	75.38
324.253	85.38
324.482	80.38
324.71	85.38
324.939	83.38
325.168	69.38
325.397	87.38
325.626	76.38
325.855	72.38
326.084	96.38
326.313	70.38
326.542	77.38
326.77	70.38
326.999	93.38
327.228	73.38
327.457	84.38
327.686	76.38
327.914	83.38
328.143	80.38
328.372	72.38
328.6	75.38
328.829	82.38
329.058	88.38
329.287	90.38
329.515	77.38
329.744	92.38
329.972	88.38
330.201	77.38
330.43	85.38
330.658	83.38
330.887	84.38
331.115	73.38
331.344	76.38
331.572	84.38
331.801	87.38
332.03	85.38
332.258	72.38
332.486	73.38
332.715	82.38
332.943	91.38
333.172	72.38
333.4	66.38
333.629	87.38
333.857	80.38
334.085	75.38
334.314	83.38
334.542	79.38
334.771	81.38
334.999	72.38
335.227	80.38
335.455	74.38
335.684	86.38
335.912	78.38
336.14	93.38
336.369	87.38
336.597	73.38
336.825	77.38
337.053	81.38
337.281	76.38
337.51	85.38
337.738	78.38
337.966	81.38
338.194	69.38
338.422	88.38
338.65	73.38
338.878	82.38
339.106	84.38
339.334	88.38
339.562	77.38
339.79	89.38
340.018	71.38
340.246	73.38
340.474	73.38
340.702	90.38
340.93	73.38
341.158	90.38
341.386	74.38
341.614	90.38
341.842	88.38
342.07	83.38
342.298	87.38
342.526	80.38
342.754	91.38
342.981	91.38
343.209	82.38
343.437	79.38
343.665	84.38
343.893	75.38
344.12	90.38
344.348	82.38
344.576	76.38
344.804	82.38
345.031	83.38
345.259	90.38
345.487	67.38
345.714	72.38
345.942	86.38
346.17	87.38
346.397	72.38
346.625	73.38
346.853	79.38
347.08	80.38
347.308	80.38
347.535	86.38
347.763	93.38
347.99	84.38
348.218	79.38
348.445	93.38
348.673	98.38
348.9	89.38
349.128	88.38
349.355	83.38
349.583	69.38
349.81	91.38
350.037	73.38
350.265	67.38
350.492	77.38
350.72	88.38
350.947	87.38
351.174	87.38
351.402	93.38
351.629	69.38
351.856	76.38
352.083	86.38
352.311	82.38
352.538	69.38
352.765	67.38
352.992	79.38
353.22	67.38
353.447	79.38
353.674	84.38
353.901	85.38
354.128	88.38
354.355	79.38
354.583	94.38
354.81	78.38
355.037	91.38
355.264	79.38
355.491	79.38
355.718	77.38
355.945	75.38
356.172	70.38
356.399	83.38
356.626	70.38
356.853	83.38
357.08	83.38
357.307	78.38
357.534	77.38
357.761	76.38
357.988	89.38
358.215	91.38
358.441	75.38
358.668	76.38
358.895	59.38
359.122	84.38
359.349	95.38
359.576	84.38
359.802	75.38
360.029	65.38
360.256	77.38
360.483	79.38
360.709	69.38
360.936	100.38
361.163	83.38
361.39	72.38
361.616	85.38
361.843	81.38
362.07	100.38
362.296	76.38
362.523	83.38
362.749	85.38
362.976	90.38
363.203	105.38
363.429	74.38
363.656	81.38
363.882	80.38
364.109	85.38
364.335	95.38
364.562	81.38
364.788	88.38
365.015	96.38
365.241	69.38
365.468	92.38
365.694	72.38
365.92	97.38
366.147	99.38
366.373	74.38
366.599	72.38
366.826	74.38
367.052	78.38
367.278	70.38
367.505	72.38
367.731	80.38
367.957	78.38
368.184	83.38
368.41	74.38
368.636	72.38
368.862	74.38
369.089	73.38
369.315	77.38
369.541	87.38
369.767	70.38
369.993	85.38
370.219	86.38
370.445	83.38
370.672	80.38
370.898	82.38
371.124	73.38
371.35	77.38
371.576	68.38
371.802	65.38
372.028	70.38
372.254	78.38
372.48	78.38
372.706	80.38
372.932	86.38
373.158	93.38
373.384	86.38
373.61	80.38
373.835	76.38
374.061	81.38
374.287	79.38
374.513	86.38
374.739	83.38
374.965	87.38
375.191	71.38
375.416	68.38
375.642	70.38
375.868	90.38
376.094	70.38
376.319	78.38
376.545	68.38
376.771	94.38
376.997	86.38
377.222	79.38
377.448	79.38
377.674	83.38
377.899	87.38
378.125	81.38
378.35	74.38
378.576	81.38
378.802	77.38
379.027	78.38
379.253	84.38
379.478	72.38
379.704	83.38
379.929	95.38
380.155	95.38
380.38	79.38
380.606	79.38
380.831	81.38
381.057	84.38
381.282	88.38
381.507	84.38
381.733	75.38
381.958	88.38
382.184	79.38
382.409	77.38
382.634	84.38
382.86	91.38
383.085	75.38
383.31	73.38
383.535	79.38
383.761	83.38
383.986	80.38
384.211	93.38
384.436	87.38
384.662	79.38
384.887	83.38
385.112	82.38
385.337	79.38
385.562	79.38
385.787	79.38
386.013	77.38
386.238	64.38
386.463	85.38
386.688	90.38
386.913	75.38
387.138	87.38
387.363	77.38
387.588	85.38
387.813	94.38
388.038	95.38
388.263	89.38
388.488	93.38
388.713	80.38
388.938	81.38
389.163	73.38
389.387	93.38
389.612	75.38
389.837	77.38
390.062	84.38
390.287	84.38
390.512	70.38
390.736	84.38
390.961	72.38
391.186	73.38
391.411	70.38
391.636	81.38
391.86	64.38
392.085	109.38
392.31	80.38
392.534	95.38
392.759	100.38
392.984	85.38
393.208	86.38
393.433	79.38
393.658	77.38
393.882	77.38
394.107	95.38
394.331	81.38
394.556	80.38
394.78	86.38
395.005	78.38
395.229	90.38
395.454	86.38
395.678	71.38
395.903	89.38
396.127	88.38
396.352	88.38
396.576	70.38
396.801	87.38
397.025	76.38
397.249	66.38
397.474	96.38
397.698	88.38
397.922	91.38
398.147	87.38
398.371	91.38
398.595	95.38
398.82	86.38
399.044	88.38
399.268	80.38
399.492	81.38
399.717	85.38
399.941	79.38
400.165	92.38
400.389	86.38
400.613	76.38
400.837	77.38
401.062	78.38
401.286	72.38
401.51	87.38
401.734	81.38
401.958	87.38
402.182	69.38
402.406	86.38
402.63	82.38
402.854	84.38
403.078	81.38
403.302	97.38
403.526	77.38
403.75	78.38
403.974	107.38
404.198	93.38
404.422	93.38
404.645	87.38
404.869	69.38
405.093	82.38
405.317	85.38
405.541	99.38
405.765	88.38
405.988	93.38
406.212	104.38
406.436	80.38
406.66	73.38
406.883	93.38
407.107	88.38
407.331	79.38
407.555	84.38
407.778	86.38
408.002	76.38
408.226	92.38
408.449	90.38
408.673	83.38
408.896	87.38
409.12	80.38
409.344	82.38
409.567	86.38
409.791	92.38
410.014	94.38
410.238	92.38
410.461	94.38
410.685	91.38
410.908	87.38
411.132	94.38
411.355	94.38
411.578	96.38
411.802	97.38
412.025	82.38
412.249	84.38
412.472	88.38
412.695	94.38
412.919	91.38
413.142	96.38
413.365	98.38
413.589	91.38
413.812	87.38
414.035	85.38
414.258	80.38
414.482	84.38
414.705	74.38
414.928	96.38
415.151	87.38
415.374	93.38
415.597	87.38
415.821	85.38
416.044	81.38
416.267	83.38
416.49	96.38
416.713	85.38
416.936	101.38
417.159	98.38
417.382	95.38
417.605	104.38
417.828	84.38
418.051	86.38
418.274	92.38
418.497	83.38
418.72	89.38
418.943	90.38
419.166	104.38
419.389	82.38
419.611	82.38
419.834	79.38
420.057	82.38
420.28	73.38
420.503	86.38
420.726	85.38
420.948	88.38
421.171	92.38
421.394	87.38
421.617	87.38
421.839	80.38
422.062	96.38
422.285	77.38
422.507	89.38
422.73	85.38
422.953	102.38
423.175	86.38
423.398	99.38
423.621	93.38
423.843	105.38
424.066	104.38
424.288	88.38
424.511	85.38
424.733	100.38
424.956	97.38
425.178	94.38
425.401	80.38
425.623	100.38
425.846	81.38
426.068	79.38
426.291	96.38
426.513	87.38
426.735	73.38
426.958	93.38
427.18	91.38
427.402	96.38
427.625	101.38
427.847	77.38
428.069	76.38
428.292	97.38
428.514	93.38
428.736	91.38
428.958	85.38
429.181	86.38
429.403	86.38
429.625	97.38
429.847	93.38
430.069	103.38
430.292	89.38
430.514	99.38
430.736	90.38
430.958	95.38
431.18	99.38
431.402	81.38
431.624	79.38
431.846	111.38
432.068	78.38
432.29	78.38
432.512	92.38
432.734	103.38
432.956	82.38
433.178	81.38
433.4	96.38
433.622	90.38
433.844	97.38
434.066	100.38
434.287	85.38
434.509	93.38
434.731	84.38
434.953	82.38
435.175	89.38
435.397	94.38
435.618	81.38
435.84	85.38
436.062	92.38
436.284	88.38
436.505	92.38
436.727	113.38
436.949	89.38
437.17	82.38
437.392	86.38
437.614	80.38
437.835	81.38
438.057	61.38
438.278	82.38
438.5	84.38
438.721	93.38
438.943	102.38
439.165	100.38
439.386	97.38
439.608	103.38
439.829	87.38
440.05	83.38
440.272	89.38
440.493	88.38
440.715	72.38
440.936	81.38
441.158	85.38
441.379	82.38
441.6	96.38
441.822	114.38
442.043	91.38
442.264	93.38
442.486	99.38
442.707	94.38
442.928	89.38
443.149	97.38
443.371	83.38
443.592	99.38
443.813	99.38
444.034	92.38
444.255	98.38
444.476	92.38
444.698	97.38
444.919	96.38
445.14	200.38
445.361	152.38
445.582	100.38
445.803	78.38
446.024	97.38
446.245	92.38
446.466	94.38
446.687	104.38
446.908	95.38
447.129	117.38
447.35	92.38
447.571	95.38
447.792	104.38
448.013	109.38
448.234	81.38
448.455	95.38
448.675	99.38
448.896	95.38
449.117	91.38
449.338	85.38
449.559	92.38
449.779	87.38
450	92.38
450.221	85.38
450.442	101.38
450.662	85.38
450.883	98.38
451.104	75.38
451.324	96.38
451.545	92.38
451.766	98.38
451.986	88.38
452.207	86.38
452.428	88.38
452.648	86.38
452.869	77.38
453.089	83.38
453.31	86.38
453.53	91.38
453.751	101.38
453.971	80.38
454.192	78.38
454.412	93.38
454.633	82.38
454.853	88.38
455.073	77.38
455.294	80.38
455.514	90.38
455.734	94.38
455.955	83.38
456.175	88.38
456.395	71.38
456.616	84.38
456.836	83.38
457.056	98.38
457.276	88.38
457.497	82.38
457.717	87.38
457.937	72.38
458.157	75.38
458.377	81.38
458.598	88.38
458.818	102.38
459.038	80.38
459.258	97.38
459.478	79.38
459.698	76.38
459.918	86.38
460.138	84.38
460.358	86.38
460.578	93.38
460.798	86.38
461.018	92.38
461.238	77.38
461.458	97.38
461.678	90.38
461.898	85.38
462.118	79.38
462.338	78.38
462.558	111.38
462.777	93.38
462.997	91.38
463.217	76.38
463.437	82.38
463.657	86.38
463.876	84.38
464.096	91.38
464.316	73.38
464.536	84.38
464.755	85.38
464.975	93.38
465.195	98.38
465.414	97.38
465.634	98.38
465.854	63.38
466.073	94.38
466.293	92.38
466.512	89.38
466.732	98.38
466.951	91.38
467.171	97.38
467.391	92.38
467.61	89.38
467.829	96.38
468.049	92.38
468.268	90.38
468.488	90.38
468.707	95.38
468.927	109.38
469.146	87.38
469.365	99.38
469.585	83.38
469.804	94.38
470.023	100.38
470.243	94.38
470.462	98.38
470.681	92.38
470.901	88.38
471.12	95.38
471.339	94.38
471.558	92.38
471.777	83.38
471.997	95.38
472.216	89.38
472.435	107.38
472.654	86.38
472.873	78.38
473.092	83.38
473.311	93.38
473.53	83.38
473.749	81.38
473.968	92.38
474.187	90.38
474.406	95.38
474.625	98.38
474.844	83.38
475.063	80.38
475.282	90.38
475.501	83.38
475.72	95.38
475.939	94.38
476.158	95.38
476.377	87.38
476.596	97.38
476.814	81.38
477.033	100.38
477.252	88.38
477.471	83.38
477.69	91.38
477.908	88.38
478.127	87.38
478.346	87.38
478.564	78.38
478.783	78.38
479.002	84.38
479.22	83.38
479.439	84.38
479.658	92.38
479.876	86.38
480.095	86.38
480.313	86.38
480.532	98.38
480.751	100.38
480.969	87.38
481.188	83.38
481.406	94.38
481.624	83.38
481.843	68.38
482.061	80.38
482.28	91.38
482.498	94.38
482.717	83.38
482.935	88.38
483.153	87.38
483.372	104.38
483.59	96.38
483.808	95.38
484.027	99.38
484.245	85.38
484.463	96.38
484.681	105.38
484.9	104.38
485.118	96.38
485.336	88.38
485.554	82.38
485.772	84.38
485.99	76.38
486.209	82.38
486.427	77.38
486.645	81.38
486.863	100.38
487.081	104.38
487.299	82.38
487.517	95.38
487.735	93.38
487.953	100.38
488.171	89.38
488.389	104.38
488.607	115.38
488.825	93.38
489.043	95.38
489.261	97.38
489.479	72.38
489.696	94.38
489.914	85.38
490.132	87.38
490.35	92.38
490.568	103.38
490.786	91.38
491.003	112.38
491.221	108.38
491.439	112.38
491.657	113.38
491.874	109.38
492.092	121.38
492.31	129.38
492.527	120.38
492.745	119.38
492.963	117.38
493.18	120.38
493.398	116.38
493.615	118.38
493.833	101.38
494.05	122.38
494.268	105.38
494.485	111.38
494.703	111.38
494.92	103.38
495.138	104.38
495.355	115.38
495.573	94.38
495.79	111.38
496.008	96.38
496.225	99.38
496.442	84.38
496.66	107.38
496.877	114.38
497.094	108.38
497.312	108.38
497.529	106.38
497.746	89.38
497.963	101.38
498.181	109.38
498.398	97.38
498.615	93.38
498.832	91.38
499.049	83.38
499.267	92.38
499.484	97.38
499.701	87.38
499.918	79.38
500.135	108.38
500.352	99.38
500.569	96.38
500.786	107.38
501.003	100.38
501.22	95.38
501.437	79.38
501.654	90.38
501.871	98.38
502.088	109.38
502.305	92.38
502.522	99.38
502.739	105.38
502.956	92.38
503.172	95.38
503.389	71.38
503.606	93.38
503.823	93.38
504.04	90.38
504.256	91.38
504.473	95.38
504.69	94.38
504.907	96.38
505.123	92.38
505.34	94.38
505.557	94.38
505.773	93.38
505.99	89.38
506.207	94.38
506.423	103.38
506.64	93.38
506.856	90.38
507.073	69.38
507.289	87.38
507.506	88.38
507.722	77.38
507.939	95.38
508.155	87.38
508.372	79.38
508.588	101.38
508.805	103.38
509.021	83.38
509.238	94.38
509.454	103.38
509.67	86.38
509.887	84.38
510.103	76.38
510.319	98.38
510.536	78.38
510.752	89.38
510.968	82.38
511.184	75.38
511.401	81.38
511.617	89.38
511.833	71.38
512.049	78.38
512.265	87.38
512.481	98.38
512.698	109.38
512.914	93.38
513.13	84.38
513.346	91.38
513.562	85.38
513.778	84.38
513.994	79.38
514.21	77.38
514.426	84.38
514.642	56.38
514.858	82.38
515.074	82.38
515.29	95.38
515.506	79.38
515.721	77.38
515.937	69.38
516.153	70.38
516.369	85.38
516.585	74.38
516.801	78.38
517.016	78.38
517.232	82.38
517.448	75.38
517.664	76.38
517.879	83.38
518.095	90.38
518.311	82.38
