Data from Location3.07152019.Energy5.Lamp.07192019.3%Agarose_HRD10591_15-18-59-271.txt Node
Date: Fri Jul 19 15:18:59 EDT 2019
User: cochatt
Spectrometer: HR+D1059
Trigger mode: 1
Integration Time (sec): 1.000000E-1
Scans to average: 1
Electric dark correction enabled: true
Nonlinearity correction enabled: false
Boxcar width: 0
XAxis mode: Wavelengths
Number of Pixels in Spectrum: 2048
>>>>>Begin Spectral Data<<<<<
223.165	-4.56
223.4	-4.56
223.635	-4.56
223.869	-16.56
224.104	-14.56
224.338	-24.56
224.573	-34.56
224.808	-10.56
225.042	-4.56
225.277	2.44
225.511	-3.56
225.746	1.44
225.98	7.44
226.215	15.44
226.449	19.44
226.683	20.44
226.918	23.44
227.152	23.44
227.387	27.44
227.621	36.44
227.856	45.44
228.09	46.44
228.324	43.44
228.559	50.44
228.793	66.44
229.027	61.44
229.262	67.44
229.496	68.44
229.73	79.44
229.964	71.44
230.199	71.44
230.433	83.44
230.667	74.44
230.901	74.44
231.136	69.44
231.37	80.44
231.604	86.44
231.838	82.44
232.072	81.44
232.306	65.44
232.541	77.44
232.775	83.44
233.009	75.44
233.243	79.44
233.477	69.44
233.711	75.44
233.945	77.44
234.179	80.44
234.413	80.44
234.647	88.44
234.881	78.44
235.115	79.44
235.349	75.44
235.583	75.44
235.817	77.44
236.051	86.44
236.285	69.44
236.519	78.44
236.753	81.44
236.987	78.44
237.221	75.44
237.455	79.44
237.689	65.44
237.922	69.44
238.156	71.44
238.39	62.44
238.624	80.44
238.858	87.44
239.091	66.44
239.325	72.44
239.559	58.44
239.793	61.44
240.027	79.44
240.26	77.44
240.494	61.44
240.728	86.44
240.961	57.44
241.195	85.44
241.429	68.44
241.662	77.44
241.896	79.44
242.13	78.44
242.363	68.44
242.597	70.44
242.83	76.44
243.064	57.44
243.298	71.44
243.531	78.44
243.765	68.44
243.998	81.44
244.232	76.44
244.465	61.44
244.699	82.44
244.932	93.44
245.166	78.44
245.399	72.44
245.633	73.44
245.866	59.44
246.099	83.44
246.333	80.44
246.566	80.44
246.8	75.44
247.033	74.44
247.266	63.44
247.5	62.44
247.733	80.44
247.966	83.44
248.2	77.44
248.433	59.44
248.666	63.44
248.899	81.44
249.133	78.44
249.366	81.44
249.599	71.44
249.832	67.44
250.066	85.44
250.299	76.44
250.532	72.44
250.765	81.44
250.998	64.44
251.231	78.44
251.465	72.44
251.698	58.44
251.931	79.44
252.164	75.44
252.397	69.44
252.63	83.44
252.863	74.44
253.096	74.44
253.329	81.44
253.562	82.44
253.795	87.44
254.028	76.44
254.261	82.44
254.494	91.44
254.727	86.44
254.96	79.44
255.193	72.44
255.426	78.44
255.659	84.44
255.892	76.44
256.124	64.44
256.357	68.44
256.59	75.44
256.823	76.44
257.056	78.44
257.289	74.44
257.521	77.44
257.754	87.44
257.987	67.44
258.22	66.44
258.452	78.44
258.685	75.44
258.918	82.44
259.151	87.44
259.383	72.44
259.616	76.44
259.849	80.44
260.081	77.44
260.314	75.44
260.547	89.44
260.779	83.44
261.012	72.44
261.244	77.44
261.477	74.44
261.71	77.44
261.942	72.44
262.175	82.44
262.407	59.44
262.64	80.44
262.872	83.44
263.105	83.44
263.337	80.44
263.57	78.44
263.802	82.44
264.035	86.44
264.267	67.44
264.499	51.44
264.732	71.44
264.964	78.44
265.197	74.44
265.429	93.44
265.661	77.44
265.894	76.44
266.126	86.44
266.358	75.44
266.591	74.44
266.823	68.44
267.055	79.44
267.287	79.44
267.52	78.44
267.752	69.44
267.984	87.44
268.216	79.44
268.448	71.44
268.681	76.44
268.913	77.44
269.145	63.44
269.377	81.44
269.609	85.44
269.841	90.44
270.073	76.44
270.306	79.44
270.538	75.44
270.77	87.44
271.002	91.44
271.234	69.44
271.466	93.44
271.698	78.44
271.93	72.44
272.162	83.44
272.394	83.44
272.626	83.44
272.858	70.44
273.09	65.44
273.322	64.44
273.553	74.44
273.785	72.44
274.017	72.44
274.249	76.44
274.481	68.44
274.713	71.44
274.945	73.44
275.176	75.44
275.408	77.44
275.64	79.44
275.872	76.44
276.104	87.44
276.335	86.44
276.567	75.44
276.799	62.44
277.031	72.44
277.262	77.44
277.494	79.44
277.726	99.44
277.957	83.44
278.189	82.44
278.421	71.44
278.652	82.44
278.884	81.44
279.115	80.44
279.347	71.44
279.579	86.44
279.81	74.44
280.042	88.44
280.273	88.44
280.505	70.44
280.736	71.44
280.968	76.44
281.199	83.44
281.431	73.44
281.662	72.44
281.894	74.44
282.125	86.44
282.356	89.44
282.588	79.44
282.819	78.44
283.051	77.44
283.282	90.44
283.513	82.44
283.745	92.44
283.976	93.44
284.207	79.44
284.439	71.44
284.67	71.44
284.901	82.44
285.132	88.44
285.364	85.44
285.595	78.44
285.826	85.44
286.057	91.44
286.288	75.44
286.52	71.44
286.751	96.44
286.982	73.44
287.213	73.44
287.444	80.44
287.675	89.44
287.906	95.44
288.138	91.44
288.369	76.44
288.6	78.44
288.831	90.44
289.062	67.44
289.293	80.44
289.524	81.44
289.755	70.44
289.986	63.44
290.217	74.44
290.448	81.44
290.679	86.44
290.91	92.44
291.141	85.44
291.371	86.44
291.602	84.44
291.833	78.44
292.064	84.44
292.295	93.44
292.526	76.44
292.757	89.44
292.987	85.44
293.218	81.44
293.449	76.44
293.68	84.44
293.91	71.44
294.141	81.44
294.372	77.44
294.603	82.44
294.833	74.44
295.064	73.44
295.295	79.44
295.525	70.44
295.756	76.44
295.987	72.44
296.217	83.44
296.448	87.44
296.679	89.44
296.909	77.44
297.14	94.44
297.37	92.44
297.601	68.44
297.831	86.44
298.062	79.44
298.292	91.44
298.523	69.44
298.753	74.44
298.984	78.44
299.214	78.44
299.445	80.44
299.675	73.44
299.905	75.44
300.136	84.44
300.366	83.44
300.597	83.44
300.827	69.44
301.057	79.44
301.288	72.44
301.518	71.44
301.748	76.44
301.979	85.44
302.209	85.44
302.439	73.44
302.669	66.44
302.9	74.44
303.13	69.44
303.36	82.44
303.59	83.44
303.82	79.44
304.051	98.44
304.281	83.44
304.511	70.44
304.741	74.44
304.971	83.44
305.201	70.44
305.431	91.44
305.661	86.44
305.891	75.44
306.121	94.44
306.352	87.44
306.582	86.44
306.812	76.44
307.042	81.44
307.272	87.44
307.502	85.44
307.731	88.44
307.961	88.44
308.191	57.44
308.421	94.44
308.651	93.44
308.881	84.44
309.111	71.44
309.341	86.44
309.571	75.44
309.8	74.44
310.03	82.44
310.26	97.44
310.49	94.44
310.72	75.44
310.949	72.44
311.179	85.44
311.409	86.44
311.639	78.44
311.868	82.44
312.098	83.44
312.328	67.44
312.557	84.44
312.787	76.44
313.017	80.44
313.246	73.44
313.476	76.44
313.706	81.44
313.935	82.44
314.165	88.44
314.394	87.44
314.624	77.44
314.853	87.44
315.083	88.44
315.312	83.44
315.542	77.44
315.771	81.44
316.001	79.44
316.23	79.44
316.46	82.44
316.689	93.44
316.919	73.44
317.148	96.44
317.377	84.44
317.607	83.44
317.836	83.44
318.065	72.44
318.295	70.44
318.524	80.44
318.753	87.44
318.983	89.44
319.212	73.44
319.441	73.44
319.67	78.44
319.9	89.44
320.129	79.44
320.358	81.44
320.587	88.44
320.816	76.44
321.046	80.44
321.275	87.44
321.504	68.44
321.733	72.44
321.962	77.44
322.191	96.44
322.42	72.44
322.649	84.44
322.878	84.44
323.108	90.44
323.337	88.44
323.566	83.44
323.795	85.44
324.024	64.44
324.253	78.44
324.482	67.44
324.71	95.44
324.939	81.44
325.168	75.44
325.397	72.44
325.626	79.44
325.855	90.44
326.084	72.44
326.313	80.44
326.542	89.44
326.77	86.44
326.999	78.44
327.228	73.44
327.457	79.44
327.686	97.44
327.914	71.44
328.143	85.44
328.372	83.44
328.6	70.44
328.829	85.44
329.058	93.44
329.287	84.44
329.515	77.44
329.744	85.44
329.972	72.44
330.201	82.44
330.43	80.44
330.658	71.44
330.887	80.44
331.115	87.44
331.344	79.44
331.572	88.44
331.801	87.44
332.03	74.44
332.258	79.44
332.486	73.44
332.715	77.44
332.943	85.44
333.172	88.44
333.4	80.44
333.629	92.44
333.857	79.44
334.085	97.44
334.314	91.44
334.542	73.44
334.771	79.44
334.999	75.44
335.227	82.44
335.455	68.44
335.684	88.44
335.912	83.44
336.14	74.44
336.369	76.44
336.597	71.44
336.825	89.44
337.053	79.44
337.281	67.44
337.51	71.44
337.738	82.44
337.966	81.44
338.194	79.44
338.422	77.44
338.65	83.44
338.878	70.44
339.106	79.44
339.334	81.44
339.562	91.44
339.79	85.44
340.018	81.44
340.246	79.44
340.474	86.44
340.702	82.44
340.93	84.44
341.158	85.44
341.386	68.44
341.614	82.44
341.842	79.44
342.07	92.44
342.298	82.44
342.526	87.44
342.754	83.44
342.981	80.44
343.209	71.44
343.437	97.44
343.665	85.44
343.893	77.44
344.12	79.44
344.348	89.44
344.576	80.44
344.804	81.44
345.031	86.44
345.259	71.44
345.487	85.44
345.714	82.44
345.942	93.44
346.17	78.44
346.397	87.44
346.625	80.44
346.853	80.44
347.08	85.44
347.308	81.44
347.535	82.44
347.763	75.44
347.99	76.44
348.218	94.44
348.445	87.44
348.673	76.44
348.9	81.44
349.128	96.44
349.355	81.44
349.583	87.44
349.81	76.44
350.037	90.44
350.265	75.44
350.492	82.44
350.72	84.44
350.947	72.44
351.174	70.44
351.402	78.44
351.629	74.44
351.856	93.44
352.083	80.44
352.311	84.44
352.538	72.44
352.765	72.44
352.992	76.44
353.22	69.44
353.447	82.44
353.674	80.44
353.901	79.44
354.128	78.44
354.355	79.44
354.583	91.44
354.81	80.44
355.037	82.44
355.264	85.44
355.491	79.44
355.718	86.44
355.945	74.44
356.172	82.44
356.399	76.44
356.626	91.44
356.853	87.44
357.08	97.44
357.307	76.44
357.534	83.44
357.761	73.44
357.988	89.44
358.215	84.44
358.441	63.44
358.668	78.44
358.895	73.44
359.122	75.44
359.349	95.44
359.576	83.44
359.802	88.44
360.029	73.44
360.256	97.44
360.483	86.44
360.709	72.44
360.936	80.44
361.163	80.44
361.39	72.44
361.616	95.44
361.843	82.44
362.07	72.44
362.296	80.44
362.523	83.44
362.749	75.44
362.976	75.44
363.203	84.44
363.429	73.44
363.656	85.44
363.882	87.44
364.109	71.44
364.335	88.44
364.562	86.44
364.788	85.44
365.015	86.44
365.241	83.44
365.468	86.44
365.694	93.44
365.92	78.44
366.147	75.44
366.373	85.44
366.599	82.44
366.826	67.44
367.052	79.44
367.278	96.44
367.505	80.44
367.731	76.44
367.957	85.44
368.184	83.44
368.41	87.44
368.636	75.44
368.862	72.44
369.089	72.44
369.315	71.44
369.541	82.44
369.767	87.44
369.993	79.44
370.219	79.44
370.445	63.44
370.672	74.44
370.898	91.44
371.124	78.44
371.35	75.44
371.576	79.44
371.802	92.44
372.028	85.44
372.254	84.44
372.48	84.44
372.706	85.44
372.932	84.44
373.158	83.44
373.384	80.44
373.61	83.44
373.835	92.44
374.061	79.44
374.287	75.44
374.513	84.44
374.739	80.44
374.965	77.44
375.191	85.44
375.416	83.44
375.642	100.44
375.868	90.44
376.094	97.44
376.319	79.44
376.545	89.44
376.771	77.44
376.997	96.44
377.222	97.44
377.448	87.44
377.674	70.44
377.899	84.44
378.125	77.44
378.35	94.44
378.576	78.44
378.802	83.44
379.027	73.44
379.253	83.44
379.478	91.44
379.704	80.44
379.929	84.44
380.155	67.44
380.38	74.44
380.606	73.44
380.831	92.44
381.057	84.44
381.282	85.44
381.507	82.44
381.733	97.44
381.958	94.44
382.184	81.44
382.409	108.44
382.634	84.44
382.86	77.44
383.085	80.44
383.31	85.44
383.535	81.44
383.761	89.44
383.986	78.44
384.211	97.44
384.436	76.44
384.662	81.44
384.887	68.44
385.112	86.44
385.337	91.44
385.562	88.44
385.787	84.44
386.013	89.44
386.238	83.44
386.463	84.44
386.688	88.44
386.913	69.44
387.138	85.44
387.363	80.44
387.588	92.44
387.813	107.44
388.038	83.44
388.263	72.44
388.488	87.44
388.713	78.44
388.938	72.44
389.163	73.44
389.387	75.44
389.612	74.44
389.837	86.44
390.062	93.44
390.287	91.44
390.512	79.44
390.736	95.44
390.961	81.44
391.186	89.44
391.411	76.44
391.636	82.44
391.86	74.44
392.085	72.44
392.31	85.44
392.534	88.44
392.759	94.44
392.984	97.44
393.208	90.44
393.433	91.44
393.658	87.44
393.882	71.44
394.107	83.44
394.331	77.44
394.556	93.44
394.78	88.44
395.005	78.44
395.229	84.44
395.454	88.44
395.678	88.44
395.903	76.44
396.127	83.44
396.352	97.44
396.576	69.44
396.801	86.44
397.025	68.44
397.249	98.44
397.474	94.44
397.698	83.44
397.922	93.44
398.147	80.44
398.371	66.44
398.595	74.44
398.82	81.44
399.044	70.44
399.268	79.44
399.492	99.44
399.717	91.44
399.941	82.44
400.165	80.44
400.389	75.44
400.613	78.44
400.837	82.44
401.062	100.44
401.286	87.44
401.51	80.44
401.734	83.44
401.958	79.44
402.182	76.44
402.406	85.44
402.63	81.44
402.854	94.44
403.078	91.44
403.302	86.44
403.526	87.44
403.75	97.44
403.974	91.44
404.198	76.44
404.422	81.44
404.645	64.44
404.869	100.44
405.093	85.44
405.317	87.44
405.541	83.44
405.765	88.44
405.988	91.44
406.212	92.44
406.436	94.44
406.66	75.44
406.883	85.44
407.107	84.44
407.331	77.44
407.555	98.44
407.778	79.44
408.002	80.44
408.226	88.44
408.449	84.44
408.673	89.44
408.896	92.44
409.12	80.44
409.344	79.44
409.567	73.44
409.791	90.44
410.014	83.44
410.238	77.44
410.461	92.44
410.685	85.44
410.908	79.44
411.132	83.44
411.355	87.44
411.578	81.44
411.802	90.44
412.025	92.44
412.249	101.44
412.472	90.44
412.695	89.44
412.919	92.44
413.142	87.44
413.365	76.44
413.589	94.44
413.812	95.44
414.035	96.44
414.258	90.44
414.482	85.44
414.705	74.44
414.928	88.44
415.151	85.44
415.374	94.44
415.597	91.44
415.821	82.44
416.044	91.44
416.267	90.44
416.49	87.44
416.713	92.44
416.936	101.44
417.159	86.44
417.382	92.44
417.605	86.44
417.828	87.44
418.051	95.44
418.274	84.44
418.497	105.44
418.72	77.44
418.943	102.44
419.166	97.44
419.389	82.44
419.611	91.44
419.834	83.44
420.057	76.44
420.28	84.44
420.503	87.44
420.726	95.44
420.948	85.44
421.171	81.44
421.394	84.44
421.617	106.44
421.839	93.44
422.062	110.44
422.285	97.44
422.507	92.44
422.73	77.44
422.953	76.44
423.175	86.44
423.398	86.44
423.621	96.44
423.843	102.44
424.066	84.44
424.288	99.44
424.511	103.44
424.733	98.44
424.956	85.44
425.178	78.44
425.401	96.44
425.623	89.44
425.846	100.44
426.068	80.44
426.291	93.44
426.513	88.44
426.735	94.44
426.958	83.44
427.18	76.44
427.402	96.44
427.625	74.44
427.847	88.44
428.069	111.44
428.292	98.44
428.514	87.44
428.736	91.44
428.958	86.44
429.181	74.44
429.403	76.44
429.625	94.44
429.847	100.44
430.069	95.44
430.292	101.44
430.514	87.44
430.736	92.44
430.958	95.44
431.18	88.44
431.402	93.44
431.624	75.44
431.846	81.44
432.068	80.44
432.29	81.44
432.512	97.44
432.734	87.44
432.956	83.44
433.178	94.44
433.4	89.44
433.622	101.44
433.844	89.44
434.066	94.44
434.287	98.44
434.509	77.44
434.731	85.44
434.953	70.44
435.175	79.44
435.397	94.44
435.618	92.44
435.84	81.44
436.062	88.44
436.284	84.44
436.505	84.44
436.727	83.44
436.949	86.44
437.17	90.44
437.392	84.44
437.614	94.44
437.835	87.44
438.057	79.44
438.278	76.44
438.5	93.44
438.721	91.44
438.943	104.44
439.165	92.44
439.386	100.44
439.608	92.44
439.829	85.44
440.05	107.44
440.272	107.44
440.493	91.44
440.715	95.44
440.936	95.44
441.158	108.44
441.379	81.44
441.6	101.44
441.822	87.44
442.043	98.44
442.264	97.44
442.486	93.44
442.707	77.44
442.928	99.44
443.149	88.44
443.371	88.44
443.592	94.44
443.813	79.44
444.034	92.44
444.255	67.44
444.476	69.44
444.698	88.44
444.919	99.44
445.14	230.44
445.361	159.44
445.582	105.44
445.803	88.44
446.024	97.44
446.245	95.44
446.466	95.44
446.687	88.44
446.908	116.44
447.129	117.44
447.35	88.44
447.571	92.44
447.792	93.44
448.013	105.44
448.234	76.44
448.455	98.44
448.675	96.44
448.896	95.44
449.117	93.44
449.338	101.44
449.559	86.44
449.779	95.44
450	87.44
450.221	92.44
450.442	93.44
450.662	92.44
450.883	84.44
451.104	94.44
451.324	84.44
451.545	80.44
451.766	90.44
451.986	82.44
452.207	91.44
452.428	90.44
452.648	92.44
452.869	78.44
453.089	89.44
453.31	88.44
453.53	85.44
453.751	91.44
453.971	71.44
454.192	85.44
454.412	79.44
454.633	86.44
454.853	97.44
455.073	91.44
455.294	94.44
455.514	99.44
455.734	91.44
455.955	89.44
456.175	83.44
456.395	87.44
456.616	94.44
456.836	80.44
457.056	83.44
457.276	85.44
457.497	82.44
457.717	69.44
457.937	85.44
458.157	86.44
458.377	81.44
458.598	79.44
458.818	99.44
459.038	88.44
459.258	84.44
459.478	85.44
459.698	78.44
459.918	79.44
460.138	87.44
460.358	100.44
460.578	95.44
460.798	85.44
461.018	86.44
461.238	98.44
461.458	96.44
461.678	91.44
461.898	85.44
462.118	80.44
462.338	79.44
462.558	92.44
462.777	79.44
462.997	97.44
463.217	78.44
463.437	78.44
463.657	92.44
463.876	79.44
464.096	86.44
464.316	93.44
464.536	86.44
464.755	93.44
464.975	94.44
465.195	92.44
465.414	74.44
465.634	83.44
465.854	87.44
466.073	84.44
466.293	87.44
466.512	98.44
466.732	80.44
466.951	77.44
467.171	91.44
467.391	90.44
467.61	102.44
467.829	85.44
468.049	95.44
468.268	87.44
468.488	108.44
468.707	93.44
468.927	96.44
469.146	94.44
469.365	87.44
469.585	94.44
469.804	101.44
470.023	98.44
470.243	91.44
470.462	85.44
470.681	102.44
470.901	107.44
471.12	100.44
471.339	91.44
471.558	89.44
471.777	96.44
471.997	98.44
472.216	91.44
472.435	80.44
472.654	84.44
472.873	87.44
473.092	78.44
473.311	82.44
473.53	70.44
473.749	98.44
473.968	90.44
474.187	105.44
474.406	90.44
474.625	71.44
474.844	95.44
475.063	93.44
475.282	74.44
475.501	84.44
475.72	93.44
475.939	100.44
476.158	88.44
476.377	103.44
476.596	95.44
476.814	75.44
477.033	83.44
477.252	90.44
477.471	92.44
477.69	93.44
477.908	84.44
478.127	95.44
478.346	100.44
478.564	107.44
478.783	110.44
479.002	90.44
479.22	100.44
479.439	95.44
479.658	93.44
479.876	93.44
480.095	84.44
480.313	89.44
480.532	87.44
480.751	95.44
480.969	81.44
481.188	79.44
481.406	81.44
481.624	92.44
481.843	83.44
482.061	72.44
482.28	75.44
482.498	89.44
482.717	88.44
482.935	91.44
483.153	102.44
483.372	87.44
483.59	95.44
483.808	104.44
484.027	92.44
484.245	108.44
484.463	97.44
484.681	107.44
484.9	96.44
485.118	88.44
485.336	93.44
485.554	85.44
485.772	87.44
485.99	101.44
486.209	86.44
486.427	92.44
486.645	78.44
486.863	103.44
487.081	86.44
487.299	87.44
487.517	85.44
487.735	106.44
487.953	105.44
488.171	105.44
488.389	103.44
488.607	104.44
488.825	112.44
489.043	91.44
489.261	87.44
489.479	96.44
489.696	91.44
489.914	103.44
490.132	91.44
490.35	99.44
490.568	97.44
490.786	108.44
491.003	109.44
491.221	103.44
491.439	92.44
491.657	102.44
491.874	117.44
492.092	111.44
492.31	127.44
492.527	120.44
492.745	114.44
492.963	121.44
493.18	114.44
493.398	103.44
493.615	103.44
493.833	102.44
494.05	100.44
494.268	108.44
494.485	116.44
494.703	109.44
494.92	109.44
495.138	100.44
495.355	100.44
495.573	116.44
495.79	101.44
496.008	115.44
496.225	100.44
496.442	109.44
496.66	111.44
496.877	102.44
497.094	109.44
497.312	93.44
497.529	111.44
497.746	104.44
497.963	91.44
498.181	85.44
498.398	88.44
498.615	88.44
498.832	94.44
499.049	110.44
499.267	86.44
499.484	97.44
499.701	97.44
499.918	92.44
500.135	102.44
500.352	88.44
500.569	84.44
500.786	101.44
501.003	101.44
501.22	95.44
501.437	88.44
501.654	76.44
501.871	86.44
502.088	83.44
502.305	85.44
502.522	89.44
502.739	81.44
502.956	82.44
503.172	93.44
503.389	95.44
503.606	85.44
503.823	99.44
504.04	105.44
504.256	92.44
504.473	90.44
504.69	87.44
504.907	92.44
505.123	97.44
505.34	106.44
505.557	107.44
505.773	86.44
505.99	73.44
506.207	85.44
506.423	88.44
506.64	89.44
506.856	95.44
507.073	76.44
507.289	94.44
507.506	99.44
507.722	85.44
507.939	88.44
508.155	86.44
508.372	91.44
508.588	94.44
508.805	77.44
509.021	80.44
509.238	87.44
509.454	80.44
509.67	94.44
509.887	89.44
510.103	89.44
510.319	77.44
510.536	65.44
510.752	72.44
510.968	76.44
511.184	86.44
511.401	88.44
511.617	89.44
511.833	70.44
512.049	82.44
512.265	81.44
512.481	93.44
512.698	79.44
512.914	82.44
513.13	73.44
513.346	87.44
513.562	98.44
513.778	80.44
513.994	70.44
514.21	73.44
514.426	71.44
514.642	82.44
514.858	92.44
515.074	84.44
515.29	89.44
515.506	95.44
515.721	84.44
515.937	87.44
516.153	85.44
516.369	82.44
516.585	84.44
516.801	78.44
517.016	72.44
517.232	76.44
517.448	88.44
517.664	83.44
517.879	77.44
518.095	88.44
518.311	89.44
