Data from Location3.07152019.Energy5.Lamp.07192019.3%Agarose_HRD10591_15-18-29-269.txt Node
Date: Fri Jul 19 15:18:29 EDT 2019
User: cochatt
Spectrometer: HR+D1059
Trigger mode: 1
Integration Time (sec): 1.000000E-1
Scans to average: 1
Electric dark correction enabled: true
Nonlinearity correction enabled: false
Boxcar width: 0
XAxis mode: Wavelengths
Number of Pixels in Spectrum: 2048
>>>>>Begin Spectral Data<<<<<
223.165	-12.94
223.4	-12.94
223.635	-12.94
223.869	-8.94
224.104	-28.94
224.338	1.06
224.573	-9.94
224.808	-12.94
225.042	-7.94
225.277	-12.94
225.511	-2.94
225.746	0.06
225.98	4.06
226.215	9.06
226.449	13.06
226.683	22.06
226.918	14.06
227.152	34.06
227.387	51.06
227.621	40.06
227.856	53.06
228.09	47.06
228.324	53.06
228.559	73.06
228.793	47.06
229.027	70.06
229.262	73.06
229.496	76.06
229.73	77.06
229.964	85.06
230.199	74.06
230.433	76.06
230.667	83.06
230.901	80.06
231.136	93.06
231.37	85.06
231.604	81.06
231.838	91.06
232.072	85.06
232.306	87.06
232.541	80.06
232.775	87.06
233.009	99.06
233.243	92.06
233.477	89.06
233.711	81.06
233.945	98.06
234.179	95.06
234.413	90.06
234.647	92.06
234.881	78.06
235.115	92.06
235.349	85.06
235.583	87.06
235.817	83.06
236.051	86.06
236.285	72.06
236.519	81.06
236.753	85.06
236.987	88.06
237.221	73.06
237.455	84.06
237.689	97.06
237.922	79.06
238.156	88.06
238.39	85.06
238.624	72.06
238.858	83.06
239.091	68.06
239.325	79.06
239.559	73.06
239.793	78.06
240.027	80.06
240.26	81.06
240.494	79.06
240.728	71.06
240.961	84.06
241.195	69.06
241.429	90.06
241.662	75.06
241.896	76.06
242.13	79.06
242.363	91.06
242.597	89.06
242.83	87.06
243.064	73.06
243.298	76.06
243.531	86.06
243.765	77.06
243.998	77.06
244.232	86.06
244.465	66.06
244.699	78.06
244.932	87.06
245.166	92.06
245.399	82.06
245.633	86.06
245.866	95.06
246.099	79.06
246.333	81.06
246.566	74.06
246.8	80.06
247.033	76.06
247.266	97.06
247.5	85.06
247.733	97.06
247.966	79.06
248.2	85.06
248.433	79.06
248.666	87.06
248.899	83.06
249.133	68.06
249.366	89.06
249.599	90.06
249.832	85.06
250.066	100.06
250.299	90.06
250.532	76.06
250.765	81.06
250.998	83.06
251.231	68.06
251.465	77.06
251.698	74.06
251.931	86.06
252.164	92.06
252.397	97.06
252.63	81.06
252.863	92.06
253.096	81.06
253.329	93.06
253.562	75.06
253.795	78.06
254.028	85.06
254.261	77.06
254.494	85.06
254.727	85.06
254.96	76.06
255.193	85.06
255.426	79.06
255.659	92.06
255.892	79.06
256.124	88.06
256.357	82.06
256.59	91.06
256.823	76.06
257.056	87.06
257.289	93.06
257.521	101.06
257.754	87.06
257.987	83.06
258.22	100.06
258.452	96.06
258.685	84.06
258.918	68.06
259.151	79.06
259.383	72.06
259.616	93.06
259.849	90.06
260.081	97.06
260.314	90.06
260.547	73.06
260.779	94.06
261.012	91.06
261.244	103.06
261.477	95.06
261.71	95.06
261.942	81.06
262.175	82.06
262.407	92.06
262.64	79.06
262.872	85.06
263.105	87.06
263.337	86.06
263.57	99.06
263.802	80.06
264.035	92.06
264.267	93.06
264.499	80.06
264.732	84.06
264.964	90.06
265.197	83.06
265.429	87.06
265.661	85.06
265.894	92.06
266.126	87.06
266.358	97.06
266.591	81.06
266.823	91.06
267.055	78.06
267.287	89.06
267.52	95.06
267.752	100.06
267.984	85.06
268.216	90.06
268.448	94.06
268.681	91.06
268.913	93.06
269.145	93.06
269.377	95.06
269.609	85.06
269.841	87.06
270.073	89.06
270.306	87.06
270.538	88.06
270.77	86.06
271.002	94.06
271.234	86.06
271.466	89.06
271.698	88.06
271.93	89.06
272.162	86.06
272.394	103.06
272.626	85.06
272.858	90.06
273.09	91.06
273.322	100.06
273.553	84.06
273.785	95.06
274.017	88.06
274.249	92.06
274.481	81.06
274.713	91.06
274.945	88.06
275.176	81.06
275.408	89.06
275.64	84.06
275.872	98.06
276.104	80.06
276.335	89.06
276.567	86.06
276.799	75.06
277.031	95.06
277.262	91.06
277.494	100.06
277.726	102.06
277.957	102.06
278.189	86.06
278.421	84.06
278.652	84.06
278.884	78.06
279.115	95.06
279.347	76.06
279.579	80.06
279.81	105.06
280.042	98.06
280.273	90.06
280.505	101.06
280.736	92.06
280.968	94.06
281.199	91.06
281.431	94.06
281.662	92.06
281.894	89.06
282.125	88.06
282.356	93.06
282.588	90.06
282.819	85.06
283.051	97.06
283.282	80.06
283.513	92.06
283.745	95.06
283.976	93.06
284.207	89.06
284.439	80.06
284.67	81.06
284.901	102.06
285.132	73.06
285.364	93.06
285.595	87.06
285.826	87.06
286.057	95.06
286.288	86.06
286.52	87.06
286.751	87.06
286.982	83.06
287.213	81.06
287.444	95.06
287.675	81.06
287.906	86.06
288.138	81.06
288.369	82.06
288.6	95.06
288.831	84.06
289.062	96.06
289.293	107.06
289.524	85.06
289.755	93.06
289.986	102.06
290.217	75.06
290.448	100.06
290.679	84.06
290.91	119.06
291.141	90.06
291.371	94.06
291.602	88.06
291.833	82.06
292.064	94.06
292.295	96.06
292.526	80.06
292.757	95.06
292.987	80.06
293.218	91.06
293.449	90.06
293.68	95.06
293.91	94.06
294.141	94.06
294.372	88.06
294.603	95.06
294.833	92.06
295.064	96.06
295.295	83.06
295.525	87.06
295.756	105.06
295.987	76.06
296.217	92.06
296.448	94.06
296.679	108.06
296.909	91.06
297.14	82.06
297.37	105.06
297.601	85.06
297.831	97.06
298.062	92.06
298.292	93.06
298.523	100.06
298.753	93.06
298.984	83.06
299.214	96.06
299.445	90.06
299.675	78.06
299.905	102.06
300.136	90.06
300.366	94.06
300.597	84.06
300.827	82.06
301.057	98.06
301.288	94.06
301.518	91.06
301.748	80.06
301.979	88.06
302.209	75.06
302.439	95.06
302.669	88.06
302.9	74.06
303.13	89.06
303.36	88.06
303.59	97.06
303.82	83.06
304.051	87.06
304.281	89.06
304.511	78.06
304.741	95.06
304.971	90.06
305.201	94.06
305.431	96.06
305.661	93.06
305.891	84.06
306.121	95.06
306.352	89.06
306.582	106.06
306.812	95.06
307.042	89.06
307.272	90.06
307.502	100.06
307.731	93.06
307.961	85.06
308.191	79.06
308.421	88.06
308.651	98.06
308.881	85.06
309.111	88.06
309.341	86.06
309.571	101.06
309.8	87.06
310.03	93.06
310.26	97.06
310.49	115.06
310.72	95.06
310.949	75.06
311.179	86.06
311.409	79.06
311.639	95.06
311.868	99.06
312.098	82.06
312.328	91.06
312.557	85.06
312.787	79.06
313.017	97.06
313.246	106.06
313.476	95.06
313.706	82.06
313.935	97.06
314.165	88.06
314.394	89.06
314.624	94.06
314.853	97.06
315.083	86.06
315.312	92.06
315.542	89.06
315.771	63.06
316.001	79.06
316.23	96.06
316.46	93.06
316.689	87.06
316.919	100.06
317.148	100.06
317.377	98.06
317.607	96.06
317.836	81.06
318.065	108.06
318.295	84.06
318.524	95.06
318.753	89.06
318.983	92.06
319.212	85.06
319.441	89.06
319.67	83.06
319.9	101.06
320.129	100.06
320.358	97.06
320.587	86.06
320.816	81.06
321.046	93.06
321.275	104.06
321.504	86.06
321.733	96.06
321.962	89.06
322.191	94.06
322.42	90.06
322.649	93.06
322.878	76.06
323.108	88.06
323.337	89.06
323.566	93.06
323.795	97.06
324.024	84.06
324.253	88.06
324.482	100.06
324.71	85.06
324.939	93.06
325.168	85.06
325.397	91.06
325.626	94.06
325.855	89.06
326.084	89.06
326.313	87.06
326.542	85.06
326.77	84.06
326.999	82.06
327.228	98.06
327.457	94.06
327.686	94.06
327.914	87.06
328.143	102.06
328.372	104.06
328.6	77.06
328.829	89.06
329.058	94.06
329.287	95.06
329.515	88.06
329.744	93.06
329.972	84.06
330.201	90.06
330.43	111.06
330.658	99.06
330.887	94.06
331.115	91.06
331.344	103.06
331.572	89.06
331.801	89.06
332.03	91.06
332.258	93.06
332.486	86.06
332.715	80.06
332.943	94.06
333.172	88.06
333.4	96.06
333.629	91.06
333.857	85.06
334.085	89.06
334.314	102.06
334.542	89.06
334.771	93.06
334.999	91.06
335.227	84.06
335.455	89.06
335.684	106.06
335.912	97.06
336.14	100.06
336.369	92.06
336.597	91.06
336.825	87.06
337.053	88.06
337.281	90.06
337.51	95.06
337.738	93.06
337.966	92.06
338.194	90.06
338.422	101.06
338.65	87.06
338.878	92.06
339.106	78.06
339.334	91.06
339.562	92.06
339.79	90.06
340.018	92.06
340.246	81.06
340.474	82.06
340.702	81.06
340.93	97.06
341.158	102.06
341.386	91.06
341.614	83.06
341.842	68.06
342.07	82.06
342.298	92.06
342.526	76.06
342.754	81.06
342.981	81.06
343.209	87.06
343.437	84.06
343.665	92.06
343.893	97.06
344.12	102.06
344.348	81.06
344.576	80.06
344.804	87.06
345.031	95.06
345.259	79.06
345.487	91.06
345.714	91.06
345.942	92.06
346.17	90.06
346.397	93.06
346.625	94.06
346.853	98.06
347.08	96.06
347.308	93.06
347.535	80.06
347.763	92.06
347.99	91.06
348.218	83.06
348.445	90.06
348.673	97.06
348.9	81.06
349.128	84.06
349.355	94.06
349.583	92.06
349.81	95.06
350.037	99.06
350.265	100.06
350.492	88.06
350.72	81.06
350.947	98.06
351.174	85.06
351.402	87.06
351.629	89.06
351.856	90.06
352.083	82.06
352.311	119.06
352.538	100.06
352.765	93.06
352.992	83.06
353.22	75.06
353.447	105.06
353.674	96.06
353.901	83.06
354.128	88.06
354.355	87.06
354.583	80.06
354.81	105.06
355.037	89.06
355.264	98.06
355.491	112.06
355.718	83.06
355.945	92.06
356.172	102.06
356.399	93.06
356.626	88.06
356.853	84.06
357.08	95.06
357.307	88.06
357.534	83.06
357.761	87.06
357.988	79.06
358.215	81.06
358.441	77.06
358.668	78.06
358.895	80.06
359.122	80.06
359.349	88.06
359.576	92.06
359.802	85.06
360.029	94.06
360.256	103.06
360.483	78.06
360.709	78.06
360.936	91.06
361.163	87.06
361.39	92.06
361.616	94.06
361.843	90.06
362.07	103.06
362.296	91.06
362.523	106.06
362.749	95.06
362.976	92.06
363.203	109.06
363.429	79.06
363.656	83.06
363.882	87.06
364.109	91.06
364.335	86.06
364.562	86.06
364.788	85.06
365.015	84.06
365.241	89.06
365.468	86.06
365.694	87.06
365.92	82.06
366.147	82.06
366.373	91.06
366.599	99.06
366.826	78.06
367.052	79.06
367.278	97.06
367.505	78.06
367.731	98.06
367.957	89.06
368.184	89.06
368.41	93.06
368.636	88.06
368.862	95.06
369.089	103.06
369.315	88.06
369.541	104.06
369.767	80.06
369.993	99.06
370.219	95.06
370.445	87.06
370.672	94.06
370.898	90.06
371.124	82.06
371.35	97.06
371.576	92.06
371.802	81.06
372.028	98.06
372.254	85.06
372.48	84.06
372.706	81.06
372.932	90.06
373.158	102.06
373.384	91.06
373.61	88.06
373.835	86.06
374.061	92.06
374.287	95.06
374.513	98.06
374.739	85.06
374.965	92.06
375.191	91.06
375.416	85.06
375.642	80.06
375.868	95.06
376.094	101.06
376.319	88.06
376.545	97.06
376.771	98.06
376.997	91.06
377.222	92.06
377.448	88.06
377.674	87.06
377.899	83.06
378.125	88.06
378.35	93.06
378.576	103.06
378.802	90.06
379.027	92.06
379.253	81.06
379.478	94.06
379.704	87.06
379.929	95.06
380.155	95.06
380.38	103.06
380.606	82.06
380.831	92.06
381.057	92.06
381.282	86.06
381.507	79.06
381.733	95.06
381.958	105.06
382.184	96.06
382.409	86.06
382.634	93.06
382.86	85.06
383.085	101.06
383.31	95.06
383.535	100.06
383.761	84.06
383.986	92.06
384.211	93.06
384.436	85.06
384.662	85.06
384.887	79.06
385.112	80.06
385.337	94.06
385.562	85.06
385.787	94.06
386.013	96.06
386.238	93.06
386.463	97.06
386.688	90.06
386.913	79.06
387.138	98.06
387.363	102.06
387.588	98.06
387.813	87.06
388.038	73.06
388.263	101.06
388.488	105.06
388.713	86.06
388.938	87.06
389.163	93.06
389.387	87.06
389.612	104.06
389.837	96.06
390.062	93.06
390.287	95.06
390.512	96.06
390.736	93.06
390.961	91.06
391.186	98.06
391.411	86.06
391.636	100.06
391.86	93.06
392.085	92.06
392.31	97.06
392.534	84.06
392.759	96.06
392.984	114.06
393.208	89.06
393.433	91.06
393.658	93.06
393.882	98.06
394.107	102.06
394.331	86.06
394.556	88.06
394.78	101.06
395.005	94.06
395.229	93.06
395.454	96.06
395.678	85.06
395.903	88.06
396.127	84.06
396.352	92.06
396.576	103.06
396.801	81.06
397.025	87.06
397.249	76.06
397.474	84.06
397.698	107.06
397.922	93.06
398.147	89.06
398.371	90.06
398.595	97.06
398.82	98.06
399.044	96.06
399.268	92.06
399.492	104.06
399.717	104.06
399.941	94.06
400.165	101.06
400.389	96.06
400.613	92.06
400.837	88.06
401.062	93.06
401.286	95.06
401.51	88.06
401.734	103.06
401.958	92.06
402.182	98.06
402.406	109.06
402.63	104.06
402.854	93.06
403.078	95.06
403.302	90.06
403.526	87.06
403.75	93.06
403.974	96.06
404.198	105.06
404.422	101.06
404.645	87.06
404.869	86.06
405.093	92.06
405.317	90.06
405.541	97.06
405.765	81.06
405.988	109.06
406.212	87.06
406.436	87.06
406.66	97.06
406.883	105.06
407.107	106.06
407.331	95.06
407.555	98.06
407.778	113.06
408.002	92.06
408.226	100.06
408.449	94.06
408.673	101.06
408.896	97.06
409.12	88.06
409.344	93.06
409.567	107.06
409.791	80.06
410.014	97.06
410.238	100.06
410.461	91.06
410.685	102.06
410.908	101.06
411.132	92.06
411.355	97.06
411.578	95.06
411.802	99.06
412.025	90.06
412.249	99.06
412.472	92.06
412.695	82.06
412.919	101.06
413.142	92.06
413.365	91.06
413.589	108.06
413.812	100.06
414.035	109.06
414.258	83.06
414.482	103.06
414.705	88.06
414.928	104.06
415.151	95.06
415.374	97.06
415.597	95.06
415.821	78.06
416.044	106.06
416.267	110.06
416.49	91.06
416.713	94.06
416.936	100.06
417.159	94.06
417.382	105.06
417.605	107.06
417.828	105.06
418.051	116.06
418.274	102.06
418.497	114.06
418.72	96.06
418.943	107.06
419.166	91.06
419.389	84.06
419.611	106.06
419.834	100.06
420.057	85.06
420.28	97.06
420.503	100.06
420.726	85.06
420.948	101.06
421.171	105.06
421.394	108.06
421.617	107.06
421.839	89.06
422.062	105.06
422.285	94.06
422.507	100.06
422.73	85.06
422.953	109.06
423.175	98.06
423.398	108.06
423.621	113.06
423.843	93.06
424.066	90.06
424.288	112.06
424.511	113.06
424.733	111.06
424.956	102.06
425.178	96.06
425.401	89.06
425.623	99.06
425.846	101.06
426.068	94.06
426.291	103.06
426.513	99.06
426.735	104.06
426.958	104.06
427.18	108.06
427.402	108.06
427.625	105.06
427.847	97.06
428.069	113.06
428.292	100.06
428.514	101.06
428.736	95.06
428.958	103.06
429.181	92.06
429.403	103.06
429.625	92.06
429.847	97.06
430.069	107.06
430.292	97.06
430.514	109.06
430.736	80.06
430.958	99.06
431.18	102.06
431.402	99.06
431.624	97.06
431.846	96.06
432.068	96.06
432.29	89.06
432.512	96.06
432.734	100.06
432.956	96.06
433.178	97.06
433.4	106.06
433.622	110.06
433.844	100.06
434.066	101.06
434.287	86.06
434.509	97.06
434.731	103.06
434.953	94.06
435.175	100.06
435.397	96.06
435.618	90.06
435.84	100.06
436.062	109.06
436.284	95.06
436.505	94.06
436.727	101.06
436.949	91.06
437.17	116.06
437.392	99.06
437.614	97.06
437.835	83.06
438.057	77.06
438.278	95.06
438.5	86.06
438.721	103.06
438.943	119.06
439.165	120.06
439.386	113.06
439.608	118.06
439.829	94.06
440.05	99.06
440.272	102.06
440.493	99.06
440.715	128.06
440.936	96.06
441.158	89.06
441.379	119.06
441.6	119.06
441.822	104.06
442.043	96.06
442.264	94.06
442.486	88.06
442.707	103.06
442.928	93.06
443.149	93.06
443.371	104.06
443.592	106.06
443.813	112.06
444.034	114.06
444.255	97.06
444.476	89.06
444.698	93.06
444.919	101.06
445.14	236.06
445.361	159.06
445.582	115.06
445.803	107.06
446.024	100.06
446.245	126.06
446.466	105.06
446.687	110.06
446.908	86.06
447.129	116.06
447.35	108.06
447.571	100.06
447.792	108.06
448.013	112.06
448.234	103.06
448.455	103.06
448.675	100.06
448.896	101.06
449.117	99.06
449.338	106.06
449.559	110.06
449.779	100.06
450	91.06
450.221	98.06
450.442	105.06
450.662	96.06
450.883	104.06
451.104	104.06
451.324	102.06
451.545	125.06
451.766	103.06
451.986	99.06
452.207	108.06
452.428	94.06
452.648	89.06
452.869	100.06
453.089	92.06
453.31	96.06
453.53	102.06
453.751	98.06
453.971	106.06
454.192	85.06
454.412	103.06
454.633	94.06
454.853	116.06
455.073	99.06
455.294	104.06
455.514	108.06
455.734	99.06
455.955	99.06
456.175	98.06
456.395	92.06
456.616	89.06
456.836	99.06
457.056	91.06
457.276	104.06
457.497	82.06
457.717	106.06
457.937	90.06
458.157	86.06
458.377	88.06
458.598	100.06
458.818	99.06
459.038	86.06
459.258	99.06
459.478	86.06
459.698	66.06
459.918	99.06
460.138	80.06
460.358	93.06
460.578	96.06
460.798	81.06
461.018	95.06
461.238	91.06
461.458	97.06
461.678	96.06
461.898	99.06
462.118	85.06
462.338	95.06
462.558	83.06
462.777	78.06
462.997	95.06
463.217	87.06
463.437	83.06
463.657	91.06
463.876	104.06
464.096	102.06
464.316	93.06
464.536	102.06
464.755	100.06
464.975	99.06
465.195	107.06
465.414	105.06
465.634	110.06
465.854	111.06
466.073	93.06
466.293	108.06
466.512	101.06
466.732	94.06
466.951	97.06
467.171	102.06
467.391	92.06
467.61	117.06
467.829	91.06
468.049	87.06
468.268	103.06
468.488	101.06
468.707	97.06
468.927	95.06
469.146	100.06
469.365	99.06
469.585	102.06
469.804	99.06
470.023	100.06
470.243	101.06
470.462	96.06
470.681	100.06
470.901	94.06
471.12	85.06
471.339	102.06
471.558	89.06
471.777	99.06
471.997	112.06
472.216	104.06
472.435	88.06
472.654	92.06
472.873	101.06
473.092	100.06
473.311	105.06
473.53	93.06
473.749	102.06
473.968	101.06
474.187	104.06
474.406	92.06
474.625	102.06
474.844	107.06
475.063	94.06
475.282	116.06
475.501	92.06
475.72	94.06
475.939	103.06
476.158	101.06
476.377	102.06
476.596	94.06
476.814	93.06
477.033	92.06
477.252	91.06
477.471	112.06
477.69	98.06
477.908	110.06
478.127	114.06
478.346	111.06
478.564	93.06
478.783	98.06
479.002	111.06
479.22	90.06
479.439	92.06
479.658	88.06
479.876	100.06
480.095	97.06
480.313	105.06
480.532	108.06
480.751	105.06
480.969	96.06
481.188	98.06
481.406	77.06
481.624	75.06
481.843	109.06
482.061	89.06
482.28	99.06
482.498	93.06
482.717	106.06
482.935	100.06
483.153	123.06
483.372	117.06
483.59	110.06
483.808	115.06
484.027	95.06
484.245	95.06
484.463	96.06
484.681	116.06
484.9	102.06
485.118	108.06
485.336	107.06
485.554	93.06
485.772	101.06
485.99	96.06
486.209	87.06
486.427	94.06
486.645	105.06
486.863	102.06
487.081	106.06
487.299	103.06
487.517	101.06
487.735	118.06
487.953	129.06
488.171	123.06
488.389	108.06
488.607	105.06
488.825	99.06
489.043	120.06
489.261	102.06
489.479	109.06
489.696	110.06
489.914	104.06
490.132	99.06
490.35	117.06
490.568	101.06
490.786	118.06
491.003	111.06
491.221	123.06
491.439	115.06
491.657	125.06
491.874	127.06
492.092	130.06
492.31	127.06
492.527	129.06
492.745	111.06
492.963	131.06
493.18	122.06
493.398	109.06
493.615	108.06
493.833	123.06
494.05	111.06
494.268	113.06
494.485	122.06
494.703	117.06
494.92	117.06
495.138	124.06
495.355	110.06
495.573	121.06
495.79	108.06
496.008	115.06
496.225	120.06
496.442	111.06
496.66	112.06
496.877	119.06
497.094	118.06
497.312	115.06
497.529	115.06
497.746	123.06
497.963	105.06
498.181	95.06
498.398	94.06
498.615	93.06
498.832	97.06
499.049	96.06
499.267	102.06
499.484	93.06
499.701	109.06
499.918	83.06
500.135	104.06
500.352	114.06
500.569	103.06
500.786	110.06
501.003	98.06
501.22	100.06
501.437	109.06
501.654	102.06
501.871	97.06
502.088	110.06
502.305	99.06
502.522	105.06
502.739	97.06
502.956	90.06
503.172	102.06
503.389	101.06
503.606	100.06
503.823	101.06
504.04	94.06
504.256	98.06
504.473	103.06
504.69	101.06
504.907	95.06
505.123	100.06
505.34	101.06
505.557	101.06
505.773	94.06
505.99	99.06
506.207	88.06
506.423	91.06
506.64	99.06
506.856	101.06
507.073	101.06
507.289	93.06
507.506	84.06
507.722	75.06
507.939	109.06
508.155	118.06
508.372	86.06
508.588	95.06
508.805	90.06
509.021	99.06
509.238	95.06
509.454	97.06
509.67	97.06
509.887	88.06
510.103	91.06
510.319	91.06
510.536	101.06
510.752	93.06
510.968	83.06
511.184	97.06
511.401	94.06
511.617	96.06
511.833	89.06
512.049	96.06
512.265	87.06
512.481	96.06
512.698	100.06
512.914	91.06
513.13	96.06
513.346	93.06
513.562	103.06
513.778	95.06
513.994	99.06
514.21	84.06
514.426	97.06
514.642	103.06
