Data from Location3.07152019.Energy5.Lamp.07192019.3%Agarose_HRD10591_15-19-41-269.txt Node
Date: Fri Jul 19 15:19:41 EDT 2019
User: cochatt
Spectrometer: HR+D1059
Trigger mode: 1
Integration Time (sec): 1.000000E-1
Scans to average: 1
Electric dark correction enabled: true
Nonlinearity correction enabled: false
Boxcar width: 0
XAxis mode: Wavelengths
Number of Pixels in Spectrum: 2048
>>>>>Begin Spectral Data<<<<<
223.165	-15.44
223.4	-15.44
223.635	-15.44
223.869	-14.44
224.104	-26.44
224.338	-11.44
224.573	-17.44
224.808	-10.44
225.042	-6.44
225.277	7.56
225.511	-10.44
225.746	-2.44
225.98	5.56
226.215	7.56
226.449	28.56
226.683	15.56
226.918	31.56
227.152	18.56
227.387	42.56
227.621	24.56
227.856	45.56
228.09	44.56
228.324	52.56
228.559	64.56
228.793	58.56
229.027	63.56
229.262	78.56
229.496	68.56
229.73	64.56
229.964	84.56
230.199	73.56
230.433	86.56
230.667	83.56
230.901	74.56
231.136	81.56
231.37	79.56
231.604	86.56
231.838	70.56
232.072	92.56
232.306	81.56
232.541	85.56
232.775	97.56
233.009	91.56
233.243	85.56
233.477	76.56
233.711	85.56
233.945	85.56
234.179	92.56
234.413	77.56
234.647	86.56
234.881	86.56
235.115	91.56
235.349	82.56
235.583	81.56
235.817	87.56
236.051	82.56
236.285	82.56
236.519	77.56
236.753	95.56
236.987	90.56
237.221	86.56
237.455	89.56
237.689	72.56
237.922	87.56
238.156	84.56
238.39	74.56
238.624	72.56
238.858	86.56
239.091	82.56
239.325	90.56
239.559	79.56
239.793	87.56
240.027	83.56
240.26	67.56
240.494	78.56
240.728	76.56
240.961	80.56
241.195	74.56
241.429	73.56
241.662	71.56
241.896	85.56
242.13	85.56
242.363	62.56
242.597	73.56
242.83	87.56
243.064	94.56
243.298	93.56
243.531	79.56
243.765	71.56
243.998	81.56
244.232	89.56
244.465	89.56
244.699	91.56
244.932	79.56
245.166	75.56
245.399	79.56
245.633	72.56
245.866	78.56
246.099	87.56
246.333	83.56
246.566	71.56
246.8	78.56
247.033	79.56
247.266	87.56
247.5	82.56
247.733	84.56
247.966	94.56
248.2	81.56
248.433	80.56
248.666	79.56
248.899	73.56
249.133	84.56
249.366	94.56
249.599	70.56
249.832	88.56
250.066	70.56
250.299	77.56
250.532	90.56
250.765	80.56
250.998	82.56
251.231	82.56
251.465	93.56
251.698	88.56
251.931	91.56
252.164	83.56
252.397	93.56
252.63	77.56
252.863	91.56
253.096	90.56
253.329	90.56
253.562	84.56
253.795	69.56
254.028	79.56
254.261	89.56
254.494	73.56
254.727	71.56
254.96	69.56
255.193	83.56
255.426	76.56
255.659	90.56
255.892	88.56
256.124	85.56
256.357	85.56
256.59	78.56
256.823	87.56
257.056	77.56
257.289	77.56
257.521	87.56
257.754	62.56
257.987	79.56
258.22	81.56
258.452	76.56
258.685	82.56
258.918	77.56
259.151	89.56
259.383	88.56
259.616	86.56
259.849	73.56
260.081	94.56
260.314	94.56
260.547	84.56
260.779	91.56
261.012	86.56
261.244	76.56
261.477	86.56
261.71	85.56
261.942	76.56
262.175	80.56
262.407	82.56
262.64	82.56
262.872	97.56
263.105	90.56
263.337	95.56
263.57	89.56
263.802	71.56
264.035	87.56
264.267	89.56
264.499	88.56
264.732	85.56
264.964	83.56
265.197	97.56
265.429	82.56
265.661	77.56
265.894	93.56
266.126	82.56
266.358	84.56
266.591	84.56
266.823	93.56
267.055	86.56
267.287	86.56
267.52	90.56
267.752	88.56
267.984	90.56
268.216	85.56
268.448	84.56
268.681	86.56
268.913	85.56
269.145	78.56
269.377	90.56
269.609	83.56
269.841	76.56
270.073	79.56
270.306	83.56
270.538	84.56
270.77	84.56
271.002	89.56
271.234	86.56
271.466	92.56
271.698	89.56
271.93	91.56
272.162	76.56
272.394	91.56
272.626	92.56
272.858	82.56
273.09	85.56
273.322	100.56
273.553	94.56
273.785	93.56
274.017	83.56
274.249	74.56
274.481	76.56
274.713	102.56
274.945	79.56
275.176	80.56
275.408	85.56
275.64	87.56
275.872	89.56
276.104	92.56
276.335	78.56
276.567	89.56
276.799	82.56
277.031	78.56
277.262	72.56
277.494	88.56
277.726	93.56
277.957	86.56
278.189	87.56
278.421	83.56
278.652	87.56
278.884	89.56
279.115	77.56
279.347	83.56
279.579	81.56
279.81	94.56
280.042	82.56
280.273	83.56
280.505	70.56
280.736	90.56
280.968	86.56
281.199	95.56
281.431	95.56
281.662	76.56
281.894	86.56
282.125	101.56
282.356	97.56
282.588	83.56
282.819	90.56
283.051	94.56
283.282	96.56
283.513	78.56
283.745	81.56
283.976	95.56
284.207	90.56
284.439	73.56
284.67	87.56
284.901	90.56
285.132	85.56
285.364	84.56
285.595	87.56
285.826	86.56
286.057	87.56
286.288	76.56
286.52	81.56
286.751	83.56
286.982	89.56
287.213	92.56
287.444	82.56
287.675	93.56
287.906	97.56
288.138	88.56
288.369	87.56
288.6	92.56
288.831	91.56
289.062	102.56
289.293	99.56
289.524	89.56
289.755	92.56
289.986	89.56
290.217	91.56
290.448	90.56
290.679	89.56
290.91	88.56
291.141	99.56
291.371	87.56
291.602	94.56
291.833	80.56
292.064	85.56
292.295	78.56
292.526	89.56
292.757	87.56
292.987	104.56
293.218	86.56
293.449	93.56
293.68	76.56
293.91	96.56
294.141	74.56
294.372	87.56
294.603	80.56
294.833	95.56
295.064	107.56
295.295	92.56
295.525	88.56
295.756	92.56
295.987	82.56
296.217	78.56
296.448	89.56
296.679	87.56
296.909	84.56
297.14	96.56
297.37	90.56
297.601	89.56
297.831	82.56
298.062	109.56
298.292	98.56
298.523	95.56
298.753	90.56
298.984	102.56
299.214	93.56
299.445	97.56
299.675	94.56
299.905	92.56
300.136	88.56
300.366	96.56
300.597	92.56
300.827	85.56
301.057	88.56
301.288	77.56
301.518	78.56
301.748	94.56
301.979	83.56
302.209	92.56
302.439	91.56
302.669	87.56
302.9	81.56
303.13	89.56
303.36	90.56
303.59	81.56
303.82	99.56
304.051	88.56
304.281	85.56
304.511	104.56
304.741	81.56
304.971	88.56
305.201	88.56
305.431	90.56
305.661	85.56
305.891	85.56
306.121	67.56
306.352	77.56
306.582	82.56
306.812	74.56
307.042	100.56
307.272	87.56
307.502	107.56
307.731	72.56
307.961	88.56
308.191	90.56
308.421	94.56
308.651	86.56
308.881	88.56
309.111	91.56
309.341	85.56
309.571	94.56
309.8	100.56
310.03	82.56
310.26	88.56
310.49	77.56
310.72	98.56
310.949	85.56
311.179	75.56
311.409	70.56
311.639	77.56
311.868	83.56
312.098	93.56
312.328	87.56
312.557	87.56
312.787	84.56
313.017	100.56
313.246	87.56
313.476	76.56
313.706	89.56
313.935	77.56
314.165	97.56
314.394	89.56
314.624	91.56
314.853	88.56
315.083	84.56
315.312	86.56
315.542	95.56
315.771	90.56
316.001	91.56
316.23	83.56
316.46	85.56
316.689	87.56
316.919	92.56
317.148	94.56
317.377	98.56
317.607	96.56
317.836	91.56
318.065	97.56
318.295	75.56
318.524	87.56
318.753	97.56
318.983	97.56
319.212	88.56
319.441	89.56
319.67	89.56
319.9	87.56
320.129	85.56
320.358	97.56
320.587	77.56
320.816	87.56
321.046	112.56
321.275	94.56
321.504	92.56
321.733	97.56
321.962	74.56
322.191	81.56
322.42	81.56
322.649	77.56
322.878	99.56
323.108	88.56
323.337	89.56
323.566	87.56
323.795	97.56
324.024	101.56
324.253	87.56
324.482	91.56
324.71	97.56
324.939	86.56
325.168	109.56
325.397	78.56
325.626	91.56
325.855	94.56
326.084	82.56
326.313	94.56
326.542	98.56
326.77	94.56
326.999	89.56
327.228	86.56
327.457	101.56
327.686	96.56
327.914	86.56
328.143	77.56
328.372	85.56
328.6	82.56
328.829	82.56
329.058	89.56
329.287	90.56
329.515	92.56
329.744	95.56
329.972	100.56
330.201	85.56
330.43	89.56
330.658	98.56
330.887	93.56
331.115	99.56
331.344	92.56
331.572	82.56
331.801	82.56
332.03	91.56
332.258	87.56
332.486	84.56
332.715	84.56
332.943	86.56
333.172	86.56
333.4	90.56
333.629	91.56
333.857	71.56
334.085	81.56
334.314	92.56
334.542	87.56
334.771	99.56
334.999	91.56
335.227	94.56
335.455	98.56
335.684	99.56
335.912	80.56
336.14	83.56
336.369	79.56
336.597	87.56
336.825	89.56
337.053	83.56
337.281	92.56
337.51	87.56
337.738	96.56
337.966	75.56
338.194	89.56
338.422	102.56
338.65	84.56
338.878	96.56
339.106	91.56
339.334	81.56
339.562	79.56
339.79	83.56
340.018	79.56
340.246	97.56
340.474	98.56
340.702	83.56
340.93	77.56
341.158	77.56
341.386	98.56
341.614	91.56
341.842	84.56
342.07	101.56
342.298	99.56
342.526	95.56
342.754	99.56
342.981	78.56
343.209	64.56
343.437	93.56
343.665	88.56
343.893	89.56
344.12	101.56
344.348	88.56
344.576	95.56
344.804	92.56
345.031	92.56
345.259	82.56
345.487	85.56
345.714	86.56
345.942	97.56
346.17	98.56
346.397	84.56
346.625	84.56
346.853	90.56
347.08	76.56
347.308	91.56
347.535	94.56
347.763	92.56
347.99	88.56
348.218	73.56
348.445	74.56
348.673	83.56
348.9	95.56
349.128	97.56
349.355	83.56
349.583	99.56
349.81	82.56
350.037	86.56
350.265	79.56
350.492	95.56
350.72	78.56
350.947	91.56
351.174	83.56
351.402	82.56
351.629	92.56
351.856	88.56
352.083	86.56
352.311	85.56
352.538	78.56
352.765	95.56
352.992	98.56
353.22	88.56
353.447	92.56
353.674	95.56
353.901	78.56
354.128	83.56
354.355	75.56
354.583	91.56
354.81	83.56
355.037	89.56
355.264	92.56
355.491	87.56
355.718	96.56
355.945	88.56
356.172	97.56
356.399	91.56
356.626	93.56
356.853	79.56
357.08	95.56
357.307	91.56
357.534	86.56
357.761	90.56
357.988	93.56
358.215	85.56
358.441	91.56
358.668	88.56
358.895	79.56
359.122	93.56
359.349	102.56
359.576	92.56
359.802	78.56
360.029	78.56
360.256	79.56
360.483	91.56
360.709	90.56
360.936	90.56
361.163	76.56
361.39	73.56
361.616	106.56
361.843	77.56
362.07	90.56
362.296	74.56
362.523	89.56
362.749	77.56
362.976	75.56
363.203	85.56
363.429	85.56
363.656	89.56
363.882	85.56
364.109	86.56
364.335	89.56
364.562	98.56
364.788	80.56
365.015	89.56
365.241	88.56
365.468	92.56
365.694	82.56
365.92	96.56
366.147	97.56
366.373	87.56
366.599	106.56
366.826	97.56
367.052	95.56
367.278	85.56
367.505	83.56
367.731	69.56
367.957	93.56
368.184	98.56
368.41	92.56
368.636	82.56
368.862	81.56
369.089	78.56
369.315	83.56
369.541	85.56
369.767	84.56
369.993	100.56
370.219	90.56
370.445	88.56
370.672	79.56
370.898	77.56
371.124	72.56
371.35	93.56
371.576	92.56
371.802	83.56
372.028	78.56
372.254	81.56
372.48	104.56
372.706	97.56
372.932	109.56
373.158	87.56
373.384	100.56
373.61	90.56
373.835	98.56
374.061	91.56
374.287	84.56
374.513	78.56
374.739	95.56
374.965	95.56
375.191	81.56
375.416	86.56
375.642	72.56
375.868	73.56
376.094	83.56
376.319	93.56
376.545	87.56
376.771	93.56
376.997	84.56
377.222	86.56
377.448	76.56
377.674	81.56
377.899	96.56
378.125	79.56
378.35	93.56
378.576	91.56
378.802	98.56
379.027	95.56
379.253	97.56
379.478	91.56
379.704	105.56
379.929	103.56
380.155	89.56
380.38	93.56
380.606	92.56
380.831	76.56
381.057	89.56
381.282	86.56
381.507	83.56
381.733	92.56
381.958	91.56
382.184	91.56
382.409	83.56
382.634	88.56
382.86	86.56
383.085	90.56
383.31	77.56
383.535	89.56
383.761	88.56
383.986	100.56
384.211	85.56
384.436	94.56
384.662	93.56
384.887	100.56
385.112	82.56
385.337	90.56
385.562	82.56
385.787	93.56
386.013	98.56
386.238	79.56
386.463	94.56
386.688	91.56
386.913	87.56
387.138	84.56
387.363	108.56
387.588	101.56
387.813	93.56
388.038	77.56
388.263	97.56
388.488	89.56
388.713	87.56
388.938	94.56
389.163	87.56
389.387	94.56
389.612	74.56
389.837	77.56
390.062	103.56
390.287	75.56
390.512	96.56
390.736	83.56
390.961	82.56
391.186	92.56
391.411	91.56
391.636	85.56
391.86	98.56
392.085	94.56
392.31	79.56
392.534	85.56
392.759	96.56
392.984	93.56
393.208	98.56
393.433	87.56
393.658	86.56
393.882	80.56
394.107	87.56
394.331	102.56
394.556	85.56
394.78	93.56
395.005	84.56
395.229	106.56
395.454	82.56
395.678	81.56
395.903	98.56
396.127	94.56
396.352	88.56
396.576	93.56
396.801	92.56
397.025	97.56
397.249	94.56
397.474	95.56
397.698	86.56
397.922	94.56
398.147	99.56
398.371	101.56
398.595	81.56
398.82	90.56
399.044	86.56
399.268	79.56
399.492	89.56
399.717	91.56
399.941	76.56
400.165	85.56
400.389	81.56
400.613	103.56
400.837	101.56
401.062	99.56
401.286	82.56
401.51	83.56
401.734	83.56
401.958	102.56
402.182	102.56
402.406	109.56
402.63	85.56
402.854	89.56
403.078	89.56
403.302	87.56
403.526	98.56
403.75	103.56
403.974	104.56
404.198	103.56
404.422	94.56
404.645	83.56
404.869	101.56
405.093	86.56
405.317	93.56
405.541	104.56
405.765	94.56
405.988	84.56
406.212	107.56
406.436	92.56
406.66	96.56
406.883	92.56
407.107	97.56
407.331	86.56
407.555	104.56
407.778	85.56
408.002	88.56
408.226	93.56
408.449	86.56
408.673	87.56
408.896	94.56
409.12	91.56
409.344	99.56
409.567	91.56
409.791	74.56
410.014	100.56
410.238	105.56
410.461	93.56
410.685	91.56
410.908	80.56
411.132	91.56
411.355	102.56
411.578	86.56
411.802	106.56
412.025	98.56
412.249	79.56
412.472	92.56
412.695	88.56
412.919	99.56
413.142	108.56
413.365	100.56
413.589	101.56
413.812	97.56
414.035	94.56
414.258	92.56
414.482	105.56
414.705	90.56
414.928	95.56
415.151	105.56
415.374	96.56
415.597	95.56
415.821	86.56
416.044	103.56
416.267	104.56
416.49	92.56
416.713	97.56
416.936	90.56
417.159	96.56
417.382	90.56
417.605	91.56
417.828	109.56
418.051	101.56
418.274	82.56
418.497	97.56
418.72	91.56
418.943	106.56
419.166	93.56
419.389	97.56
419.611	111.56
419.834	103.56
420.057	108.56
420.28	99.56
420.503	92.56
420.726	91.56
420.948	113.56
421.171	97.56
421.394	95.56
421.617	99.56
421.839	88.56
422.062	100.56
422.285	100.56
422.507	98.56
422.73	106.56
422.953	83.56
423.175	78.56
423.398	81.56
423.621	93.56
423.843	86.56
424.066	101.56
424.288	97.56
424.511	99.56
424.733	105.56
424.956	93.56
425.178	102.56
425.401	102.56
425.623	109.56
425.846	83.56
426.068	92.56
426.291	88.56
426.513	100.56
426.735	97.56
426.958	99.56
427.18	97.56
427.402	113.56
427.625	86.56
427.847	87.56
428.069	83.56
428.292	90.56
428.514	98.56
428.736	103.56
428.958	91.56
429.181	99.56
429.403	113.56
429.625	94.56
429.847	99.56
430.069	97.56
430.292	88.56
430.514	103.56
430.736	96.56
430.958	99.56
431.18	95.56
431.402	108.56
431.624	102.56
431.846	94.56
432.068	78.56
432.29	81.56
432.512	96.56
432.734	100.56
432.956	92.56
433.178	99.56
433.4	101.56
433.622	108.56
433.844	91.56
434.066	85.56
434.287	106.56
434.509	97.56
434.731	96.56
434.953	86.56
435.175	97.56
435.397	102.56
435.618	105.56
435.84	97.56
436.062	93.56
436.284	89.56
436.505	88.56
436.727	92.56
436.949	109.56
437.17	91.56
437.392	103.56
437.614	90.56
437.835	86.56
438.057	88.56
438.278	95.56
438.5	91.56
438.721	92.56
438.943	86.56
439.165	90.56
439.386	99.56
439.608	113.56
439.829	113.56
440.05	104.56
440.272	106.56
440.493	100.56
440.715	89.56
440.936	109.56
441.158	98.56
441.379	103.56
441.6	115.56
441.822	95.56
442.043	98.56
442.264	82.56
442.486	92.56
442.707	93.56
442.928	88.56
443.149	108.56
443.371	110.56
443.592	89.56
443.813	106.56
444.034	95.56
444.255	99.56
444.476	101.56
444.698	105.56
444.919	93.56
445.14	214.56
445.361	173.56
445.582	118.56
445.803	107.56
446.024	99.56
446.245	105.56
446.466	106.56
446.687	101.56
446.908	124.56
447.129	97.56
447.35	107.56
447.571	94.56
447.792	101.56
448.013	104.56
448.234	106.56
448.455	96.56
448.675	98.56
448.896	103.56
449.117	106.56
449.338	105.56
449.559	90.56
449.779	103.56
450	105.56
450.221	110.56
450.442	115.56
450.662	101.56
450.883	101.56
451.104	96.56
451.324	86.56
451.545	96.56
451.766	90.56
451.986	94.56
452.207	103.56
452.428	103.56
452.648	97.56
452.869	93.56
453.089	99.56
453.31	100.56
453.53	88.56
453.751	98.56
453.971	90.56
454.192	90.56
454.412	89.56
454.633	87.56
454.853	95.56
455.073	93.56
455.294	95.56
455.514	107.56
455.734	91.56
455.955	102.56
456.175	90.56
456.395	105.56
456.616	87.56
456.836	94.56
457.056	101.56
457.276	79.56
457.497	98.56
457.717	94.56
457.937	94.56
458.157	88.56
458.377	86.56
458.598	86.56
458.818	97.56
459.038	77.56
459.258	83.56
459.478	82.56
459.698	75.56
459.918	77.56
460.138	80.56
460.358	88.56
460.578	103.56
460.798	90.56
461.018	94.56
461.238	108.56
461.458	81.56
461.678	85.56
461.898	82.56
462.118	94.56
462.338	98.56
462.558	86.56
462.777	83.56
462.997	84.56
463.217	91.56
463.437	94.56
463.657	95.56
463.876	88.56
464.096	96.56
464.316	103.56
464.536	94.56
464.755	102.56
464.975	91.56
465.195	90.56
465.414	96.56
465.634	101.56
465.854	100.56
466.073	109.56
466.293	84.56
466.512	90.56
466.732	83.56
466.951	93.56
467.171	93.56
467.391	85.56
467.61	99.56
467.829	107.56
468.049	90.56
468.268	91.56
468.488	103.56
468.707	106.56
468.927	99.56
469.146	100.56
469.365	102.56
469.585	107.56
469.804	95.56
470.023	93.56
470.243	98.56
470.462	101.56
470.681	102.56
470.901	95.56
471.12	115.56
471.339	96.56
471.558	101.56
471.777	91.56
471.997	101.56
472.216	92.56
472.435	86.56
472.654	89.56
472.873	87.56
473.092	113.56
473.311	95.56
473.53	99.56
473.749	85.56
473.968	99.56
474.187	96.56
474.406	94.56
474.625	98.56
474.844	99.56
475.063	102.56
475.282	87.56
475.501	99.56
475.72	106.56
475.939	101.56
476.158	108.56
476.377	85.56
476.596	95.56
476.814	85.56
477.033	100.56
477.252	86.56
477.471	85.56
477.69	101.56
477.908	99.56
478.127	100.56
478.346	106.56
478.564	87.56
478.783	85.56
479.002	119.56
479.22	97.56
479.439	107.56
479.658	102.56
479.876	84.56
480.095	91.56
480.313	107.56
480.532	103.56
480.751	92.56
480.969	92.56
481.188	76.56
481.406	87.56
481.624	90.56
481.843	86.56
482.061	94.56
482.28	82.56
482.498	95.56
482.717	98.56
482.935	106.56
483.153	98.56
483.372	106.56
483.59	104.56
483.808	89.56
484.027	96.56
484.245	115.56
484.463	97.56
484.681	130.56
484.9	105.56
485.118	101.56
485.336	106.56
485.554	98.56
485.772	77.56
485.99	95.56
486.209	89.56
486.427	70.56
486.645	89.56
486.863	93.56
487.081	88.56
487.299	95.56
487.517	109.56
487.735	108.56
487.953	128.56
488.171	116.56
488.389	109.56
488.607	115.56
488.825	102.56
489.043	94.56
489.261	94.56
489.479	102.56
489.696	105.56
489.914	100.56
490.132	96.56
490.35	105.56
490.568	96.56
490.786	110.56
491.003	116.56
491.221	105.56
491.439	101.56
491.657	111.56
491.874	116.56
492.092	121.56
492.31	149.56
492.527	133.56
492.745	135.56
492.963	138.56
493.18	115.56
493.398	124.56
493.615	119.56
493.833	108.56
494.05	113.56
494.268	121.56
494.485	114.56
494.703	108.56
494.92	110.56
495.138	102.56
495.355	106.56
495.573	112.56
495.79	120.56
496.008	109.56
496.225	115.56
496.442	103.56
496.66	101.56
496.877	107.56
497.094	130.56
497.312	107.56
497.529	117.56
497.746	108.56
497.963	83.56
498.181	95.56
498.398	86.56
498.615	93.56
498.832	97.56
499.049	95.56
499.267	84.56
499.484	94.56
499.701	97.56
499.918	97.56
500.135	108.56
500.352	113.56
500.569	99.56
500.786	110.56
501.003	98.56
501.22	90.56
501.437	94.56
501.654	110.56
501.871	98.56
502.088	82.56
502.305	98.56
502.522	102.56
502.739	92.56
502.956	89.56
503.172	88.56
503.389	94.56
503.606	98.56
503.823	85.56
504.04	75.56
504.256	89.56
504.473	89.56
504.69	95.56
504.907	99.56
505.123	103.56
505.34	96.56
505.557	91.56
505.773	87.56
505.99	100.56
506.207	103.56
506.423	96.56
506.64	93.56
506.856	93.56
507.073	103.56
507.289	99.56
507.506	88.56
507.722	102.56
507.939	102.56
508.155	86.56
508.372	92.56
508.588	86.56
508.805	102.56
509.021	95.56
509.238	94.56
509.454	92.56
509.67	99.56
509.887	90.56
510.103	85.56
510.319	84.56
510.536	81.56
510.752	88.56
510.968	86.56
511.184	91.56
511.401	81.56
511.617	103.56
511.833	89.56
512.049	93.56
512.265	83.56
512.481	94.56
512.698	90.56
512.914	96.56
513.13	99.56
513.346	79.56
513.562	96.56
513.778	83.56
513.994	83.56
514.21	94.56
514.426	94.56
514.642	80.56
514.858	86.56
515.074	87.56
515.29	100.56
515.506	105.56
515.721	102.56
515.937	98.56
516.153	96.56
