Data from Location3.07152019.Energy5.Lamp.07192019.3%Agarose_HRD10591_15-18-20-269.txt Node
Date: Fri Jul 19 15:18:20 EDT 2019
User: cochatt
Spectrometer: HR+D1059
Trigger mode: 1
Integration Time (sec): 1.000000E-1
Scans to average: 1
Electric dark correction enabled: true
Nonlinearity correction enabled: false
Boxcar width: 0
XAxis mode: Wavelengths
Number of Pixels in Spectrum: 2048
>>>>>Begin Spectral Data<<<<<
223.165	-14.56
223.4	-14.56
223.635	-14.56
223.869	-21.56
224.104	-24.56
224.338	-7.56
224.573	-12.56
224.808	-13.56
225.042	-3.56
225.277	-14.56
225.511	-12.56
225.746	19.44
225.98	9.44
226.215	15.44
226.449	6.44
226.683	23.44
226.918	18.44
227.152	32.44
227.387	29.44
227.621	36.44
227.856	37.44
228.09	31.44
228.324	49.44
228.559	59.44
228.793	56.44
229.027	57.44
229.262	73.44
229.496	75.44
229.73	68.44
229.964	70.44
230.199	65.44
230.433	61.44
230.667	69.44
230.901	83.44
231.136	85.44
231.37	81.44
231.604	80.44
231.838	71.44
232.072	67.44
232.306	94.44
232.541	86.44
232.775	78.44
233.009	80.44
233.243	64.44
233.477	80.44
233.711	81.44
233.945	84.44
234.179	88.44
234.413	68.44
234.647	87.44
234.881	79.44
235.115	93.44
235.349	80.44
235.583	83.44
235.817	75.44
236.051	77.44
236.285	81.44
236.519	80.44
236.753	79.44
236.987	68.44
237.221	83.44
237.455	74.44
237.689	80.44
237.922	77.44
238.156	90.44
238.39	82.44
238.624	73.44
238.858	81.44
239.091	71.44
239.325	71.44
239.559	78.44
239.793	78.44
240.027	82.44
240.26	67.44
240.494	75.44
240.728	61.44
240.961	83.44
241.195	84.44
241.429	78.44
241.662	81.44
241.896	90.44
242.13	78.44
242.363	82.44
242.597	79.44
242.83	80.44
243.064	90.44
243.298	77.44
243.531	69.44
243.765	71.44
243.998	82.44
244.232	77.44
244.465	81.44
244.699	78.44
244.932	67.44
245.166	72.44
245.399	73.44
245.633	84.44
245.866	79.44
246.099	81.44
246.333	70.44
246.566	67.44
246.8	81.44
247.033	74.44
247.266	80.44
247.5	80.44
247.733	82.44
247.966	81.44
248.2	83.44
248.433	85.44
248.666	81.44
248.899	74.44
249.133	89.44
249.366	74.44
249.599	74.44
249.832	89.44
250.066	80.44
250.299	85.44
250.532	73.44
250.765	64.44
250.998	71.44
251.231	74.44
251.465	87.44
251.698	77.44
251.931	57.44
252.164	57.44
252.397	71.44
252.63	72.44
252.863	82.44
253.096	84.44
253.329	99.44
253.562	61.44
253.795	74.44
254.028	90.44
254.261	72.44
254.494	92.44
254.727	84.44
254.96	81.44
255.193	62.44
255.426	84.44
255.659	81.44
255.892	98.44
256.124	86.44
256.357	76.44
256.59	73.44
256.823	75.44
257.056	75.44
257.289	94.44
257.521	81.44
257.754	88.44
257.987	86.44
258.22	63.44
258.452	72.44
258.685	76.44
258.918	54.44
259.151	83.44
259.383	82.44
259.616	92.44
259.849	92.44
260.081	79.44
260.314	74.44
260.547	80.44
260.779	70.44
261.012	67.44
261.244	78.44
261.477	82.44
261.71	73.44
261.942	95.44
262.175	78.44
262.407	76.44
262.64	86.44
262.872	70.44
263.105	73.44
263.337	80.44
263.57	73.44
263.802	85.44
264.035	79.44
264.267	82.44
264.499	93.44
264.732	83.44
264.964	83.44
265.197	80.44
265.429	88.44
265.661	92.44
265.894	83.44
266.126	84.44
266.358	78.44
266.591	98.44
266.823	88.44
267.055	78.44
267.287	77.44
267.52	67.44
267.752	75.44
267.984	83.44
268.216	79.44
268.448	88.44
268.681	88.44
268.913	77.44
269.145	94.44
269.377	83.44
269.609	76.44
269.841	86.44
270.073	97.44
270.306	88.44
270.538	77.44
270.77	84.44
271.002	80.44
271.234	91.44
271.466	86.44
271.698	78.44
271.93	85.44
272.162	84.44
272.394	82.44
272.626	87.44
272.858	88.44
273.09	93.44
273.322	78.44
273.553	91.44
273.785	89.44
274.017	80.44
274.249	80.44
274.481	80.44
274.713	88.44
274.945	84.44
275.176	87.44
275.408	79.44
275.64	75.44
275.872	89.44
276.104	81.44
276.335	90.44
276.567	86.44
276.799	71.44
277.031	83.44
277.262	86.44
277.494	87.44
277.726	80.44
277.957	89.44
278.189	85.44
278.421	85.44
278.652	103.44
278.884	65.44
279.115	87.44
279.347	79.44
279.579	82.44
279.81	76.44
280.042	90.44
280.273	96.44
280.505	87.44
280.736	89.44
280.968	89.44
281.199	87.44
281.431	82.44
281.662	93.44
281.894	90.44
282.125	73.44
282.356	85.44
282.588	93.44
282.819	84.44
283.051	71.44
283.282	72.44
283.513	81.44
283.745	74.44
283.976	86.44
284.207	85.44
284.439	96.44
284.67	87.44
284.901	72.44
285.132	90.44
285.364	86.44
285.595	94.44
285.826	88.44
286.057	88.44
286.288	85.44
286.52	83.44
286.751	72.44
286.982	78.44
287.213	81.44
287.444	98.44
287.675	74.44
287.906	86.44
288.138	75.44
288.369	82.44
288.6	92.44
288.831	86.44
289.062	87.44
289.293	85.44
289.524	87.44
289.755	82.44
289.986	74.44
290.217	90.44
290.448	100.44
290.679	89.44
290.91	75.44
291.141	78.44
291.371	88.44
291.602	90.44
291.833	86.44
292.064	81.44
292.295	88.44
292.526	90.44
292.757	82.44
292.987	98.44
293.218	94.44
293.449	86.44
293.68	87.44
293.91	91.44
294.141	97.44
294.372	82.44
294.603	91.44
294.833	81.44
295.064	81.44
295.295	75.44
295.525	90.44
295.756	80.44
295.987	78.44
296.217	88.44
296.448	97.44
296.679	92.44
296.909	86.44
297.14	75.44
297.37	102.44
297.601	78.44
297.831	86.44
298.062	80.44
298.292	85.44
298.523	83.44
298.753	83.44
298.984	75.44
299.214	75.44
299.445	77.44
299.675	82.44
299.905	85.44
300.136	85.44
300.366	95.44
300.597	90.44
300.827	84.44
301.057	90.44
301.288	83.44
301.518	75.44
301.748	92.44
301.979	94.44
302.209	66.44
302.439	71.44
302.669	98.44
302.9	95.44
303.13	83.44
303.36	85.44
303.59	91.44
303.82	89.44
304.051	76.44
304.281	76.44
304.511	78.44
304.741	83.44
304.971	78.44
305.201	82.44
305.431	90.44
305.661	89.44
305.891	88.44
306.121	78.44
306.352	94.44
306.582	86.44
306.812	96.44
307.042	85.44
307.272	86.44
307.502	87.44
307.731	85.44
307.961	86.44
308.191	81.44
308.421	80.44
308.651	71.44
308.881	82.44
309.111	78.44
309.341	85.44
309.571	82.44
309.8	94.44
310.03	86.44
310.26	88.44
310.49	72.44
310.72	75.44
310.949	83.44
311.179	85.44
311.409	88.44
311.639	88.44
311.868	76.44
312.098	69.44
312.328	84.44
312.557	95.44
312.787	87.44
313.017	92.44
313.246	81.44
313.476	94.44
313.706	90.44
313.935	76.44
314.165	78.44
314.394	83.44
314.624	81.44
314.853	83.44
315.083	83.44
315.312	82.44
315.542	74.44
315.771	73.44
316.001	73.44
316.23	102.44
316.46	94.44
316.689	93.44
316.919	88.44
317.148	85.44
317.377	75.44
317.607	88.44
317.836	82.44
318.065	92.44
318.295	88.44
318.524	84.44
318.753	85.44
318.983	68.44
319.212	94.44
319.441	84.44
319.67	96.44
319.9	83.44
320.129	90.44
320.358	80.44
320.587	69.44
320.816	81.44
321.046	84.44
321.275	88.44
321.504	99.44
321.733	91.44
321.962	81.44
322.191	70.44
322.42	76.44
322.649	80.44
322.878	75.44
323.108	84.44
323.337	87.44
323.566	85.44
323.795	84.44
324.024	82.44
324.253	75.44
324.482	83.44
324.71	87.44
324.939	81.44
325.168	77.44
325.397	92.44
325.626	84.44
325.855	81.44
326.084	81.44
326.313	82.44
326.542	75.44
326.77	78.44
326.999	76.44
327.228	78.44
327.457	76.44
327.686	100.44
327.914	99.44
328.143	81.44
328.372	82.44
328.6	70.44
328.829	77.44
329.058	74.44
329.287	84.44
329.515	80.44
329.744	75.44
329.972	97.44
330.201	83.44
330.43	77.44
330.658	83.44
330.887	81.44
331.115	74.44
331.344	80.44
331.572	82.44
331.801	92.44
332.03	78.44
332.258	83.44
332.486	84.44
332.715	74.44
332.943	83.44
333.172	68.44
333.4	82.44
333.629	65.44
333.857	92.44
334.085	64.44
334.314	65.44
334.542	75.44
334.771	86.44
334.999	87.44
335.227	103.44
335.455	82.44
335.684	80.44
335.912	82.44
336.14	85.44
336.369	79.44
336.597	75.44
336.825	83.44
337.053	68.44
337.281	85.44
337.51	82.44
337.738	74.44
337.966	80.44
338.194	98.44
338.422	78.44
338.65	80.44
338.878	91.44
339.106	89.44
339.334	87.44
339.562	83.44
339.79	90.44
340.018	81.44
340.246	73.44
340.474	78.44
340.702	80.44
340.93	73.44
341.158	70.44
341.386	58.44
341.614	84.44
341.842	69.44
342.07	73.44
342.298	75.44
342.526	76.44
342.754	69.44
342.981	84.44
343.209	83.44
343.437	78.44
343.665	81.44
343.893	88.44
344.12	83.44
344.348	84.44
344.576	87.44
344.804	68.44
345.031	79.44
345.259	96.44
345.487	103.44
345.714	90.44
345.942	72.44
346.17	74.44
346.397	84.44
346.625	67.44
346.853	90.44
347.08	72.44
347.308	85.44
347.535	85.44
347.763	92.44
347.99	82.44
348.218	73.44
348.445	81.44
348.673	76.44
348.9	71.44
349.128	87.44
349.355	82.44
349.583	99.44
349.81	76.44
350.037	81.44
350.265	81.44
350.492	91.44
350.72	98.44
350.947	73.44
351.174	66.44
351.402	79.44
351.629	86.44
351.856	78.44
352.083	75.44
352.311	86.44
352.538	79.44
352.765	84.44
352.992	88.44
353.22	86.44
353.447	85.44
353.674	87.44
353.901	76.44
354.128	91.44
354.355	75.44
354.583	87.44
354.81	102.44
355.037	80.44
355.264	79.44
355.491	82.44
355.718	86.44
355.945	80.44
356.172	83.44
356.399	86.44
356.626	91.44
356.853	81.44
357.08	76.44
357.307	82.44
357.534	88.44
357.761	91.44
357.988	75.44
358.215	100.44
358.441	73.44
358.668	88.44
358.895	82.44
359.122	90.44
359.349	82.44
359.576	88.44
359.802	86.44
360.029	87.44
360.256	88.44
360.483	88.44
360.709	85.44
360.936	85.44
361.163	82.44
361.39	75.44
361.616	81.44
361.843	75.44
362.07	74.44
362.296	83.44
362.523	83.44
362.749	87.44
362.976	78.44
363.203	88.44
363.429	73.44
363.656	85.44
363.882	80.44
364.109	81.44
364.335	87.44
364.562	80.44
364.788	75.44
365.015	86.44
365.241	82.44
365.468	84.44
365.694	98.44
365.92	72.44
366.147	85.44
366.373	88.44
366.599	78.44
366.826	82.44
367.052	97.44
367.278	89.44
367.505	73.44
367.731	89.44
367.957	66.44
368.184	97.44
368.41	93.44
368.636	88.44
368.862	88.44
369.089	91.44
369.315	90.44
369.541	84.44
369.767	78.44
369.993	84.44
370.219	81.44
370.445	86.44
370.672	68.44
370.898	81.44
371.124	89.44
371.35	84.44
371.576	77.44
371.802	90.44
372.028	83.44
372.254	73.44
372.48	84.44
372.706	90.44
372.932	89.44
373.158	79.44
373.384	94.44
373.61	82.44
373.835	74.44
374.061	83.44
374.287	83.44
374.513	96.44
374.739	96.44
374.965	81.44
375.191	90.44
375.416	96.44
375.642	85.44
375.868	95.44
376.094	83.44
376.319	86.44
376.545	81.44
376.771	73.44
376.997	83.44
377.222	103.44
377.448	89.44
377.674	78.44
377.899	86.44
378.125	89.44
378.35	92.44
378.576	83.44
378.802	78.44
379.027	92.44
379.253	98.44
379.478	92.44
379.704	89.44
379.929	93.44
380.155	82.44
380.38	86.44
380.606	99.44
380.831	80.44
381.057	92.44
381.282	81.44
381.507	88.44
381.733	93.44
381.958	84.44
382.184	88.44
382.409	73.44
382.634	86.44
382.86	79.44
383.085	96.44
383.31	70.44
383.535	96.44
383.761	94.44
383.986	97.44
384.211	88.44
384.436	92.44
384.662	91.44
384.887	87.44
385.112	75.44
385.337	79.44
385.562	80.44
385.787	82.44
386.013	82.44
386.238	90.44
386.463	83.44
386.688	85.44
386.913	87.44
387.138	80.44
387.363	85.44
387.588	81.44
387.813	79.44
388.038	87.44
388.263	73.44
388.488	98.44
388.713	87.44
388.938	89.44
389.163	97.44
389.387	81.44
389.612	88.44
389.837	85.44
390.062	97.44
390.287	89.44
390.512	102.44
390.736	91.44
390.961	90.44
391.186	97.44
391.411	94.44
391.636	85.44
391.86	86.44
392.085	78.44
392.31	96.44
392.534	82.44
392.759	79.44
392.984	91.44
393.208	91.44
393.433	110.44
393.658	81.44
393.882	87.44
394.107	86.44
394.331	87.44
394.556	81.44
394.78	76.44
395.005	91.44
395.229	78.44
395.454	85.44
395.678	90.44
395.903	87.44
396.127	79.44
396.352	86.44
396.576	76.44
396.801	92.44
397.025	99.44
397.249	95.44
397.474	87.44
397.698	83.44
397.922	91.44
398.147	95.44
398.371	88.44
398.595	78.44
398.82	94.44
399.044	85.44
399.268	79.44
399.492	77.44
399.717	100.44
399.941	89.44
400.165	100.44
400.389	97.44
400.613	80.44
400.837	97.44
401.062	77.44
401.286	81.44
401.51	75.44
401.734	81.44
401.958	91.44
402.182	98.44
402.406	85.44
402.63	88.44
402.854	88.44
403.078	82.44
403.302	82.44
403.526	73.44
403.75	88.44
403.974	94.44
404.198	88.44
404.422	79.44
404.645	80.44
404.869	73.44
405.093	93.44
405.317	104.44
405.541	82.44
405.765	87.44
405.988	97.44
406.212	93.44
406.436	95.44
406.66	93.44
406.883	96.44
407.107	87.44
407.331	90.44
407.555	93.44
407.778	98.44
408.002	97.44
408.226	94.44
408.449	88.44
408.673	86.44
408.896	89.44
409.12	95.44
409.344	99.44
409.567	98.44
409.791	118.44
410.014	85.44
410.238	99.44
410.461	104.44
410.685	106.44
410.908	95.44
411.132	94.44
411.355	94.44
411.578	92.44
411.802	91.44
412.025	95.44
412.249	78.44
412.472	86.44
412.695	100.44
412.919	99.44
413.142	102.44
413.365	94.44
413.589	99.44
413.812	91.44
414.035	90.44
414.258	92.44
414.482	96.44
414.705	80.44
414.928	103.44
415.151	98.44
415.374	77.44
415.597	91.44
415.821	82.44
416.044	77.44
416.267	86.44
416.49	79.44
416.713	76.44
416.936	105.44
417.159	94.44
417.382	68.44
417.605	75.44
417.828	101.44
418.051	95.44
418.274	96.44
418.497	93.44
418.72	86.44
418.943	106.44
419.166	105.44
419.389	105.44
419.611	85.44
419.834	83.44
420.057	96.44
420.28	95.44
420.503	87.44
420.726	93.44
420.948	84.44
421.171	80.44
421.394	85.44
421.617	86.44
421.839	102.44
422.062	90.44
422.285	86.44
422.507	101.44
422.73	99.44
422.953	99.44
423.175	99.44
423.398	91.44
423.621	102.44
423.843	85.44
424.066	90.44
424.288	93.44
424.511	95.44
424.733	87.44
424.956	92.44
425.178	101.44
425.401	96.44
425.623	106.44
425.846	99.44
426.068	95.44
426.291	90.44
426.513	100.44
426.735	91.44
426.958	103.44
427.18	89.44
427.402	102.44
427.625	82.44
427.847	85.44
428.069	99.44
428.292	89.44
428.514	92.44
428.736	92.44
428.958	91.44
429.181	83.44
429.403	92.44
429.625	97.44
429.847	91.44
430.069	85.44
430.292	100.44
430.514	86.44
430.736	102.44
430.958	104.44
431.18	90.44
431.402	85.44
431.624	85.44
431.846	92.44
432.068	91.44
432.29	87.44
432.512	82.44
432.734	79.44
432.956	102.44
433.178	107.44
433.4	100.44
433.622	89.44
433.844	95.44
434.066	93.44
434.287	78.44
434.509	87.44
434.731	74.44
434.953	80.44
435.175	77.44
435.397	100.44
435.618	98.44
435.84	81.44
436.062	88.44
436.284	89.44
436.505	112.44
436.727	89.44
436.949	96.44
437.17	87.44
437.392	94.44
437.614	98.44
437.835	82.44
438.057	88.44
438.278	81.44
438.5	92.44
438.721	103.44
438.943	116.44
439.165	85.44
439.386	101.44
439.608	95.44
439.829	93.44
440.05	101.44
440.272	103.44
440.493	86.44
440.715	100.44
440.936	98.44
441.158	97.44
441.379	90.44
441.6	83.44
441.822	112.44
442.043	106.44
442.264	89.44
442.486	102.44
442.707	89.44
442.928	79.44
443.149	96.44
443.371	100.44
443.592	95.44
443.813	99.44
444.034	97.44
444.255	93.44
444.476	98.44
444.698	97.44
444.919	100.44
445.14	210.44
445.361	139.44
445.582	112.44
445.803	108.44
446.024	104.44
446.245	110.44
446.466	98.44
446.687	109.44
446.908	94.44
447.129	106.44
447.35	108.44
447.571	107.44
447.792	97.44
448.013	89.44
448.234	99.44
448.455	110.44
448.675	90.44
448.896	92.44
449.117	107.44
449.338	91.44
449.559	111.44
449.779	109.44
450	99.44
450.221	102.44
450.442	98.44
450.662	102.44
450.883	92.44
451.104	110.44
451.324	109.44
451.545	99.44
451.766	89.44
451.986	101.44
452.207	103.44
452.428	93.44
452.648	100.44
452.869	87.44
453.089	102.44
453.31	101.44
453.53	95.44
453.751	83.44
453.971	90.44
454.192	81.44
454.412	99.44
454.633	82.44
454.853	86.44
455.073	95.44
455.294	85.44
455.514	95.44
455.734	98.44
455.955	94.44
456.175	93.44
456.395	90.44
456.616	82.44
456.836	85.44
457.056	102.44
457.276	78.44
457.497	81.44
457.717	82.44
457.937	91.44
458.157	86.44
458.377	71.44
458.598	87.44
458.818	92.44
459.038	91.44
459.258	85.44
459.478	81.44
459.698	76.44
459.918	82.44
460.138	80.44
460.358	65.44
460.578	80.44
460.798	77.44
461.018	84.44
461.238	92.44
461.458	88.44
461.678	80.44
461.898	90.44
462.118	94.44
462.338	91.44
462.558	94.44
462.777	86.44
462.997	86.44
463.217	80.44
463.437	90.44
463.657	95.44
463.876	92.44
464.096	86.44
464.316	93.44
464.536	88.44
464.755	93.44
464.975	87.44
465.195	95.44
465.414	86.44
465.634	100.44
465.854	88.44
466.073	87.44
466.293	92.44
466.512	89.44
466.732	85.44
466.951	101.44
467.171	97.44
467.391	107.44
467.61	96.44
467.829	106.44
468.049	103.44
468.268	93.44
468.488	110.44
468.707	97.44
468.927	107.44
469.146	94.44
469.365	98.44
469.585	101.44
469.804	104.44
470.023	87.44
470.243	89.44
470.462	88.44
470.681	100.44
470.901	96.44
471.12	101.44
471.339	97.44
471.558	96.44
471.777	97.44
471.997	110.44
472.216	95.44
472.435	74.44
472.654	97.44
472.873	91.44
473.092	86.44
473.311	74.44
473.53	105.44
473.749	92.44
473.968	83.44
474.187	78.44
474.406	78.44
474.625	83.44
474.844	105.44
475.063	106.44
475.282	96.44
475.501	69.44
475.72	105.44
475.939	85.44
476.158	81.44
476.377	97.44
476.596	77.44
476.814	85.44
477.033	106.44
477.252	90.44
477.471	90.44
477.69	96.44
477.908	98.44
478.127	106.44
478.346	87.44
478.564	92.44
478.783	113.44
479.002	97.44
479.22	96.44
479.439	93.44
479.658	88.44
479.876	105.44
480.095	86.44
480.313	98.44
480.532	102.44
480.751	87.44
480.969	85.44
481.188	80.44
481.406	85.44
481.624	78.44
481.843	81.44
482.061	75.44
482.28	94.44
482.498	74.44
482.717	92.44
482.935	94.44
483.153	93.44
483.372	91.44
483.59	113.44
483.808	96.44
484.027	98.44
484.245	93.44
484.463	109.44
484.681	117.44
484.9	109.44
485.118	105.44
485.336	83.44
485.554	92.44
485.772	105.44
485.99	88.44
486.209	72.44
486.427	89.44
486.645	103.44
486.863	113.44
487.081	100.44
487.299	92.44
487.517	101.44
487.735	119.44
487.953	88.44
488.171	103.44
488.389	109.44
488.607	108.44
488.825	89.44
489.043	91.44
489.261	98.44
489.479	90.44
489.696	100.44
489.914	100.44
490.132	104.44
490.35	111.44
490.568	113.44
490.786	111.44
491.003	109.44
491.221	103.44
491.439	123.44
491.657	102.44
491.874	115.44
492.092	117.44
492.31	121.44
492.527	135.44
492.745	112.44
492.963	115.44
493.18	125.44
493.398	119.44
493.615	103.44
493.833	115.44
494.05	118.44
494.268	108.44
494.485	103.44
494.703	107.44
494.92	100.44
495.138	109.44
495.355	98.44
495.573	112.44
495.79	119.44
496.008	102.44
496.225	106.44
496.442	108.44
496.66	119.44
496.877	95.44
497.094	106.44
497.312	90.44
497.529	107.44
497.746	103.44
497.963	99.44
498.181	94.44
498.398	98.44
498.615	98.44
498.832	102.44
499.049	102.44
499.267	88.44
499.484	94.44
499.701	102.44
499.918	104.44
500.135	103.44
500.352	116.44
500.569	96.44
500.786	109.44
501.003	107.44
501.22	82.44
501.437	100.44
501.654	97.44
501.871	86.44
502.088	97.44
502.305	95.44
502.522	100.44
502.739	84.44
502.956	83.44
503.172	88.44
503.389	83.44
503.606	95.44
503.823	83.44
504.04	87.44
504.256	101.44
504.473	98.44
504.69	93.44
504.907	105.44
505.123	91.44
505.34	99.44
505.557	89.44
505.773	101.44
505.99	83.44
506.207	97.44
506.423	92.44
506.64	97.44
506.856	66.44
507.073	77.44
507.289	85.44
507.506	85.44
507.722	96.44
507.939	87.44
508.155	90.44
508.372	78.44
508.588	82.44
508.805	84.44
509.021	88.44
509.238	89.44
509.454	89.44
509.67	72.44
509.887	83.44
510.103	100.44
510.319	88.44
510.536	83.44
510.752	72.44
510.968	83.44
511.184	76.44
511.401	84.44
511.617	83.44
511.833	93.44
512.049	89.44
512.265	85.44
512.481	80.44
512.698	84.44
512.914	84.44
513.13	89.44
513.346	81.44
513.562	88.44
513.778	70.44
513.994	82.44
514.21	93.44
514.426	75.44
514.642	85.44
514.858	83.44
515.074	88.44
515.29	89.44
515.506	79.44
515.721	76.44
515.937	83.44
516.153	91.44
516.369	86.44
516.585	91.44
516.801	80.44
517.016	93.44
517.232	84.44
