Data from Location3.07152019.Energy5.Lamp.07192019.3%Agarose_HRD10591_15-16-34-269.txt Node
Date: Fri Jul 19 15:16:34 EDT 2019
User: cochatt
Spectrometer: HR+D1059
Trigger mode: 1
Integration Time (sec): 1.000000E-1
Scans to average: 1
Electric dark correction enabled: true
Nonlinearity correction enabled: false
Boxcar width: 0
XAxis mode: Wavelengths
Number of Pixels in Spectrum: 2048
>>>>>Begin Spectral Data<<<<<
223.165	-7.88
223.4	-7.88
223.635	-7.88
223.869	-22.88
224.104	-26.88
224.338	0.12
224.573	-9.88
224.808	-10.88
225.042	1.12
225.277	-17.88
225.511	-13.88
225.746	5.12
225.98	15.12
226.215	10.12
226.449	16.12
226.683	8.12
226.918	28.12
227.152	26.12
227.387	33.12
227.621	43.12
227.856	32.12
228.09	32.12
228.324	50.12
228.559	55.12
228.793	53.12
229.027	54.12
229.262	68.12
229.496	75.12
229.73	77.12
229.964	71.12
230.199	74.12
230.433	64.12
230.667	74.12
230.901	71.12
231.136	77.12
231.37	80.12
231.604	83.12
231.838	81.12
232.072	79.12
232.306	73.12
232.541	89.12
232.775	69.12
233.009	87.12
233.243	81.12
233.477	77.12
233.711	95.12
233.945	83.12
234.179	76.12
234.413	89.12
234.647	76.12
234.881	84.12
235.115	74.12
235.349	81.12
235.583	89.12
235.817	89.12
236.051	86.12
236.285	77.12
236.519	90.12
236.753	89.12
236.987	72.12
237.221	93.12
237.455	80.12
237.689	78.12
237.922	70.12
238.156	66.12
238.39	88.12
238.624	69.12
238.858	82.12
239.091	70.12
239.325	80.12
239.559	75.12
239.793	64.12
240.027	91.12
240.26	74.12
240.494	69.12
240.728	96.12
240.961	75.12
241.195	67.12
241.429	87.12
241.662	87.12
241.896	89.12
242.13	84.12
242.363	62.12
242.597	80.12
242.83	72.12
243.064	80.12
243.298	84.12
243.531	56.12
243.765	81.12
243.998	88.12
244.232	74.12
244.465	87.12
244.699	60.12
244.932	69.12
245.166	99.12
245.399	84.12
245.633	69.12
245.866	83.12
246.099	76.12
246.333	75.12
246.566	80.12
246.8	74.12
247.033	69.12
247.266	84.12
247.5	70.12
247.733	88.12
247.966	79.12
248.2	97.12
248.433	70.12
248.666	76.12
248.899	61.12
249.133	74.12
249.366	72.12
249.599	75.12
249.832	81.12
250.066	91.12
250.299	73.12
250.532	80.12
250.765	82.12
250.998	83.12
251.231	93.12
251.465	78.12
251.698	66.12
251.931	85.12
252.164	90.12
252.397	71.12
252.63	88.12
252.863	84.12
253.096	81.12
253.329	80.12
253.562	74.12
253.795	86.12
254.028	93.12
254.261	68.12
254.494	74.12
254.727	90.12
254.96	81.12
255.193	82.12
255.426	94.12
255.659	74.12
255.892	89.12
256.124	76.12
256.357	83.12
256.59	83.12
256.823	93.12
257.056	81.12
257.289	88.12
257.521	80.12
257.754	86.12
257.987	84.12
258.22	91.12
258.452	90.12
258.685	70.12
258.918	78.12
259.151	82.12
259.383	89.12
259.616	87.12
259.849	83.12
260.081	78.12
260.314	77.12
260.547	81.12
260.779	79.12
261.012	79.12
261.244	80.12
261.477	80.12
261.71	80.12
261.942	90.12
262.175	77.12
262.407	83.12
262.64	91.12
262.872	58.12
263.105	87.12
263.337	106.12
263.57	85.12
263.802	82.12
264.035	87.12
264.267	90.12
264.499	89.12
264.732	61.12
264.964	93.12
265.197	92.12
265.429	87.12
265.661	75.12
265.894	86.12
266.126	84.12
266.358	87.12
266.591	76.12
266.823	78.12
267.055	92.12
267.287	78.12
267.52	80.12
267.752	79.12
267.984	76.12
268.216	76.12
268.448	100.12
268.681	69.12
268.913	84.12
269.145	64.12
269.377	78.12
269.609	89.12
269.841	77.12
270.073	77.12
270.306	80.12
270.538	82.12
270.77	89.12
271.002	105.12
271.234	91.12
271.466	92.12
271.698	90.12
271.93	97.12
272.162	72.12
272.394	84.12
272.626	68.12
272.858	86.12
273.09	93.12
273.322	89.12
273.553	73.12
273.785	70.12
274.017	93.12
274.249	82.12
274.481	85.12
274.713	84.12
274.945	84.12
275.176	79.12
275.408	83.12
275.64	74.12
275.872	81.12
276.104	92.12
276.335	83.12
276.567	79.12
276.799	81.12
277.031	89.12
277.262	84.12
277.494	92.12
277.726	83.12
277.957	87.12
278.189	84.12
278.421	87.12
278.652	91.12
278.884	73.12
279.115	95.12
279.347	85.12
279.579	88.12
279.81	81.12
280.042	94.12
280.273	73.12
280.505	77.12
280.736	91.12
280.968	84.12
281.199	92.12
281.431	96.12
281.662	71.12
281.894	79.12
282.125	82.12
282.356	85.12
282.588	87.12
282.819	95.12
283.051	81.12
283.282	93.12
283.513	80.12
283.745	98.12
283.976	88.12
284.207	92.12
284.439	83.12
284.67	75.12
284.901	80.12
285.132	95.12
285.364	89.12
285.595	78.12
285.826	87.12
286.057	92.12
286.288	81.12
286.52	88.12
286.751	79.12
286.982	85.12
287.213	86.12
287.444	77.12
287.675	84.12
287.906	95.12
288.138	83.12
288.369	94.12
288.6	89.12
288.831	82.12
289.062	71.12
289.293	88.12
289.524	90.12
289.755	82.12
289.986	84.12
290.217	85.12
290.448	91.12
290.679	94.12
290.91	75.12
291.141	90.12
291.371	93.12
291.602	89.12
291.833	88.12
292.064	87.12
292.295	84.12
292.526	107.12
292.757	103.12
292.987	77.12
293.218	69.12
293.449	78.12
293.68	83.12
293.91	84.12
294.141	100.12
294.372	77.12
294.603	99.12
294.833	81.12
295.064	85.12
295.295	85.12
295.525	90.12
295.756	86.12
295.987	75.12
296.217	83.12
296.448	101.12
296.679	79.12
296.909	88.12
297.14	99.12
297.37	76.12
297.601	85.12
297.831	90.12
298.062	84.12
298.292	87.12
298.523	94.12
298.753	84.12
298.984	83.12
299.214	92.12
299.445	97.12
299.675	81.12
299.905	85.12
300.136	87.12
300.366	87.12
300.597	92.12
300.827	80.12
301.057	79.12
301.288	93.12
301.518	91.12
301.748	91.12
301.979	84.12
302.209	75.12
302.439	93.12
302.669	87.12
302.9	99.12
303.13	98.12
303.36	90.12
303.59	84.12
303.82	84.12
304.051	78.12
304.281	82.12
304.511	93.12
304.741	78.12
304.971	82.12
305.201	80.12
305.431	83.12
305.661	71.12
305.891	85.12
306.121	83.12
306.352	83.12
306.582	90.12
306.812	81.12
307.042	83.12
307.272	68.12
307.502	95.12
307.731	87.12
307.961	85.12
308.191	91.12
308.421	88.12
308.651	86.12
308.881	98.12
309.111	103.12
309.341	86.12
309.571	65.12
309.8	84.12
310.03	83.12
310.26	92.12
310.49	83.12
310.72	84.12
310.949	95.12
311.179	90.12
311.409	87.12
311.639	85.12
311.868	82.12
312.098	108.12
312.328	91.12
312.557	106.12
312.787	74.12
313.017	104.12
313.246	86.12
313.476	85.12
313.706	84.12
313.935	86.12
314.165	82.12
314.394	80.12
314.624	83.12
314.853	80.12
315.083	96.12
315.312	87.12
315.542	75.12
315.771	89.12
316.001	83.12
316.23	88.12
316.46	88.12
316.689	80.12
316.919	92.12
317.148	90.12
317.377	82.12
317.607	80.12
317.836	75.12
318.065	86.12
318.295	92.12
318.524	95.12
318.753	74.12
318.983	88.12
319.212	92.12
319.441	81.12
319.67	86.12
319.9	96.12
320.129	89.12
320.358	93.12
320.587	88.12
320.816	89.12
321.046	78.12
321.275	82.12
321.504	88.12
321.733	89.12
321.962	86.12
322.191	83.12
322.42	96.12
322.649	84.12
322.878	91.12
323.108	93.12
323.337	88.12
323.566	85.12
323.795	94.12
324.024	73.12
324.253	93.12
324.482	76.12
324.71	66.12
324.939	88.12
325.168	99.12
325.397	85.12
325.626	91.12
325.855	92.12
326.084	77.12
326.313	74.12
326.542	88.12
326.77	91.12
326.999	88.12
327.228	90.12
327.457	80.12
327.686	88.12
327.914	76.12
328.143	91.12
328.372	90.12
328.6	93.12
328.829	101.12
329.058	86.12
329.287	89.12
329.515	105.12
329.744	87.12
329.972	88.12
330.201	80.12
330.43	74.12
330.658	87.12
330.887	89.12
331.115	104.12
331.344	86.12
331.572	93.12
331.801	72.12
332.03	84.12
332.258	89.12
332.486	101.12
332.715	82.12
332.943	84.12
333.172	87.12
333.4	89.12
333.629	85.12
333.857	76.12
334.085	91.12
334.314	93.12
334.542	84.12
334.771	80.12
334.999	95.12
335.227	87.12
335.455	78.12
335.684	84.12
335.912	95.12
336.14	91.12
336.369	98.12
336.597	92.12
336.825	84.12
337.053	88.12
337.281	92.12
337.51	94.12
337.738	75.12
337.966	87.12
338.194	89.12
338.422	92.12
338.65	90.12
338.878	92.12
339.106	95.12
339.334	91.12
339.562	90.12
339.79	88.12
340.018	83.12
340.246	95.12
340.474	84.12
340.702	93.12
340.93	89.12
341.158	96.12
341.386	83.12
341.614	92.12
341.842	75.12
342.07	78.12
342.298	82.12
342.526	79.12
342.754	84.12
342.981	77.12
343.209	76.12
343.437	88.12
343.665	76.12
343.893	102.12
344.12	89.12
344.348	85.12
344.576	87.12
344.804	82.12
345.031	95.12
345.259	84.12
345.487	75.12
345.714	80.12
345.942	78.12
346.17	67.12
346.397	88.12
346.625	88.12
346.853	86.12
347.08	95.12
347.308	94.12
347.535	73.12
347.763	80.12
347.99	83.12
348.218	83.12
348.445	81.12
348.673	90.12
348.9	84.12
349.128	82.12
349.355	82.12
349.583	100.12
349.81	87.12
350.037	98.12
350.265	88.12
350.492	91.12
350.72	77.12
350.947	83.12
351.174	93.12
351.402	86.12
351.629	72.12
351.856	86.12
352.083	85.12
352.311	102.12
352.538	90.12
352.765	92.12
352.992	77.12
353.22	88.12
353.447	97.12
353.674	100.12
353.901	101.12
354.128	88.12
354.355	84.12
354.583	74.12
354.81	89.12
355.037	76.12
355.264	92.12
355.491	81.12
355.718	81.12
355.945	80.12
356.172	81.12
356.399	82.12
356.626	71.12
356.853	75.12
357.08	90.12
357.307	82.12
357.534	103.12
357.761	90.12
357.988	86.12
358.215	85.12
358.441	90.12
358.668	75.12
358.895	84.12
359.122	75.12
359.349	73.12
359.576	93.12
359.802	85.12
360.029	75.12
360.256	79.12
360.483	86.12
360.709	75.12
360.936	77.12
361.163	72.12
361.39	94.12
361.616	87.12
361.843	77.12
362.07	88.12
362.296	78.12
362.523	82.12
362.749	80.12
362.976	95.12
363.203	81.12
363.429	88.12
363.656	83.12
363.882	75.12
364.109	88.12
364.335	91.12
364.562	92.12
364.788	87.12
365.015	73.12
365.241	83.12
365.468	92.12
365.694	93.12
365.92	82.12
366.147	79.12
366.373	81.12
366.599	82.12
366.826	75.12
367.052	89.12
367.278	72.12
367.505	96.12
367.731	96.12
367.957	88.12
368.184	69.12
368.41	100.12
368.636	83.12
368.862	78.12
369.089	95.12
369.315	93.12
369.541	89.12
369.767	96.12
369.993	80.12
370.219	76.12
370.445	85.12
370.672	96.12
370.898	91.12
371.124	96.12
371.35	83.12
371.576	85.12
371.802	76.12
372.028	81.12
372.254	86.12
372.48	96.12
372.706	82.12
372.932	77.12
373.158	105.12
373.384	88.12
373.61	84.12
373.835	76.12
374.061	93.12
374.287	97.12
374.513	87.12
374.739	73.12
374.965	68.12
375.191	85.12
375.416	84.12
375.642	95.12
375.868	80.12
376.094	100.12
376.319	83.12
376.545	98.12
376.771	81.12
376.997	99.12
377.222	85.12
377.448	93.12
377.674	102.12
377.899	81.12
378.125	90.12
378.35	89.12
378.576	90.12
378.802	84.12
379.027	83.12
379.253	88.12
379.478	82.12
379.704	73.12
379.929	93.12
380.155	92.12
380.38	82.12
380.606	84.12
380.831	87.12
381.057	82.12
381.282	72.12
381.507	90.12
381.733	89.12
381.958	98.12
382.184	89.12
382.409	91.12
382.634	90.12
382.86	92.12
383.085	87.12
383.31	99.12
383.535	98.12
383.761	86.12
383.986	86.12
384.211	100.12
384.436	76.12
384.662	82.12
384.887	104.12
385.112	77.12
385.337	92.12
385.562	92.12
385.787	88.12
386.013	109.12
386.238	87.12
386.463	84.12
386.688	72.12
386.913	79.12
387.138	90.12
387.363	83.12
387.588	94.12
387.813	78.12
388.038	95.12
388.263	86.12
388.488	87.12
388.713	88.12
388.938	86.12
389.163	80.12
389.387	97.12
389.612	94.12
389.837	89.12
390.062	94.12
390.287	84.12
390.512	87.12
390.736	70.12
390.961	98.12
391.186	92.12
391.411	97.12
391.636	72.12
391.86	77.12
392.085	80.12
392.31	81.12
392.534	90.12
392.759	92.12
392.984	85.12
393.208	94.12
393.433	100.12
393.658	107.12
393.882	91.12
394.107	89.12
394.331	93.12
394.556	92.12
394.78	82.12
395.005	101.12
395.229	93.12
395.454	87.12
395.678	93.12
395.903	97.12
396.127	95.12
396.352	71.12
396.576	97.12
396.801	82.12
397.025	81.12
397.249	92.12
397.474	98.12
397.698	99.12
397.922	79.12
398.147	77.12
398.371	81.12
398.595	87.12
398.82	77.12
399.044	89.12
399.268	92.12
399.492	95.12
399.717	98.12
399.941	88.12
400.165	100.12
400.389	91.12
400.613	84.12
400.837	85.12
401.062	84.12
401.286	98.12
401.51	95.12
401.734	95.12
401.958	104.12
402.182	97.12
402.406	88.12
402.63	83.12
402.854	81.12
403.078	89.12
403.302	88.12
403.526	86.12
403.75	90.12
403.974	83.12
404.198	99.12
404.422	94.12
404.645	89.12
404.869	101.12
405.093	85.12
405.317	90.12
405.541	101.12
405.765	97.12
405.988	95.12
406.212	98.12
406.436	83.12
406.66	88.12
406.883	82.12
407.107	96.12
407.331	96.12
407.555	86.12
407.778	103.12
408.002	97.12
408.226	94.12
408.449	104.12
408.673	95.12
408.896	87.12
409.12	102.12
409.344	111.12
409.567	79.12
409.791	87.12
410.014	101.12
410.238	82.12
410.461	91.12
410.685	86.12
410.908	90.12
411.132	93.12
411.355	90.12
411.578	84.12
411.802	101.12
412.025	101.12
412.249	81.12
412.472	106.12
412.695	82.12
412.919	84.12
413.142	101.12
413.365	87.12
413.589	80.12
413.812	78.12
414.035	94.12
414.258	97.12
414.482	93.12
414.705	98.12
414.928	96.12
415.151	95.12
415.374	86.12
415.597	92.12
415.821	88.12
416.044	101.12
416.267	92.12
416.49	83.12
416.713	75.12
416.936	92.12
417.159	90.12
417.382	79.12
417.605	96.12
417.828	94.12
418.051	89.12
418.274	104.12
418.497	91.12
418.72	94.12
418.943	103.12
419.166	118.12
419.389	90.12
419.611	101.12
419.834	98.12
420.057	99.12
420.28	93.12
420.503	83.12
420.726	108.12
420.948	85.12
421.171	90.12
421.394	90.12
421.617	93.12
421.839	89.12
422.062	99.12
422.285	101.12
422.507	92.12
422.73	96.12
422.953	99.12
423.175	100.12
423.398	93.12
423.621	90.12
423.843	111.12
424.066	112.12
424.288	94.12
424.511	105.12
424.733	104.12
424.956	101.12
425.178	104.12
425.401	104.12
425.623	96.12
425.846	103.12
426.068	93.12
426.291	94.12
426.513	96.12
426.735	104.12
426.958	103.12
427.18	96.12
427.402	89.12
427.625	96.12
427.847	94.12
428.069	95.12
428.292	82.12
428.514	99.12
428.736	97.12
428.958	95.12
429.181	96.12
429.403	89.12
429.625	92.12
429.847	89.12
430.069	89.12
430.292	94.12
430.514	85.12
430.736	97.12
430.958	104.12
431.18	87.12
431.402	97.12
431.624	100.12
431.846	97.12
432.068	79.12
432.29	78.12
432.512	86.12
432.734	96.12
432.956	86.12
433.178	83.12
433.4	94.12
433.622	86.12
433.844	99.12
434.066	92.12
434.287	85.12
434.509	82.12
434.731	88.12
434.953	98.12
435.175	90.12
435.397	72.12
435.618	88.12
435.84	86.12
436.062	103.12
436.284	90.12
436.505	81.12
436.727	85.12
436.949	86.12
437.17	94.12
437.392	99.12
437.614	84.12
437.835	100.12
438.057	92.12
438.278	87.12
438.5	83.12
438.721	85.12
438.943	100.12
439.165	106.12
439.386	82.12
439.608	100.12
439.829	84.12
440.05	104.12
440.272	90.12
440.493	83.12
440.715	88.12
440.936	102.12
441.158	93.12
441.379	94.12
441.6	105.12
441.822	78.12
442.043	105.12
442.264	94.12
442.486	97.12
442.707	99.12
442.928	96.12
443.149	102.12
443.371	106.12
443.592	99.12
443.813	87.12
444.034	85.12
444.255	93.12
444.476	122.12
444.698	108.12
444.919	95.12
445.14	177.12
445.361	139.12
445.582	108.12
445.803	107.12
446.024	90.12
446.245	97.12
446.466	102.12
446.687	99.12
446.908	86.12
447.129	117.12
447.35	100.12
447.571	105.12
447.792	111.12
448.013	102.12
448.234	103.12
448.455	89.12
448.675	100.12
448.896	105.12
449.117	88.12
449.338	117.12
449.559	102.12
449.779	108.12
450	94.12
450.221	98.12
450.442	89.12
450.662	85.12
450.883	98.12
451.104	91.12
451.324	96.12
451.545	104.12
451.766	85.12
451.986	88.12
452.207	82.12
452.428	92.12
452.648	101.12
452.869	103.12
453.089	95.12
453.31	89.12
453.53	91.12
453.751	72.12
453.971	95.12
454.192	85.12
454.412	86.12
454.633	88.12
454.853	89.12
455.073	91.12
455.294	98.12
455.514	106.12
455.734	82.12
455.955	99.12
456.175	88.12
456.395	91.12
456.616	78.12
456.836	76.12
457.056	85.12
457.276	87.12
457.497	83.12
457.717	84.12
457.937	100.12
458.157	84.12
458.377	92.12
458.598	77.12
458.818	75.12
459.038	85.12
459.258	92.12
459.478	89.12
459.698	92.12
459.918	73.12
460.138	76.12
460.358	86.12
460.578	90.12
460.798	97.12
461.018	83.12
461.238	87.12
461.458	96.12
461.678	88.12
461.898	86.12
462.118	80.12
462.338	95.12
462.558	86.12
462.777	99.12
462.997	97.12
463.217	80.12
463.437	92.12
463.657	104.12
463.876	95.12
464.096	90.12
464.316	82.12
464.536	95.12
464.755	87.12
464.975	80.12
465.195	82.12
465.414	93.12
465.634	82.12
465.854	96.12
466.073	84.12
466.293	95.12
466.512	85.12
466.732	108.12
466.951	99.12
467.171	96.12
467.391	93.12
467.61	113.12
467.829	88.12
468.049	104.12
468.268	92.12
468.488	106.12
468.707	86.12
468.927	90.12
469.146	89.12
469.365	90.12
469.585	113.12
469.804	100.12
470.023	99.12
470.243	108.12
470.462	106.12
470.681	102.12
470.901	92.12
471.12	89.12
471.339	99.12
471.558	102.12
471.777	98.12
471.997	89.12
472.216	95.12
472.435	95.12
472.654	97.12
472.873	77.12
473.092	84.12
473.311	99.12
473.53	102.12
473.749	87.12
473.968	90.12
474.187	87.12
474.406	92.12
474.625	106.12
474.844	88.12
475.063	94.12
475.282	104.12
475.501	100.12
475.72	93.12
475.939	104.12
476.158	98.12
476.377	83.12
476.596	96.12
476.814	111.12
477.033	87.12
477.252	88.12
477.471	91.12
477.69	87.12
477.908	101.12
478.127	100.12
478.346	87.12
478.564	99.12
478.783	104.12
479.002	90.12
479.22	100.12
479.439	99.12
479.658	91.12
479.876	75.12
480.095	87.12
480.313	94.12
480.532	88.12
480.751	88.12
480.969	100.12
481.188	94.12
481.406	82.12
481.624	83.12
481.843	82.12
482.061	94.12
482.28	90.12
482.498	88.12
482.717	80.12
482.935	92.12
483.153	83.12
483.372	107.12
483.59	97.12
483.808	113.12
484.027	89.12
484.245	94.12
484.463	82.12
484.681	97.12
484.9	101.12
485.118	106.12
485.336	96.12
485.554	99.12
485.772	83.12
485.99	85.12
486.209	99.12
486.427	91.12
486.645	89.12
486.863	85.12
487.081	97.12
487.299	85.12
487.517	101.12
487.735	105.12
487.953	105.12
488.171	103.12
488.389	111.12
488.607	120.12
488.825	101.12
489.043	93.12
489.261	100.12
489.479	89.12
489.696	100.12
489.914	102.12
490.132	85.12
490.35	113.12
490.568	101.12
490.786	106.12
491.003	112.12
491.221	107.12
491.439	127.12
491.657	120.12
491.874	105.12
492.092	112.12
492.31	131.12
492.527	121.12
492.745	112.12
492.963	120.12
493.18	109.12
493.398	119.12
493.615	107.12
493.833	107.12
494.05	116.12
494.268	108.12
494.485	108.12
494.703	103.12
494.92	119.12
495.138	111.12
495.355	113.12
495.573	103.12
495.79	107.12
496.008	116.12
496.225	113.12
496.442	103.12
496.66	125.12
496.877	100.12
497.094	115.12
497.312	115.12
497.529	97.12
497.746	111.12
497.963	104.12
498.181	102.12
498.398	102.12
498.615	92.12
498.832	92.12
499.049	91.12
499.267	100.12
499.484	101.12
499.701	92.12
499.918	108.12
500.135	95.12
500.352	113.12
500.569	106.12
500.786	98.12
501.003	96.12
501.22	93.12
501.437	92.12
501.654	101.12
501.871	100.12
502.088	89.12
502.305	89.12
502.522	92.12
502.739	97.12
502.956	94.12
503.172	88.12
503.389	83.12
503.606	99.12
503.823	94.12
504.04	100.12
504.256	99.12
504.473	83.12
504.69	111.12
504.907	96.12
505.123	84.12
505.34	98.12
505.557	95.12
505.773	79.12
505.99	88.12
506.207	90.12
506.423	101.12
506.64	107.12
506.856	78.12
507.073	87.12
507.289	98.12
507.506	91.12
507.722	81.12
507.939	86.12
508.155	97.12
508.372	86.12
508.588	95.12
508.805	83.12
509.021	84.12
509.238	116.12
509.454	85.12
509.67	83.12
509.887	80.12
510.103	75.12
510.319	83.12
510.536	82.12
510.752	90.12
510.968	82.12
511.184	92.12
511.401	81.12
511.617	95.12
511.833	86.12
512.049	86.12
512.265	82.12
512.481	84.12
512.698	81.12
512.914	75.12
513.13	104.12
513.346	85.12
513.562	100.12
513.778	80.12
513.994	85.12
514.21	80.12
514.426	56.12
514.642	87.12
514.858	77.12
515.074	83.12
515.29	79.12
515.506	97.12
515.721	84.12
515.937	80.12
516.153	84.12
516.369	74.12
516.585	93.12
516.801	89.12
517.016	112.12
