Data from Location3.07152019.Energy5.Lamp.07192019.3%Agarose_HRD10591_15-17-48-268.txt Node
Date: Fri Jul 19 15:17:48 EDT 2019
User: cochatt
Spectrometer: HR+D1059
Trigger mode: 1
Integration Time (sec): 1.000000E-1
Scans to average: 1
Electric dark correction enabled: true
Nonlinearity correction enabled: false
Boxcar width: 0
XAxis mode: Wavelengths
Number of Pixels in Spectrum: 2048
>>>>>Begin Spectral Data<<<<<
223.165	-5.38
223.4	-5.38
223.635	-5.38
223.869	-23.38
224.104	-10.38
224.338	8.62
224.573	-13.38
224.808	-11.38
225.042	-13.38
225.277	-10.38
225.511	-3.38
225.746	4.62
225.98	0.62
226.215	8.62
226.449	18.62
226.683	17.62
226.918	11.62
227.152	20.62
227.387	22.62
227.621	41.62
227.856	59.62
228.09	43.62
228.324	52.62
228.559	58.62
228.793	55.62
229.027	60.62
229.262	67.62
229.496	55.62
229.73	71.62
229.964	79.62
230.199	78.62
230.433	75.62
230.667	76.62
230.901	69.62
231.136	75.62
231.37	87.62
231.604	80.62
231.838	74.62
232.072	91.62
232.306	78.62
232.541	81.62
232.775	73.62
233.009	84.62
233.243	88.62
233.477	87.62
233.711	78.62
233.945	89.62
234.179	78.62
234.413	93.62
234.647	78.62
234.881	71.62
235.115	75.62
235.349	81.62
235.583	68.62
235.817	70.62
236.051	77.62
236.285	70.62
236.519	73.62
236.753	82.62
236.987	85.62
237.221	61.62
237.455	76.62
237.689	66.62
237.922	83.62
238.156	79.62
238.39	71.62
238.624	77.62
238.858	82.62
239.091	51.62
239.325	74.62
239.559	70.62
239.793	78.62
240.027	93.62
240.26	85.62
240.494	73.62
240.728	88.62
240.961	74.62
241.195	81.62
241.429	77.62
241.662	82.62
241.896	81.62
242.13	83.62
242.363	90.62
242.597	77.62
242.83	74.62
243.064	71.62
243.298	69.62
243.531	66.62
243.765	75.62
243.998	84.62
244.232	89.62
244.465	79.62
244.699	68.62
244.932	76.62
245.166	84.62
245.399	76.62
245.633	78.62
245.866	78.62
246.099	77.62
246.333	80.62
246.566	79.62
246.8	82.62
247.033	78.62
247.266	82.62
247.5	82.62
247.733	80.62
247.966	92.62
248.2	79.62
248.433	70.62
248.666	77.62
248.899	62.62
249.133	93.62
249.366	80.62
249.599	84.62
249.832	84.62
250.066	85.62
250.299	80.62
250.532	83.62
250.765	82.62
250.998	78.62
251.231	87.62
251.465	68.62
251.698	71.62
251.931	85.62
252.164	83.62
252.397	93.62
252.63	86.62
252.863	84.62
253.096	79.62
253.329	83.62
253.562	82.62
253.795	71.62
254.028	83.62
254.261	76.62
254.494	77.62
254.727	93.62
254.96	82.62
255.193	81.62
255.426	91.62
255.659	74.62
255.892	87.62
256.124	76.62
256.357	77.62
256.59	96.62
256.823	79.62
257.056	96.62
257.289	71.62
257.521	67.62
257.754	75.62
257.987	68.62
258.22	84.62
258.452	75.62
258.685	81.62
258.918	78.62
259.151	71.62
259.383	92.62
259.616	70.62
259.849	78.62
260.081	91.62
260.314	80.62
260.547	95.62
260.779	76.62
261.012	68.62
261.244	79.62
261.477	78.62
261.71	86.62
261.942	74.62
262.175	76.62
262.407	84.62
262.64	63.62
262.872	72.62
263.105	86.62
263.337	91.62
263.57	76.62
263.802	85.62
264.035	100.62
264.267	82.62
264.499	83.62
264.732	90.62
264.964	80.62
265.197	75.62
265.429	81.62
265.661	81.62
265.894	72.62
266.126	77.62
266.358	81.62
266.591	79.62
266.823	69.62
267.055	79.62
267.287	91.62
267.52	95.62
267.752	88.62
267.984	77.62
268.216	84.62
268.448	95.62
268.681	91.62
268.913	84.62
269.145	83.62
269.377	75.62
269.609	89.62
269.841	85.62
270.073	101.62
270.306	90.62
270.538	78.62
270.77	84.62
271.002	86.62
271.234	93.62
271.466	92.62
271.698	83.62
271.93	95.62
272.162	91.62
272.394	77.62
272.626	69.62
272.858	93.62
273.09	79.62
273.322	82.62
273.553	76.62
273.785	77.62
274.017	84.62
274.249	90.62
274.481	101.62
274.713	76.62
274.945	89.62
275.176	88.62
275.408	85.62
275.64	79.62
275.872	95.62
276.104	81.62
276.335	66.62
276.567	80.62
276.799	88.62
277.031	79.62
277.262	87.62
277.494	88.62
277.726	78.62
277.957	79.62
278.189	87.62
278.421	71.62
278.652	89.62
278.884	82.62
279.115	76.62
279.347	92.62
279.579	86.62
279.81	86.62
280.042	88.62
280.273	83.62
280.505	89.62
280.736	69.62
280.968	83.62
281.199	81.62
281.431	85.62
281.662	81.62
281.894	84.62
282.125	90.62
282.356	100.62
282.588	81.62
282.819	83.62
283.051	85.62
283.282	83.62
283.513	88.62
283.745	93.62
283.976	91.62
284.207	92.62
284.439	83.62
284.67	79.62
284.901	86.62
285.132	83.62
285.364	79.62
285.595	92.62
285.826	88.62
286.057	87.62
286.288	74.62
286.52	84.62
286.751	77.62
286.982	82.62
287.213	72.62
287.444	81.62
287.675	90.62
287.906	89.62
288.138	74.62
288.369	92.62
288.6	95.62
288.831	91.62
289.062	85.62
289.293	86.62
289.524	91.62
289.755	90.62
289.986	102.62
290.217	97.62
290.448	82.62
290.679	91.62
290.91	72.62
291.141	83.62
291.371	81.62
291.602	82.62
291.833	74.62
292.064	78.62
292.295	95.62
292.526	75.62
292.757	84.62
292.987	70.62
293.218	91.62
293.449	89.62
293.68	78.62
293.91	83.62
294.141	73.62
294.372	97.62
294.603	80.62
294.833	89.62
295.064	82.62
295.295	87.62
295.525	83.62
295.756	90.62
295.987	87.62
296.217	76.62
296.448	90.62
296.679	86.62
296.909	78.62
297.14	80.62
297.37	75.62
297.601	96.62
297.831	83.62
298.062	81.62
298.292	91.62
298.523	86.62
298.753	90.62
298.984	90.62
299.214	91.62
299.445	89.62
299.675	91.62
299.905	83.62
300.136	96.62
300.366	85.62
300.597	75.62
300.827	96.62
301.057	91.62
301.288	85.62
301.518	80.62
301.748	81.62
301.979	74.62
302.209	98.62
302.439	90.62
302.669	90.62
302.9	79.62
303.13	86.62
303.36	83.62
303.59	86.62
303.82	98.62
304.051	83.62
304.281	89.62
304.511	88.62
304.741	100.62
304.971	71.62
305.201	82.62
305.431	82.62
305.661	88.62
305.891	89.62
306.121	91.62
306.352	86.62
306.582	97.62
306.812	77.62
307.042	84.62
307.272	86.62
307.502	85.62
307.731	92.62
307.961	80.62
308.191	80.62
308.421	91.62
308.651	73.62
308.881	85.62
309.111	86.62
309.341	89.62
309.571	94.62
309.8	78.62
310.03	78.62
310.26	81.62
310.49	91.62
310.72	95.62
310.949	99.62
311.179	89.62
311.409	95.62
311.639	81.62
311.868	79.62
312.098	93.62
312.328	95.62
312.557	95.62
312.787	87.62
313.017	84.62
313.246	78.62
313.476	84.62
313.706	86.62
313.935	85.62
314.165	81.62
314.394	99.62
314.624	77.62
314.853	90.62
315.083	100.62
315.312	85.62
315.542	81.62
315.771	93.62
316.001	89.62
316.23	97.62
316.46	104.62
316.689	88.62
316.919	82.62
317.148	82.62
317.377	90.62
317.607	106.62
317.836	98.62
318.065	69.62
318.295	82.62
318.524	82.62
318.753	71.62
318.983	95.62
319.212	90.62
319.441	87.62
319.67	92.62
319.9	95.62
320.129	83.62
320.358	87.62
320.587	93.62
320.816	70.62
321.046	88.62
321.275	82.62
321.504	97.62
321.733	86.62
321.962	86.62
322.191	89.62
322.42	88.62
322.649	90.62
322.878	81.62
323.108	97.62
323.337	79.62
323.566	81.62
323.795	72.62
324.024	78.62
324.253	83.62
324.482	77.62
324.71	83.62
324.939	98.62
325.168	77.62
325.397	96.62
325.626	74.62
325.855	94.62
326.084	89.62
326.313	100.62
326.542	76.62
326.77	73.62
326.999	85.62
327.228	82.62
327.457	81.62
327.686	72.62
327.914	101.62
328.143	89.62
328.372	83.62
328.6	93.62
328.829	72.62
329.058	82.62
329.287	83.62
329.515	97.62
329.744	85.62
329.972	90.62
330.201	86.62
330.43	88.62
330.658	90.62
330.887	77.62
331.115	100.62
331.344	87.62
331.572	101.62
331.801	89.62
332.03	96.62
332.258	93.62
332.486	80.62
332.715	76.62
332.943	92.62
333.172	86.62
333.4	76.62
333.629	94.62
333.857	82.62
334.085	89.62
334.314	86.62
334.542	86.62
334.771	91.62
334.999	91.62
335.227	91.62
335.455	98.62
335.684	84.62
335.912	91.62
336.14	98.62
336.369	76.62
336.597	84.62
336.825	91.62
337.053	83.62
337.281	82.62
337.51	75.62
337.738	77.62
337.966	80.62
338.194	77.62
338.422	68.62
338.65	83.62
338.878	87.62
339.106	94.62
339.334	84.62
339.562	87.62
339.79	88.62
340.018	74.62
340.246	72.62
340.474	97.62
340.702	80.62
340.93	100.62
341.158	86.62
341.386	92.62
341.614	92.62
341.842	90.62
342.07	87.62
342.298	77.62
342.526	91.62
342.754	85.62
342.981	94.62
343.209	88.62
343.437	91.62
343.665	75.62
343.893	86.62
344.12	93.62
344.348	87.62
344.576	81.62
344.804	92.62
345.031	93.62
345.259	81.62
345.487	84.62
345.714	70.62
345.942	95.62
346.17	70.62
346.397	93.62
346.625	70.62
346.853	81.62
347.08	78.62
347.308	92.62
347.535	78.62
347.763	88.62
347.99	91.62
348.218	81.62
348.445	78.62
348.673	75.62
348.9	87.62
349.128	97.62
349.355	84.62
349.583	84.62
349.81	88.62
350.037	86.62
350.265	78.62
350.492	93.62
350.72	74.62
350.947	94.62
351.174	87.62
351.402	97.62
351.629	91.62
351.856	92.62
352.083	89.62
352.311	89.62
352.538	84.62
352.765	78.62
352.992	96.62
353.22	71.62
353.447	90.62
353.674	83.62
353.901	82.62
354.128	91.62
354.355	95.62
354.583	84.62
354.81	73.62
355.037	87.62
355.264	77.62
355.491	89.62
355.718	83.62
355.945	83.62
356.172	81.62
356.399	84.62
356.626	89.62
356.853	84.62
357.08	93.62
357.307	82.62
357.534	76.62
357.761	81.62
357.988	82.62
358.215	90.62
358.441	80.62
358.668	94.62
358.895	83.62
359.122	98.62
359.349	97.62
359.576	83.62
359.802	75.62
360.029	99.62
360.256	81.62
360.483	93.62
360.709	84.62
360.936	90.62
361.163	83.62
361.39	77.62
361.616	86.62
361.843	88.62
362.07	84.62
362.296	94.62
362.523	81.62
362.749	92.62
362.976	95.62
363.203	87.62
363.429	83.62
363.656	96.62
363.882	73.62
364.109	66.62
364.335	73.62
364.562	99.62
364.788	90.62
365.015	87.62
365.241	69.62
365.468	93.62
365.694	77.62
365.92	90.62
366.147	81.62
366.373	84.62
366.599	98.62
366.826	79.62
367.052	93.62
367.278	92.62
367.505	78.62
367.731	86.62
367.957	70.62
368.184	84.62
368.41	74.62
368.636	74.62
368.862	83.62
369.089	97.62
369.315	91.62
369.541	80.62
369.767	92.62
369.993	84.62
370.219	76.62
370.445	77.62
370.672	100.62
370.898	90.62
371.124	72.62
371.35	89.62
371.576	88.62
371.802	79.62
372.028	90.62
372.254	87.62
372.48	92.62
372.706	90.62
372.932	85.62
373.158	76.62
373.384	92.62
373.61	97.62
373.835	96.62
374.061	74.62
374.287	76.62
374.513	88.62
374.739	94.62
374.965	83.62
375.191	81.62
375.416	97.62
375.642	81.62
375.868	81.62
376.094	85.62
376.319	82.62
376.545	82.62
376.771	76.62
376.997	89.62
377.222	76.62
377.448	80.62
377.674	85.62
377.899	85.62
378.125	90.62
378.35	85.62
378.576	77.62
378.802	90.62
379.027	83.62
379.253	85.62
379.478	98.62
379.704	73.62
379.929	89.62
380.155	83.62
380.38	98.62
380.606	80.62
380.831	79.62
381.057	96.62
381.282	89.62
381.507	99.62
381.733	95.62
381.958	90.62
382.184	84.62
382.409	84.62
382.634	96.62
382.86	93.62
383.085	92.62
383.31	72.62
383.535	76.62
383.761	92.62
383.986	85.62
384.211	81.62
384.436	84.62
384.662	86.62
384.887	81.62
385.112	87.62
385.337	84.62
385.562	92.62
385.787	89.62
386.013	96.62
386.238	84.62
386.463	89.62
386.688	96.62
386.913	90.62
387.138	84.62
387.363	90.62
387.588	89.62
387.813	80.62
388.038	84.62
388.263	83.62
388.488	83.62
388.713	97.62
388.938	92.62
389.163	95.62
389.387	86.62
389.612	80.62
389.837	86.62
390.062	77.62
390.287	84.62
390.512	84.62
390.736	84.62
390.961	81.62
391.186	81.62
391.411	82.62
391.636	107.62
391.86	95.62
392.085	91.62
392.31	73.62
392.534	93.62
392.759	89.62
392.984	92.62
393.208	84.62
393.433	81.62
393.658	98.62
393.882	84.62
394.107	89.62
394.331	91.62
394.556	85.62
394.78	83.62
395.005	87.62
395.229	92.62
395.454	88.62
395.678	88.62
395.903	95.62
396.127	97.62
396.352	100.62
396.576	89.62
396.801	90.62
397.025	90.62
397.249	96.62
397.474	92.62
397.698	95.62
397.922	94.62
398.147	81.62
398.371	84.62
398.595	104.62
398.82	84.62
399.044	97.62
399.268	77.62
399.492	90.62
399.717	92.62
399.941	99.62
400.165	80.62
400.389	87.62
400.613	94.62
400.837	90.62
401.062	94.62
401.286	80.62
401.51	87.62
401.734	92.62
401.958	83.62
402.182	106.62
402.406	83.62
402.63	86.62
402.854	84.62
403.078	89.62
403.302	83.62
403.526	79.62
403.75	105.62
403.974	95.62
404.198	89.62
404.422	81.62
404.645	102.62
404.869	89.62
405.093	95.62
405.317	87.62
405.541	88.62
405.765	88.62
405.988	96.62
406.212	84.62
406.436	100.62
406.66	82.62
406.883	96.62
407.107	83.62
407.331	96.62
407.555	95.62
407.778	99.62
408.002	84.62
408.226	94.62
408.449	101.62
408.673	89.62
408.896	95.62
409.12	88.62
409.344	87.62
409.567	83.62
409.791	80.62
410.014	98.62
410.238	90.62
410.461	94.62
410.685	80.62
410.908	105.62
411.132	100.62
411.355	83.62
411.578	99.62
411.802	87.62
412.025	109.62
412.249	88.62
412.472	96.62
412.695	87.62
412.919	93.62
413.142	96.62
413.365	104.62
413.589	92.62
413.812	105.62
414.035	98.62
414.258	85.62
414.482	94.62
414.705	96.62
414.928	96.62
415.151	82.62
415.374	110.62
415.597	92.62
415.821	89.62
416.044	84.62
416.267	94.62
416.49	95.62
416.713	89.62
416.936	94.62
417.159	90.62
417.382	88.62
417.605	97.62
417.828	105.62
418.051	96.62
418.274	92.62
418.497	86.62
418.72	93.62
418.943	100.62
419.166	85.62
419.389	85.62
419.611	93.62
419.834	95.62
420.057	89.62
420.28	107.62
420.503	105.62
420.726	88.62
420.948	114.62
421.171	88.62
421.394	82.62
421.617	97.62
421.839	105.62
422.062	95.62
422.285	101.62
422.507	81.62
422.73	91.62
422.953	90.62
423.175	95.62
423.398	98.62
423.621	104.62
423.843	83.62
424.066	88.62
424.288	97.62
424.511	85.62
424.733	104.62
424.956	110.62
425.178	97.62
425.401	103.62
425.623	96.62
425.846	88.62
426.068	103.62
426.291	95.62
426.513	92.62
426.735	89.62
426.958	115.62
427.18	115.62
427.402	97.62
427.625	87.62
427.847	91.62
428.069	89.62
428.292	96.62
428.514	97.62
428.736	72.62
428.958	88.62
429.181	94.62
429.403	99.62
429.625	91.62
429.847	104.62
430.069	88.62
430.292	99.62
430.514	94.62
430.736	73.62
430.958	85.62
431.18	102.62
431.402	111.62
431.624	89.62
431.846	99.62
432.068	94.62
432.29	92.62
432.512	100.62
432.734	88.62
432.956	100.62
433.178	106.62
433.4	100.62
433.622	94.62
433.844	102.62
434.066	81.62
434.287	86.62
434.509	95.62
434.731	99.62
434.953	82.62
435.175	84.62
435.397	89.62
435.618	91.62
435.84	87.62
436.062	95.62
436.284	89.62
436.505	96.62
436.727	98.62
436.949	96.62
437.17	95.62
437.392	95.62
437.614	97.62
437.835	88.62
438.057	99.62
438.278	99.62
438.5	88.62
438.721	85.62
438.943	106.62
439.165	99.62
439.386	100.62
439.608	97.62
439.829	105.62
440.05	87.62
440.272	95.62
440.493	100.62
440.715	97.62
440.936	92.62
441.158	105.62
441.379	97.62
441.6	115.62
441.822	92.62
442.043	98.62
442.264	112.62
442.486	89.62
442.707	92.62
442.928	103.62
443.149	86.62
443.371	89.62
443.592	98.62
443.813	95.62
444.034	76.62
444.255	96.62
444.476	122.62
444.698	107.62
444.919	95.62
445.14	219.62
445.361	157.62
445.582	109.62
445.803	95.62
446.024	87.62
446.245	105.62
446.466	114.62
446.687	102.62
446.908	98.62
447.129	109.62
447.35	96.62
447.571	88.62
447.792	93.62
448.013	109.62
448.234	78.62
448.455	112.62
448.675	93.62
448.896	105.62
449.117	90.62
449.338	111.62
449.559	103.62
449.779	90.62
450	97.62
450.221	90.62
450.442	98.62
450.662	101.62
450.883	108.62
451.104	85.62
451.324	81.62
451.545	97.62
451.766	100.62
451.986	83.62
452.207	116.62
452.428	89.62
452.648	92.62
452.869	102.62
453.089	104.62
453.31	98.62
453.53	92.62
453.751	87.62
453.971	93.62
454.192	76.62
454.412	105.62
454.633	99.62
454.853	103.62
455.073	97.62
455.294	96.62
455.514	93.62
455.734	87.62
455.955	97.62
456.175	101.62
456.395	92.62
456.616	82.62
456.836	93.62
457.056	99.62
457.276	100.62
457.497	102.62
457.717	87.62
457.937	92.62
458.157	81.62
458.377	76.62
458.598	77.62
458.818	76.62
459.038	77.62
459.258	88.62
459.478	94.62
459.698	87.62
459.918	83.62
460.138	105.62
460.358	84.62
460.578	99.62
460.798	84.62
461.018	95.62
461.238	90.62
461.458	86.62
461.678	94.62
461.898	100.62
462.118	99.62
462.338	98.62
462.558	91.62
462.777	86.62
462.997	78.62
463.217	93.62
463.437	91.62
463.657	91.62
463.876	83.62
464.096	81.62
464.316	80.62
464.536	89.62
464.755	92.62
464.975	89.62
465.195	82.62
465.414	93.62
465.634	80.62
465.854	87.62
466.073	89.62
466.293	94.62
466.512	96.62
466.732	89.62
466.951	99.62
467.171	80.62
467.391	101.62
467.61	98.62
467.829	94.62
468.049	100.62
468.268	111.62
468.488	93.62
468.707	97.62
468.927	89.62
469.146	84.62
469.365	90.62
469.585	96.62
469.804	89.62
470.023	108.62
470.243	86.62
470.462	97.62
470.681	114.62
470.901	103.62
471.12	102.62
471.339	105.62
471.558	117.62
471.777	95.62
471.997	89.62
472.216	102.62
472.435	91.62
472.654	97.62
472.873	85.62
473.092	106.62
473.311	106.62
473.53	90.62
473.749	84.62
473.968	91.62
474.187	89.62
474.406	95.62
474.625	93.62
474.844	89.62
475.063	103.62
475.282	89.62
475.501	102.62
475.72	109.62
475.939	103.62
476.158	90.62
476.377	96.62
476.596	97.62
476.814	92.62
477.033	92.62
477.252	92.62
477.471	92.62
477.69	106.62
477.908	89.62
478.127	116.62
478.346	81.62
478.564	91.62
478.783	89.62
479.002	79.62
479.22	85.62
479.439	107.62
479.658	101.62
479.876	83.62
480.095	84.62
480.313	76.62
480.532	76.62
480.751	92.62
480.969	87.62
481.188	85.62
481.406	79.62
481.624	96.62
481.843	101.62
482.061	93.62
482.28	100.62
482.498	92.62
482.717	77.62
482.935	112.62
483.153	102.62
483.372	105.62
483.59	103.62
483.808	84.62
484.027	89.62
484.245	100.62
484.463	107.62
484.681	107.62
484.9	104.62
485.118	99.62
485.336	97.62
485.554	92.62
485.772	82.62
485.99	78.62
486.209	79.62
486.427	89.62
486.645	91.62
486.863	89.62
487.081	107.62
487.299	83.62
487.517	84.62
487.735	108.62
487.953	116.62
488.171	129.62
488.389	117.62
488.607	103.62
488.825	91.62
489.043	86.62
489.261	94.62
489.479	100.62
489.696	103.62
489.914	89.62
490.132	101.62
490.35	100.62
490.568	105.62
490.786	112.62
491.003	105.62
491.221	99.62
491.439	108.62
491.657	116.62
491.874	146.62
492.092	126.62
492.31	148.62
492.527	124.62
492.745	108.62
492.963	108.62
493.18	111.62
493.398	105.62
493.615	105.62
493.833	108.62
494.05	105.62
494.268	104.62
494.485	124.62
494.703	116.62
494.92	96.62
495.138	117.62
495.355	98.62
495.573	115.62
495.79	108.62
496.008	121.62
496.225	103.62
496.442	111.62
496.66	114.62
496.877	106.62
497.094	121.62
497.312	110.62
497.529	108.62
497.746	100.62
497.963	98.62
498.181	90.62
498.398	92.62
498.615	96.62
498.832	81.62
499.049	75.62
499.267	91.62
499.484	96.62
499.701	97.62
499.918	109.62
500.135	98.62
500.352	87.62
500.569	111.62
500.786	104.62
501.003	115.62
501.22	99.62
501.437	99.62
501.654	102.62
501.871	101.62
502.088	90.62
502.305	95.62
502.522	85.62
502.739	96.62
502.956	81.62
503.172	100.62
503.389	105.62
503.606	94.62
503.823	103.62
504.04	82.62
504.256	97.62
504.473	86.62
504.69	100.62
504.907	99.62
505.123	103.62
505.34	102.62
505.557	102.62
505.773	105.62
505.99	98.62
506.207	97.62
506.423	94.62
506.64	87.62
506.856	78.62
507.073	93.62
507.289	95.62
507.506	104.62
507.722	87.62
507.939	95.62
508.155	99.62
508.372	78.62
508.588	91.62
508.805	107.62
509.021	95.62
509.238	100.62
509.454	95.62
509.67	86.62
509.887	81.62
510.103	88.62
510.319	67.62
510.536	83.62
510.752	74.62
510.968	79.62
511.184	65.62
511.401	84.62
511.617	70.62
511.833	85.62
512.049	80.62
512.265	88.62
512.481	81.62
512.698	91.62
512.914	84.62
513.13	90.62
513.346	84.62
513.562	89.62
513.778	78.62
513.994	92.62
514.21	92.62
514.426	91.62
514.642	83.62
514.858	95.62
515.074	94.62
515.29	93.62
515.506	79.62
515.721	90.62
515.937	88.62
516.153	90.62
516.369	84.62
516.585	93.62
516.801	83.62
517.016	85.62
