Data from Location3.07152019.Energy5.Lamp.07192019.3%Agarose_HRD10591_15-18-26-269.txt Node
Date: Fri Jul 19 15:18:26 EDT 2019
User: cochatt
Spectrometer: HR+D1059
Trigger mode: 1
Integration Time (sec): 1.000000E-1
Scans to average: 1
Electric dark correction enabled: true
Nonlinearity correction enabled: false
Boxcar width: 0
XAxis mode: Wavelengths
Number of Pixels in Spectrum: 2048
>>>>>Begin Spectral Data<<<<<
223.165	-8.88
223.4	-8.88
223.635	-8.88
223.869	-6.88
224.104	-17.88
224.338	-12.88
224.573	-25.88
224.808	-14.88
225.042	-11.88
225.277	-6.88
225.511	-7.88
225.746	10.12
225.98	1.12
226.215	11.12
226.449	9.12
226.683	27.12
226.918	23.12
227.152	32.12
227.387	39.12
227.621	33.12
227.856	46.12
228.09	50.12
228.324	33.12
228.559	60.12
228.793	68.12
229.027	54.12
229.262	58.12
229.496	61.12
229.73	66.12
229.964	74.12
230.199	70.12
230.433	78.12
230.667	76.12
230.901	70.12
231.136	72.12
231.37	81.12
231.604	81.12
231.838	69.12
232.072	73.12
232.306	73.12
232.541	86.12
232.775	70.12
233.009	93.12
233.243	75.12
233.477	84.12
233.711	74.12
233.945	69.12
234.179	77.12
234.413	65.12
234.647	66.12
234.881	86.12
235.115	79.12
235.349	75.12
235.583	73.12
235.817	85.12
236.051	79.12
236.285	87.12
236.519	68.12
236.753	74.12
236.987	69.12
237.221	85.12
237.455	78.12
237.689	84.12
237.922	70.12
238.156	72.12
238.39	90.12
238.624	88.12
238.858	82.12
239.091	73.12
239.325	81.12
239.559	72.12
239.793	69.12
240.027	66.12
240.26	75.12
240.494	74.12
240.728	74.12
240.961	61.12
241.195	70.12
241.429	72.12
241.662	68.12
241.896	61.12
242.13	72.12
242.363	76.12
242.597	80.12
242.83	72.12
243.064	71.12
243.298	71.12
243.531	69.12
243.765	84.12
243.998	87.12
244.232	75.12
244.465	65.12
244.699	83.12
244.932	69.12
245.166	81.12
245.399	74.12
245.633	66.12
245.866	75.12
246.099	59.12
246.333	72.12
246.566	73.12
246.8	75.12
247.033	70.12
247.266	76.12
247.5	83.12
247.733	84.12
247.966	85.12
248.2	79.12
248.433	87.12
248.666	63.12
248.899	88.12
249.133	90.12
249.366	80.12
249.599	76.12
249.832	73.12
250.066	71.12
250.299	69.12
250.532	86.12
250.765	83.12
250.998	73.12
251.231	99.12
251.465	74.12
251.698	76.12
251.931	77.12
252.164	81.12
252.397	73.12
252.63	85.12
252.863	74.12
253.096	92.12
253.329	86.12
253.562	88.12
253.795	66.12
254.028	80.12
254.261	75.12
254.494	80.12
254.727	85.12
254.96	77.12
255.193	83.12
255.426	81.12
255.659	97.12
255.892	88.12
256.124	77.12
256.357	86.12
256.59	84.12
256.823	83.12
257.056	72.12
257.289	83.12
257.521	86.12
257.754	80.12
257.987	81.12
258.22	80.12
258.452	73.12
258.685	77.12
258.918	78.12
259.151	75.12
259.383	71.12
259.616	73.12
259.849	74.12
260.081	79.12
260.314	74.12
260.547	84.12
260.779	83.12
261.012	76.12
261.244	83.12
261.477	91.12
261.71	75.12
261.942	83.12
262.175	81.12
262.407	74.12
262.64	91.12
262.872	92.12
263.105	76.12
263.337	74.12
263.57	83.12
263.802	68.12
264.035	85.12
264.267	65.12
264.499	57.12
264.732	74.12
264.964	72.12
265.197	75.12
265.429	80.12
265.661	88.12
265.894	80.12
266.126	83.12
266.358	75.12
266.591	75.12
266.823	82.12
267.055	77.12
267.287	70.12
267.52	80.12
267.752	93.12
267.984	84.12
268.216	73.12
268.448	84.12
268.681	79.12
268.913	92.12
269.145	66.12
269.377	94.12
269.609	88.12
269.841	80.12
270.073	91.12
270.306	79.12
270.538	78.12
270.77	79.12
271.002	74.12
271.234	78.12
271.466	78.12
271.698	86.12
271.93	64.12
272.162	73.12
272.394	79.12
272.626	83.12
272.858	86.12
273.09	77.12
273.322	99.12
273.553	74.12
273.785	85.12
274.017	94.12
274.249	91.12
274.481	92.12
274.713	87.12
274.945	92.12
275.176	93.12
275.408	77.12
275.64	77.12
275.872	68.12
276.104	84.12
276.335	72.12
276.567	75.12
276.799	76.12
277.031	81.12
277.262	82.12
277.494	79.12
277.726	97.12
277.957	88.12
278.189	87.12
278.421	93.12
278.652	88.12
278.884	83.12
279.115	82.12
279.347	74.12
279.579	71.12
279.81	90.12
280.042	84.12
280.273	86.12
280.505	87.12
280.736	89.12
280.968	87.12
281.199	78.12
281.431	86.12
281.662	89.12
281.894	79.12
282.125	81.12
282.356	86.12
282.588	77.12
282.819	80.12
283.051	68.12
283.282	88.12
283.513	74.12
283.745	84.12
283.976	82.12
284.207	82.12
284.439	84.12
284.67	90.12
284.901	72.12
285.132	89.12
285.364	85.12
285.595	81.12
285.826	83.12
286.057	87.12
286.288	78.12
286.52	92.12
286.751	72.12
286.982	82.12
287.213	84.12
287.444	92.12
287.675	85.12
287.906	74.12
288.138	86.12
288.369	91.12
288.6	83.12
288.831	79.12
289.062	87.12
289.293	86.12
289.524	97.12
289.755	82.12
289.986	81.12
290.217	75.12
290.448	72.12
290.679	77.12
290.91	96.12
291.141	71.12
291.371	75.12
291.602	73.12
291.833	86.12
292.064	85.12
292.295	75.12
292.526	80.12
292.757	87.12
292.987	100.12
293.218	88.12
293.449	87.12
293.68	80.12
293.91	101.12
294.141	88.12
294.372	78.12
294.603	74.12
294.833	94.12
295.064	83.12
295.295	81.12
295.525	81.12
295.756	102.12
295.987	94.12
296.217	80.12
296.448	73.12
296.679	87.12
296.909	85.12
297.14	70.12
297.37	90.12
297.601	95.12
297.831	74.12
298.062	86.12
298.292	89.12
298.523	95.12
298.753	86.12
298.984	73.12
299.214	86.12
299.445	97.12
299.675	97.12
299.905	86.12
300.136	89.12
300.366	86.12
300.597	82.12
300.827	89.12
301.057	86.12
301.288	92.12
301.518	82.12
301.748	84.12
301.979	79.12
302.209	89.12
302.439	88.12
302.669	82.12
302.9	80.12
303.13	83.12
303.36	79.12
303.59	91.12
303.82	95.12
304.051	88.12
304.281	73.12
304.511	84.12
304.741	93.12
304.971	87.12
305.201	82.12
305.431	79.12
305.661	87.12
305.891	69.12
306.121	80.12
306.352	71.12
306.582	80.12
306.812	77.12
307.042	70.12
307.272	81.12
307.502	79.12
307.731	74.12
307.961	82.12
308.191	69.12
308.421	89.12
308.651	94.12
308.881	85.12
309.111	80.12
309.341	87.12
309.571	84.12
309.8	109.12
310.03	91.12
310.26	88.12
310.49	82.12
310.72	95.12
310.949	78.12
311.179	88.12
311.409	75.12
311.639	79.12
311.868	85.12
312.098	103.12
312.328	77.12
312.557	85.12
312.787	82.12
313.017	85.12
313.246	90.12
313.476	75.12
313.706	71.12
313.935	79.12
314.165	69.12
314.394	78.12
314.624	93.12
314.853	77.12
315.083	90.12
315.312	81.12
315.542	82.12
315.771	86.12
316.001	86.12
316.23	85.12
316.46	89.12
316.689	82.12
316.919	81.12
317.148	96.12
317.377	89.12
317.607	81.12
317.836	86.12
318.065	86.12
318.295	85.12
318.524	83.12
318.753	94.12
318.983	79.12
319.212	87.12
319.441	81.12
319.67	92.12
319.9	90.12
320.129	87.12
320.358	83.12
320.587	80.12
320.816	90.12
321.046	87.12
321.275	78.12
321.504	86.12
321.733	88.12
321.962	80.12
322.191	81.12
322.42	90.12
322.649	84.12
322.878	78.12
323.108	73.12
323.337	81.12
323.566	74.12
323.795	95.12
324.024	66.12
324.253	81.12
324.482	83.12
324.71	80.12
324.939	82.12
325.168	84.12
325.397	73.12
325.626	87.12
325.855	71.12
326.084	86.12
326.313	65.12
326.542	76.12
326.77	74.12
326.999	89.12
327.228	89.12
327.457	80.12
327.686	88.12
327.914	85.12
328.143	81.12
328.372	82.12
328.6	80.12
328.829	86.12
329.058	77.12
329.287	79.12
329.515	87.12
329.744	91.12
329.972	88.12
330.201	85.12
330.43	80.12
330.658	81.12
330.887	73.12
331.115	77.12
331.344	73.12
331.572	87.12
331.801	76.12
332.03	73.12
332.258	84.12
332.486	82.12
332.715	77.12
332.943	85.12
333.172	88.12
333.4	83.12
333.629	86.12
333.857	88.12
334.085	89.12
334.314	86.12
334.542	93.12
334.771	68.12
334.999	83.12
335.227	90.12
335.455	80.12
335.684	88.12
335.912	69.12
336.14	80.12
336.369	80.12
336.597	85.12
336.825	81.12
337.053	75.12
337.281	64.12
337.51	83.12
337.738	99.12
337.966	82.12
338.194	91.12
338.422	92.12
338.65	88.12
338.878	82.12
339.106	82.12
339.334	95.12
339.562	76.12
339.79	81.12
340.018	88.12
340.246	71.12
340.474	79.12
340.702	82.12
340.93	95.12
341.158	82.12
341.386	74.12
341.614	81.12
341.842	78.12
342.07	87.12
342.298	93.12
342.526	74.12
342.754	76.12
342.981	89.12
343.209	78.12
343.437	81.12
343.665	79.12
343.893	71.12
344.12	82.12
344.348	81.12
344.576	79.12
344.804	85.12
345.031	82.12
345.259	73.12
345.487	90.12
345.714	67.12
345.942	88.12
346.17	71.12
346.397	79.12
346.625	82.12
346.853	82.12
347.08	95.12
347.308	72.12
347.535	74.12
347.763	75.12
347.99	82.12
348.218	84.12
348.445	91.12
348.673	82.12
348.9	86.12
349.128	96.12
349.355	91.12
349.583	95.12
349.81	92.12
350.037	80.12
350.265	83.12
350.492	81.12
350.72	90.12
350.947	78.12
351.174	91.12
351.402	89.12
351.629	89.12
351.856	97.12
352.083	74.12
352.311	86.12
352.538	90.12
352.765	77.12
352.992	71.12
353.22	79.12
353.447	75.12
353.674	81.12
353.901	83.12
354.128	83.12
354.355	87.12
354.583	97.12
354.81	77.12
355.037	79.12
355.264	82.12
355.491	74.12
355.718	85.12
355.945	73.12
356.172	69.12
356.399	96.12
356.626	96.12
356.853	75.12
357.08	81.12
357.307	70.12
357.534	75.12
357.761	78.12
357.988	88.12
358.215	75.12
358.441	87.12
358.668	96.12
358.895	77.12
359.122	93.12
359.349	68.12
359.576	69.12
359.802	77.12
360.029	69.12
360.256	94.12
360.483	83.12
360.709	73.12
360.936	75.12
361.163	92.12
361.39	95.12
361.616	97.12
361.843	81.12
362.07	93.12
362.296	78.12
362.523	76.12
362.749	81.12
362.976	87.12
363.203	86.12
363.429	73.12
363.656	88.12
363.882	95.12
364.109	86.12
364.335	86.12
364.562	72.12
364.788	75.12
365.015	86.12
365.241	79.12
365.468	83.12
365.694	81.12
365.92	59.12
366.147	76.12
366.373	78.12
366.599	77.12
366.826	81.12
367.052	90.12
367.278	80.12
367.505	91.12
367.731	93.12
367.957	75.12
368.184	62.12
368.41	90.12
368.636	75.12
368.862	82.12
369.089	94.12
369.315	70.12
369.541	81.12
369.767	81.12
369.993	80.12
370.219	80.12
370.445	70.12
370.672	72.12
370.898	76.12
371.124	78.12
371.35	97.12
371.576	74.12
371.802	70.12
372.028	78.12
372.254	92.12
372.48	71.12
372.706	75.12
372.932	73.12
373.158	77.12
373.384	79.12
373.61	79.12
373.835	95.12
374.061	81.12
374.287	91.12
374.513	78.12
374.739	78.12
374.965	73.12
375.191	75.12
375.416	82.12
375.642	70.12
375.868	80.12
376.094	88.12
376.319	84.12
376.545	82.12
376.771	85.12
376.997	76.12
377.222	70.12
377.448	80.12
377.674	89.12
377.899	86.12
378.125	94.12
378.35	88.12
378.576	102.12
378.802	88.12
379.027	74.12
379.253	93.12
379.478	97.12
379.704	91.12
379.929	91.12
380.155	88.12
380.38	92.12
380.606	72.12
380.831	87.12
381.057	73.12
381.282	79.12
381.507	86.12
381.733	82.12
381.958	74.12
382.184	85.12
382.409	78.12
382.634	66.12
382.86	81.12
383.085	76.12
383.31	81.12
383.535	71.12
383.761	81.12
383.986	89.12
384.211	76.12
384.436	79.12
384.662	88.12
384.887	83.12
385.112	79.12
385.337	81.12
385.562	81.12
385.787	96.12
386.013	90.12
386.238	88.12
386.463	71.12
386.688	88.12
386.913	75.12
387.138	85.12
387.363	79.12
387.588	85.12
387.813	88.12
388.038	88.12
388.263	96.12
388.488	83.12
388.713	83.12
388.938	90.12
389.163	71.12
389.387	73.12
389.612	94.12
389.837	77.12
390.062	90.12
390.287	82.12
390.512	84.12
390.736	94.12
390.961	78.12
391.186	80.12
391.411	97.12
391.636	83.12
391.86	83.12
392.085	85.12
392.31	90.12
392.534	86.12
392.759	81.12
392.984	85.12
393.208	72.12
393.433	84.12
393.658	69.12
393.882	86.12
394.107	74.12
394.331	90.12
394.556	75.12
394.78	98.12
395.005	93.12
395.229	84.12
395.454	88.12
395.678	88.12
395.903	80.12
396.127	83.12
396.352	87.12
396.576	87.12
396.801	102.12
397.025	104.12
397.249	80.12
397.474	85.12
397.698	79.12
397.922	89.12
398.147	75.12
398.371	68.12
398.595	94.12
398.82	82.12
399.044	95.12
399.268	86.12
399.492	94.12
399.717	88.12
399.941	86.12
400.165	98.12
400.389	91.12
400.613	85.12
400.837	79.12
401.062	102.12
401.286	85.12
401.51	91.12
401.734	82.12
401.958	81.12
402.182	80.12
402.406	82.12
402.63	82.12
402.854	87.12
403.078	63.12
403.302	83.12
403.526	76.12
403.75	80.12
403.974	93.12
404.198	78.12
404.422	84.12
404.645	73.12
404.869	96.12
405.093	83.12
405.317	95.12
405.541	93.12
405.765	91.12
405.988	69.12
406.212	79.12
406.436	90.12
406.66	83.12
406.883	103.12
407.107	102.12
407.331	72.12
407.555	88.12
407.778	84.12
408.002	83.12
408.226	72.12
408.449	82.12
408.673	88.12
408.896	94.12
409.12	98.12
409.344	77.12
409.567	87.12
409.791	74.12
410.014	80.12
410.238	73.12
410.461	84.12
410.685	85.12
410.908	95.12
411.132	87.12
411.355	80.12
411.578	80.12
411.802	89.12
412.025	83.12
412.249	94.12
412.472	85.12
412.695	83.12
412.919	87.12
413.142	89.12
413.365	81.12
413.589	89.12
413.812	87.12
414.035	82.12
414.258	88.12
414.482	99.12
414.705	85.12
414.928	77.12
415.151	98.12
415.374	98.12
415.597	98.12
415.821	85.12
416.044	90.12
416.267	91.12
416.49	107.12
416.713	95.12
416.936	98.12
417.159	77.12
417.382	102.12
417.605	98.12
417.828	99.12
418.051	85.12
418.274	83.12
418.497	96.12
418.72	100.12
418.943	89.12
419.166	95.12
419.389	106.12
419.611	97.12
419.834	85.12
420.057	83.12
420.28	74.12
420.503	95.12
420.726	84.12
420.948	106.12
421.171	93.12
421.394	89.12
421.617	98.12
421.839	94.12
422.062	91.12
422.285	84.12
422.507	101.12
422.73	84.12
422.953	80.12
423.175	102.12
423.398	97.12
423.621	94.12
423.843	90.12
424.066	97.12
424.288	89.12
424.511	104.12
424.733	92.12
424.956	92.12
425.178	85.12
425.401	86.12
425.623	88.12
425.846	106.12
426.068	95.12
426.291	86.12
426.513	96.12
426.735	80.12
426.958	83.12
427.18	90.12
427.402	102.12
427.625	90.12
427.847	91.12
428.069	95.12
428.292	88.12
428.514	94.12
428.736	101.12
428.958	84.12
429.181	82.12
429.403	99.12
429.625	93.12
429.847	98.12
430.069	83.12
430.292	91.12
430.514	100.12
430.736	87.12
430.958	84.12
431.18	88.12
431.402	84.12
431.624	97.12
431.846	87.12
432.068	80.12
432.29	80.12
432.512	96.12
432.734	90.12
432.956	88.12
433.178	99.12
433.4	88.12
433.622	106.12
433.844	90.12
434.066	87.12
434.287	86.12
434.509	78.12
434.731	92.12
434.953	76.12
435.175	96.12
435.397	88.12
435.618	95.12
435.84	92.12
436.062	88.12
436.284	81.12
436.505	92.12
436.727	99.12
436.949	93.12
437.17	96.12
437.392	98.12
437.614	93.12
437.835	71.12
438.057	102.12
438.278	78.12
438.5	88.12
438.721	87.12
438.943	90.12
439.165	84.12
439.386	96.12
439.608	104.12
439.829	95.12
440.05	113.12
440.272	97.12
440.493	83.12
440.715	99.12
440.936	113.12
441.158	99.12
441.379	103.12
441.6	91.12
441.822	97.12
442.043	106.12
442.264	97.12
442.486	99.12
442.707	98.12
442.928	97.12
443.149	78.12
443.371	98.12
443.592	87.12
443.813	96.12
444.034	96.12
444.255	88.12
444.476	96.12
444.698	90.12
444.919	97.12
445.14	227.12
445.361	150.12
445.582	87.12
445.803	96.12
446.024	104.12
446.245	91.12
446.466	97.12
446.687	109.12
446.908	117.12
447.129	106.12
447.35	99.12
447.571	88.12
447.792	114.12
448.013	104.12
448.234	78.12
448.455	100.12
448.675	91.12
448.896	98.12
449.117	90.12
449.338	92.12
449.559	101.12
449.779	87.12
450	99.12
450.221	99.12
450.442	94.12
450.662	92.12
450.883	102.12
451.104	91.12
451.324	87.12
451.545	89.12
451.766	93.12
451.986	94.12
452.207	82.12
452.428	104.12
452.648	93.12
452.869	90.12
453.089	82.12
453.31	95.12
453.53	78.12
453.751	87.12
453.971	87.12
454.192	101.12
454.412	87.12
454.633	97.12
454.853	85.12
455.073	90.12
455.294	90.12
455.514	98.12
455.734	89.12
455.955	86.12
456.175	82.12
456.395	84.12
456.616	85.12
456.836	80.12
457.056	93.12
457.276	71.12
457.497	94.12
457.717	81.12
457.937	89.12
458.157	82.12
458.377	98.12
458.598	100.12
458.818	81.12
459.038	98.12
459.258	90.12
459.478	86.12
459.698	69.12
459.918	84.12
460.138	91.12
460.358	81.12
460.578	81.12
460.798	73.12
461.018	79.12
461.238	85.12
461.458	91.12
461.678	89.12
461.898	83.12
462.118	75.12
462.338	80.12
462.558	92.12
462.777	89.12
462.997	88.12
463.217	81.12
463.437	80.12
463.657	89.12
463.876	90.12
464.096	90.12
464.316	82.12
464.536	84.12
464.755	103.12
464.975	86.12
465.195	95.12
465.414	79.12
465.634	87.12
465.854	97.12
466.073	95.12
466.293	79.12
466.512	86.12
466.732	98.12
466.951	84.12
467.171	100.12
467.391	96.12
467.61	79.12
467.829	87.12
468.049	99.12
468.268	66.12
468.488	92.12
468.707	94.12
468.927	96.12
469.146	95.12
469.365	92.12
469.585	82.12
469.804	89.12
470.023	87.12
470.243	101.12
470.462	99.12
470.681	98.12
470.901	92.12
471.12	92.12
471.339	90.12
471.558	101.12
471.777	102.12
471.997	97.12
472.216	101.12
472.435	97.12
472.654	102.12
472.873	85.12
473.092	88.12
473.311	98.12
473.53	95.12
473.749	84.12
473.968	94.12
474.187	99.12
474.406	98.12
474.625	71.12
474.844	97.12
475.063	86.12
475.282	105.12
475.501	90.12
475.72	84.12
475.939	100.12
476.158	84.12
476.377	97.12
476.596	89.12
476.814	83.12
477.033	82.12
477.252	73.12
477.471	97.12
477.69	89.12
477.908	89.12
478.127	104.12
478.346	82.12
478.564	98.12
478.783	97.12
479.002	88.12
479.22	85.12
479.439	95.12
479.658	104.12
479.876	100.12
480.095	85.12
480.313	93.12
480.532	97.12
480.751	93.12
480.969	83.12
481.188	95.12
481.406	82.12
481.624	88.12
481.843	90.12
482.061	88.12
482.28	82.12
482.498	79.12
482.717	86.12
482.935	81.12
483.153	86.12
483.372	93.12
483.59	99.12
483.808	95.12
484.027	93.12
484.245	96.12
484.463	91.12
484.681	97.12
484.9	103.12
485.118	86.12
485.336	91.12
485.554	90.12
485.772	82.12
485.99	78.12
486.209	83.12
486.427	99.12
486.645	79.12
486.863	92.12
487.081	91.12
487.299	91.12
487.517	87.12
487.735	82.12
487.953	100.12
488.171	110.12
488.389	111.12
488.607	110.12
488.825	92.12
489.043	88.12
489.261	95.12
489.479	84.12
489.696	98.12
489.914	77.12
490.132	77.12
490.35	98.12
490.568	103.12
490.786	109.12
491.003	98.12
491.221	106.12
491.439	120.12
491.657	111.12
491.874	108.12
492.092	113.12
492.31	124.12
492.527	122.12
492.745	119.12
492.963	118.12
493.18	118.12
493.398	114.12
493.615	102.12
493.833	96.12
494.05	90.12
494.268	96.12
494.485	103.12
494.703	109.12
494.92	121.12
495.138	119.12
495.355	115.12
495.573	107.12
495.79	106.12
496.008	107.12
496.225	101.12
496.442	116.12
496.66	101.12
496.877	107.12
497.094	102.12
497.312	108.12
497.529	98.12
497.746	115.12
497.963	104.12
498.181	91.12
498.398	93.12
498.615	89.12
498.832	102.12
499.049	103.12
499.267	88.12
499.484	94.12
499.701	90.12
499.918	96.12
500.135	99.12
500.352	98.12
500.569	102.12
500.786	102.12
501.003	94.12
501.22	92.12
501.437	91.12
501.654	95.12
501.871	103.12
502.088	90.12
502.305	95.12
502.522	87.12
502.739	99.12
502.956	102.12
503.172	96.12
503.389	95.12
503.606	103.12
503.823	83.12
504.04	94.12
504.256	107.12
504.473	88.12
504.69	87.12
504.907	99.12
505.123	93.12
505.34	91.12
505.557	93.12
505.773	93.12
505.99	101.12
506.207	85.12
506.423	87.12
506.64	88.12
506.856	81.12
507.073	78.12
507.289	96.12
507.506	102.12
507.722	99.12
507.939	95.12
508.155	96.12
508.372	95.12
508.588	93.12
508.805	94.12
509.021	91.12
509.238	84.12
509.454	78.12
509.67	82.12
509.887	80.12
510.103	84.12
510.319	93.12
510.536	97.12
510.752	77.12
510.968	67.12
511.184	98.12
511.401	80.12
511.617	91.12
511.833	90.12
512.049	80.12
512.265	86.12
512.481	83.12
512.698	87.12
512.914	89.12
513.13	79.12
513.346	82.12
513.562	86.12
513.778	87.12
513.994	69.12
514.21	91.12
514.426	96.12
514.642	87.12
514.858	83.12
515.074	87.12
515.29	87.12
515.506	75.12
515.721	78.12
515.937	65.12
516.153	62.12
516.369	87.12
516.585	82.12
516.801	81.12
517.016	78.12
517.232	84.12
517.448	75.12
517.664	90.12
517.879	81.12
518.095	83.12
