Data from Location3.07152019.Energy5.Lamp.07192019.3%Agarose_HRD10591_15-18-37-269.txt Node
Date: Fri Jul 19 15:18:37 EDT 2019
User: cochatt
Spectrometer: HR+D1059
Trigger mode: 1
Integration Time (sec): 1.000000E-1
Scans to average: 1
Electric dark correction enabled: true
Nonlinearity correction enabled: false
Boxcar width: 0
XAxis mode: Wavelengths
Number of Pixels in Spectrum: 2048
>>>>>Begin Spectral Data<<<<<
223.165	-22.06
223.4	-22.06
223.635	-22.06
223.869	-26.06
224.104	-16.06
224.338	-15.06
224.573	-16.06
224.808	-7.06
225.042	11.94
225.277	-15.06
225.511	0.94
225.746	-3.06
225.98	11.94
226.215	6.94
226.449	11.94
226.683	16.94
226.918	34.94
227.152	24.94
227.387	27.94
227.621	39.94
227.856	44.94
228.09	37.94
228.324	59.94
228.559	48.94
228.793	55.94
229.027	60.94
229.262	56.94
229.496	75.94
229.73	73.94
229.964	71.94
230.199	69.94
230.433	75.94
230.667	70.94
230.901	85.94
231.136	73.94
231.37	80.94
231.604	82.94
231.838	83.94
232.072	80.94
232.306	84.94
232.541	76.94
232.775	86.94
233.009	78.94
233.243	94.94
233.477	79.94
233.711	89.94
233.945	74.94
234.179	77.94
234.413	75.94
234.647	76.94
234.881	85.94
235.115	75.94
235.349	83.94
235.583	91.94
235.817	77.94
236.051	79.94
236.285	76.94
236.519	84.94
236.753	90.94
236.987	87.94
237.221	83.94
237.455	74.94
237.689	73.94
237.922	70.94
238.156	91.94
238.39	84.94
238.624	72.94
238.858	89.94
239.091	81.94
239.325	85.94
239.559	84.94
239.793	64.94
240.027	68.94
240.26	71.94
240.494	62.94
240.728	79.94
240.961	82.94
241.195	84.94
241.429	76.94
241.662	83.94
241.896	73.94
242.13	92.94
242.363	89.94
242.597	81.94
242.83	82.94
243.064	81.94
243.298	76.94
243.531	71.94
243.765	83.94
243.998	86.94
244.232	90.94
244.465	88.94
244.699	75.94
244.932	67.94
245.166	78.94
245.399	71.94
245.633	88.94
245.866	85.94
246.099	62.94
246.333	84.94
246.566	67.94
246.8	86.94
247.033	76.94
247.266	89.94
247.5	71.94
247.733	82.94
247.966	79.94
248.2	75.94
248.433	75.94
248.666	68.94
248.899	71.94
249.133	78.94
249.366	87.94
249.599	80.94
249.832	66.94
250.066	82.94
250.299	76.94
250.532	76.94
250.765	90.94
250.998	85.94
251.231	86.94
251.465	88.94
251.698	86.94
251.931	72.94
252.164	88.94
252.397	88.94
252.63	89.94
252.863	74.94
253.096	75.94
253.329	96.94
253.562	77.94
253.795	85.94
254.028	79.94
254.261	64.94
254.494	82.94
254.727	81.94
254.96	75.94
255.193	94.94
255.426	82.94
255.659	85.94
255.892	89.94
256.124	86.94
256.357	83.94
256.59	79.94
256.823	82.94
257.056	81.94
257.289	82.94
257.521	87.94
257.754	85.94
257.987	74.94
258.22	72.94
258.452	79.94
258.685	82.94
258.918	81.94
259.151	80.94
259.383	86.94
259.616	77.94
259.849	74.94
260.081	83.94
260.314	82.94
260.547	76.94
260.779	89.94
261.012	73.94
261.244	71.94
261.477	78.94
261.71	88.94
261.942	69.94
262.175	76.94
262.407	76.94
262.64	75.94
262.872	80.94
263.105	80.94
263.337	87.94
263.57	75.94
263.802	80.94
264.035	80.94
264.267	73.94
264.499	84.94
264.732	89.94
264.964	87.94
265.197	83.94
265.429	71.94
265.661	84.94
265.894	84.94
266.126	87.94
266.358	89.94
266.591	84.94
266.823	80.94
267.055	96.94
267.287	82.94
267.52	75.94
267.752	83.94
267.984	81.94
268.216	75.94
268.448	75.94
268.681	79.94
268.913	67.94
269.145	81.94
269.377	84.94
269.609	87.94
269.841	86.94
270.073	59.94
270.306	87.94
270.538	71.94
270.77	86.94
271.002	90.94
271.234	88.94
271.466	76.94
271.698	68.94
271.93	73.94
272.162	74.94
272.394	96.94
272.626	83.94
272.858	74.94
273.09	77.94
273.322	89.94
273.553	81.94
273.785	100.94
274.017	70.94
274.249	78.94
274.481	88.94
274.713	81.94
274.945	84.94
275.176	80.94
275.408	78.94
275.64	89.94
275.872	81.94
276.104	91.94
276.335	83.94
276.567	76.94
276.799	85.94
277.031	78.94
277.262	82.94
277.494	90.94
277.726	87.94
277.957	77.94
278.189	86.94
278.421	79.94
278.652	96.94
278.884	94.94
279.115	81.94
279.347	75.94
279.579	75.94
279.81	85.94
280.042	97.94
280.273	94.94
280.505	81.94
280.736	82.94
280.968	94.94
281.199	78.94
281.431	88.94
281.662	96.94
281.894	82.94
282.125	78.94
282.356	85.94
282.588	96.94
282.819	83.94
283.051	80.94
283.282	82.94
283.513	91.94
283.745	91.94
283.976	88.94
284.207	82.94
284.439	95.94
284.67	87.94
284.901	76.94
285.132	74.94
285.364	86.94
285.595	80.94
285.826	82.94
286.057	91.94
286.288	81.94
286.52	93.94
286.751	80.94
286.982	87.94
287.213	87.94
287.444	73.94
287.675	85.94
287.906	83.94
288.138	77.94
288.369	89.94
288.6	83.94
288.831	88.94
289.062	70.94
289.293	80.94
289.524	96.94
289.755	91.94
289.986	86.94
290.217	98.94
290.448	88.94
290.679	73.94
290.91	103.94
291.141	91.94
291.371	89.94
291.602	96.94
291.833	83.94
292.064	84.94
292.295	88.94
292.526	86.94
292.757	91.94
292.987	76.94
293.218	77.94
293.449	106.94
293.68	103.94
293.91	84.94
294.141	82.94
294.372	94.94
294.603	80.94
294.833	70.94
295.064	85.94
295.295	84.94
295.525	93.94
295.756	82.94
295.987	78.94
296.217	94.94
296.448	83.94
296.679	75.94
296.909	83.94
297.14	85.94
297.37	80.94
297.601	84.94
297.831	97.94
298.062	84.94
298.292	90.94
298.523	95.94
298.753	86.94
298.984	78.94
299.214	96.94
299.445	95.94
299.675	80.94
299.905	88.94
300.136	94.94
300.366	86.94
300.597	82.94
300.827	92.94
301.057	85.94
301.288	95.94
301.518	73.94
301.748	80.94
301.979	76.94
302.209	91.94
302.439	79.94
302.669	87.94
302.9	82.94
303.13	88.94
303.36	72.94
303.59	79.94
303.82	90.94
304.051	79.94
304.281	84.94
304.511	91.94
304.741	97.94
304.971	87.94
305.201	106.94
305.431	84.94
305.661	92.94
305.891	87.94
306.121	90.94
306.352	100.94
306.582	89.94
306.812	97.94
307.042	88.94
307.272	79.94
307.502	95.94
307.731	87.94
307.961	85.94
308.191	94.94
308.421	84.94
308.651	99.94
308.881	91.94
309.111	78.94
309.341	69.94
309.571	73.94
309.8	89.94
310.03	84.94
310.26	87.94
310.49	92.94
310.72	76.94
310.949	92.94
311.179	75.94
311.409	79.94
311.639	88.94
311.868	98.94
312.098	92.94
312.328	95.94
312.557	86.94
312.787	87.94
313.017	91.94
313.246	80.94
313.476	83.94
313.706	74.94
313.935	84.94
314.165	88.94
314.394	95.94
314.624	75.94
314.853	95.94
315.083	81.94
315.312	74.94
315.542	77.94
315.771	88.94
316.001	94.94
316.23	97.94
316.46	84.94
316.689	86.94
316.919	82.94
317.148	81.94
317.377	92.94
317.607	90.94
317.836	77.94
318.065	79.94
318.295	79.94
318.524	94.94
318.753	83.94
318.983	96.94
319.212	76.94
319.441	96.94
319.67	85.94
319.9	83.94
320.129	95.94
320.358	81.94
320.587	93.94
320.816	84.94
321.046	85.94
321.275	88.94
321.504	85.94
321.733	92.94
321.962	104.94
322.191	87.94
322.42	77.94
322.649	97.94
322.878	91.94
323.108	88.94
323.337	89.94
323.566	86.94
323.795	81.94
324.024	83.94
324.253	74.94
324.482	93.94
324.71	76.94
324.939	75.94
325.168	73.94
325.397	87.94
325.626	81.94
325.855	94.94
326.084	81.94
326.313	88.94
326.542	86.94
326.77	96.94
326.999	94.94
327.228	85.94
327.457	89.94
327.686	76.94
327.914	94.94
328.143	82.94
328.372	83.94
328.6	93.94
328.829	85.94
329.058	85.94
329.287	67.94
329.515	92.94
329.744	89.94
329.972	82.94
330.201	81.94
330.43	83.94
330.658	91.94
330.887	91.94
331.115	92.94
331.344	77.94
331.572	83.94
331.801	83.94
332.03	73.94
332.258	92.94
332.486	89.94
332.715	74.94
332.943	101.94
333.172	77.94
333.4	80.94
333.629	84.94
333.857	75.94
334.085	87.94
334.314	82.94
334.542	80.94
334.771	83.94
334.999	86.94
335.227	94.94
335.455	99.94
335.684	96.94
335.912	84.94
336.14	83.94
336.369	74.94
336.597	83.94
336.825	79.94
337.053	79.94
337.281	84.94
337.51	81.94
337.738	90.94
337.966	79.94
338.194	77.94
338.422	98.94
338.65	79.94
338.878	88.94
339.106	90.94
339.334	84.94
339.562	79.94
339.79	79.94
340.018	96.94
340.246	88.94
340.474	75.94
340.702	66.94
340.93	86.94
341.158	74.94
341.386	82.94
341.614	93.94
341.842	86.94
342.07	91.94
342.298	82.94
342.526	90.94
342.754	83.94
342.981	75.94
343.209	85.94
343.437	74.94
343.665	95.94
343.893	90.94
344.12	73.94
344.348	84.94
344.576	79.94
344.804	78.94
345.031	86.94
345.259	83.94
345.487	90.94
345.714	77.94
345.942	79.94
346.17	88.94
346.397	86.94
346.625	78.94
346.853	87.94
347.08	95.94
347.308	87.94
347.535	84.94
347.763	94.94
347.99	71.94
348.218	88.94
348.445	98.94
348.673	99.94
348.9	86.94
349.128	94.94
349.355	72.94
349.583	87.94
349.81	88.94
350.037	77.94
350.265	81.94
350.492	85.94
350.72	93.94
350.947	90.94
351.174	77.94
351.402	75.94
351.629	73.94
351.856	78.94
352.083	90.94
352.311	78.94
352.538	86.94
352.765	97.94
352.992	88.94
353.22	81.94
353.447	91.94
353.674	81.94
353.901	79.94
354.128	94.94
354.355	86.94
354.583	89.94
354.81	82.94
355.037	86.94
355.264	90.94
355.491	87.94
355.718	86.94
355.945	73.94
356.172	91.94
356.399	80.94
356.626	76.94
356.853	82.94
357.08	92.94
357.307	91.94
357.534	84.94
357.761	87.94
357.988	91.94
358.215	96.94
358.441	70.94
358.668	92.94
358.895	99.94
359.122	83.94
359.349	85.94
359.576	94.94
359.802	74.94
360.029	79.94
360.256	82.94
360.483	84.94
360.709	86.94
360.936	84.94
361.163	81.94
361.39	75.94
361.616	83.94
361.843	89.94
362.07	84.94
362.296	87.94
362.523	103.94
362.749	62.94
362.976	78.94
363.203	86.94
363.429	84.94
363.656	83.94
363.882	89.94
364.109	79.94
364.335	96.94
364.562	100.94
364.788	77.94
365.015	79.94
365.241	79.94
365.468	90.94
365.694	81.94
365.92	77.94
366.147	98.94
366.373	89.94
366.599	88.94
366.826	91.94
367.052	98.94
367.278	85.94
367.505	66.94
367.731	78.94
367.957	72.94
368.184	72.94
368.41	83.94
368.636	95.94
368.862	86.94
369.089	92.94
369.315	95.94
369.541	85.94
369.767	90.94
369.993	81.94
370.219	83.94
370.445	78.94
370.672	98.94
370.898	82.94
371.124	77.94
371.35	74.94
371.576	83.94
371.802	103.94
372.028	92.94
372.254	91.94
372.48	98.94
372.706	68.94
372.932	80.94
373.158	88.94
373.384	87.94
373.61	97.94
373.835	103.94
374.061	76.94
374.287	83.94
374.513	81.94
374.739	83.94
374.965	84.94
375.191	83.94
375.416	86.94
375.642	89.94
375.868	90.94
376.094	85.94
376.319	67.94
376.545	70.94
376.771	89.94
376.997	76.94
377.222	79.94
377.448	82.94
377.674	88.94
377.899	80.94
378.125	92.94
378.35	99.94
378.576	89.94
378.802	83.94
379.027	74.94
379.253	86.94
379.478	80.94
379.704	94.94
379.929	95.94
380.155	76.94
380.38	91.94
380.606	89.94
380.831	92.94
381.057	98.94
381.282	90.94
381.507	68.94
381.733	80.94
381.958	77.94
382.184	85.94
382.409	84.94
382.634	84.94
382.86	94.94
383.085	81.94
383.31	89.94
383.535	87.94
383.761	98.94
383.986	89.94
384.211	80.94
384.436	80.94
384.662	94.94
384.887	72.94
385.112	79.94
385.337	98.94
385.562	78.94
385.787	73.94
386.013	88.94
386.238	94.94
386.463	102.94
386.688	86.94
386.913	80.94
387.138	72.94
387.363	92.94
387.588	80.94
387.813	96.94
388.038	83.94
388.263	94.94
388.488	84.94
388.713	88.94
388.938	84.94
389.163	100.94
389.387	95.94
389.612	73.94
389.837	96.94
390.062	82.94
390.287	88.94
390.512	88.94
390.736	91.94
390.961	83.94
391.186	86.94
391.411	89.94
391.636	91.94
391.86	84.94
392.085	84.94
392.31	101.94
392.534	93.94
392.759	79.94
392.984	100.94
393.208	84.94
393.433	83.94
393.658	101.94
393.882	83.94
394.107	72.94
394.331	100.94
394.556	84.94
394.78	90.94
395.005	72.94
395.229	64.94
395.454	81.94
395.678	80.94
395.903	81.94
396.127	75.94
396.352	94.94
396.576	98.94
396.801	94.94
397.025	83.94
397.249	88.94
397.474	85.94
397.698	86.94
397.922	76.94
398.147	91.94
398.371	80.94
398.595	95.94
398.82	102.94
399.044	83.94
399.268	81.94
399.492	80.94
399.717	87.94
399.941	90.94
400.165	88.94
400.389	97.94
400.613	81.94
400.837	87.94
401.062	78.94
401.286	92.94
401.51	80.94
401.734	84.94
401.958	89.94
402.182	91.94
402.406	84.94
402.63	86.94
402.854	78.94
403.078	81.94
403.302	93.94
403.526	81.94
403.75	88.94
403.974	88.94
404.198	86.94
404.422	96.94
404.645	79.94
404.869	99.94
405.093	89.94
405.317	83.94
405.541	94.94
405.765	93.94
405.988	89.94
406.212	82.94
406.436	93.94
406.66	88.94
406.883	99.94
407.107	91.94
407.331	76.94
407.555	84.94
407.778	95.94
408.002	76.94
408.226	104.94
408.449	78.94
408.673	88.94
408.896	99.94
409.12	95.94
409.344	92.94
409.567	78.94
409.791	85.94
410.014	83.94
410.238	81.94
410.461	79.94
410.685	87.94
410.908	91.94
411.132	105.94
411.355	95.94
411.578	89.94
411.802	88.94
412.025	74.94
412.249	83.94
412.472	88.94
412.695	91.94
412.919	85.94
413.142	81.94
413.365	87.94
413.589	94.94
413.812	97.94
414.035	93.94
414.258	81.94
414.482	88.94
414.705	96.94
414.928	85.94
415.151	95.94
415.374	94.94
415.597	95.94
415.821	97.94
416.044	88.94
416.267	98.94
416.49	95.94
416.713	84.94
416.936	92.94
417.159	104.94
417.382	95.94
417.605	90.94
417.828	94.94
418.051	89.94
418.274	93.94
418.497	93.94
418.72	88.94
418.943	99.94
419.166	91.94
419.389	85.94
419.611	82.94
419.834	99.94
420.057	97.94
420.28	91.94
420.503	92.94
420.726	102.94
420.948	91.94
421.171	95.94
421.394	90.94
421.617	85.94
421.839	92.94
422.062	102.94
422.285	80.94
422.507	98.94
422.73	93.94
422.953	95.94
423.175	83.94
423.398	93.94
423.621	105.94
423.843	100.94
424.066	91.94
424.288	97.94
424.511	90.94
424.733	90.94
424.956	96.94
425.178	95.94
425.401	82.94
425.623	91.94
425.846	94.94
426.068	91.94
426.291	74.94
426.513	76.94
426.735	99.94
426.958	109.94
427.18	97.94
427.402	76.94
427.625	94.94
427.847	90.94
428.069	103.94
428.292	83.94
428.514	91.94
428.736	86.94
428.958	96.94
429.181	86.94
429.403	88.94
429.625	87.94
429.847	97.94
430.069	95.94
430.292	95.94
430.514	89.94
430.736	105.94
430.958	91.94
431.18	89.94
431.402	99.94
431.624	104.94
431.846	70.94
432.068	79.94
432.29	79.94
432.512	94.94
432.734	94.94
432.956	106.94
433.178	93.94
433.4	100.94
433.622	103.94
433.844	94.94
434.066	86.94
434.287	84.94
434.509	77.94
434.731	62.94
434.953	85.94
435.175	98.94
435.397	88.94
435.618	77.94
435.84	87.94
436.062	78.94
436.284	89.94
436.505	94.94
436.727	96.94
436.949	80.94
437.17	99.94
437.392	91.94
437.614	97.94
437.835	88.94
438.057	83.94
438.278	90.94
438.5	95.94
438.721	98.94
438.943	102.94
439.165	95.94
439.386	102.94
439.608	91.94
439.829	93.94
440.05	92.94
440.272	111.94
440.493	103.94
440.715	103.94
440.936	92.94
441.158	90.94
441.379	97.94
441.6	80.94
441.822	103.94
442.043	98.94
442.264	105.94
442.486	103.94
442.707	86.94
442.928	99.94
443.149	96.94
443.371	97.94
443.592	97.94
443.813	99.94
444.034	96.94
444.255	95.94
444.476	98.94
444.698	101.94
444.919	97.94
445.14	218.94
445.361	164.94
445.582	100.94
445.803	87.94
446.024	110.94
446.245	97.94
446.466	111.94
446.687	110.94
446.908	113.94
447.129	111.94
447.35	98.94
447.571	101.94
447.792	104.94
448.013	101.94
448.234	94.94
448.455	91.94
448.675	106.94
448.896	98.94
449.117	111.94
449.338	92.94
449.559	99.94
449.779	98.94
450	88.94
450.221	96.94
450.442	95.94
450.662	90.94
450.883	97.94
451.104	101.94
451.324	102.94
451.545	91.94
451.766	82.94
451.986	101.94
452.207	77.94
452.428	97.94
452.648	96.94
452.869	83.94
453.089	105.94
453.31	86.94
453.53	83.94
453.751	80.94
453.971	89.94
454.192	95.94
454.412	105.94
454.633	91.94
454.853	90.94
455.073	102.94
455.294	97.94
455.514	86.94
455.734	87.94
455.955	71.94
456.175	87.94
456.395	93.94
456.616	88.94
456.836	93.94
457.056	100.94
457.276	84.94
457.497	98.94
457.717	80.94
457.937	97.94
458.157	99.94
458.377	92.94
458.598	84.94
458.818	75.94
459.038	85.94
459.258	96.94
459.478	66.94
459.698	90.94
459.918	81.94
460.138	85.94
460.358	79.94
460.578	88.94
460.798	83.94
461.018	75.94
461.238	82.94
461.458	101.94
461.678	87.94
461.898	92.94
462.118	87.94
462.338	86.94
462.558	97.94
462.777	88.94
462.997	86.94
463.217	96.94
463.437	108.94
463.657	94.94
463.876	90.94
464.096	89.94
464.316	83.94
464.536	91.94
464.755	94.94
464.975	84.94
465.195	96.94
465.414	106.94
465.634	112.94
465.854	78.94
466.073	76.94
466.293	107.94
466.512	106.94
466.732	96.94
466.951	84.94
467.171	97.94
467.391	88.94
467.61	91.94
467.829	92.94
468.049	101.94
468.268	94.94
468.488	100.94
468.707	116.94
468.927	110.94
469.146	103.94
469.365	95.94
469.585	91.94
469.804	87.94
470.023	91.94
470.243	97.94
470.462	96.94
470.681	96.94
470.901	96.94
471.12	94.94
471.339	90.94
471.558	99.94
471.777	95.94
471.997	81.94
472.216	92.94
472.435	93.94
472.654	84.94
472.873	81.94
473.092	76.94
473.311	90.94
473.53	87.94
473.749	82.94
473.968	95.94
474.187	92.94
474.406	83.94
474.625	100.94
474.844	95.94
475.063	92.94
475.282	85.94
475.501	73.94
475.72	92.94
475.939	87.94
476.158	84.94
476.377	94.94
476.596	74.94
476.814	83.94
477.033	100.94
477.252	84.94
477.471	97.94
477.69	94.94
477.908	106.94
478.127	92.94
478.346	102.94
478.564	94.94
478.783	103.94
479.002	94.94
479.22	101.94
479.439	90.94
479.658	88.94
479.876	82.94
480.095	101.94
480.313	110.94
480.532	107.94
480.751	83.94
480.969	76.94
481.188	78.94
481.406	86.94
481.624	83.94
481.843	86.94
482.061	100.94
482.28	95.94
482.498	98.94
482.717	89.94
482.935	89.94
483.153	102.94
483.372	102.94
483.59	100.94
483.808	92.94
484.027	107.94
484.245	100.94
484.463	104.94
484.681	113.94
484.9	92.94
485.118	98.94
485.336	101.94
485.554	96.94
485.772	91.94
485.99	89.94
486.209	75.94
486.427	74.94
486.645	79.94
486.863	88.94
487.081	100.94
487.299	101.94
487.517	97.94
487.735	104.94
487.953	118.94
488.171	121.94
488.389	128.94
488.607	100.94
488.825	105.94
489.043	80.94
489.261	106.94
489.479	105.94
489.696	108.94
489.914	90.94
490.132	105.94
490.35	112.94
490.568	105.94
490.786	112.94
491.003	105.94
491.221	88.94
491.439	126.94
491.657	114.94
491.874	127.94
492.092	115.94
492.31	138.94
492.527	122.94
492.745	110.94
492.963	112.94
493.18	116.94
493.398	106.94
493.615	104.94
493.833	101.94
494.05	97.94
494.268	114.94
494.485	112.94
494.703	96.94
494.92	100.94
495.138	117.94
495.355	110.94
495.573	102.94
495.79	119.94
496.008	112.94
496.225	108.94
496.442	109.94
496.66	99.94
496.877	102.94
497.094	105.94
497.312	89.94
497.529	102.94
497.746	97.94
497.963	94.94
498.181	91.94
498.398	90.94
498.615	86.94
498.832	96.94
499.049	95.94
499.267	87.94
499.484	103.94
499.701	94.94
499.918	97.94
500.135	103.94
500.352	99.94
500.569	103.94
500.786	107.94
501.003	107.94
501.22	110.94
501.437	100.94
501.654	92.94
501.871	102.94
502.088	99.94
502.305	89.94
502.522	104.94
502.739	102.94
502.956	97.94
503.172	92.94
503.389	96.94
503.606	80.94
503.823	94.94
504.04	90.94
504.256	91.94
504.473	87.94
504.69	105.94
504.907	95.94
505.123	81.94
505.34	96.94
505.557	91.94
505.773	87.94
505.99	87.94
506.207	98.94
506.423	90.94
506.64	96.94
506.856	93.94
507.073	98.94
507.289	92.94
507.506	97.94
507.722	107.94
507.939	92.94
508.155	95.94
508.372	90.94
508.588	100.94
508.805	83.94
509.021	84.94
509.238	78.94
509.454	86.94
509.67	89.94
509.887	82.94
510.103	87.94
510.319	73.94
510.536	80.94
510.752	84.94
510.968	83.94
511.184	76.94
511.401	81.94
511.617	87.94
511.833	83.94
512.049	73.94
512.265	74.94
512.481	87.94
512.698	88.94
512.914	88.94
513.13	87.94
513.346	74.94
513.562	87.94
513.778	82.94
513.994	89.94
514.21	79.94
514.426	82.94
514.642	75.94
514.858	86.94
515.074	79.94
515.29	94.94
515.506	93.94
515.721	90.94
515.937	79.94
516.153	80.94
516.369	75.94
516.585	80.94
516.801	82.94
517.016	99.94
517.232	86.94
517.448	86.94
