Data from Location3.07152019.Energy5.Lamp.07192019.3%Agarose_HRD10591_15-17-56-269.txt Node
Date: Fri Jul 19 15:17:56 EDT 2019
User: cochatt
Spectrometer: HR+D1059
Trigger mode: 1
Integration Time (sec): 1.000000E-1
Scans to average: 1
Electric dark correction enabled: true
Nonlinearity correction enabled: false
Boxcar width: 0
XAxis mode: Wavelengths
Number of Pixels in Spectrum: 2048
>>>>>Begin Spectral Data<<<<<
223.165	-11.75
223.4	-11.75
223.635	-11.75
223.869	-33.75
224.104	-20.75
224.338	-4.75
224.573	-5.75
224.808	-9.75
225.042	5.25
225.277	-5.75
225.511	-11.75
225.746	2.25
225.98	17.25
226.215	4.25
226.449	19.25
226.683	15.25
226.918	28.25
227.152	12.25
227.387	41.25
227.621	48.25
227.856	38.25
228.09	48.25
228.324	52.25
228.559	49.25
228.793	70.25
229.027	56.25
229.262	75.25
229.496	75.25
229.73	69.25
229.964	74.25
230.199	63.25
230.433	81.25
230.667	68.25
230.901	75.25
231.136	69.25
231.37	78.25
231.604	90.25
231.838	94.25
232.072	81.25
232.306	78.25
232.541	71.25
232.775	76.25
233.009	80.25
233.243	77.25
233.477	91.25
233.711	95.25
233.945	71.25
234.179	79.25
234.413	82.25
234.647	75.25
234.881	101.25
235.115	73.25
235.349	83.25
235.583	89.25
235.817	76.25
236.051	90.25
236.285	83.25
236.519	87.25
236.753	76.25
236.987	63.25
237.221	72.25
237.455	79.25
237.689	73.25
237.922	78.25
238.156	74.25
238.39	84.25
238.624	82.25
238.858	87.25
239.091	64.25
239.325	86.25
239.559	77.25
239.793	81.25
240.027	77.25
240.26	88.25
240.494	84.25
240.728	82.25
240.961	82.25
241.195	71.25
241.429	82.25
241.662	77.25
241.896	70.25
242.13	69.25
242.363	74.25
242.597	75.25
242.83	93.25
243.064	76.25
243.298	70.25
243.531	74.25
243.765	70.25
243.998	74.25
244.232	66.25
244.465	73.25
244.699	71.25
244.932	72.25
245.166	64.25
245.399	76.25
245.633	76.25
245.866	72.25
246.099	63.25
246.333	81.25
246.566	75.25
246.8	89.25
247.033	89.25
247.266	79.25
247.5	77.25
247.733	66.25
247.966	74.25
248.2	88.25
248.433	83.25
248.666	72.25
248.899	68.25
249.133	86.25
249.366	85.25
249.599	81.25
249.832	76.25
250.066	77.25
250.299	76.25
250.532	78.25
250.765	84.25
250.998	80.25
251.231	77.25
251.465	66.25
251.698	72.25
251.931	67.25
252.164	67.25
252.397	82.25
252.63	76.25
252.863	79.25
253.096	78.25
253.329	84.25
253.562	83.25
253.795	89.25
254.028	82.25
254.261	78.25
254.494	83.25
254.727	92.25
254.96	81.25
255.193	75.25
255.426	71.25
255.659	70.25
255.892	81.25
256.124	62.25
256.357	75.25
256.59	83.25
256.823	69.25
257.056	81.25
257.289	77.25
257.521	80.25
257.754	80.25
257.987	81.25
258.22	96.25
258.452	87.25
258.685	86.25
258.918	83.25
259.151	95.25
259.383	80.25
259.616	84.25
259.849	81.25
260.081	86.25
260.314	76.25
260.547	76.25
260.779	65.25
261.012	70.25
261.244	80.25
261.477	88.25
261.71	77.25
261.942	80.25
262.175	95.25
262.407	93.25
262.64	74.25
262.872	90.25
263.105	90.25
263.337	86.25
263.57	88.25
263.802	81.25
264.035	73.25
264.267	90.25
264.499	86.25
264.732	72.25
264.964	71.25
265.197	70.25
265.429	83.25
265.661	88.25
265.894	71.25
266.126	77.25
266.358	69.25
266.591	82.25
266.823	80.25
267.055	95.25
267.287	85.25
267.52	75.25
267.752	76.25
267.984	85.25
268.216	88.25
268.448	97.25
268.681	87.25
268.913	79.25
269.145	73.25
269.377	87.25
269.609	91.25
269.841	81.25
270.073	76.25
270.306	81.25
270.538	84.25
270.77	99.25
271.002	67.25
271.234	79.25
271.466	99.25
271.698	97.25
271.93	77.25
272.162	77.25
272.394	72.25
272.626	75.25
272.858	82.25
273.09	70.25
273.322	87.25
273.553	87.25
273.785	85.25
274.017	77.25
274.249	92.25
274.481	79.25
274.713	88.25
274.945	85.25
275.176	91.25
275.408	82.25
275.64	93.25
275.872	86.25
276.104	73.25
276.335	81.25
276.567	99.25
276.799	71.25
277.031	76.25
277.262	83.25
277.494	82.25
277.726	90.25
277.957	83.25
278.189	76.25
278.421	64.25
278.652	67.25
278.884	74.25
279.115	86.25
279.347	84.25
279.579	92.25
279.81	97.25
280.042	85.25
280.273	81.25
280.505	95.25
280.736	90.25
280.968	80.25
281.199	87.25
281.431	73.25
281.662	77.25
281.894	82.25
282.125	72.25
282.356	64.25
282.588	87.25
282.819	84.25
283.051	82.25
283.282	84.25
283.513	94.25
283.745	90.25
283.976	77.25
284.207	91.25
284.439	85.25
284.67	97.25
284.901	76.25
285.132	77.25
285.364	85.25
285.595	98.25
285.826	86.25
286.057	79.25
286.288	70.25
286.52	75.25
286.751	88.25
286.982	95.25
287.213	94.25
287.444	86.25
287.675	81.25
287.906	87.25
288.138	82.25
288.369	82.25
288.6	75.25
288.831	79.25
289.062	97.25
289.293	87.25
289.524	81.25
289.755	76.25
289.986	74.25
290.217	69.25
290.448	91.25
290.679	91.25
290.91	79.25
291.141	89.25
291.371	79.25
291.602	97.25
291.833	85.25
292.064	76.25
292.295	105.25
292.526	78.25
292.757	78.25
292.987	89.25
293.218	72.25
293.449	80.25
293.68	84.25
293.91	88.25
294.141	93.25
294.372	86.25
294.603	73.25
294.833	81.25
295.064	91.25
295.295	90.25
295.525	88.25
295.756	80.25
295.987	84.25
296.217	90.25
296.448	83.25
296.679	77.25
296.909	66.25
297.14	82.25
297.37	80.25
297.601	86.25
297.831	78.25
298.062	94.25
298.292	80.25
298.523	87.25
298.753	97.25
298.984	86.25
299.214	87.25
299.445	88.25
299.675	85.25
299.905	90.25
300.136	90.25
300.366	91.25
300.597	93.25
300.827	85.25
301.057	80.25
301.288	82.25
301.518	87.25
301.748	86.25
301.979	98.25
302.209	86.25
302.439	81.25
302.669	73.25
302.9	85.25
303.13	86.25
303.36	67.25
303.59	80.25
303.82	78.25
304.051	77.25
304.281	72.25
304.511	79.25
304.741	68.25
304.971	90.25
305.201	96.25
305.431	79.25
305.661	72.25
305.891	78.25
306.121	99.25
306.352	90.25
306.582	83.25
306.812	95.25
307.042	85.25
307.272	82.25
307.502	76.25
307.731	88.25
307.961	89.25
308.191	87.25
308.421	80.25
308.651	88.25
308.881	83.25
309.111	71.25
309.341	73.25
309.571	82.25
309.8	83.25
310.03	87.25
310.26	80.25
310.49	85.25
310.72	89.25
310.949	92.25
311.179	80.25
311.409	80.25
311.639	80.25
311.868	83.25
312.098	96.25
312.328	97.25
312.557	94.25
312.787	88.25
313.017	94.25
313.246	86.25
313.476	88.25
313.706	84.25
313.935	74.25
314.165	91.25
314.394	78.25
314.624	100.25
314.853	82.25
315.083	75.25
315.312	85.25
315.542	90.25
315.771	83.25
316.001	86.25
316.23	89.25
316.46	74.25
316.689	79.25
316.919	85.25
317.148	84.25
317.377	91.25
317.607	81.25
317.836	91.25
318.065	81.25
318.295	65.25
318.524	95.25
318.753	83.25
318.983	80.25
319.212	84.25
319.441	89.25
319.67	79.25
319.9	84.25
320.129	77.25
320.358	73.25
320.587	80.25
320.816	88.25
321.046	88.25
321.275	87.25
321.504	83.25
321.733	93.25
321.962	89.25
322.191	90.25
322.42	77.25
322.649	83.25
322.878	83.25
323.108	79.25
323.337	91.25
323.566	77.25
323.795	94.25
324.024	83.25
324.253	76.25
324.482	88.25
324.71	82.25
324.939	86.25
325.168	87.25
325.397	80.25
325.626	92.25
325.855	94.25
326.084	90.25
326.313	97.25
326.542	90.25
326.77	98.25
326.999	79.25
327.228	86.25
327.457	72.25
327.686	92.25
327.914	97.25
328.143	75.25
328.372	79.25
328.6	79.25
328.829	97.25
329.058	79.25
329.287	95.25
329.515	63.25
329.744	71.25
329.972	87.25
330.201	90.25
330.43	87.25
330.658	84.25
330.887	68.25
331.115	77.25
331.344	68.25
331.572	87.25
331.801	84.25
332.03	86.25
332.258	78.25
332.486	71.25
332.715	85.25
332.943	82.25
333.172	84.25
333.4	70.25
333.629	94.25
333.857	88.25
334.085	74.25
334.314	77.25
334.542	93.25
334.771	81.25
334.999	82.25
335.227	73.25
335.455	86.25
335.684	91.25
335.912	85.25
336.14	87.25
336.369	93.25
336.597	83.25
336.825	70.25
337.053	75.25
337.281	97.25
337.51	91.25
337.738	76.25
337.966	90.25
338.194	73.25
338.422	85.25
338.65	88.25
338.878	88.25
339.106	89.25
339.334	84.25
339.562	83.25
339.79	88.25
340.018	86.25
340.246	95.25
340.474	94.25
340.702	86.25
340.93	64.25
341.158	95.25
341.386	76.25
341.614	73.25
341.842	80.25
342.07	80.25
342.298	79.25
342.526	73.25
342.754	66.25
342.981	75.25
343.209	94.25
343.437	92.25
343.665	81.25
343.893	89.25
344.12	89.25
344.348	83.25
344.576	68.25
344.804	82.25
345.031	76.25
345.259	90.25
345.487	88.25
345.714	85.25
345.942	85.25
346.17	95.25
346.397	77.25
346.625	80.25
346.853	66.25
347.08	82.25
347.308	70.25
347.535	83.25
347.763	98.25
347.99	75.25
348.218	83.25
348.445	83.25
348.673	81.25
348.9	96.25
349.128	85.25
349.355	76.25
349.583	82.25
349.81	86.25
350.037	93.25
350.265	93.25
350.492	88.25
350.72	81.25
350.947	87.25
351.174	87.25
351.402	88.25
351.629	96.25
351.856	79.25
352.083	77.25
352.311	75.25
352.538	75.25
352.765	83.25
352.992	82.25
353.22	85.25
353.447	93.25
353.674	89.25
353.901	88.25
354.128	93.25
354.355	82.25
354.583	72.25
354.81	80.25
355.037	79.25
355.264	78.25
355.491	96.25
355.718	85.25
355.945	70.25
356.172	73.25
356.399	78.25
356.626	75.25
356.853	81.25
357.08	75.25
357.307	93.25
357.534	90.25
357.761	96.25
357.988	82.25
358.215	84.25
358.441	71.25
358.668	74.25
358.895	90.25
359.122	78.25
359.349	91.25
359.576	75.25
359.802	81.25
360.029	85.25
360.256	81.25
360.483	92.25
360.709	98.25
360.936	88.25
361.163	85.25
361.39	89.25
361.616	82.25
361.843	95.25
362.07	91.25
362.296	82.25
362.523	98.25
362.749	81.25
362.976	91.25
363.203	93.25
363.429	88.25
363.656	82.25
363.882	76.25
364.109	80.25
364.335	91.25
364.562	78.25
364.788	82.25
365.015	80.25
365.241	81.25
365.468	83.25
365.694	79.25
365.92	69.25
366.147	81.25
366.373	79.25
366.599	81.25
366.826	76.25
367.052	74.25
367.278	79.25
367.505	76.25
367.731	85.25
367.957	85.25
368.184	76.25
368.41	80.25
368.636	82.25
368.862	76.25
369.089	79.25
369.315	90.25
369.541	89.25
369.767	93.25
369.993	81.25
370.219	81.25
370.445	79.25
370.672	99.25
370.898	87.25
371.124	91.25
371.35	73.25
371.576	88.25
371.802	83.25
372.028	72.25
372.254	81.25
372.48	98.25
372.706	89.25
372.932	85.25
373.158	81.25
373.384	87.25
373.61	83.25
373.835	79.25
374.061	71.25
374.287	86.25
374.513	81.25
374.739	74.25
374.965	86.25
375.191	79.25
375.416	82.25
375.642	98.25
375.868	80.25
376.094	86.25
376.319	86.25
376.545	83.25
376.771	90.25
376.997	78.25
377.222	90.25
377.448	91.25
377.674	71.25
377.899	100.25
378.125	86.25
378.35	76.25
378.576	72.25
378.802	89.25
379.027	72.25
379.253	89.25
379.478	89.25
379.704	94.25
379.929	86.25
380.155	75.25
380.38	91.25
380.606	89.25
380.831	78.25
381.057	82.25
381.282	88.25
381.507	80.25
381.733	86.25
381.958	98.25
382.184	88.25
382.409	75.25
382.634	88.25
382.86	87.25
383.085	84.25
383.31	96.25
383.535	77.25
383.761	90.25
383.986	86.25
384.211	81.25
384.436	83.25
384.662	96.25
384.887	94.25
385.112	82.25
385.337	77.25
385.562	68.25
385.787	76.25
386.013	82.25
386.238	88.25
386.463	74.25
386.688	91.25
386.913	91.25
387.138	97.25
387.363	94.25
387.588	95.25
387.813	88.25
388.038	92.25
388.263	87.25
388.488	93.25
388.713	87.25
388.938	91.25
389.163	87.25
389.387	99.25
389.612	82.25
389.837	91.25
390.062	84.25
390.287	82.25
390.512	88.25
390.736	82.25
390.961	90.25
391.186	83.25
391.411	91.25
391.636	93.25
391.86	69.25
392.085	86.25
392.31	76.25
392.534	90.25
392.759	85.25
392.984	81.25
393.208	79.25
393.433	86.25
393.658	80.25
393.882	88.25
394.107	93.25
394.331	91.25
394.556	75.25
394.78	78.25
395.005	75.25
395.229	107.25
395.454	111.25
395.678	98.25
395.903	87.25
396.127	89.25
396.352	80.25
396.576	94.25
396.801	86.25
397.025	74.25
397.249	81.25
397.474	97.25
397.698	85.25
397.922	74.25
398.147	86.25
398.371	94.25
398.595	69.25
398.82	86.25
399.044	79.25
399.268	93.25
399.492	96.25
399.717	87.25
399.941	96.25
400.165	80.25
400.389	87.25
400.613	107.25
400.837	97.25
401.062	77.25
401.286	87.25
401.51	94.25
401.734	95.25
401.958	88.25
402.182	89.25
402.406	86.25
402.63	92.25
402.854	80.25
403.078	84.25
403.302	73.25
403.526	76.25
403.75	87.25
403.974	89.25
404.198	90.25
404.422	92.25
404.645	91.25
404.869	86.25
405.093	99.25
405.317	87.25
405.541	88.25
405.765	93.25
405.988	90.25
406.212	88.25
406.436	83.25
406.66	89.25
406.883	91.25
407.107	98.25
407.331	90.25
407.555	87.25
407.778	79.25
408.002	95.25
408.226	97.25
408.449	100.25
408.673	84.25
408.896	91.25
409.12	96.25
409.344	84.25
409.567	88.25
409.791	102.25
410.014	91.25
410.238	80.25
410.461	90.25
410.685	95.25
410.908	95.25
411.132	99.25
411.355	87.25
411.578	89.25
411.802	75.25
412.025	83.25
412.249	89.25
412.472	95.25
412.695	91.25
412.919	85.25
413.142	89.25
413.365	110.25
413.589	86.25
413.812	85.25
414.035	81.25
414.258	86.25
414.482	89.25
414.705	110.25
414.928	100.25
415.151	84.25
415.374	85.25
415.597	100.25
415.821	83.25
416.044	100.25
416.267	92.25
416.49	95.25
416.713	90.25
416.936	84.25
417.159	112.25
417.382	88.25
417.605	81.25
417.828	98.25
418.051	99.25
418.274	89.25
418.497	94.25
418.72	92.25
418.943	80.25
419.166	87.25
419.389	88.25
419.611	76.25
419.834	97.25
420.057	105.25
420.28	100.25
420.503	110.25
420.726	95.25
420.948	104.25
421.171	97.25
421.394	107.25
421.617	94.25
421.839	99.25
422.062	96.25
422.285	95.25
422.507	97.25
422.73	78.25
422.953	90.25
423.175	96.25
423.398	87.25
423.621	95.25
423.843	104.25
424.066	84.25
424.288	86.25
424.511	97.25
424.733	118.25
424.956	92.25
425.178	107.25
425.401	86.25
425.623	86.25
425.846	90.25
426.068	93.25
426.291	97.25
426.513	86.25
426.735	91.25
426.958	85.25
427.18	94.25
427.402	91.25
427.625	91.25
427.847	90.25
428.069	100.25
428.292	106.25
428.514	100.25
428.736	91.25
428.958	95.25
429.181	95.25
429.403	93.25
429.625	102.25
429.847	92.25
430.069	92.25
430.292	101.25
430.514	90.25
430.736	89.25
430.958	86.25
431.18	86.25
431.402	100.25
431.624	80.25
431.846	83.25
432.068	92.25
432.29	80.25
432.512	99.25
432.734	94.25
432.956	90.25
433.178	88.25
433.4	83.25
433.622	104.25
433.844	71.25
434.066	87.25
434.287	96.25
434.509	79.25
434.731	85.25
434.953	93.25
435.175	90.25
435.397	86.25
435.618	89.25
435.84	80.25
436.062	103.25
436.284	102.25
436.505	87.25
436.727	78.25
436.949	93.25
437.17	110.25
437.392	90.25
437.614	85.25
437.835	93.25
438.057	85.25
438.278	86.25
438.5	98.25
438.721	99.25
438.943	107.25
439.165	82.25
439.386	99.25
439.608	91.25
439.829	108.25
440.05	111.25
440.272	119.25
440.493	107.25
440.715	98.25
440.936	95.25
441.158	95.25
441.379	95.25
441.6	99.25
441.822	104.25
442.043	105.25
442.264	103.25
442.486	114.25
442.707	86.25
442.928	93.25
443.149	104.25
443.371	102.25
443.592	95.25
443.813	83.25
444.034	94.25
444.255	114.25
444.476	92.25
444.698	94.25
444.919	96.25
445.14	205.25
445.361	152.25
445.582	96.25
445.803	108.25
446.024	103.25
446.245	112.25
446.466	98.25
446.687	100.25
446.908	109.25
447.129	107.25
447.35	92.25
447.571	114.25
447.792	95.25
448.013	86.25
448.234	83.25
448.455	99.25
448.675	97.25
448.896	113.25
449.117	94.25
449.338	95.25
449.559	98.25
449.779	91.25
450	102.25
450.221	114.25
450.442	106.25
450.662	93.25
450.883	92.25
451.104	104.25
451.324	89.25
451.545	98.25
451.766	91.25
451.986	84.25
452.207	95.25
452.428	94.25
452.648	83.25
452.869	91.25
453.089	97.25
453.31	94.25
453.53	81.25
453.751	80.25
453.971	83.25
454.192	82.25
454.412	90.25
454.633	96.25
454.853	84.25
455.073	91.25
455.294	86.25
455.514	94.25
455.734	79.25
455.955	98.25
456.175	99.25
456.395	100.25
456.616	90.25
456.836	95.25
457.056	87.25
457.276	76.25
457.497	84.25
457.717	80.25
457.937	87.25
458.157	84.25
458.377	89.25
458.598	102.25
458.818	84.25
459.038	81.25
459.258	85.25
459.478	83.25
459.698	82.25
459.918	66.25
460.138	83.25
460.358	94.25
460.578	69.25
460.798	82.25
461.018	98.25
461.238	95.25
461.458	92.25
461.678	93.25
461.898	87.25
462.118	80.25
462.338	102.25
462.558	74.25
462.777	86.25
462.997	98.25
463.217	89.25
463.437	90.25
463.657	76.25
463.876	90.25
464.096	93.25
464.316	87.25
464.536	87.25
464.755	87.25
464.975	92.25
465.195	90.25
465.414	86.25
465.634	87.25
465.854	100.25
466.073	94.25
466.293	82.25
466.512	100.25
466.732	87.25
466.951	92.25
467.171	94.25
467.391	97.25
467.61	86.25
467.829	100.25
468.049	92.25
468.268	85.25
468.488	74.25
468.707	100.25
468.927	96.25
469.146	91.25
469.365	98.25
469.585	108.25
469.804	97.25
470.023	102.25
470.243	105.25
470.462	84.25
470.681	95.25
470.901	104.25
471.12	92.25
471.339	104.25
471.558	106.25
471.777	93.25
471.997	82.25
472.216	98.25
472.435	80.25
472.654	90.25
472.873	86.25
473.092	94.25
473.311	94.25
473.53	90.25
473.749	102.25
473.968	97.25
474.187	106.25
474.406	91.25
474.625	104.25
474.844	96.25
475.063	98.25
475.282	94.25
475.501	83.25
475.72	94.25
475.939	91.25
476.158	93.25
476.377	84.25
476.596	93.25
476.814	80.25
477.033	79.25
477.252	75.25
477.471	101.25
477.69	86.25
477.908	101.25
478.127	99.25
478.346	90.25
478.564	99.25
478.783	86.25
479.002	98.25
479.22	98.25
479.439	111.25
479.658	91.25
479.876	92.25
480.095	81.25
480.313	96.25
480.532	87.25
480.751	87.25
480.969	91.25
481.188	92.25
481.406	98.25
481.624	81.25
481.843	80.25
482.061	92.25
482.28	94.25
482.498	80.25
482.717	97.25
482.935	90.25
483.153	99.25
483.372	113.25
483.59	87.25
483.808	103.25
484.027	89.25
484.245	93.25
484.463	105.25
484.681	121.25
484.9	87.25
485.118	88.25
485.336	87.25
485.554	87.25
485.772	91.25
485.99	95.25
486.209	79.25
486.427	84.25
486.645	90.25
486.863	99.25
487.081	112.25
487.299	105.25
487.517	106.25
487.735	104.25
487.953	100.25
488.171	102.25
488.389	100.25
488.607	105.25
488.825	107.25
489.043	98.25
489.261	95.25
489.479	93.25
489.696	107.25
489.914	88.25
490.132	105.25
490.35	103.25
490.568	89.25
490.786	116.25
491.003	108.25
491.221	108.25
491.439	121.25
491.657	120.25
491.874	110.25
492.092	118.25
492.31	137.25
492.527	122.25
492.745	114.25
492.963	117.25
493.18	124.25
493.398	108.25
493.615	95.25
493.833	118.25
494.05	108.25
494.268	114.25
494.485	113.25
494.703	114.25
494.92	105.25
495.138	96.25
495.355	120.25
495.573	122.25
495.79	112.25
496.008	115.25
496.225	101.25
496.442	139.25
496.66	108.25
496.877	114.25
497.094	114.25
497.312	89.25
497.529	115.25
497.746	102.25
497.963	114.25
498.181	103.25
498.398	99.25
498.615	88.25
498.832	99.25
499.049	101.25
499.267	98.25
499.484	89.25
499.701	94.25
499.918	94.25
500.135	91.25
500.352	99.25
500.569	109.25
500.786	98.25
501.003	114.25
501.22	90.25
501.437	111.25
501.654	103.25
501.871	100.25
502.088	91.25
502.305	104.25
502.522	94.25
502.739	88.25
502.956	92.25
503.172	89.25
503.389	98.25
503.606	95.25
503.823	104.25
504.04	97.25
504.256	92.25
504.473	95.25
504.69	92.25
504.907	95.25
505.123	99.25
505.34	95.25
505.557	89.25
505.773	90.25
505.99	95.25
506.207	103.25
506.423	80.25
506.64	87.25
506.856	95.25
507.073	96.25
507.289	97.25
507.506	88.25
507.722	95.25
507.939	87.25
508.155	91.25
508.372	91.25
508.588	97.25
508.805	101.25
509.021	82.25
509.238	94.25
509.454	91.25
509.67	93.25
509.887	76.25
510.103	89.25
510.319	87.25
510.536	81.25
510.752	96.25
510.968	80.25
511.184	82.25
511.401	89.25
511.617	81.25
511.833	90.25
512.049	81.25
512.265	65.25
512.481	92.25
512.698	90.25
512.914	91.25
513.13	94.25
513.346	92.25
513.562	81.25
513.778	84.25
513.994	79.25
514.21	80.25
514.426	102.25
514.642	88.25
514.858	75.25
515.074	94.25
515.29	107.25
515.506	85.25
515.721	88.25
515.937	95.25
516.153	77.25
516.369	78.25
516.585	86.25
516.801	84.25
517.016	93.25
517.232	84.25
517.448	94.25
517.664	87.25
