Data from Location3.07152019.Energy5.Lamp.07192019.3%Agarose_HRD10591_15-19-13-269.txt Node
Date: Fri Jul 19 15:19:13 EDT 2019
User: cochatt
Spectrometer: HR+D1059
Trigger mode: 1
Integration Time (sec): 1.000000E-1
Scans to average: 1
Electric dark correction enabled: true
Nonlinearity correction enabled: false
Boxcar width: 0
XAxis mode: Wavelengths
Number of Pixels in Spectrum: 2048
>>>>>Begin Spectral Data<<<<<
223.165	-12.62
223.4	-12.62
223.635	-12.62
223.869	-13.62
224.104	-17.62
224.338	-0.62
224.573	-23.62
224.808	-17.62
225.042	-5.62
225.277	-5.62
225.511	8.38
225.746	-6.62
225.98	11.38
226.215	-1.62
226.449	6.38
226.683	21.38
226.918	29.38
227.152	28.38
227.387	38.38
227.621	44.38
227.856	48.38
228.09	53.38
228.324	50.38
228.559	48.38
228.793	57.38
229.027	57.38
229.262	57.38
229.496	76.38
229.73	67.38
229.964	80.38
230.199	79.38
230.433	74.38
230.667	80.38
230.901	65.38
231.136	72.38
231.37	81.38
231.604	86.38
231.838	88.38
232.072	81.38
232.306	74.38
232.541	87.38
232.775	94.38
233.009	78.38
233.243	83.38
233.477	90.38
233.711	93.38
233.945	73.38
234.179	72.38
234.413	77.38
234.647	83.38
234.881	82.38
235.115	69.38
235.349	87.38
235.583	79.38
235.817	78.38
236.051	98.38
236.285	98.38
236.519	79.38
236.753	80.38
236.987	66.38
237.221	74.38
237.455	92.38
237.689	75.38
237.922	79.38
238.156	91.38
238.39	65.38
238.624	74.38
238.858	87.38
239.091	77.38
239.325	74.38
239.559	70.38
239.793	64.38
240.027	79.38
240.26	64.38
240.494	67.38
240.728	77.38
240.961	75.38
241.195	75.38
241.429	78.38
241.662	70.38
241.896	65.38
242.13	77.38
242.363	71.38
242.597	68.38
242.83	72.38
243.064	84.38
243.298	87.38
243.531	74.38
243.765	78.38
243.998	61.38
244.232	83.38
244.465	75.38
244.699	84.38
244.932	80.38
245.166	81.38
245.399	80.38
245.633	77.38
245.866	69.38
246.099	81.38
246.333	77.38
246.566	77.38
246.8	71.38
247.033	75.38
247.266	80.38
247.5	75.38
247.733	104.38
247.966	86.38
248.2	73.38
248.433	76.38
248.666	60.38
248.899	90.38
249.133	65.38
249.366	87.38
249.599	82.38
249.832	90.38
250.066	72.38
250.299	69.38
250.532	85.38
250.765	83.38
250.998	76.38
251.231	80.38
251.465	89.38
251.698	83.38
251.931	63.38
252.164	79.38
252.397	69.38
252.63	97.38
252.863	78.38
253.096	91.38
253.329	101.38
253.562	88.38
253.795	92.38
254.028	81.38
254.261	77.38
254.494	82.38
254.727	63.38
254.96	61.38
255.193	77.38
255.426	86.38
255.659	71.38
255.892	80.38
256.124	81.38
256.357	89.38
256.59	75.38
256.823	72.38
257.056	90.38
257.289	71.38
257.521	79.38
257.754	77.38
257.987	92.38
258.22	90.38
258.452	91.38
258.685	76.38
258.918	87.38
259.151	83.38
259.383	91.38
259.616	69.38
259.849	83.38
260.081	81.38
260.314	85.38
260.547	81.38
260.779	92.38
261.012	83.38
261.244	93.38
261.477	80.38
261.71	87.38
261.942	74.38
262.175	83.38
262.407	79.38
262.64	80.38
262.872	82.38
263.105	97.38
263.337	88.38
263.57	76.38
263.802	90.38
264.035	81.38
264.267	75.38
264.499	87.38
264.732	89.38
264.964	85.38
265.197	91.38
265.429	78.38
265.661	73.38
265.894	92.38
266.126	83.38
266.358	90.38
266.591	87.38
266.823	95.38
267.055	93.38
267.287	88.38
267.52	80.38
267.752	82.38
267.984	91.38
268.216	86.38
268.448	90.38
268.681	67.38
268.913	96.38
269.145	73.38
269.377	72.38
269.609	77.38
269.841	91.38
270.073	75.38
270.306	87.38
270.538	82.38
270.77	87.38
271.002	85.38
271.234	80.38
271.466	76.38
271.698	80.38
271.93	80.38
272.162	91.38
272.394	71.38
272.626	93.38
272.858	81.38
273.09	88.38
273.322	86.38
273.553	70.38
273.785	74.38
274.017	72.38
274.249	88.38
274.481	74.38
274.713	95.38
274.945	88.38
275.176	78.38
275.408	99.38
275.64	82.38
275.872	77.38
276.104	73.38
276.335	76.38
276.567	75.38
276.799	80.38
277.031	103.38
277.262	86.38
277.494	88.38
277.726	87.38
277.957	70.38
278.189	76.38
278.421	80.38
278.652	85.38
278.884	90.38
279.115	91.38
279.347	94.38
279.579	72.38
279.81	81.38
280.042	81.38
280.273	86.38
280.505	96.38
280.736	90.38
280.968	87.38
281.199	61.38
281.431	92.38
281.662	89.38
281.894	103.38
282.125	81.38
282.356	90.38
282.588	76.38
282.819	85.38
283.051	72.38
283.282	78.38
283.513	86.38
283.745	91.38
283.976	71.38
284.207	61.38
284.439	89.38
284.67	97.38
284.901	95.38
285.132	86.38
285.364	104.38
285.595	87.38
285.826	85.38
286.057	84.38
286.288	85.38
286.52	77.38
286.751	88.38
286.982	98.38
287.213	91.38
287.444	85.38
287.675	83.38
287.906	89.38
288.138	90.38
288.369	97.38
288.6	87.38
288.831	83.38
289.062	105.38
289.293	91.38
289.524	82.38
289.755	85.38
289.986	86.38
290.217	99.38
290.448	76.38
290.679	89.38
290.91	83.38
291.141	88.38
291.371	84.38
291.602	92.38
291.833	79.38
292.064	83.38
292.295	84.38
292.526	82.38
292.757	88.38
292.987	80.38
293.218	94.38
293.449	90.38
293.68	83.38
293.91	94.38
294.141	95.38
294.372	86.38
294.603	93.38
294.833	83.38
295.064	86.38
295.295	91.38
295.525	93.38
295.756	80.38
295.987	86.38
296.217	99.38
296.448	88.38
296.679	86.38
296.909	91.38
297.14	89.38
297.37	91.38
297.601	76.38
297.831	95.38
298.062	95.38
298.292	70.38
298.523	85.38
298.753	82.38
298.984	77.38
299.214	95.38
299.445	90.38
299.675	86.38
299.905	83.38
300.136	90.38
300.366	73.38
300.597	77.38
300.827	81.38
301.057	84.38
301.288	85.38
301.518	91.38
301.748	78.38
301.979	78.38
302.209	77.38
302.439	81.38
302.669	88.38
302.9	83.38
303.13	87.38
303.36	95.38
303.59	77.38
303.82	81.38
304.051	91.38
304.281	89.38
304.511	91.38
304.741	87.38
304.971	85.38
305.201	89.38
305.431	91.38
305.661	98.38
305.891	89.38
306.121	97.38
306.352	74.38
306.582	86.38
306.812	82.38
307.042	95.38
307.272	92.38
307.502	98.38
307.731	73.38
307.961	95.38
308.191	81.38
308.421	77.38
308.651	71.38
308.881	87.38
309.111	83.38
309.341	88.38
309.571	90.38
309.8	82.38
310.03	88.38
310.26	88.38
310.49	90.38
310.72	91.38
310.949	93.38
311.179	89.38
311.409	90.38
311.639	85.38
311.868	77.38
312.098	89.38
312.328	88.38
312.557	87.38
312.787	97.38
313.017	96.38
313.246	92.38
313.476	89.38
313.706	64.38
313.935	98.38
314.165	90.38
314.394	85.38
314.624	94.38
314.853	85.38
315.083	80.38
315.312	83.38
315.542	65.38
315.771	82.38
316.001	93.38
316.23	99.38
316.46	83.38
316.689	100.38
316.919	74.38
317.148	95.38
317.377	101.38
317.607	95.38
317.836	84.38
318.065	78.38
318.295	70.38
318.524	82.38
318.753	85.38
318.983	91.38
319.212	95.38
319.441	83.38
319.67	74.38
319.9	98.38
320.129	87.38
320.358	93.38
320.587	86.38
320.816	91.38
321.046	94.38
321.275	88.38
321.504	98.38
321.733	93.38
321.962	90.38
322.191	75.38
322.42	83.38
322.649	95.38
322.878	76.38
323.108	105.38
323.337	88.38
323.566	87.38
323.795	85.38
324.024	79.38
324.253	80.38
324.482	94.38
324.71	95.38
324.939	101.38
325.168	80.38
325.397	76.38
325.626	89.38
325.855	94.38
326.084	98.38
326.313	103.38
326.542	90.38
326.77	88.38
326.999	80.38
327.228	81.38
327.457	90.38
327.686	93.38
327.914	77.38
328.143	77.38
328.372	95.38
328.6	95.38
328.829	93.38
329.058	81.38
329.287	83.38
329.515	92.38
329.744	81.38
329.972	91.38
330.201	74.38
330.43	97.38
330.658	85.38
330.887	70.38
331.115	88.38
331.344	58.38
331.572	82.38
331.801	75.38
332.03	88.38
332.258	96.38
332.486	82.38
332.715	75.38
332.943	96.38
333.172	87.38
333.4	82.38
333.629	89.38
333.857	75.38
334.085	99.38
334.314	90.38
334.542	90.38
334.771	85.38
334.999	105.38
335.227	79.38
335.455	76.38
335.684	81.38
335.912	88.38
336.14	87.38
336.369	83.38
336.597	84.38
336.825	88.38
337.053	84.38
337.281	86.38
337.51	87.38
337.738	84.38
337.966	74.38
338.194	97.38
338.422	88.38
338.65	91.38
338.878	88.38
339.106	87.38
339.334	107.38
339.562	73.38
339.79	90.38
340.018	86.38
340.246	87.38
340.474	76.38
340.702	92.38
340.93	88.38
341.158	74.38
341.386	96.38
341.614	88.38
341.842	82.38
342.07	76.38
342.298	82.38
342.526	76.38
342.754	80.38
342.981	79.38
343.209	97.38
343.437	84.38
343.665	99.38
343.893	88.38
344.12	94.38
344.348	89.38
344.576	88.38
344.804	86.38
345.031	84.38
345.259	78.38
345.487	98.38
345.714	101.38
345.942	86.38
346.17	85.38
346.397	93.38
346.625	79.38
346.853	78.38
347.08	74.38
347.308	91.38
347.535	78.38
347.763	81.38
347.99	83.38
348.218	79.38
348.445	74.38
348.673	90.38
348.9	83.38
349.128	82.38
349.355	103.38
349.583	71.38
349.81	81.38
350.037	76.38
350.265	89.38
350.492	97.38
350.72	77.38
350.947	87.38
351.174	103.38
351.402	81.38
351.629	93.38
351.856	92.38
352.083	88.38
352.311	98.38
352.538	85.38
352.765	81.38
352.992	85.38
353.22	83.38
353.447	93.38
353.674	90.38
353.901	77.38
354.128	79.38
354.355	88.38
354.583	95.38
354.81	87.38
355.037	82.38
355.264	97.38
355.491	97.38
355.718	75.38
355.945	88.38
356.172	77.38
356.399	90.38
356.626	105.38
356.853	96.38
357.08	99.38
357.307	87.38
357.534	76.38
357.761	85.38
357.988	98.38
358.215	74.38
358.441	79.38
358.668	93.38
358.895	88.38
359.122	73.38
359.349	84.38
359.576	83.38
359.802	89.38
360.029	87.38
360.256	73.38
360.483	72.38
360.709	94.38
360.936	81.38
361.163	85.38
361.39	78.38
361.616	81.38
361.843	77.38
362.07	74.38
362.296	91.38
362.523	92.38
362.749	81.38
362.976	85.38
363.203	81.38
363.429	80.38
363.656	94.38
363.882	84.38
364.109	74.38
364.335	88.38
364.562	82.38
364.788	90.38
365.015	65.38
365.241	87.38
365.468	88.38
365.694	95.38
365.92	89.38
366.147	68.38
366.373	74.38
366.599	92.38
366.826	83.38
367.052	82.38
367.278	101.38
367.505	92.38
367.731	85.38
367.957	83.38
368.184	98.38
368.41	89.38
368.636	85.38
368.862	87.38
369.089	88.38
369.315	89.38
369.541	88.38
369.767	81.38
369.993	88.38
370.219	87.38
370.445	84.38
370.672	76.38
370.898	96.38
371.124	86.38
371.35	96.38
371.576	97.38
371.802	72.38
372.028	91.38
372.254	77.38
372.48	90.38
372.706	75.38
372.932	80.38
373.158	77.38
373.384	86.38
373.61	91.38
373.835	83.38
374.061	73.38
374.287	76.38
374.513	79.38
374.739	77.38
374.965	82.38
375.191	84.38
375.416	96.38
375.642	93.38
375.868	90.38
376.094	89.38
376.319	88.38
376.545	94.38
376.771	97.38
376.997	82.38
377.222	89.38
377.448	79.38
377.674	86.38
377.899	91.38
378.125	97.38
378.35	87.38
378.576	93.38
378.802	88.38
379.027	90.38
379.253	87.38
379.478	97.38
379.704	71.38
379.929	91.38
380.155	79.38
380.38	97.38
380.606	86.38
380.831	85.38
381.057	97.38
381.282	85.38
381.507	105.38
381.733	98.38
381.958	80.38
382.184	87.38
382.409	87.38
382.634	90.38
382.86	84.38
383.085	83.38
383.31	87.38
383.535	84.38
383.761	96.38
383.986	83.38
384.211	80.38
384.436	96.38
384.662	83.38
384.887	89.38
385.112	84.38
385.337	92.38
385.562	90.38
385.787	96.38
386.013	81.38
386.238	83.38
386.463	80.38
386.688	80.38
386.913	77.38
387.138	87.38
387.363	77.38
387.588	100.38
387.813	88.38
388.038	97.38
388.263	91.38
388.488	93.38
388.713	89.38
388.938	86.38
389.163	90.38
389.387	93.38
389.612	89.38
389.837	84.38
390.062	82.38
390.287	105.38
390.512	85.38
390.736	94.38
390.961	96.38
391.186	75.38
391.411	86.38
391.636	81.38
391.86	85.38
392.085	81.38
392.31	102.38
392.534	94.38
392.759	97.38
392.984	91.38
393.208	94.38
393.433	87.38
393.658	85.38
393.882	87.38
394.107	89.38
394.331	83.38
394.556	96.38
394.78	95.38
395.005	95.38
395.229	84.38
395.454	86.38
395.678	96.38
395.903	83.38
396.127	89.38
396.352	93.38
396.576	89.38
396.801	80.38
397.025	96.38
397.249	98.38
397.474	97.38
397.698	92.38
397.922	88.38
398.147	77.38
398.371	103.38
398.595	97.38
398.82	89.38
399.044	97.38
399.268	91.38
399.492	88.38
399.717	92.38
399.941	97.38
400.165	101.38
400.389	111.38
400.613	85.38
400.837	85.38
401.062	91.38
401.286	95.38
401.51	89.38
401.734	83.38
401.958	87.38
402.182	84.38
402.406	89.38
402.63	80.38
402.854	70.38
403.078	81.38
403.302	95.38
403.526	99.38
403.75	88.38
403.974	100.38
404.198	95.38
404.422	92.38
404.645	105.38
404.869	99.38
405.093	94.38
405.317	105.38
405.541	110.38
405.765	92.38
405.988	92.38
406.212	81.38
406.436	99.38
406.66	100.38
406.883	83.38
407.107	89.38
407.331	88.38
407.555	83.38
407.778	84.38
408.002	90.38
408.226	105.38
408.449	94.38
408.673	105.38
408.896	89.38
409.12	89.38
409.344	98.38
409.567	94.38
409.791	95.38
410.014	81.38
410.238	76.38
410.461	96.38
410.685	88.38
410.908	101.38
411.132	93.38
411.355	97.38
411.578	73.38
411.802	78.38
412.025	97.38
412.249	92.38
412.472	79.38
412.695	106.38
412.919	103.38
413.142	91.38
413.365	90.38
413.589	97.38
413.812	93.38
414.035	89.38
414.258	106.38
414.482	86.38
414.705	78.38
414.928	95.38
415.151	88.38
415.374	114.38
415.597	101.38
415.821	100.38
416.044	97.38
416.267	94.38
416.49	103.38
416.713	90.38
416.936	87.38
417.159	84.38
417.382	90.38
417.605	84.38
417.828	100.38
418.051	119.38
418.274	89.38
418.497	99.38
418.72	89.38
418.943	104.38
419.166	98.38
419.389	94.38
419.611	97.38
419.834	105.38
420.057	93.38
420.28	89.38
420.503	88.38
420.726	103.38
420.948	85.38
421.171	101.38
421.394	100.38
421.617	98.38
421.839	101.38
422.062	101.38
422.285	99.38
422.507	100.38
422.73	92.38
422.953	105.38
423.175	107.38
423.398	99.38
423.621	99.38
423.843	103.38
424.066	101.38
424.288	108.38
424.511	97.38
424.733	104.38
424.956	98.38
425.178	92.38
425.401	107.38
425.623	84.38
425.846	89.38
426.068	98.38
426.291	105.38
426.513	101.38
426.735	92.38
426.958	84.38
427.18	84.38
427.402	95.38
427.625	100.38
427.847	101.38
428.069	102.38
428.292	88.38
428.514	105.38
428.736	116.38
428.958	87.38
429.181	99.38
429.403	95.38
429.625	85.38
429.847	104.38
430.069	108.38
430.292	108.38
430.514	116.38
430.736	97.38
430.958	89.38
431.18	90.38
431.402	96.38
431.624	89.38
431.846	96.38
432.068	83.38
432.29	74.38
432.512	103.38
432.734	100.38
432.956	100.38
433.178	105.38
433.4	89.38
433.622	97.38
433.844	98.38
434.066	101.38
434.287	84.38
434.509	92.38
434.731	81.38
434.953	85.38
435.175	84.38
435.397	93.38
435.618	88.38
435.84	97.38
436.062	102.38
436.284	101.38
436.505	90.38
436.727	89.38
436.949	99.38
437.17	92.38
437.392	103.38
437.614	94.38
437.835	93.38
438.057	88.38
438.278	105.38
438.5	87.38
438.721	104.38
438.943	88.38
439.165	101.38
439.386	92.38
439.608	105.38
439.829	101.38
440.05	92.38
440.272	91.38
440.493	111.38
440.715	114.38
440.936	94.38
441.158	99.38
441.379	93.38
441.6	114.38
441.822	112.38
442.043	83.38
442.264	93.38
442.486	94.38
442.707	90.38
442.928	89.38
443.149	99.38
443.371	105.38
443.592	102.38
443.813	90.38
444.034	89.38
444.255	91.38
444.476	81.38
444.698	109.38
444.919	106.38
445.14	229.38
445.361	152.38
445.582	101.38
445.803	93.38
446.024	101.38
446.245	91.38
446.466	95.38
446.687	89.38
446.908	99.38
447.129	105.38
447.35	115.38
447.571	105.38
447.792	100.38
448.013	95.38
448.234	99.38
448.455	106.38
448.675	101.38
448.896	91.38
449.117	92.38
449.338	98.38
449.559	106.38
449.779	96.38
450	96.38
450.221	99.38
450.442	104.38
450.662	109.38
450.883	81.38
451.104	100.38
451.324	91.38
451.545	97.38
451.766	99.38
451.986	101.38
452.207	95.38
452.428	91.38
452.648	95.38
452.869	112.38
453.089	96.38
453.31	92.38
453.53	100.38
453.751	90.38
453.971	88.38
454.192	96.38
454.412	91.38
454.633	89.38
454.853	83.38
455.073	83.38
455.294	90.38
455.514	81.38
455.734	78.38
455.955	97.38
456.175	96.38
456.395	92.38
456.616	92.38
456.836	101.38
457.056	100.38
457.276	89.38
457.497	83.38
457.717	80.38
457.937	78.38
458.157	80.38
458.377	103.38
458.598	75.38
458.818	87.38
459.038	99.38
459.258	74.38
459.478	95.38
459.698	80.38
459.918	89.38
460.138	101.38
460.358	89.38
460.578	96.38
460.798	92.38
461.018	101.38
461.238	100.38
461.458	93.38
461.678	69.38
461.898	82.38
462.118	104.38
462.338	109.38
462.558	94.38
462.777	101.38
462.997	86.38
463.217	90.38
463.437	101.38
463.657	88.38
463.876	92.38
464.096	85.38
464.316	88.38
464.536	85.38
464.755	96.38
464.975	94.38
465.195	86.38
465.414	94.38
465.634	104.38
465.854	100.38
466.073	95.38
466.293	98.38
466.512	85.38
466.732	87.38
466.951	81.38
467.171	95.38
467.391	101.38
467.61	97.38
467.829	120.38
468.049	94.38
468.268	105.38
468.488	105.38
468.707	102.38
468.927	103.38
469.146	98.38
469.365	108.38
469.585	102.38
469.804	104.38
470.023	84.38
470.243	92.38
470.462	104.38
470.681	102.38
470.901	94.38
471.12	102.38
471.339	96.38
471.558	108.38
471.777	115.38
471.997	101.38
472.216	102.38
472.435	103.38
472.654	92.38
472.873	81.38
473.092	82.38
473.311	95.38
473.53	82.38
473.749	105.38
473.968	109.38
474.187	99.38
474.406	95.38
474.625	93.38
474.844	99.38
475.063	95.38
475.282	82.38
475.501	106.38
475.72	111.38
475.939	95.38
476.158	85.38
476.377	93.38
476.596	90.38
476.814	106.38
477.033	100.38
477.252	90.38
477.471	105.38
477.69	90.38
477.908	109.38
478.127	99.38
478.346	94.38
478.564	102.38
478.783	99.38
479.002	89.38
479.22	79.38
479.439	82.38
479.658	91.38
479.876	91.38
480.095	95.38
480.313	93.38
480.532	88.38
480.751	99.38
480.969	77.38
481.188	92.38
481.406	85.38
481.624	78.38
481.843	92.38
482.061	85.38
482.28	87.38
482.498	89.38
482.717	90.38
482.935	109.38
483.153	102.38
483.372	95.38
483.59	98.38
483.808	84.38
484.027	89.38
484.245	96.38
484.463	105.38
484.681	99.38
484.9	104.38
485.118	123.38
485.336	100.38
485.554	93.38
485.772	100.38
485.99	90.38
486.209	101.38
486.427	87.38
486.645	101.38
486.863	114.38
487.081	98.38
487.299	99.38
487.517	104.38
487.735	102.38
487.953	113.38
488.171	119.38
488.389	113.38
488.607	100.38
488.825	105.38
489.043	94.38
489.261	104.38
489.479	109.38
489.696	104.38
489.914	104.38
490.132	80.38
490.35	85.38
490.568	102.38
490.786	118.38
491.003	123.38
491.221	107.38
491.439	105.38
491.657	119.38
491.874	127.38
492.092	125.38
492.31	123.38
492.527	121.38
492.745	101.38
492.963	128.38
493.18	113.38
493.398	115.38
493.615	130.38
493.833	116.38
494.05	119.38
494.268	113.38
494.485	106.38
494.703	109.38
494.92	114.38
495.138	106.38
495.355	119.38
495.573	103.38
495.79	117.38
496.008	108.38
496.225	119.38
496.442	110.38
496.66	111.38
496.877	107.38
497.094	103.38
497.312	120.38
497.529	103.38
497.746	105.38
497.963	93.38
498.181	93.38
498.398	92.38
498.615	102.38
498.832	97.38
499.049	78.38
499.267	102.38
499.484	97.38
499.701	98.38
499.918	97.38
500.135	111.38
500.352	94.38
500.569	107.38
500.786	101.38
501.003	93.38
501.22	96.38
501.437	92.38
501.654	95.38
501.871	101.38
502.088	104.38
502.305	104.38
502.522	99.38
502.739	98.38
502.956	100.38
503.172	100.38
503.389	94.38
503.606	95.38
503.823	95.38
504.04	100.38
504.256	97.38
504.473	87.38
504.69	100.38
504.907	110.38
505.123	76.38
505.34	91.38
505.557	92.38
505.773	112.38
505.99	98.38
506.207	96.38
506.423	81.38
506.64	90.38
506.856	93.38
507.073	111.38
507.289	108.38
507.506	117.38
507.722	98.38
507.939	104.38
508.155	99.38
508.372	106.38
508.588	96.38
508.805	88.38
509.021	81.38
509.238	84.38
509.454	83.38
509.67	89.38
509.887	83.38
510.103	85.38
510.319	94.38
510.536	83.38
510.752	92.38
510.968	91.38
511.184	101.38
511.401	83.38
511.617	85.38
511.833	85.38
512.049	88.38
512.265	105.38
512.481	91.38
512.698	71.38
512.914	87.38
513.13	97.38
513.346	85.38
513.562	82.38
513.778	87.38
513.994	73.38
514.21	77.38
514.426	66.38
514.642	88.38
514.858	89.38
515.074	88.38
515.29	80.38
515.506	84.38
515.721	82.38
515.937	73.38
516.153	86.38
516.369	79.38
