Data from Location3.07152019.Energy5.Lamp.07192019.3%Agarose_HRD10591_15-18-04-269.txt Node
Date: Fri Jul 19 15:18:04 EDT 2019
User: cochatt
Spectrometer: HR+D1059
Trigger mode: 1
Integration Time (sec): 1.000000E-1
Scans to average: 1
Electric dark correction enabled: true
Nonlinearity correction enabled: false
Boxcar width: 0
XAxis mode: Wavelengths
Number of Pixels in Spectrum: 2048
>>>>>Begin Spectral Data<<<<<
223.165	-19.06
223.4	-19.06
223.635	-19.06
223.869	-23.06
224.104	-19.06
224.338	-18.06
224.573	-8.06
224.808	-16.06
225.042	-3.06
225.277	1.94
225.511	1.94
225.746	-3.06
225.98	0.94
226.215	-6.06
226.449	21.94
226.683	23.94
226.918	27.94
227.152	36.94
227.387	29.94
227.621	25.94
227.856	44.94
228.09	32.94
228.324	50.94
228.559	55.94
228.793	53.94
229.027	67.94
229.262	60.94
229.496	68.94
229.73	60.94
229.964	82.94
230.199	76.94
230.433	61.94
230.667	66.94
230.901	63.94
231.136	77.94
231.37	82.94
231.604	64.94
231.838	76.94
232.072	84.94
232.306	65.94
232.541	89.94
232.775	81.94
233.009	81.94
233.243	81.94
233.477	82.94
233.711	81.94
233.945	92.94
234.179	73.94
234.413	72.94
234.647	84.94
234.881	77.94
235.115	82.94
235.349	77.94
235.583	72.94
235.817	76.94
236.051	87.94
236.285	77.94
236.519	72.94
236.753	75.94
236.987	87.94
237.221	80.94
237.455	80.94
237.689	81.94
237.922	82.94
238.156	79.94
238.39	79.94
238.624	60.94
238.858	68.94
239.091	83.94
239.325	73.94
239.559	70.94
239.793	92.94
240.027	84.94
240.26	80.94
240.494	84.94
240.728	70.94
240.961	71.94
241.195	81.94
241.429	69.94
241.662	71.94
241.896	72.94
242.13	66.94
242.363	80.94
242.597	68.94
242.83	75.94
243.064	71.94
243.298	78.94
243.531	75.94
243.765	85.94
243.998	72.94
244.232	76.94
244.465	69.94
244.699	78.94
244.932	87.94
245.166	72.94
245.399	84.94
245.633	81.94
245.866	79.94
246.099	86.94
246.333	80.94
246.566	69.94
246.8	60.94
247.033	90.94
247.266	79.94
247.5	88.94
247.733	87.94
247.966	77.94
248.2	74.94
248.433	79.94
248.666	83.94
248.899	78.94
249.133	79.94
249.366	79.94
249.599	83.94
249.832	78.94
250.066	77.94
250.299	71.94
250.532	75.94
250.765	71.94
250.998	76.94
251.231	65.94
251.465	94.94
251.698	69.94
251.931	75.94
252.164	77.94
252.397	78.94
252.63	96.94
252.863	85.94
253.096	74.94
253.329	77.94
253.562	86.94
253.795	78.94
254.028	76.94
254.261	73.94
254.494	75.94
254.727	94.94
254.96	82.94
255.193	91.94
255.426	83.94
255.659	64.94
255.892	81.94
256.124	84.94
256.357	74.94
256.59	83.94
256.823	68.94
257.056	71.94
257.289	73.94
257.521	86.94
257.754	76.94
257.987	89.94
258.22	83.94
258.452	77.94
258.685	75.94
258.918	93.94
259.151	89.94
259.383	77.94
259.616	71.94
259.849	83.94
260.081	88.94
260.314	69.94
260.547	93.94
260.779	90.94
261.012	84.94
261.244	68.94
261.477	79.94
261.71	84.94
261.942	75.94
262.175	100.94
262.407	73.94
262.64	94.94
262.872	77.94
263.105	78.94
263.337	75.94
263.57	87.94
263.802	82.94
264.035	86.94
264.267	84.94
264.499	64.94
264.732	83.94
264.964	84.94
265.197	71.94
265.429	76.94
265.661	74.94
265.894	77.94
266.126	88.94
266.358	90.94
266.591	88.94
266.823	84.94
267.055	89.94
267.287	75.94
267.52	88.94
267.752	83.94
267.984	96.94
268.216	86.94
268.448	91.94
268.681	94.94
268.913	90.94
269.145	76.94
269.377	80.94
269.609	74.94
269.841	77.94
270.073	78.94
270.306	89.94
270.538	84.94
270.77	95.94
271.002	90.94
271.234	97.94
271.466	100.94
271.698	77.94
271.93	89.94
272.162	79.94
272.394	91.94
272.626	83.94
272.858	68.94
273.09	96.94
273.322	96.94
273.553	91.94
273.785	93.94
274.017	83.94
274.249	77.94
274.481	72.94
274.713	92.94
274.945	88.94
275.176	73.94
275.408	85.94
275.64	86.94
275.872	80.94
276.104	83.94
276.335	98.94
276.567	99.94
276.799	86.94
277.031	82.94
277.262	96.94
277.494	89.94
277.726	85.94
277.957	89.94
278.189	80.94
278.421	76.94
278.652	77.94
278.884	82.94
279.115	83.94
279.347	90.94
279.579	90.94
279.81	88.94
280.042	81.94
280.273	80.94
280.505	87.94
280.736	104.94
280.968	81.94
281.199	85.94
281.431	84.94
281.662	80.94
281.894	89.94
282.125	86.94
282.356	77.94
282.588	81.94
282.819	79.94
283.051	75.94
283.282	81.94
283.513	84.94
283.745	96.94
283.976	72.94
284.207	93.94
284.439	74.94
284.67	92.94
284.901	81.94
285.132	91.94
285.364	86.94
285.595	91.94
285.826	82.94
286.057	90.94
286.288	85.94
286.52	89.94
286.751	73.94
286.982	93.94
287.213	79.94
287.444	98.94
287.675	85.94
287.906	91.94
288.138	71.94
288.369	84.94
288.6	87.94
288.831	77.94
289.062	90.94
289.293	70.94
289.524	80.94
289.755	71.94
289.986	86.94
290.217	66.94
290.448	83.94
290.679	78.94
290.91	85.94
291.141	83.94
291.371	90.94
291.602	81.94
291.833	83.94
292.064	79.94
292.295	87.94
292.526	87.94
292.757	81.94
292.987	87.94
293.218	85.94
293.449	81.94
293.68	89.94
293.91	86.94
294.141	81.94
294.372	90.94
294.603	76.94
294.833	84.94
295.064	85.94
295.295	95.94
295.525	76.94
295.756	83.94
295.987	83.94
296.217	97.94
296.448	93.94
296.679	95.94
296.909	94.94
297.14	85.94
297.37	93.94
297.601	83.94
297.831	78.94
298.062	73.94
298.292	83.94
298.523	92.94
298.753	86.94
298.984	77.94
299.214	82.94
299.445	92.94
299.675	92.94
299.905	87.94
300.136	88.94
300.366	89.94
300.597	86.94
300.827	79.94
301.057	83.94
301.288	87.94
301.518	73.94
301.748	65.94
301.979	90.94
302.209	79.94
302.439	76.94
302.669	83.94
302.9	107.94
303.13	78.94
303.36	81.94
303.59	101.94
303.82	80.94
304.051	74.94
304.281	91.94
304.511	100.94
304.741	79.94
304.971	76.94
305.201	80.94
305.431	92.94
305.661	102.94
305.891	79.94
306.121	73.94
306.352	88.94
306.582	84.94
306.812	86.94
307.042	84.94
307.272	83.94
307.502	83.94
307.731	85.94
307.961	89.94
308.191	83.94
308.421	100.94
308.651	76.94
308.881	92.94
309.111	92.94
309.341	85.94
309.571	83.94
309.8	82.94
310.03	91.94
310.26	66.94
310.49	88.94
310.72	95.94
310.949	95.94
311.179	83.94
311.409	75.94
311.639	77.94
311.868	88.94
312.098	84.94
312.328	92.94
312.557	87.94
312.787	92.94
313.017	76.94
313.246	75.94
313.476	67.94
313.706	72.94
313.935	90.94
314.165	79.94
314.394	91.94
314.624	83.94
314.853	84.94
315.083	84.94
315.312	81.94
315.542	86.94
315.771	86.94
316.001	91.94
316.23	86.94
316.46	77.94
316.689	88.94
316.919	81.94
317.148	88.94
317.377	77.94
317.607	63.94
317.836	93.94
318.065	86.94
318.295	91.94
318.524	92.94
318.753	85.94
318.983	85.94
319.212	87.94
319.441	83.94
319.67	82.94
319.9	88.94
320.129	87.94
320.358	88.94
320.587	77.94
320.816	84.94
321.046	88.94
321.275	83.94
321.504	78.94
321.733	84.94
321.962	85.94
322.191	85.94
322.42	85.94
322.649	95.94
322.878	91.94
323.108	99.94
323.337	95.94
323.566	95.94
323.795	90.94
324.024	98.94
324.253	82.94
324.482	66.94
324.71	84.94
324.939	83.94
325.168	96.94
325.397	81.94
325.626	97.94
325.855	87.94
326.084	71.94
326.313	77.94
326.542	77.94
326.77	92.94
326.999	89.94
327.228	88.94
327.457	89.94
327.686	78.94
327.914	74.94
328.143	100.94
328.372	81.94
328.6	77.94
328.829	80.94
329.058	86.94
329.287	85.94
329.515	75.94
329.744	94.94
329.972	76.94
330.201	66.94
330.43	95.94
330.658	80.94
330.887	94.94
331.115	53.94
331.344	67.94
331.572	85.94
331.801	91.94
332.03	77.94
332.258	95.94
332.486	79.94
332.715	88.94
332.943	99.94
333.172	84.94
333.4	95.94
333.629	83.94
333.857	81.94
334.085	83.94
334.314	88.94
334.542	77.94
334.771	85.94
334.999	76.94
335.227	87.94
335.455	83.94
335.684	86.94
335.912	89.94
336.14	99.94
336.369	71.94
336.597	92.94
336.825	88.94
337.053	100.94
337.281	93.94
337.51	86.94
337.738	94.94
337.966	87.94
338.194	76.94
338.422	78.94
338.65	94.94
338.878	88.94
339.106	81.94
339.334	95.94
339.562	94.94
339.79	79.94
340.018	91.94
340.246	89.94
340.474	76.94
340.702	82.94
340.93	80.94
341.158	75.94
341.386	89.94
341.614	71.94
341.842	91.94
342.07	91.94
342.298	88.94
342.526	86.94
342.754	94.94
342.981	95.94
343.209	88.94
343.437	89.94
343.665	86.94
343.893	77.94
344.12	83.94
344.348	92.94
344.576	95.94
344.804	82.94
345.031	92.94
345.259	86.94
345.487	79.94
345.714	76.94
345.942	87.94
346.17	91.94
346.397	100.94
346.625	97.94
346.853	77.94
347.08	78.94
347.308	87.94
347.535	87.94
347.763	84.94
347.99	95.94
348.218	99.94
348.445	88.94
348.673	78.94
348.9	91.94
349.128	87.94
349.355	96.94
349.583	85.94
349.81	87.94
350.037	93.94
350.265	78.94
350.492	84.94
350.72	78.94
350.947	83.94
351.174	80.94
351.402	83.94
351.629	95.94
351.856	80.94
352.083	85.94
352.311	81.94
352.538	81.94
352.765	104.94
352.992	99.94
353.22	82.94
353.447	80.94
353.674	101.94
353.901	85.94
354.128	83.94
354.355	77.94
354.583	95.94
354.81	80.94
355.037	77.94
355.264	93.94
355.491	82.94
355.718	74.94
355.945	84.94
356.172	85.94
356.399	80.94
356.626	85.94
356.853	92.94
357.08	82.94
357.307	88.94
357.534	93.94
357.761	86.94
357.988	79.94
358.215	95.94
358.441	86.94
358.668	85.94
358.895	85.94
359.122	90.94
359.349	93.94
359.576	85.94
359.802	75.94
360.029	71.94
360.256	87.94
360.483	89.94
360.709	84.94
360.936	94.94
361.163	90.94
361.39	70.94
361.616	93.94
361.843	90.94
362.07	92.94
362.296	86.94
362.523	75.94
362.749	81.94
362.976	84.94
363.203	88.94
363.429	92.94
363.656	83.94
363.882	72.94
364.109	76.94
364.335	92.94
364.562	86.94
364.788	69.94
365.015	81.94
365.241	85.94
365.468	97.94
365.694	84.94
365.92	78.94
366.147	90.94
366.373	86.94
366.599	91.94
366.826	88.94
367.052	79.94
367.278	92.94
367.505	87.94
367.731	89.94
367.957	89.94
368.184	88.94
368.41	97.94
368.636	93.94
368.862	87.94
369.089	87.94
369.315	87.94
369.541	89.94
369.767	77.94
369.993	74.94
370.219	83.94
370.445	78.94
370.672	99.94
370.898	87.94
371.124	87.94
371.35	87.94
371.576	77.94
371.802	75.94
372.028	92.94
372.254	97.94
372.48	89.94
372.706	83.94
372.932	87.94
373.158	84.94
373.384	92.94
373.61	90.94
373.835	75.94
374.061	81.94
374.287	81.94
374.513	90.94
374.739	82.94
374.965	87.94
375.191	94.94
375.416	97.94
375.642	83.94
375.868	90.94
376.094	79.94
376.319	83.94
376.545	79.94
376.771	86.94
376.997	87.94
377.222	108.94
377.448	80.94
377.674	74.94
377.899	73.94
378.125	95.94
378.35	95.94
378.576	88.94
378.802	83.94
379.027	80.94
379.253	104.94
379.478	88.94
379.704	101.94
379.929	83.94
380.155	71.94
380.38	95.94
380.606	82.94
380.831	75.94
381.057	86.94
381.282	75.94
381.507	95.94
381.733	94.94
381.958	103.94
382.184	89.94
382.409	86.94
382.634	97.94
382.86	77.94
383.085	93.94
383.31	84.94
383.535	101.94
383.761	115.94
383.986	83.94
384.211	88.94
384.436	90.94
384.662	91.94
384.887	97.94
385.112	90.94
385.337	84.94
385.562	91.94
385.787	90.94
386.013	89.94
386.238	84.94
386.463	79.94
386.688	101.94
386.913	88.94
387.138	79.94
387.363	88.94
387.588	88.94
387.813	96.94
388.038	97.94
388.263	93.94
388.488	88.94
388.713	79.94
388.938	82.94
389.163	76.94
389.387	80.94
389.612	85.94
389.837	98.94
390.062	86.94
390.287	93.94
390.512	86.94
390.736	96.94
390.961	96.94
391.186	85.94
391.411	84.94
391.636	89.94
391.86	78.94
392.085	86.94
392.31	86.94
392.534	86.94
392.759	85.94
392.984	83.94
393.208	87.94
393.433	95.94
393.658	76.94
393.882	102.94
394.107	98.94
394.331	96.94
394.556	96.94
394.78	86.94
395.005	84.94
395.229	100.94
395.454	75.94
395.678	82.94
395.903	92.94
396.127	87.94
396.352	87.94
396.576	88.94
396.801	97.94
397.025	80.94
397.249	92.94
397.474	85.94
397.698	91.94
397.922	94.94
398.147	84.94
398.371	97.94
398.595	99.94
398.82	92.94
399.044	100.94
399.268	97.94
399.492	88.94
399.717	83.94
399.941	91.94
400.165	90.94
400.389	79.94
400.613	86.94
400.837	75.94
401.062	93.94
401.286	96.94
401.51	86.94
401.734	81.94
401.958	91.94
402.182	90.94
402.406	85.94
402.63	92.94
402.854	96.94
403.078	92.94
403.302	88.94
403.526	96.94
403.75	87.94
403.974	89.94
404.198	99.94
404.422	107.94
404.645	85.94
404.869	96.94
405.093	85.94
405.317	74.94
405.541	89.94
405.765	87.94
405.988	88.94
406.212	91.94
406.436	95.94
406.66	92.94
406.883	87.94
407.107	92.94
407.331	90.94
407.555	93.94
407.778	92.94
408.002	81.94
408.226	88.94
408.449	97.94
408.673	98.94
408.896	89.94
409.12	83.94
409.344	91.94
409.567	74.94
409.791	85.94
410.014	102.94
410.238	102.94
410.461	88.94
410.685	77.94
410.908	91.94
411.132	78.94
411.355	95.94
411.578	79.94
411.802	85.94
412.025	93.94
412.249	104.94
412.472	86.94
412.695	85.94
412.919	86.94
413.142	88.94
413.365	82.94
413.589	89.94
413.812	98.94
414.035	96.94
414.258	92.94
414.482	80.94
414.705	78.94
414.928	82.94
415.151	107.94
415.374	92.94
415.597	97.94
415.821	77.94
416.044	85.94
416.267	95.94
416.49	79.94
416.713	89.94
416.936	108.94
417.159	108.94
417.382	105.94
417.605	103.94
417.828	92.94
418.051	97.94
418.274	88.94
418.497	83.94
418.72	84.94
418.943	107.94
419.166	94.94
419.389	91.94
419.611	92.94
419.834	107.94
420.057	83.94
420.28	89.94
420.503	79.94
420.726	84.94
420.948	104.94
421.171	112.94
421.394	108.94
421.617	98.94
421.839	100.94
422.062	96.94
422.285	91.94
422.507	79.94
422.73	81.94
422.953	93.94
423.175	82.94
423.398	102.94
423.621	95.94
423.843	96.94
424.066	98.94
424.288	90.94
424.511	91.94
424.733	99.94
424.956	92.94
425.178	103.94
425.401	92.94
425.623	88.94
425.846	93.94
426.068	93.94
426.291	85.94
426.513	98.94
426.735	98.94
426.958	86.94
427.18	103.94
427.402	96.94
427.625	92.94
427.847	92.94
428.069	98.94
428.292	96.94
428.514	95.94
428.736	98.94
428.958	98.94
429.181	96.94
429.403	86.94
429.625	103.94
429.847	87.94
430.069	91.94
430.292	108.94
430.514	102.94
430.736	89.94
430.958	99.94
431.18	99.94
431.402	91.94
431.624	87.94
431.846	92.94
432.068	82.94
432.29	74.94
432.512	88.94
432.734	96.94
432.956	107.94
433.178	98.94
433.4	99.94
433.622	102.94
433.844	95.94
434.066	101.94
434.287	97.94
434.509	81.94
434.731	88.94
434.953	88.94
435.175	85.94
435.397	97.94
435.618	96.94
435.84	76.94
436.062	87.94
436.284	106.94
436.505	97.94
436.727	97.94
436.949	103.94
437.17	92.94
437.392	106.94
437.614	101.94
437.835	89.94
438.057	94.94
438.278	76.94
438.5	103.94
438.721	99.94
438.943	109.94
439.165	116.94
439.386	94.94
439.608	89.94
439.829	89.94
440.05	92.94
440.272	108.94
440.493	111.94
440.715	95.94
440.936	91.94
441.158	95.94
441.379	103.94
441.6	97.94
441.822	100.94
442.043	103.94
442.264	92.94
442.486	106.94
442.707	95.94
442.928	87.94
443.149	91.94
443.371	101.94
443.592	97.94
443.813	107.94
444.034	114.94
444.255	89.94
444.476	96.94
444.698	89.94
444.919	96.94
445.14	175.94
445.361	146.94
445.582	108.94
445.803	100.94
446.024	110.94
446.245	90.94
446.466	83.94
446.687	88.94
446.908	104.94
447.129	116.94
447.35	93.94
447.571	108.94
447.792	95.94
448.013	87.94
448.234	107.94
448.455	77.94
448.675	100.94
448.896	104.94
449.117	101.94
449.338	100.94
449.559	109.94
449.779	119.94
450	96.94
450.221	97.94
450.442	96.94
450.662	96.94
450.883	96.94
451.104	83.94
451.324	83.94
451.545	94.94
451.766	96.94
451.986	99.94
452.207	94.94
452.428	83.94
452.648	95.94
452.869	88.94
453.089	96.94
453.31	86.94
453.53	100.94
453.751	86.94
453.971	90.94
454.192	88.94
454.412	87.94
454.633	92.94
454.853	93.94
455.073	96.94
455.294	86.94
455.514	101.94
455.734	97.94
455.955	88.94
456.175	99.94
456.395	94.94
456.616	92.94
456.836	83.94
457.056	96.94
457.276	93.94
457.497	90.94
457.717	91.94
457.937	96.94
458.157	88.94
458.377	85.94
458.598	89.94
458.818	84.94
459.038	70.94
459.258	80.94
459.478	82.94
459.698	80.94
459.918	71.94
460.138	86.94
460.358	87.94
460.578	92.94
460.798	77.94
461.018	87.94
461.238	103.94
461.458	89.94
461.678	80.94
461.898	91.94
462.118	89.94
462.338	84.94
462.558	96.94
462.777	88.94
462.997	89.94
463.217	90.94
463.437	89.94
463.657	96.94
463.876	83.94
464.096	91.94
464.316	97.94
464.536	104.94
464.755	101.94
464.975	102.94
465.195	104.94
465.414	93.94
465.634	98.94
465.854	102.94
466.073	91.94
466.293	88.94
466.512	93.94
466.732	92.94
466.951	77.94
467.171	105.94
467.391	92.94
467.61	95.94
467.829	90.94
468.049	91.94
468.268	84.94
468.488	112.94
468.707	109.94
468.927	92.94
469.146	85.94
469.365	105.94
469.585	105.94
469.804	97.94
470.023	98.94
470.243	108.94
470.462	97.94
470.681	100.94
470.901	106.94
471.12	87.94
471.339	104.94
471.558	106.94
471.777	81.94
471.997	105.94
472.216	107.94
472.435	102.94
472.654	82.94
472.873	95.94
473.092	86.94
473.311	92.94
473.53	83.94
473.749	82.94
473.968	81.94
474.187	95.94
474.406	88.94
474.625	88.94
474.844	93.94
475.063	99.94
475.282	97.94
475.501	94.94
475.72	101.94
475.939	100.94
476.158	99.94
476.377	87.94
476.596	101.94
476.814	102.94
477.033	83.94
477.252	88.94
477.471	87.94
477.69	97.94
477.908	110.94
478.127	103.94
478.346	98.94
478.564	97.94
478.783	101.94
479.002	89.94
479.22	75.94
479.439	114.94
479.658	97.94
479.876	88.94
480.095	81.94
480.313	86.94
480.532	87.94
480.751	90.94
480.969	91.94
481.188	80.94
481.406	57.94
481.624	76.94
481.843	95.94
482.061	90.94
482.28	97.94
482.498	91.94
482.717	84.94
482.935	104.94
483.153	110.94
483.372	93.94
483.59	107.94
483.808	89.94
484.027	101.94
484.245	82.94
484.463	106.94
484.681	105.94
484.9	108.94
485.118	90.94
485.336	101.94
485.554	115.94
485.772	83.94
485.99	83.94
486.209	93.94
486.427	94.94
486.645	92.94
486.863	105.94
487.081	115.94
487.299	98.94
487.517	95.94
487.735	103.94
487.953	122.94
488.171	115.94
488.389	115.94
488.607	100.94
488.825	107.94
489.043	90.94
489.261	99.94
489.479	95.94
489.696	87.94
489.914	97.94
490.132	90.94
490.35	104.94
490.568	112.94
490.786	109.94
491.003	105.94
491.221	116.94
491.439	108.94
491.657	112.94
491.874	117.94
492.092	114.94
492.31	139.94
492.527	131.94
492.745	119.94
492.963	113.94
493.18	100.94
493.398	113.94
493.615	113.94
493.833	115.94
494.05	114.94
494.268	102.94
494.485	115.94
494.703	100.94
494.92	106.94
495.138	107.94
495.355	115.94
495.573	116.94
495.79	89.94
496.008	96.94
496.225	106.94
496.442	109.94
496.66	122.94
496.877	107.94
497.094	102.94
497.312	104.94
497.529	96.94
497.746	106.94
497.963	94.94
498.181	97.94
498.398	101.94
498.615	81.94
498.832	81.94
499.049	92.94
499.267	97.94
499.484	89.94
499.701	94.94
499.918	96.94
500.135	96.94
500.352	78.94
500.569	80.94
500.786	99.94
501.003	106.94
501.22	105.94
501.437	91.94
501.654	106.94
501.871	107.94
502.088	105.94
502.305	96.94
502.522	98.94
502.739	103.94
502.956	101.94
503.172	90.94
503.389	93.94
503.606	91.94
503.823	95.94
504.04	90.94
504.256	98.94
504.473	96.94
504.69	95.94
504.907	95.94
505.123	88.94
505.34	81.94
505.557	94.94
505.773	82.94
505.99	94.94
506.207	98.94
506.423	90.94
506.64	96.94
506.856	86.94
507.073	77.94
507.289	106.94
507.506	85.94
507.722	81.94
507.939	87.94
508.155	103.94
508.372	90.94
508.588	91.94
508.805	92.94
509.021	80.94
509.238	95.94
509.454	95.94
509.67	83.94
509.887	87.94
510.103	82.94
510.319	84.94
510.536	95.94
510.752	84.94
510.968	80.94
511.184	65.94
511.401	87.94
511.617	100.94
511.833	81.94
512.049	90.94
512.265	77.94
512.481	87.94
512.698	85.94
512.914	95.94
513.13	86.94
513.346	79.94
513.562	91.94
513.778	76.94
513.994	67.94
514.21	89.94
514.426	92.94
514.642	81.94
514.858	84.94
515.074	88.94
515.29	92.94
515.506	94.94
515.721	69.94
515.937	90.94
516.153	73.94
516.369	86.94
516.585	87.94
516.801	83.94
517.016	94.94
517.232	87.94
