Data from Location3.07152019.Energy5.Lamp.07192019.3%Agarose_HRD10591_15-17-19-268.txt Node
Date: Fri Jul 19 15:17:19 EDT 2019
User: cochatt
Spectrometer: HR+D1059
Trigger mode: 1
Integration Time (sec): 1.000000E-1
Scans to average: 1
Electric dark correction enabled: true
Nonlinearity correction enabled: false
Boxcar width: 0
XAxis mode: Wavelengths
Number of Pixels in Spectrum: 2048
>>>>>Begin Spectral Data<<<<<
223.165	-9.56
223.4	-9.56
223.635	-9.56
223.869	-5.56
224.104	-25.56
224.338	-17.56
224.573	-18.56
224.808	-2.56
225.042	-16.56
225.277	-9.56
225.511	-9.56
225.746	6.44
225.98	23.44
226.215	15.44
226.449	9.44
226.683	15.44
226.918	13.44
227.152	31.44
227.387	30.44
227.621	32.44
227.856	45.44
228.09	25.44
228.324	61.44
228.559	59.44
228.793	68.44
229.027	58.44
229.262	58.44
229.496	60.44
229.73	70.44
229.964	64.44
230.199	82.44
230.433	77.44
230.667	85.44
230.901	70.44
231.136	84.44
231.37	73.44
231.604	90.44
231.838	82.44
232.072	84.44
232.306	82.44
232.541	89.44
232.775	77.44
233.009	78.44
233.243	90.44
233.477	75.44
233.711	79.44
233.945	79.44
234.179	76.44
234.413	78.44
234.647	84.44
234.881	75.44
235.115	74.44
235.349	84.44
235.583	69.44
235.817	77.44
236.051	76.44
236.285	51.44
236.519	76.44
236.753	79.44
236.987	80.44
237.221	81.44
237.455	75.44
237.689	75.44
237.922	78.44
238.156	67.44
238.39	69.44
238.624	67.44
238.858	70.44
239.091	60.44
239.325	70.44
239.559	81.44
239.793	76.44
240.027	81.44
240.26	80.44
240.494	75.44
240.728	84.44
240.961	93.44
241.195	91.44
241.429	87.44
241.662	76.44
241.896	82.44
242.13	69.44
242.363	71.44
242.597	68.44
242.83	74.44
243.064	73.44
243.298	73.44
243.531	67.44
243.765	65.44
243.998	69.44
244.232	76.44
244.465	82.44
244.699	79.44
244.932	73.44
245.166	76.44
245.399	74.44
245.633	84.44
245.866	89.44
246.099	67.44
246.333	67.44
246.566	82.44
246.8	80.44
247.033	76.44
247.266	74.44
247.5	86.44
247.733	66.44
247.966	73.44
248.2	71.44
248.433	72.44
248.666	81.44
248.899	88.44
249.133	86.44
249.366	81.44
249.599	75.44
249.832	77.44
250.066	73.44
250.299	92.44
250.532	87.44
250.765	70.44
250.998	73.44
251.231	68.44
251.465	82.44
251.698	82.44
251.931	81.44
252.164	73.44
252.397	52.44
252.63	93.44
252.863	80.44
253.096	74.44
253.329	79.44
253.562	76.44
253.795	64.44
254.028	72.44
254.261	86.44
254.494	75.44
254.727	74.44
254.96	77.44
255.193	73.44
255.426	78.44
255.659	72.44
255.892	81.44
256.124	61.44
256.357	70.44
256.59	70.44
256.823	86.44
257.056	89.44
257.289	86.44
257.521	86.44
257.754	75.44
257.987	69.44
258.22	81.44
258.452	87.44
258.685	94.44
258.918	77.44
259.151	74.44
259.383	86.44
259.616	75.44
259.849	83.44
260.081	84.44
260.314	78.44
260.547	79.44
260.779	79.44
261.012	90.44
261.244	73.44
261.477	82.44
261.71	72.44
261.942	89.44
262.175	75.44
262.407	76.44
262.64	79.44
262.872	75.44
263.105	82.44
263.337	101.44
263.57	89.44
263.802	77.44
264.035	80.44
264.267	92.44
264.499	90.44
264.732	89.44
264.964	86.44
265.197	73.44
265.429	79.44
265.661	79.44
265.894	88.44
266.126	79.44
266.358	77.44
266.591	89.44
266.823	88.44
267.055	80.44
267.287	73.44
267.52	87.44
267.752	82.44
267.984	85.44
268.216	83.44
268.448	92.44
268.681	75.44
268.913	70.44
269.145	73.44
269.377	80.44
269.609	81.44
269.841	77.44
270.073	81.44
270.306	85.44
270.538	72.44
270.77	85.44
271.002	81.44
271.234	85.44
271.466	82.44
271.698	82.44
271.93	75.44
272.162	82.44
272.394	89.44
272.626	85.44
272.858	92.44
273.09	81.44
273.322	77.44
273.553	85.44
273.785	96.44
274.017	77.44
274.249	78.44
274.481	78.44
274.713	71.44
274.945	88.44
275.176	78.44
275.408	91.44
275.64	88.44
275.872	95.44
276.104	84.44
276.335	83.44
276.567	81.44
276.799	71.44
277.031	88.44
277.262	72.44
277.494	79.44
277.726	83.44
277.957	103.44
278.189	91.44
278.421	85.44
278.652	71.44
278.884	76.44
279.115	97.44
279.347	84.44
279.579	83.44
279.81	83.44
280.042	84.44
280.273	79.44
280.505	83.44
280.736	78.44
280.968	89.44
281.199	79.44
281.431	75.44
281.662	73.44
281.894	95.44
282.125	72.44
282.356	79.44
282.588	84.44
282.819	84.44
283.051	87.44
283.282	83.44
283.513	88.44
283.745	74.44
283.976	75.44
284.207	87.44
284.439	73.44
284.67	74.44
284.901	82.44
285.132	88.44
285.364	82.44
285.595	80.44
285.826	83.44
286.057	88.44
286.288	77.44
286.52	77.44
286.751	82.44
286.982	88.44
287.213	68.44
287.444	80.44
287.675	89.44
287.906	80.44
288.138	83.44
288.369	78.44
288.6	92.44
288.831	96.44
289.062	82.44
289.293	91.44
289.524	89.44
289.755	87.44
289.986	79.44
290.217	80.44
290.448	78.44
290.679	85.44
290.91	87.44
291.141	78.44
291.371	87.44
291.602	96.44
291.833	81.44
292.064	86.44
292.295	102.44
292.526	73.44
292.757	94.44
292.987	74.44
293.218	71.44
293.449	99.44
293.68	78.44
293.91	97.44
294.141	71.44
294.372	79.44
294.603	89.44
294.833	92.44
295.064	79.44
295.295	81.44
295.525	91.44
295.756	87.44
295.987	70.44
296.217	84.44
296.448	82.44
296.679	82.44
296.909	78.44
297.14	90.44
297.37	89.44
297.601	92.44
297.831	74.44
298.062	92.44
298.292	80.44
298.523	80.44
298.753	81.44
298.984	75.44
299.214	94.44
299.445	75.44
299.675	95.44
299.905	81.44
300.136	92.44
300.366	84.44
300.597	79.44
300.827	91.44
301.057	93.44
301.288	87.44
301.518	90.44
301.748	83.44
301.979	78.44
302.209	85.44
302.439	91.44
302.669	103.44
302.9	81.44
303.13	89.44
303.36	71.44
303.59	81.44
303.82	85.44
304.051	85.44
304.281	84.44
304.511	82.44
304.741	98.44
304.971	85.44
305.201	81.44
305.431	94.44
305.661	88.44
305.891	88.44
306.121	88.44
306.352	84.44
306.582	91.44
306.812	81.44
307.042	77.44
307.272	84.44
307.502	94.44
307.731	83.44
307.961	82.44
308.191	91.44
308.421	92.44
308.651	80.44
308.881	95.44
309.111	80.44
309.341	80.44
309.571	83.44
309.8	81.44
310.03	76.44
310.26	95.44
310.49	90.44
310.72	83.44
310.949	75.44
311.179	91.44
311.409	86.44
311.639	86.44
311.868	91.44
312.098	72.44
312.328	77.44
312.557	77.44
312.787	84.44
313.017	94.44
313.246	87.44
313.476	76.44
313.706	85.44
313.935	87.44
314.165	73.44
314.394	81.44
314.624	83.44
314.853	70.44
315.083	83.44
315.312	81.44
315.542	81.44
315.771	87.44
316.001	76.44
316.23	69.44
316.46	91.44
316.689	82.44
316.919	93.44
317.148	88.44
317.377	83.44
317.607	85.44
317.836	98.44
318.065	82.44
318.295	75.44
318.524	86.44
318.753	84.44
318.983	90.44
319.212	77.44
319.441	69.44
319.67	96.44
319.9	88.44
320.129	84.44
320.358	85.44
320.587	76.44
320.816	68.44
321.046	105.44
321.275	99.44
321.504	81.44
321.733	98.44
321.962	79.44
322.191	81.44
322.42	88.44
322.649	95.44
322.878	83.44
323.108	92.44
323.337	73.44
323.566	93.44
323.795	82.44
324.024	85.44
324.253	74.44
324.482	84.44
324.71	96.44
324.939	74.44
325.168	91.44
325.397	86.44
325.626	87.44
325.855	88.44
326.084	85.44
326.313	87.44
326.542	93.44
326.77	81.44
326.999	79.44
327.228	77.44
327.457	66.44
327.686	86.44
327.914	87.44
328.143	94.44
328.372	86.44
328.6	81.44
328.829	85.44
329.058	91.44
329.287	69.44
329.515	83.44
329.744	83.44
329.972	73.44
330.201	79.44
330.43	94.44
330.658	80.44
330.887	79.44
331.115	87.44
331.344	84.44
331.572	94.44
331.801	78.44
332.03	77.44
332.258	83.44
332.486	85.44
332.715	79.44
332.943	83.44
333.172	82.44
333.4	79.44
333.629	79.44
333.857	85.44
334.085	82.44
334.314	83.44
334.542	81.44
334.771	66.44
334.999	87.44
335.227	91.44
335.455	75.44
335.684	93.44
335.912	81.44
336.14	70.44
336.369	73.44
336.597	83.44
336.825	89.44
337.053	70.44
337.281	93.44
337.51	90.44
337.738	87.44
337.966	83.44
338.194	98.44
338.422	78.44
338.65	73.44
338.878	89.44
339.106	74.44
339.334	88.44
339.562	89.44
339.79	79.44
340.018	64.44
340.246	67.44
340.474	80.44
340.702	87.44
340.93	88.44
341.158	81.44
341.386	81.44
341.614	93.44
341.842	83.44
342.07	79.44
342.298	85.44
342.526	80.44
342.754	104.44
342.981	85.44
343.209	79.44
343.437	90.44
343.665	61.44
343.893	84.44
344.12	87.44
344.348	97.44
344.576	77.44
344.804	77.44
345.031	88.44
345.259	90.44
345.487	88.44
345.714	78.44
345.942	66.44
346.17	82.44
346.397	98.44
346.625	100.44
346.853	75.44
347.08	74.44
347.308	84.44
347.535	96.44
347.763	74.44
347.99	95.44
348.218	77.44
348.445	79.44
348.673	81.44
348.9	85.44
349.128	74.44
349.355	105.44
349.583	70.44
349.81	85.44
350.037	74.44
350.265	92.44
350.492	91.44
350.72	84.44
350.947	78.44
351.174	79.44
351.402	86.44
351.629	82.44
351.856	79.44
352.083	77.44
352.311	81.44
352.538	79.44
352.765	78.44
352.992	71.44
353.22	78.44
353.447	76.44
353.674	81.44
353.901	75.44
354.128	87.44
354.355	82.44
354.583	86.44
354.81	86.44
355.037	98.44
355.264	87.44
355.491	77.44
355.718	85.44
355.945	77.44
356.172	65.44
356.399	83.44
356.626	73.44
356.853	88.44
357.08	69.44
357.307	70.44
357.534	78.44
357.761	75.44
357.988	78.44
358.215	74.44
358.441	94.44
358.668	73.44
358.895	93.44
359.122	84.44
359.349	80.44
359.576	93.44
359.802	93.44
360.029	78.44
360.256	68.44
360.483	76.44
360.709	87.44
360.936	87.44
361.163	77.44
361.39	75.44
361.616	86.44
361.843	80.44
362.07	93.44
362.296	96.44
362.523	89.44
362.749	90.44
362.976	71.44
363.203	85.44
363.429	74.44
363.656	93.44
363.882	83.44
364.109	80.44
364.335	86.44
364.562	80.44
364.788	75.44
365.015	88.44
365.241	80.44
365.468	76.44
365.694	81.44
365.92	71.44
366.147	83.44
366.373	71.44
366.599	87.44
366.826	76.44
367.052	69.44
367.278	68.44
367.505	76.44
367.731	78.44
367.957	80.44
368.184	77.44
368.41	82.44
368.636	96.44
368.862	87.44
369.089	85.44
369.315	82.44
369.541	78.44
369.767	68.44
369.993	82.44
370.219	89.44
370.445	74.44
370.672	86.44
370.898	81.44
371.124	88.44
371.35	69.44
371.576	93.44
371.802	86.44
372.028	77.44
372.254	77.44
372.48	75.44
372.706	75.44
372.932	74.44
373.158	86.44
373.384	83.44
373.61	86.44
373.835	84.44
374.061	72.44
374.287	81.44
374.513	78.44
374.739	64.44
374.965	71.44
375.191	72.44
375.416	92.44
375.642	77.44
375.868	96.44
376.094	83.44
376.319	101.44
376.545	84.44
376.771	91.44
376.997	76.44
377.222	86.44
377.448	83.44
377.674	79.44
377.899	94.44
378.125	81.44
378.35	87.44
378.576	83.44
378.802	84.44
379.027	78.44
379.253	83.44
379.478	77.44
379.704	69.44
379.929	72.44
380.155	77.44
380.38	83.44
380.606	84.44
380.831	82.44
381.057	90.44
381.282	90.44
381.507	77.44
381.733	88.44
381.958	94.44
382.184	89.44
382.409	95.44
382.634	98.44
382.86	98.44
383.085	102.44
383.31	89.44
383.535	88.44
383.761	66.44
383.986	81.44
384.211	77.44
384.436	95.44
384.662	86.44
384.887	82.44
385.112	84.44
385.337	84.44
385.562	86.44
385.787	75.44
386.013	90.44
386.238	76.44
386.463	77.44
386.688	87.44
386.913	81.44
387.138	84.44
387.363	82.44
387.588	85.44
387.813	83.44
388.038	77.44
388.263	86.44
388.488	81.44
388.713	96.44
388.938	79.44
389.163	86.44
389.387	91.44
389.612	100.44
389.837	90.44
390.062	94.44
390.287	83.44
390.512	80.44
390.736	78.44
390.961	77.44
391.186	80.44
391.411	82.44
391.636	80.44
391.86	85.44
392.085	94.44
392.31	91.44
392.534	80.44
392.759	94.44
392.984	79.44
393.208	89.44
393.433	86.44
393.658	79.44
393.882	83.44
394.107	90.44
394.331	79.44
394.556	83.44
394.78	75.44
395.005	79.44
395.229	74.44
395.454	81.44
395.678	91.44
395.903	69.44
396.127	89.44
396.352	85.44
396.576	90.44
396.801	93.44
397.025	93.44
397.249	78.44
397.474	83.44
397.698	89.44
397.922	85.44
398.147	81.44
398.371	78.44
398.595	80.44
398.82	87.44
399.044	79.44
399.268	93.44
399.492	80.44
399.717	90.44
399.941	82.44
400.165	96.44
400.389	67.44
400.613	94.44
400.837	88.44
401.062	79.44
401.286	91.44
401.51	72.44
401.734	71.44
401.958	81.44
402.182	81.44
402.406	95.44
402.63	88.44
402.854	82.44
403.078	91.44
403.302	102.44
403.526	82.44
403.75	86.44
403.974	74.44
404.198	96.44
404.422	93.44
404.645	86.44
404.869	85.44
405.093	72.44
405.317	97.44
405.541	91.44
405.765	92.44
405.988	75.44
406.212	82.44
406.436	87.44
406.66	85.44
406.883	101.44
407.107	101.44
407.331	98.44
407.555	95.44
407.778	86.44
408.002	90.44
408.226	73.44
408.449	98.44
408.673	101.44
408.896	92.44
409.12	84.44
409.344	80.44
409.567	91.44
409.791	103.44
410.014	93.44
410.238	102.44
410.461	89.44
410.685	84.44
410.908	89.44
411.132	78.44
411.355	90.44
411.578	100.44
411.802	89.44
412.025	86.44
412.249	95.44
412.472	87.44
412.695	78.44
412.919	83.44
413.142	93.44
413.365	99.44
413.589	82.44
413.812	83.44
414.035	91.44
414.258	81.44
414.482	97.44
414.705	87.44
414.928	91.44
415.151	94.44
415.374	93.44
415.597	76.44
415.821	82.44
416.044	81.44
416.267	79.44
416.49	98.44
416.713	93.44
416.936	91.44
417.159	96.44
417.382	100.44
417.605	82.44
417.828	105.44
418.051	83.44
418.274	98.44
418.497	96.44
418.72	95.44
418.943	86.44
419.166	77.44
419.389	92.44
419.611	79.44
419.834	94.44
420.057	83.44
420.28	76.44
420.503	106.44
420.726	106.44
420.948	95.44
421.171	94.44
421.394	78.44
421.617	100.44
421.839	86.44
422.062	82.44
422.285	86.44
422.507	88.44
422.73	78.44
422.953	90.44
423.175	101.44
423.398	83.44
423.621	82.44
423.843	89.44
424.066	102.44
424.288	97.44
424.511	94.44
424.733	95.44
424.956	96.44
425.178	88.44
425.401	88.44
425.623	85.44
425.846	86.44
426.068	103.44
426.291	97.44
426.513	93.44
426.735	90.44
426.958	106.44
427.18	101.44
427.402	87.44
427.625	111.44
427.847	90.44
428.069	92.44
428.292	88.44
428.514	98.44
428.736	79.44
428.958	82.44
429.181	96.44
429.403	90.44
429.625	81.44
429.847	96.44
430.069	98.44
430.292	87.44
430.514	83.44
430.736	92.44
430.958	96.44
431.18	92.44
431.402	86.44
431.624	86.44
431.846	90.44
432.068	95.44
432.29	84.44
432.512	97.44
432.734	100.44
432.956	104.44
433.178	114.44
433.4	90.44
433.622	96.44
433.844	102.44
434.066	83.44
434.287	86.44
434.509	86.44
434.731	82.44
434.953	85.44
435.175	96.44
435.397	93.44
435.618	84.44
435.84	95.44
436.062	104.44
436.284	75.44
436.505	86.44
436.727	69.44
436.949	95.44
437.17	101.44
437.392	101.44
437.614	89.44
437.835	94.44
438.057	91.44
438.278	99.44
438.5	101.44
438.721	101.44
438.943	93.44
439.165	102.44
439.386	106.44
439.608	97.44
439.829	91.44
440.05	99.44
440.272	96.44
440.493	99.44
440.715	96.44
440.936	87.44
441.158	95.44
441.379	107.44
441.6	102.44
441.822	101.44
442.043	94.44
442.264	98.44
442.486	83.44
442.707	106.44
442.928	96.44
443.149	90.44
443.371	98.44
443.592	92.44
443.813	91.44
444.034	91.44
444.255	104.44
444.476	99.44
444.698	95.44
444.919	101.44
445.14	212.44
445.361	157.44
445.582	89.44
445.803	102.44
446.024	89.44
446.245	87.44
446.466	97.44
446.687	87.44
446.908	98.44
447.129	93.44
447.35	95.44
447.571	97.44
447.792	116.44
448.013	98.44
448.234	96.44
448.455	92.44
448.675	93.44
448.896	105.44
449.117	101.44
449.338	112.44
449.559	101.44
449.779	105.44
450	102.44
450.221	89.44
450.442	97.44
450.662	93.44
450.883	89.44
451.104	96.44
451.324	100.44
451.545	87.44
451.766	90.44
451.986	97.44
452.207	88.44
452.428	86.44
452.648	98.44
452.869	104.44
453.089	91.44
453.31	88.44
453.53	94.44
453.751	84.44
453.971	74.44
454.192	90.44
454.412	75.44
454.633	82.44
454.853	96.44
455.073	97.44
455.294	98.44
455.514	107.44
455.734	93.44
455.955	87.44
456.175	90.44
456.395	82.44
456.616	86.44
456.836	97.44
457.056	81.44
457.276	84.44
457.497	98.44
457.717	93.44
457.937	92.44
458.157	81.44
458.377	89.44
458.598	84.44
458.818	88.44
459.038	83.44
459.258	94.44
459.478	85.44
459.698	93.44
459.918	88.44
460.138	97.44
460.358	89.44
460.578	91.44
460.798	90.44
461.018	83.44
461.238	93.44
461.458	91.44
461.678	95.44
461.898	83.44
462.118	85.44
462.338	90.44
462.558	78.44
462.777	81.44
462.997	86.44
463.217	88.44
463.437	111.44
463.657	100.44
463.876	85.44
464.096	95.44
464.316	100.44
464.536	89.44
464.755	90.44
464.975	84.44
465.195	75.44
465.414	103.44
465.634	81.44
465.854	86.44
466.073	89.44
466.293	85.44
466.512	93.44
466.732	97.44
466.951	94.44
467.171	89.44
467.391	88.44
467.61	94.44
467.829	93.44
468.049	99.44
468.268	95.44
468.488	111.44
468.707	102.44
468.927	86.44
469.146	102.44
469.365	94.44
469.585	87.44
469.804	91.44
470.023	102.44
470.243	104.44
470.462	95.44
470.681	101.44
470.901	114.44
471.12	86.44
471.339	88.44
471.558	95.44
471.777	83.44
471.997	88.44
472.216	93.44
472.435	87.44
472.654	86.44
472.873	80.44
473.092	80.44
473.311	80.44
473.53	90.44
473.749	89.44
473.968	78.44
474.187	93.44
474.406	78.44
474.625	98.44
474.844	103.44
475.063	93.44
475.282	101.44
475.501	80.44
475.72	84.44
475.939	98.44
476.158	97.44
476.377	98.44
476.596	100.44
476.814	85.44
477.033	81.44
477.252	80.44
477.471	91.44
477.69	96.44
477.908	88.44
478.127	95.44
478.346	64.44
478.564	103.44
478.783	100.44
479.002	90.44
479.22	104.44
479.439	91.44
479.658	89.44
479.876	75.44
480.095	73.44
480.313	74.44
480.532	101.44
480.751	96.44
480.969	84.44
481.188	83.44
481.406	82.44
481.624	76.44
481.843	81.44
482.061	94.44
482.28	78.44
482.498	87.44
482.717	97.44
482.935	91.44
483.153	95.44
483.372	107.44
483.59	99.44
483.808	94.44
484.027	101.44
484.245	99.44
484.463	94.44
484.681	111.44
484.9	106.44
485.118	113.44
485.336	101.44
485.554	100.44
485.772	96.44
485.99	81.44
486.209	96.44
486.427	97.44
486.645	87.44
486.863	105.44
487.081	97.44
487.299	92.44
487.517	121.44
487.735	115.44
487.953	111.44
488.171	112.44
488.389	112.44
488.607	93.44
488.825	106.44
489.043	84.44
489.261	86.44
489.479	94.44
489.696	112.44
489.914	91.44
490.132	105.44
490.35	111.44
490.568	125.44
490.786	109.44
491.003	110.44
491.221	102.44
491.439	111.44
491.657	89.44
491.874	118.44
492.092	109.44
492.31	124.44
492.527	119.44
492.745	121.44
492.963	104.44
493.18	123.44
493.398	102.44
493.615	109.44
493.833	121.44
494.05	113.44
494.268	110.44
494.485	104.44
494.703	119.44
494.92	114.44
495.138	123.44
495.355	108.44
495.573	107.44
495.79	116.44
496.008	123.44
496.225	89.44
496.442	103.44
496.66	106.44
496.877	114.44
497.094	103.44
497.312	112.44
497.529	104.44
497.746	87.44
497.963	112.44
498.181	109.44
498.398	93.44
498.615	91.44
498.832	92.44
499.049	104.44
499.267	80.44
499.484	114.44
499.701	110.44
499.918	108.44
500.135	88.44
500.352	100.44
500.569	100.44
500.786	102.44
501.003	90.44
501.22	90.44
501.437	93.44
501.654	96.44
501.871	93.44
502.088	94.44
502.305	95.44
502.522	96.44
502.739	99.44
502.956	87.44
503.172	103.44
503.389	90.44
503.606	91.44
503.823	79.44
504.04	84.44
504.256	104.44
504.473	93.44
504.69	96.44
504.907	99.44
505.123	80.44
505.34	90.44
505.557	95.44
505.773	97.44
505.99	83.44
506.207	93.44
506.423	88.44
506.64	96.44
506.856	85.44
507.073	91.44
507.289	99.44
507.506	107.44
507.722	94.44
507.939	105.44
508.155	99.44
508.372	90.44
508.588	75.44
508.805	109.44
509.021	93.44
509.238	87.44
509.454	92.44
509.67	77.44
509.887	83.44
510.103	84.44
510.319	89.44
510.536	72.44
510.752	81.44
510.968	71.44
511.184	87.44
511.401	98.44
511.617	92.44
511.833	101.44
512.049	86.44
512.265	88.44
512.481	84.44
512.698	85.44
512.914	81.44
513.13	84.44
513.346	78.44
513.562	87.44
513.778	81.44
513.994	86.44
514.21	102.44
514.426	89.44
514.642	83.44
514.858	91.44
515.074	79.44
515.29	85.44
515.506	85.44
515.721	80.44
515.937	100.44
516.153	63.44
516.369	88.44
516.585	83.44
516.801	77.44
517.016	79.44
517.232	90.44
517.448	87.44
