Data from Location3.07152019.Energy5.Lamp.07192019.3%Agarose_HRD10591_15-16-59-269.txt Node
Date: Fri Jul 19 15:16:59 EDT 2019
User: cochatt
Spectrometer: HR+D1059
Trigger mode: 1
Integration Time (sec): 1.000000E-1
Scans to average: 1
Electric dark correction enabled: true
Nonlinearity correction enabled: false
Boxcar width: 0
XAxis mode: Wavelengths
Number of Pixels in Spectrum: 2048
>>>>>Begin Spectral Data<<<<<
223.165	-12.75
223.4	-12.75
223.635	-12.75
223.869	-7.75
224.104	-23.75
224.338	-22.75
224.573	-14.75
224.808	-9.75
225.042	-9.75
225.277	-10.75
225.511	1.25
225.746	-0.75
225.98	7.25
226.215	10.25
226.449	26.25
226.683	11.25
226.918	26.25
227.152	30.25
227.387	31.25
227.621	53.25
227.856	42.25
228.09	45.25
228.324	57.25
228.559	49.25
228.793	52.25
229.027	65.25
229.262	66.25
229.496	68.25
229.73	60.25
229.964	51.25
230.199	70.25
230.433	76.25
230.667	77.25
230.901	60.25
231.136	61.25
231.37	63.25
231.604	74.25
231.838	79.25
232.072	90.25
232.306	76.25
232.541	78.25
232.775	89.25
233.009	70.25
233.243	89.25
233.477	94.25
233.711	69.25
233.945	72.25
234.179	75.25
234.413	68.25
234.647	83.25
234.881	79.25
235.115	65.25
235.349	87.25
235.583	68.25
235.817	72.25
236.051	86.25
236.285	91.25
236.519	62.25
236.753	72.25
236.987	82.25
237.221	81.25
237.455	73.25
237.689	81.25
237.922	73.25
238.156	76.25
238.39	73.25
238.624	70.25
238.858	74.25
239.091	71.25
239.325	76.25
239.559	66.25
239.793	77.25
240.027	75.25
240.26	88.25
240.494	63.25
240.728	83.25
240.961	75.25
241.195	78.25
241.429	73.25
241.662	67.25
241.896	79.25
242.13	79.25
242.363	79.25
242.597	93.25
242.83	83.25
243.064	64.25
243.298	70.25
243.531	71.25
243.765	70.25
243.998	73.25
244.232	76.25
244.465	70.25
244.699	68.25
244.932	73.25
245.166	70.25
245.399	66.25
245.633	72.25
245.866	93.25
246.099	72.25
246.333	81.25
246.566	80.25
246.8	78.25
247.033	73.25
247.266	85.25
247.5	68.25
247.733	71.25
247.966	92.25
248.2	81.25
248.433	79.25
248.666	66.25
248.899	76.25
249.133	75.25
249.366	73.25
249.599	74.25
249.832	68.25
250.066	87.25
250.299	75.25
250.532	87.25
250.765	85.25
250.998	79.25
251.231	81.25
251.465	78.25
251.698	78.25
251.931	76.25
252.164	84.25
252.397	67.25
252.63	72.25
252.863	83.25
253.096	92.25
253.329	73.25
253.562	74.25
253.795	83.25
254.028	80.25
254.261	89.25
254.494	66.25
254.727	67.25
254.96	84.25
255.193	70.25
255.426	73.25
255.659	70.25
255.892	89.25
256.124	62.25
256.357	80.25
256.59	67.25
256.823	75.25
257.056	80.25
257.289	85.25
257.521	82.25
257.754	79.25
257.987	81.25
258.22	80.25
258.452	72.25
258.685	81.25
258.918	89.25
259.151	72.25
259.383	75.25
259.616	81.25
259.849	77.25
260.081	91.25
260.314	89.25
260.547	81.25
260.779	83.25
261.012	79.25
261.244	82.25
261.477	91.25
261.71	83.25
261.942	81.25
262.175	80.25
262.407	88.25
262.64	81.25
262.872	94.25
263.105	74.25
263.337	75.25
263.57	77.25
263.802	85.25
264.035	83.25
264.267	65.25
264.499	79.25
264.732	68.25
264.964	91.25
265.197	64.25
265.429	66.25
265.661	77.25
265.894	83.25
266.126	80.25
266.358	92.25
266.591	90.25
266.823	78.25
267.055	86.25
267.287	87.25
267.52	81.25
267.752	83.25
267.984	70.25
268.216	75.25
268.448	64.25
268.681	76.25
268.913	86.25
269.145	102.25
269.377	87.25
269.609	89.25
269.841	67.25
270.073	72.25
270.306	78.25
270.538	91.25
270.77	88.25
271.002	75.25
271.234	82.25
271.466	81.25
271.698	79.25
271.93	81.25
272.162	89.25
272.394	91.25
272.626	68.25
272.858	79.25
273.09	77.25
273.322	86.25
273.553	93.25
273.785	88.25
274.017	78.25
274.249	80.25
274.481	85.25
274.713	69.25
274.945	77.25
275.176	79.25
275.408	88.25
275.64	74.25
275.872	87.25
276.104	79.25
276.335	75.25
276.567	88.25
276.799	89.25
277.031	72.25
277.262	82.25
277.494	81.25
277.726	74.25
277.957	73.25
278.189	80.25
278.421	78.25
278.652	71.25
278.884	78.25
279.115	70.25
279.347	73.25
279.579	82.25
279.81	88.25
280.042	91.25
280.273	88.25
280.505	79.25
280.736	73.25
280.968	80.25
281.199	73.25
281.431	68.25
281.662	72.25
281.894	89.25
282.125	65.25
282.356	77.25
282.588	66.25
282.819	75.25
283.051	93.25
283.282	88.25
283.513	75.25
283.745	68.25
283.976	87.25
284.207	86.25
284.439	87.25
284.67	87.25
284.901	85.25
285.132	96.25
285.364	79.25
285.595	79.25
285.826	87.25
286.057	66.25
286.288	90.25
286.52	74.25
286.751	92.25
286.982	74.25
287.213	90.25
287.444	76.25
287.675	88.25
287.906	97.25
288.138	93.25
288.369	81.25
288.6	71.25
288.831	89.25
289.062	78.25
289.293	80.25
289.524	77.25
289.755	82.25
289.986	83.25
290.217	75.25
290.448	78.25
290.679	77.25
290.91	84.25
291.141	86.25
291.371	78.25
291.602	88.25
291.833	77.25
292.064	88.25
292.295	79.25
292.526	84.25
292.757	86.25
292.987	78.25
293.218	74.25
293.449	95.25
293.68	74.25
293.91	75.25
294.141	93.25
294.372	85.25
294.603	73.25
294.833	83.25
295.064	75.25
295.295	91.25
295.525	84.25
295.756	83.25
295.987	91.25
296.217	91.25
296.448	92.25
296.679	82.25
296.909	86.25
297.14	85.25
297.37	86.25
297.601	71.25
297.831	69.25
298.062	95.25
298.292	80.25
298.523	79.25
298.753	79.25
298.984	84.25
299.214	76.25
299.445	86.25
299.675	80.25
299.905	87.25
300.136	81.25
300.366	80.25
300.597	83.25
300.827	75.25
301.057	78.25
301.288	84.25
301.518	88.25
301.748	93.25
301.979	81.25
302.209	81.25
302.439	89.25
302.669	62.25
302.9	85.25
303.13	77.25
303.36	76.25
303.59	88.25
303.82	89.25
304.051	93.25
304.281	91.25
304.511	79.25
304.741	79.25
304.971	73.25
305.201	94.25
305.431	93.25
305.661	79.25
305.891	83.25
306.121	91.25
306.352	88.25
306.582	70.25
306.812	89.25
307.042	68.25
307.272	71.25
307.502	74.25
307.731	79.25
307.961	79.25
308.191	78.25
308.421	70.25
308.651	83.25
308.881	68.25
309.111	82.25
309.341	82.25
309.571	84.25
309.8	79.25
310.03	84.25
310.26	94.25
310.49	69.25
310.72	92.25
310.949	85.25
311.179	71.25
311.409	81.25
311.639	78.25
311.868	83.25
312.098	84.25
312.328	73.25
312.557	84.25
312.787	83.25
313.017	84.25
313.246	74.25
313.476	93.25
313.706	90.25
313.935	84.25
314.165	89.25
314.394	82.25
314.624	93.25
314.853	79.25
315.083	87.25
315.312	107.25
315.542	84.25
315.771	82.25
316.001	80.25
316.23	85.25
316.46	87.25
316.689	76.25
316.919	80.25
317.148	74.25
317.377	79.25
317.607	84.25
317.836	92.25
318.065	93.25
318.295	78.25
318.524	80.25
318.753	74.25
318.983	72.25
319.212	88.25
319.441	91.25
319.67	85.25
319.9	89.25
320.129	73.25
320.358	71.25
320.587	80.25
320.816	70.25
321.046	79.25
321.275	88.25
321.504	98.25
321.733	100.25
321.962	83.25
322.191	94.25
322.42	86.25
322.649	87.25
322.878	73.25
323.108	88.25
323.337	79.25
323.566	80.25
323.795	86.25
324.024	86.25
324.253	93.25
324.482	70.25
324.71	75.25
324.939	91.25
325.168	83.25
325.397	81.25
325.626	85.25
325.855	101.25
326.084	84.25
326.313	88.25
326.542	80.25
326.77	91.25
326.999	61.25
327.228	70.25
327.457	74.25
327.686	87.25
327.914	85.25
328.143	89.25
328.372	85.25
328.6	86.25
328.829	82.25
329.058	85.25
329.287	79.25
329.515	72.25
329.744	83.25
329.972	72.25
330.201	92.25
330.43	88.25
330.658	75.25
330.887	83.25
331.115	79.25
331.344	85.25
331.572	102.25
331.801	83.25
332.03	89.25
332.258	81.25
332.486	81.25
332.715	78.25
332.943	85.25
333.172	76.25
333.4	93.25
333.629	73.25
333.857	90.25
334.085	75.25
334.314	78.25
334.542	87.25
334.771	84.25
334.999	100.25
335.227	84.25
335.455	85.25
335.684	80.25
335.912	85.25
336.14	72.25
336.369	86.25
336.597	82.25
336.825	80.25
337.053	78.25
337.281	95.25
337.51	95.25
337.738	86.25
337.966	90.25
338.194	85.25
338.422	74.25
338.65	79.25
338.878	72.25
339.106	84.25
339.334	85.25
339.562	77.25
339.79	81.25
340.018	73.25
340.246	87.25
340.474	87.25
340.702	89.25
340.93	86.25
341.158	76.25
341.386	91.25
341.614	84.25
341.842	88.25
342.07	105.25
342.298	91.25
342.526	73.25
342.754	92.25
342.981	83.25
343.209	77.25
343.437	92.25
343.665	89.25
343.893	77.25
344.12	80.25
344.348	96.25
344.576	81.25
344.804	81.25
345.031	75.25
345.259	73.25
345.487	85.25
345.714	80.25
345.942	75.25
346.17	94.25
346.397	83.25
346.625	93.25
346.853	71.25
347.08	72.25
347.308	72.25
347.535	79.25
347.763	77.25
347.99	94.25
348.218	86.25
348.445	87.25
348.673	84.25
348.9	77.25
349.128	68.25
349.355	80.25
349.583	70.25
349.81	79.25
350.037	91.25
350.265	84.25
350.492	69.25
350.72	91.25
350.947	70.25
351.174	87.25
351.402	76.25
351.629	87.25
351.856	75.25
352.083	76.25
352.311	75.25
352.538	88.25
352.765	81.25
352.992	78.25
353.22	89.25
353.447	85.25
353.674	96.25
353.901	84.25
354.128	77.25
354.355	71.25
354.583	98.25
354.81	80.25
355.037	83.25
355.264	90.25
355.491	78.25
355.718	87.25
355.945	78.25
356.172	79.25
356.399	79.25
356.626	84.25
356.853	84.25
357.08	76.25
357.307	73.25
357.534	84.25
357.761	71.25
357.988	88.25
358.215	74.25
358.441	79.25
358.668	82.25
358.895	73.25
359.122	79.25
359.349	76.25
359.576	75.25
359.802	84.25
360.029	83.25
360.256	91.25
360.483	78.25
360.709	77.25
360.936	89.25
361.163	81.25
361.39	80.25
361.616	84.25
361.843	77.25
362.07	86.25
362.296	77.25
362.523	68.25
362.749	88.25
362.976	76.25
363.203	91.25
363.429	74.25
363.656	81.25
363.882	68.25
364.109	77.25
364.335	88.25
364.562	94.25
364.788	71.25
365.015	79.25
365.241	86.25
365.468	76.25
365.694	77.25
365.92	91.25
366.147	81.25
366.373	66.25
366.599	93.25
366.826	77.25
367.052	103.25
367.278	95.25
367.505	80.25
367.731	87.25
367.957	80.25
368.184	91.25
368.41	76.25
368.636	86.25
368.862	83.25
369.089	85.25
369.315	81.25
369.541	92.25
369.767	78.25
369.993	74.25
370.219	69.25
370.445	78.25
370.672	79.25
370.898	76.25
371.124	76.25
371.35	65.25
371.576	69.25
371.802	88.25
372.028	64.25
372.254	80.25
372.48	77.25
372.706	72.25
372.932	76.25
373.158	80.25
373.384	88.25
373.61	83.25
373.835	77.25
374.061	87.25
374.287	84.25
374.513	68.25
374.739	83.25
374.965	84.25
375.191	78.25
375.416	89.25
375.642	78.25
375.868	82.25
376.094	81.25
376.319	81.25
376.545	78.25
376.771	88.25
376.997	74.25
377.222	82.25
377.448	67.25
377.674	86.25
377.899	84.25
378.125	86.25
378.35	93.25
378.576	90.25
378.802	80.25
379.027	96.25
379.253	78.25
379.478	78.25
379.704	82.25
379.929	84.25
380.155	79.25
380.38	84.25
380.606	87.25
380.831	78.25
381.057	86.25
381.282	77.25
381.507	79.25
381.733	73.25
381.958	86.25
382.184	71.25
382.409	83.25
382.634	86.25
382.86	80.25
383.085	85.25
383.31	88.25
383.535	83.25
383.761	72.25
383.986	65.25
384.211	86.25
384.436	91.25
384.662	81.25
384.887	93.25
385.112	83.25
385.337	93.25
385.562	70.25
385.787	75.25
386.013	94.25
386.238	89.25
386.463	99.25
386.688	89.25
386.913	80.25
387.138	79.25
387.363	88.25
387.588	78.25
387.813	88.25
388.038	93.25
388.263	72.25
388.488	72.25
388.713	85.25
388.938	72.25
389.163	69.25
389.387	87.25
389.612	94.25
389.837	81.25
390.062	81.25
390.287	84.25
390.512	82.25
390.736	78.25
390.961	82.25
391.186	64.25
391.411	79.25
391.636	93.25
391.86	82.25
392.085	92.25
392.31	92.25
392.534	73.25
392.759	91.25
392.984	88.25
393.208	78.25
393.433	94.25
393.658	76.25
393.882	75.25
394.107	96.25
394.331	84.25
394.556	86.25
394.78	73.25
395.005	82.25
395.229	93.25
395.454	97.25
395.678	87.25
395.903	70.25
396.127	74.25
396.352	76.25
396.576	78.25
396.801	92.25
397.025	63.25
397.249	81.25
397.474	85.25
397.698	87.25
397.922	92.25
398.147	91.25
398.371	78.25
398.595	102.25
398.82	73.25
399.044	83.25
399.268	86.25
399.492	79.25
399.717	81.25
399.941	84.25
400.165	79.25
400.389	78.25
400.613	95.25
400.837	79.25
401.062	86.25
401.286	84.25
401.51	97.25
401.734	103.25
401.958	87.25
402.182	88.25
402.406	79.25
402.63	77.25
402.854	68.25
403.078	98.25
403.302	84.25
403.526	86.25
403.75	80.25
403.974	81.25
404.198	81.25
404.422	93.25
404.645	94.25
404.869	93.25
405.093	79.25
405.317	78.25
405.541	91.25
405.765	84.25
405.988	84.25
406.212	82.25
406.436	89.25
406.66	89.25
406.883	95.25
407.107	81.25
407.331	93.25
407.555	81.25
407.778	84.25
408.002	79.25
408.226	96.25
408.449	98.25
408.673	80.25
408.896	81.25
409.12	78.25
409.344	90.25
409.567	77.25
409.791	89.25
410.014	94.25
410.238	95.25
410.461	73.25
410.685	91.25
410.908	97.25
411.132	75.25
411.355	81.25
411.578	90.25
411.802	65.25
412.025	103.25
412.249	91.25
412.472	67.25
412.695	77.25
412.919	79.25
413.142	96.25
413.365	85.25
413.589	76.25
413.812	89.25
414.035	81.25
414.258	84.25
414.482	89.25
414.705	91.25
414.928	79.25
415.151	91.25
415.374	89.25
415.597	96.25
415.821	88.25
416.044	93.25
416.267	87.25
416.49	86.25
416.713	104.25
416.936	94.25
417.159	81.25
417.382	86.25
417.605	81.25
417.828	84.25
418.051	84.25
418.274	97.25
418.497	97.25
418.72	86.25
418.943	96.25
419.166	97.25
419.389	83.25
419.611	80.25
419.834	91.25
420.057	103.25
420.28	94.25
420.503	78.25
420.726	95.25
420.948	87.25
421.171	94.25
421.394	81.25
421.617	99.25
421.839	81.25
422.062	108.25
422.285	98.25
422.507	101.25
422.73	72.25
422.953	95.25
423.175	93.25
423.398	88.25
423.621	91.25
423.843	76.25
424.066	84.25
424.288	99.25
424.511	97.25
424.733	95.25
424.956	112.25
425.178	83.25
425.401	101.25
425.623	79.25
425.846	101.25
426.068	95.25
426.291	92.25
426.513	80.25
426.735	89.25
426.958	89.25
427.18	97.25
427.402	82.25
427.625	89.25
427.847	86.25
428.069	88.25
428.292	87.25
428.514	88.25
428.736	100.25
428.958	78.25
429.181	92.25
429.403	98.25
429.625	94.25
429.847	100.25
430.069	89.25
430.292	107.25
430.514	80.25
430.736	88.25
430.958	97.25
431.18	91.25
431.402	101.25
431.624	79.25
431.846	88.25
432.068	85.25
432.29	88.25
432.512	85.25
432.734	93.25
432.956	92.25
433.178	94.25
433.4	95.25
433.622	87.25
433.844	79.25
434.066	89.25
434.287	80.25
434.509	95.25
434.731	89.25
434.953	93.25
435.175	87.25
435.397	83.25
435.618	91.25
435.84	75.25
436.062	88.25
436.284	74.25
436.505	94.25
436.727	93.25
436.949	93.25
437.17	93.25
437.392	100.25
437.614	104.25
437.835	94.25
438.057	88.25
438.278	83.25
438.5	92.25
438.721	80.25
438.943	91.25
439.165	109.25
439.386	89.25
439.608	111.25
439.829	98.25
440.05	99.25
440.272	91.25
440.493	88.25
440.715	89.25
440.936	100.25
441.158	94.25
441.379	93.25
441.6	112.25
441.822	96.25
442.043	92.25
442.264	84.25
442.486	99.25
442.707	100.25
442.928	89.25
443.149	88.25
443.371	96.25
443.592	80.25
443.813	77.25
444.034	101.25
444.255	83.25
444.476	91.25
444.698	111.25
444.919	87.25
445.14	226.25
445.361	166.25
445.582	103.25
445.803	94.25
446.024	107.25
446.245	107.25
446.466	95.25
446.687	99.25
446.908	98.25
447.129	107.25
447.35	101.25
447.571	107.25
447.792	93.25
448.013	84.25
448.234	103.25
448.455	97.25
448.675	88.25
448.896	96.25
449.117	82.25
449.338	84.25
449.559	84.25
449.779	86.25
450	101.25
450.221	85.25
450.442	93.25
450.662	96.25
450.883	105.25
451.104	93.25
451.324	93.25
451.545	84.25
451.766	101.25
451.986	91.25
452.207	92.25
452.428	85.25
452.648	89.25
452.869	87.25
453.089	85.25
453.31	84.25
453.53	96.25
453.751	95.25
453.971	86.25
454.192	83.25
454.412	79.25
454.633	98.25
454.853	90.25
455.073	84.25
455.294	81.25
455.514	85.25
455.734	89.25
455.955	96.25
456.175	92.25
456.395	76.25
456.616	87.25
456.836	78.25
457.056	89.25
457.276	85.25
457.497	86.25
457.717	80.25
457.937	86.25
458.157	87.25
458.377	81.25
458.598	84.25
458.818	74.25
459.038	74.25
459.258	88.25
459.478	77.25
459.698	67.25
459.918	82.25
460.138	73.25
460.358	89.25
460.578	89.25
460.798	84.25
461.018	82.25
461.238	78.25
461.458	95.25
461.678	101.25
461.898	82.25
462.118	84.25
462.338	90.25
462.558	88.25
462.777	80.25
462.997	86.25
463.217	89.25
463.437	73.25
463.657	84.25
463.876	79.25
464.096	88.25
464.316	91.25
464.536	73.25
464.755	82.25
464.975	88.25
465.195	95.25
465.414	112.25
465.634	82.25
465.854	95.25
466.073	96.25
466.293	89.25
466.512	83.25
466.732	93.25
466.951	101.25
467.171	88.25
467.391	89.25
467.61	95.25
467.829	96.25
468.049	88.25
468.268	103.25
468.488	87.25
468.707	78.25
468.927	96.25
469.146	87.25
469.365	93.25
469.585	99.25
469.804	92.25
470.023	88.25
470.243	103.25
470.462	100.25
470.681	110.25
470.901	83.25
471.12	89.25
471.339	86.25
471.558	103.25
471.777	94.25
471.997	89.25
472.216	106.25
472.435	84.25
472.654	93.25
472.873	87.25
473.092	96.25
473.311	91.25
473.53	84.25
473.749	85.25
473.968	99.25
474.187	94.25
474.406	88.25
474.625	96.25
474.844	98.25
475.063	91.25
475.282	88.25
475.501	79.25
475.72	98.25
475.939	77.25
476.158	95.25
476.377	79.25
476.596	97.25
476.814	104.25
477.033	87.25
477.252	91.25
477.471	109.25
477.69	86.25
477.908	100.25
478.127	98.25
478.346	91.25
478.564	86.25
478.783	92.25
479.002	92.25
479.22	109.25
479.439	88.25
479.658	93.25
479.876	92.25
480.095	67.25
480.313	82.25
480.532	87.25
480.751	76.25
480.969	85.25
481.188	79.25
481.406	89.25
481.624	97.25
481.843	82.25
482.061	83.25
482.28	74.25
482.498	85.25
482.717	88.25
482.935	95.25
483.153	95.25
483.372	98.25
483.59	108.25
483.808	77.25
484.027	81.25
484.245	89.25
484.463	92.25
484.681	97.25
484.9	92.25
485.118	99.25
485.336	103.25
485.554	83.25
485.772	81.25
485.99	93.25
486.209	87.25
486.427	97.25
486.645	96.25
486.863	102.25
487.081	87.25
487.299	91.25
487.517	101.25
487.735	105.25
487.953	123.25
488.171	123.25
488.389	103.25
488.607	97.25
488.825	96.25
489.043	78.25
489.261	97.25
489.479	91.25
489.696	97.25
489.914	86.25
490.132	102.25
490.35	101.25
490.568	112.25
490.786	93.25
491.003	108.25
491.221	99.25
491.439	107.25
491.657	92.25
491.874	109.25
492.092	129.25
492.31	129.25
492.527	118.25
492.745	129.25
492.963	129.25
493.18	140.25
493.398	101.25
493.615	120.25
493.833	113.25
494.05	119.25
494.268	102.25
494.485	103.25
494.703	104.25
494.92	116.25
495.138	112.25
495.355	110.25
495.573	103.25
495.79	105.25
496.008	97.25
496.225	108.25
496.442	109.25
496.66	108.25
496.877	113.25
497.094	94.25
497.312	111.25
497.529	99.25
497.746	105.25
497.963	110.25
498.181	87.25
498.398	97.25
498.615	96.25
498.832	96.25
499.049	100.25
499.267	101.25
499.484	82.25
499.701	96.25
499.918	85.25
500.135	94.25
500.352	94.25
500.569	89.25
500.786	99.25
501.003	93.25
501.22	96.25
501.437	107.25
501.654	89.25
501.871	88.25
502.088	91.25
502.305	92.25
502.522	108.25
502.739	93.25
502.956	94.25
503.172	85.25
503.389	86.25
503.606	88.25
503.823	100.25
504.04	97.25
504.256	99.25
504.473	79.25
504.69	71.25
504.907	100.25
505.123	89.25
505.34	80.25
505.557	104.25
505.773	95.25
505.99	90.25
506.207	95.25
506.423	92.25
506.64	102.25
506.856	94.25
507.073	93.25
507.289	100.25
507.506	101.25
507.722	93.25
507.939	84.25
508.155	102.25
508.372	88.25
508.588	85.25
508.805	84.25
509.021	70.25
509.238	88.25
509.454	98.25
509.67	77.25
509.887	95.25
510.103	88.25
510.319	94.25
510.536	84.25
510.752	86.25
510.968	83.25
511.184	81.25
511.401	79.25
511.617	74.25
511.833	86.25
512.049	90.25
512.265	68.25
512.481	94.25
512.698	97.25
512.914	79.25
513.13	86.25
513.346	94.25
513.562	83.25
513.778	81.25
513.994	86.25
514.21	69.25
514.426	95.25
514.642	87.25
514.858	77.25
515.074	85.25
515.29	73.25
515.506	82.25
515.721	89.25
515.937	78.25
516.153	87.25
516.369	83.25
516.585	70.25
516.801	84.25
517.016	80.25
517.232	75.25
517.448	94.25
517.664	91.25
517.879	73.25
518.095	99.25
