Data from Location3.07152019.Energy5.Lamp.07192019.3%Agarose_HRD10591_15-19-39-271.txt Node
Date: Fri Jul 19 15:19:39 EDT 2019
User: cochatt
Spectrometer: HR+D1059
Trigger mode: 1
Integration Time (sec): 1.000000E-1
Scans to average: 1
Electric dark correction enabled: true
Nonlinearity correction enabled: false
Boxcar width: 0
XAxis mode: Wavelengths
Number of Pixels in Spectrum: 2048
>>>>>Begin Spectral Data<<<<<
223.165	-13.06
223.4	-13.06
223.635	-13.06
223.869	-6.06
224.104	-17.06
224.338	-0.06
224.573	-16.06
224.808	-12.06
225.042	-12.06
225.277	0.94
225.511	-16.06
225.746	12.94
225.98	-10.06
226.215	-7.06
226.449	19.94
226.683	32.94
226.918	13.94
227.152	28.94
227.387	42.94
227.621	29.94
227.856	30.94
228.09	29.94
228.324	32.94
228.559	45.94
228.793	67.94
229.027	53.94
229.262	63.94
229.496	62.94
229.73	74.94
229.964	68.94
230.199	62.94
230.433	75.94
230.667	87.94
230.901	77.94
231.136	76.94
231.37	86.94
231.604	67.94
231.838	74.94
232.072	78.94
232.306	87.94
232.541	83.94
232.775	83.94
233.009	77.94
233.243	78.94
233.477	82.94
233.711	80.94
233.945	79.94
234.179	69.94
234.413	85.94
234.647	77.94
234.881	81.94
235.115	99.94
235.349	63.94
235.583	77.94
235.817	74.94
236.051	77.94
236.285	55.94
236.519	79.94
236.753	65.94
236.987	67.94
237.221	69.94
237.455	60.94
237.689	80.94
237.922	91.94
238.156	78.94
238.39	81.94
238.624	84.94
238.858	71.94
239.091	65.94
239.325	67.94
239.559	71.94
239.793	82.94
240.027	71.94
240.26	75.94
240.494	72.94
240.728	68.94
240.961	79.94
241.195	71.94
241.429	81.94
241.662	65.94
241.896	74.94
242.13	62.94
242.363	70.94
242.597	82.94
242.83	71.94
243.064	75.94
243.298	71.94
243.531	81.94
243.765	70.94
243.998	73.94
244.232	78.94
244.465	75.94
244.699	67.94
244.932	75.94
245.166	75.94
245.399	77.94
245.633	69.94
245.866	86.94
246.099	79.94
246.333	77.94
246.566	76.94
246.8	74.94
247.033	69.94
247.266	60.94
247.5	73.94
247.733	75.94
247.966	79.94
248.2	82.94
248.433	78.94
248.666	81.94
248.899	81.94
249.133	74.94
249.366	75.94
249.599	87.94
249.832	86.94
250.066	75.94
250.299	72.94
250.532	83.94
250.765	70.94
250.998	76.94
251.231	82.94
251.465	71.94
251.698	78.94
251.931	81.94
252.164	72.94
252.397	83.94
252.63	88.94
252.863	73.94
253.096	86.94
253.329	80.94
253.562	72.94
253.795	81.94
254.028	73.94
254.261	84.94
254.494	75.94
254.727	95.94
254.96	75.94
255.193	88.94
255.426	69.94
255.659	79.94
255.892	74.94
256.124	77.94
256.357	69.94
256.59	63.94
256.823	79.94
257.056	77.94
257.289	80.94
257.521	81.94
257.754	79.94
257.987	84.94
258.22	89.94
258.452	86.94
258.685	72.94
258.918	68.94
259.151	80.94
259.383	90.94
259.616	83.94
259.849	94.94
260.081	77.94
260.314	81.94
260.547	66.94
260.779	71.94
261.012	74.94
261.244	78.94
261.477	83.94
261.71	89.94
261.942	86.94
262.175	93.94
262.407	88.94
262.64	81.94
262.872	83.94
263.105	81.94
263.337	83.94
263.57	70.94
263.802	89.94
264.035	83.94
264.267	70.94
264.499	88.94
264.732	86.94
264.964	76.94
265.197	67.94
265.429	81.94
265.661	77.94
265.894	72.94
266.126	82.94
266.358	70.94
266.591	99.94
266.823	73.94
267.055	73.94
267.287	80.94
267.52	82.94
267.752	81.94
267.984	75.94
268.216	85.94
268.448	77.94
268.681	90.94
268.913	75.94
269.145	80.94
269.377	96.94
269.609	82.94
269.841	75.94
270.073	85.94
270.306	80.94
270.538	79.94
270.77	90.94
271.002	84.94
271.234	74.94
271.466	84.94
271.698	74.94
271.93	82.94
272.162	75.94
272.394	88.94
272.626	82.94
272.858	90.94
273.09	90.94
273.322	87.94
273.553	81.94
273.785	67.94
274.017	79.94
274.249	87.94
274.481	91.94
274.713	90.94
274.945	78.94
275.176	89.94
275.408	94.94
275.64	93.94
275.872	91.94
276.104	90.94
276.335	65.94
276.567	82.94
276.799	83.94
277.031	83.94
277.262	84.94
277.494	79.94
277.726	94.94
277.957	73.94
278.189	83.94
278.421	79.94
278.652	75.94
278.884	63.94
279.115	90.94
279.347	80.94
279.579	81.94
279.81	82.94
280.042	86.94
280.273	91.94
280.505	83.94
280.736	85.94
280.968	89.94
281.199	90.94
281.431	78.94
281.662	74.94
281.894	74.94
282.125	89.94
282.356	89.94
282.588	73.94
282.819	88.94
283.051	86.94
283.282	82.94
283.513	93.94
283.745	75.94
283.976	85.94
284.207	75.94
284.439	87.94
284.67	91.94
284.901	70.94
285.132	84.94
285.364	85.94
285.595	75.94
285.826	75.94
286.057	71.94
286.288	83.94
286.52	86.94
286.751	91.94
286.982	83.94
287.213	83.94
287.444	82.94
287.675	83.94
287.906	75.94
288.138	81.94
288.369	83.94
288.6	73.94
288.831	71.94
289.062	80.94
289.293	72.94
289.524	81.94
289.755	81.94
289.986	91.94
290.217	90.94
290.448	62.94
290.679	90.94
290.91	78.94
291.141	90.94
291.371	91.94
291.602	89.94
291.833	93.94
292.064	94.94
292.295	71.94
292.526	84.94
292.757	89.94
292.987	78.94
293.218	84.94
293.449	74.94
293.68	75.94
293.91	88.94
294.141	91.94
294.372	72.94
294.603	71.94
294.833	88.94
295.064	94.94
295.295	83.94
295.525	84.94
295.756	87.94
295.987	87.94
296.217	88.94
296.448	89.94
296.679	89.94
296.909	73.94
297.14	80.94
297.37	105.94
297.601	98.94
297.831	73.94
298.062	83.94
298.292	82.94
298.523	89.94
298.753	86.94
298.984	90.94
299.214	75.94
299.445	84.94
299.675	95.94
299.905	91.94
300.136	76.94
300.366	68.94
300.597	82.94
300.827	81.94
301.057	97.94
301.288	92.94
301.518	76.94
301.748	88.94
301.979	79.94
302.209	81.94
302.439	88.94
302.669	93.94
302.9	90.94
303.13	78.94
303.36	80.94
303.59	72.94
303.82	83.94
304.051	68.94
304.281	90.94
304.511	88.94
304.741	81.94
304.971	96.94
305.201	74.94
305.431	77.94
305.661	87.94
305.891	74.94
306.121	86.94
306.352	83.94
306.582	61.94
306.812	83.94
307.042	99.94
307.272	86.94
307.502	86.94
307.731	83.94
307.961	96.94
308.191	81.94
308.421	90.94
308.651	84.94
308.881	84.94
309.111	79.94
309.341	73.94
309.571	83.94
309.8	83.94
310.03	82.94
310.26	71.94
310.49	79.94
310.72	91.94
310.949	86.94
311.179	85.94
311.409	88.94
311.639	75.94
311.868	95.94
312.098	71.94
312.328	90.94
312.557	88.94
312.787	89.94
313.017	88.94
313.246	86.94
313.476	80.94
313.706	83.94
313.935	90.94
314.165	73.94
314.394	86.94
314.624	72.94
314.853	84.94
315.083	95.94
315.312	88.94
315.542	92.94
315.771	80.94
316.001	76.94
316.23	93.94
316.46	80.94
316.689	89.94
316.919	89.94
317.148	79.94
317.377	87.94
317.607	81.94
317.836	77.94
318.065	82.94
318.295	90.94
318.524	95.94
318.753	78.94
318.983	99.94
319.212	89.94
319.441	74.94
319.67	92.94
319.9	83.94
320.129	90.94
320.358	84.94
320.587	92.94
320.816	80.94
321.046	80.94
321.275	78.94
321.504	62.94
321.733	98.94
321.962	76.94
322.191	84.94
322.42	83.94
322.649	90.94
322.878	84.94
323.108	93.94
323.337	84.94
323.566	90.94
323.795	83.94
324.024	96.94
324.253	76.94
324.482	94.94
324.71	84.94
324.939	77.94
325.168	82.94
325.397	101.94
325.626	79.94
325.855	66.94
326.084	82.94
326.313	93.94
326.542	96.94
326.77	91.94
326.999	85.94
327.228	96.94
327.457	79.94
327.686	85.94
327.914	80.94
328.143	80.94
328.372	77.94
328.6	93.94
328.829	79.94
329.058	62.94
329.287	79.94
329.515	88.94
329.744	91.94
329.972	84.94
330.201	83.94
330.43	92.94
330.658	106.94
330.887	80.94
331.115	81.94
331.344	83.94
331.572	86.94
331.801	91.94
332.03	83.94
332.258	75.94
332.486	80.94
332.715	85.94
332.943	78.94
333.172	73.94
333.4	70.94
333.629	88.94
333.857	93.94
334.085	75.94
334.314	87.94
334.542	89.94
334.771	95.94
334.999	94.94
335.227	82.94
335.455	80.94
335.684	94.94
335.912	95.94
336.14	84.94
336.369	74.94
336.597	77.94
336.825	85.94
337.053	92.94
337.281	85.94
337.51	90.94
337.738	88.94
337.966	76.94
338.194	74.94
338.422	73.94
338.65	78.94
338.878	77.94
339.106	82.94
339.334	90.94
339.562	78.94
339.79	97.94
340.018	94.94
340.246	71.94
340.474	85.94
340.702	89.94
340.93	86.94
341.158	81.94
341.386	77.94
341.614	90.94
341.842	80.94
342.07	68.94
342.298	81.94
342.526	78.94
342.754	79.94
342.981	84.94
343.209	82.94
343.437	87.94
343.665	85.94
343.893	86.94
344.12	86.94
344.348	93.94
344.576	88.94
344.804	66.94
345.031	80.94
345.259	69.94
345.487	92.94
345.714	83.94
345.942	82.94
346.17	77.94
346.397	91.94
346.625	83.94
346.853	73.94
347.08	87.94
347.308	85.94
347.535	93.94
347.763	88.94
347.99	85.94
348.218	91.94
348.445	96.94
348.673	84.94
348.9	103.94
349.128	72.94
349.355	80.94
349.583	79.94
349.81	84.94
350.037	76.94
350.265	87.94
350.492	85.94
350.72	89.94
350.947	85.94
351.174	94.94
351.402	74.94
351.629	72.94
351.856	89.94
352.083	87.94
352.311	88.94
352.538	83.94
352.765	70.94
352.992	84.94
353.22	81.94
353.447	66.94
353.674	82.94
353.901	74.94
354.128	88.94
354.355	96.94
354.583	66.94
354.81	85.94
355.037	93.94
355.264	73.94
355.491	86.94
355.718	85.94
355.945	87.94
356.172	78.94
356.399	88.94
356.626	80.94
356.853	81.94
357.08	93.94
357.307	73.94
357.534	77.94
357.761	72.94
357.988	76.94
358.215	74.94
358.441	84.94
358.668	85.94
358.895	75.94
359.122	89.94
359.349	86.94
359.576	87.94
359.802	79.94
360.029	93.94
360.256	77.94
360.483	83.94
360.709	89.94
360.936	85.94
361.163	97.94
361.39	92.94
361.616	79.94
361.843	73.94
362.07	97.94
362.296	89.94
362.523	86.94
362.749	85.94
362.976	89.94
363.203	96.94
363.429	75.94
363.656	77.94
363.882	77.94
364.109	86.94
364.335	81.94
364.562	92.94
364.788	88.94
365.015	83.94
365.241	94.94
365.468	97.94
365.694	80.94
365.92	73.94
366.147	87.94
366.373	82.94
366.599	77.94
366.826	75.94
367.052	91.94
367.278	91.94
367.505	81.94
367.731	82.94
367.957	73.94
368.184	74.94
368.41	87.94
368.636	75.94
368.862	89.94
369.089	80.94
369.315	83.94
369.541	87.94
369.767	77.94
369.993	73.94
370.219	81.94
370.445	79.94
370.672	85.94
370.898	84.94
371.124	90.94
371.35	82.94
371.576	71.94
371.802	87.94
372.028	93.94
372.254	85.94
372.48	91.94
372.706	75.94
372.932	104.94
373.158	80.94
373.384	85.94
373.61	77.94
373.835	76.94
374.061	98.94
374.287	75.94
374.513	73.94
374.739	79.94
374.965	85.94
375.191	89.94
375.416	82.94
375.642	82.94
375.868	100.94
376.094	89.94
376.319	79.94
376.545	80.94
376.771	72.94
376.997	91.94
377.222	79.94
377.448	81.94
377.674	92.94
377.899	75.94
378.125	96.94
378.35	71.94
378.576	64.94
378.802	74.94
379.027	85.94
379.253	100.94
379.478	85.94
379.704	85.94
379.929	91.94
380.155	82.94
380.38	80.94
380.606	79.94
380.831	81.94
381.057	84.94
381.282	78.94
381.507	75.94
381.733	85.94
381.958	85.94
382.184	80.94
382.409	90.94
382.634	83.94
382.86	78.94
383.085	83.94
383.31	86.94
383.535	91.94
383.761	95.94
383.986	82.94
384.211	85.94
384.436	85.94
384.662	94.94
384.887	91.94
385.112	74.94
385.337	77.94
385.562	83.94
385.787	84.94
386.013	98.94
386.238	93.94
386.463	84.94
386.688	92.94
386.913	93.94
387.138	90.94
387.363	83.94
387.588	68.94
387.813	101.94
388.038	92.94
388.263	85.94
388.488	76.94
388.713	80.94
388.938	84.94
389.163	94.94
389.387	75.94
389.612	89.94
389.837	80.94
390.062	89.94
390.287	77.94
390.512	88.94
390.736	79.94
390.961	95.94
391.186	80.94
391.411	90.94
391.636	92.94
391.86	86.94
392.085	80.94
392.31	89.94
392.534	83.94
392.759	94.94
392.984	87.94
393.208	85.94
393.433	90.94
393.658	101.94
393.882	78.94
394.107	99.94
394.331	85.94
394.556	87.94
394.78	80.94
395.005	87.94
395.229	86.94
395.454	86.94
395.678	95.94
395.903	97.94
396.127	71.94
396.352	81.94
396.576	87.94
396.801	86.94
397.025	81.94
397.249	84.94
397.474	94.94
397.698	93.94
397.922	107.94
398.147	80.94
398.371	94.94
398.595	91.94
398.82	90.94
399.044	83.94
399.268	88.94
399.492	99.94
399.717	88.94
399.941	86.94
400.165	86.94
400.389	80.94
400.613	81.94
400.837	88.94
401.062	82.94
401.286	67.94
401.51	92.94
401.734	85.94
401.958	78.94
402.182	93.94
402.406	79.94
402.63	80.94
402.854	82.94
403.078	81.94
403.302	108.94
403.526	85.94
403.75	76.94
403.974	72.94
404.198	96.94
404.422	88.94
404.645	92.94
404.869	88.94
405.093	94.94
405.317	98.94
405.541	90.94
405.765	90.94
405.988	90.94
406.212	81.94
406.436	105.94
406.66	95.94
406.883	96.94
407.107	68.94
407.331	86.94
407.555	79.94
407.778	89.94
408.002	106.94
408.226	87.94
408.449	89.94
408.673	103.94
408.896	89.94
409.12	81.94
409.344	86.94
409.567	93.94
409.791	89.94
410.014	83.94
410.238	88.94
410.461	81.94
410.685	102.94
410.908	87.94
411.132	96.94
411.355	83.94
411.578	101.94
411.802	82.94
412.025	69.94
412.249	79.94
412.472	94.94
412.695	83.94
412.919	103.94
413.142	87.94
413.365	82.94
413.589	110.94
413.812	97.94
414.035	122.94
414.258	98.94
414.482	84.94
414.705	82.94
414.928	90.94
415.151	101.94
415.374	86.94
415.597	84.94
415.821	63.94
416.044	83.94
416.267	92.94
416.49	98.94
416.713	102.94
416.936	80.94
417.159	96.94
417.382	88.94
417.605	95.94
417.828	94.94
418.051	83.94
418.274	96.94
418.497	94.94
418.72	100.94
418.943	79.94
419.166	96.94
419.389	87.94
419.611	81.94
419.834	105.94
420.057	84.94
420.28	83.94
420.503	94.94
420.726	86.94
420.948	80.94
421.171	94.94
421.394	89.94
421.617	87.94
421.839	97.94
422.062	97.94
422.285	94.94
422.507	95.94
422.73	99.94
422.953	89.94
423.175	93.94
423.398	96.94
423.621	87.94
423.843	79.94
424.066	97.94
424.288	96.94
424.511	98.94
424.733	105.94
424.956	95.94
425.178	83.94
425.401	94.94
425.623	102.94
425.846	113.94
426.068	90.94
426.291	89.94
426.513	89.94
426.735	98.94
426.958	91.94
427.18	92.94
427.402	77.94
427.625	88.94
427.847	91.94
428.069	89.94
428.292	88.94
428.514	103.94
428.736	88.94
428.958	90.94
429.181	103.94
429.403	100.94
429.625	101.94
429.847	99.94
430.069	106.94
430.292	94.94
430.514	100.94
430.736	73.94
430.958	86.94
431.18	88.94
431.402	102.94
431.624	90.94
431.846	94.94
432.068	84.94
432.29	81.94
432.512	95.94
432.734	96.94
432.956	98.94
433.178	98.94
433.4	88.94
433.622	103.94
433.844	84.94
434.066	83.94
434.287	90.94
434.509	91.94
434.731	98.94
434.953	95.94
435.175	85.94
435.397	88.94
435.618	82.94
435.84	89.94
436.062	100.94
436.284	85.94
436.505	93.94
436.727	107.94
436.949	95.94
437.17	102.94
437.392	86.94
437.614	83.94
437.835	93.94
438.057	100.94
438.278	88.94
438.5	101.94
438.721	94.94
438.943	85.94
439.165	87.94
439.386	93.94
439.608	111.94
439.829	93.94
440.05	86.94
440.272	94.94
440.493	98.94
440.715	97.94
440.936	89.94
441.158	95.94
441.379	102.94
441.6	106.94
441.822	104.94
442.043	94.94
442.264	103.94
442.486	93.94
442.707	90.94
442.928	93.94
443.149	114.94
443.371	105.94
443.592	97.94
443.813	84.94
444.034	93.94
444.255	99.94
444.476	82.94
444.698	107.94
444.919	106.94
445.14	223.94
445.361	162.94
445.582	104.94
445.803	94.94
446.024	92.94
446.245	98.94
446.466	110.94
446.687	94.94
446.908	89.94
447.129	109.94
447.35	102.94
447.571	100.94
447.792	89.94
448.013	103.94
448.234	98.94
448.455	97.94
448.675	110.94
448.896	94.94
449.117	88.94
449.338	95.94
449.559	93.94
449.779	87.94
450	85.94
450.221	101.94
450.442	104.94
450.662	107.94
450.883	106.94
451.104	90.94
451.324	98.94
451.545	92.94
451.766	89.94
451.986	91.94
452.207	89.94
452.428	100.94
452.648	95.94
452.869	89.94
453.089	95.94
453.31	85.94
453.53	90.94
453.751	98.94
453.971	79.94
454.192	84.94
454.412	85.94
454.633	81.94
454.853	96.94
455.073	82.94
455.294	95.94
455.514	84.94
455.734	82.94
455.955	98.94
456.175	101.94
456.395	88.94
456.616	81.94
456.836	81.94
457.056	86.94
457.276	81.94
457.497	81.94
457.717	83.94
457.937	87.94
458.157	90.94
458.377	91.94
458.598	81.94
458.818	82.94
459.038	81.94
459.258	95.94
459.478	91.94
459.698	89.94
459.918	83.94
460.138	77.94
460.358	79.94
460.578	101.94
460.798	85.94
461.018	98.94
461.238	94.94
461.458	86.94
461.678	68.94
461.898	86.94
462.118	83.94
462.338	79.94
462.558	101.94
462.777	90.94
462.997	67.94
463.217	93.94
463.437	95.94
463.657	84.94
463.876	87.94
464.096	97.94
464.316	83.94
464.536	90.94
464.755	95.94
464.975	95.94
465.195	102.94
465.414	97.94
465.634	81.94
465.854	90.94
466.073	99.94
466.293	96.94
466.512	88.94
466.732	82.94
466.951	83.94
467.171	94.94
467.391	98.94
467.61	80.94
467.829	97.94
468.049	89.94
468.268	88.94
468.488	98.94
468.707	97.94
468.927	108.94
469.146	98.94
469.365	88.94
469.585	86.94
469.804	108.94
470.023	105.94
470.243	103.94
470.462	91.94
470.681	87.94
470.901	102.94
471.12	97.94
471.339	92.94
471.558	95.94
471.777	106.94
471.997	92.94
472.216	95.94
472.435	96.94
472.654	85.94
472.873	90.94
473.092	92.94
473.311	97.94
473.53	85.94
473.749	93.94
473.968	111.94
474.187	90.94
474.406	97.94
474.625	94.94
474.844	90.94
475.063	105.94
475.282	103.94
475.501	72.94
475.72	89.94
475.939	97.94
476.158	93.94
476.377	96.94
476.596	93.94
476.814	94.94
477.033	90.94
477.252	98.94
477.471	96.94
477.69	99.94
477.908	93.94
478.127	98.94
478.346	87.94
478.564	106.94
478.783	93.94
479.002	101.94
479.22	102.94
479.439	105.94
479.658	97.94
479.876	84.94
480.095	99.94
480.313	88.94
480.532	78.94
480.751	80.94
480.969	87.94
481.188	94.94
481.406	80.94
481.624	83.94
481.843	82.94
482.061	87.94
482.28	91.94
482.498	97.94
482.717	88.94
482.935	93.94
483.153	93.94
483.372	94.94
483.59	119.94
483.808	104.94
484.027	88.94
484.245	107.94
484.463	92.94
484.681	99.94
484.9	97.94
485.118	98.94
485.336	103.94
485.554	95.94
485.772	84.94
485.99	89.94
486.209	85.94
486.427	85.94
486.645	91.94
486.863	111.94
487.081	99.94
487.299	88.94
487.517	96.94
487.735	97.94
487.953	106.94
488.171	111.94
488.389	107.94
488.607	96.94
488.825	85.94
489.043	89.94
489.261	94.94
489.479	97.94
489.696	102.94
489.914	96.94
490.132	107.94
490.35	97.94
490.568	95.94
490.786	102.94
491.003	102.94
491.221	102.94
491.439	129.94
491.657	107.94
491.874	117.94
492.092	118.94
492.31	126.94
492.527	122.94
492.745	109.94
492.963	111.94
493.18	102.94
493.398	112.94
493.615	100.94
493.833	113.94
494.05	109.94
494.268	115.94
494.485	102.94
494.703	98.94
494.92	102.94
495.138	127.94
495.355	102.94
495.573	117.94
495.79	119.94
496.008	104.94
496.225	104.94
496.442	104.94
496.66	117.94
496.877	103.94
497.094	98.94
497.312	107.94
497.529	93.94
497.746	97.94
497.963	105.94
498.181	92.94
498.398	98.94
498.615	93.94
498.832	80.94
499.049	102.94
499.267	88.94
499.484	93.94
499.701	104.94
499.918	69.94
500.135	99.94
500.352	95.94
500.569	88.94
500.786	98.94
501.003	100.94
501.22	101.94
501.437	109.94
501.654	97.94
501.871	83.94
502.088	98.94
502.305	105.94
502.522	105.94
502.739	94.94
502.956	92.94
503.172	90.94
503.389	101.94
503.606	91.94
503.823	104.94
504.04	111.94
504.256	89.94
504.473	87.94
504.69	96.94
504.907	105.94
505.123	104.94
505.34	78.94
505.557	85.94
505.773	108.94
505.99	89.94
506.207	100.94
506.423	99.94
506.64	92.94
506.856	93.94
507.073	95.94
507.289	99.94
507.506	89.94
507.722	81.94
507.939	90.94
508.155	82.94
508.372	88.94
508.588	85.94
508.805	93.94
509.021	93.94
509.238	69.94
509.454	82.94
509.67	84.94
509.887	96.94
510.103	85.94
510.319	79.94
510.536	77.94
510.752	97.94
510.968	82.94
511.184	93.94
511.401	84.94
511.617	71.94
511.833	88.94
512.049	87.94
512.265	77.94
512.481	85.94
512.698	92.94
512.914	83.94
513.13	82.94
513.346	73.94
513.562	78.94
513.778	87.94
513.994	86.94
514.21	78.94
514.426	86.94
514.642	78.94
514.858	77.94
515.074	78.94
515.29	78.94
515.506	82.94
515.721	90.94
515.937	79.94
516.153	88.94
516.369	90.94
516.585	85.94
516.801	80.94
517.016	86.94
517.232	95.94
517.448	89.94
517.664	90.94
