Data from Location3.07152019.Energy5.Lamp.07192019.3%Agarose_HRD10591_15-18-38-269.txt Node
Date: Fri Jul 19 15:18:38 EDT 2019
User: cochatt
Spectrometer: HR+D1059
Trigger mode: 1
Integration Time (sec): 1.000000E-1
Scans to average: 1
Electric dark correction enabled: true
Nonlinearity correction enabled: false
Boxcar width: 0
XAxis mode: Wavelengths
Number of Pixels in Spectrum: 2048
>>>>>Begin Spectral Data<<<<<
223.165	-25.44
223.4	-25.44
223.635	-25.44
223.869	-20.44
224.104	-17.44
224.338	3.56
224.573	-18.44
224.808	-27.44
225.042	-3.44
225.277	-6.44
225.511	-7.44
225.746	17.56
225.98	9.56
226.215	12.56
226.449	17.56
226.683	18.56
226.918	17.56
227.152	29.56
227.387	29.56
227.621	39.56
227.856	58.56
228.09	35.56
228.324	51.56
228.559	51.56
228.793	54.56
229.027	58.56
229.262	75.56
229.496	59.56
229.73	63.56
229.964	60.56
230.199	58.56
230.433	77.56
230.667	63.56
230.901	67.56
231.136	81.56
231.37	85.56
231.604	76.56
231.838	74.56
232.072	80.56
232.306	84.56
232.541	87.56
232.775	85.56
233.009	77.56
233.243	90.56
233.477	88.56
233.711	80.56
233.945	76.56
234.179	79.56
234.413	77.56
234.647	91.56
234.881	82.56
235.115	91.56
235.349	76.56
235.583	84.56
235.817	87.56
236.051	81.56
236.285	99.56
236.519	61.56
236.753	87.56
236.987	79.56
237.221	74.56
237.455	69.56
237.689	84.56
237.922	78.56
238.156	76.56
238.39	70.56
238.624	88.56
238.858	81.56
239.091	94.56
239.325	69.56
239.559	89.56
239.793	83.56
240.027	71.56
240.26	90.56
240.494	73.56
240.728	63.56
240.961	80.56
241.195	81.56
241.429	92.56
241.662	81.56
241.896	63.56
242.13	72.56
242.363	82.56
242.597	83.56
242.83	87.56
243.064	98.56
243.298	80.56
243.531	77.56
243.765	78.56
243.998	79.56
244.232	78.56
244.465	76.56
244.699	91.56
244.932	78.56
245.166	83.56
245.399	81.56
245.633	75.56
245.866	71.56
246.099	75.56
246.333	82.56
246.566	86.56
246.8	72.56
247.033	73.56
247.266	86.56
247.5	84.56
247.733	70.56
247.966	71.56
248.2	85.56
248.433	66.56
248.666	89.56
248.899	83.56
249.133	90.56
249.366	85.56
249.599	75.56
249.832	73.56
250.066	80.56
250.299	80.56
250.532	86.56
250.765	89.56
250.998	78.56
251.231	79.56
251.465	73.56
251.698	97.56
251.931	81.56
252.164	85.56
252.397	87.56
252.63	72.56
252.863	71.56
253.096	83.56
253.329	99.56
253.562	87.56
253.795	83.56
254.028	74.56
254.261	79.56
254.494	71.56
254.727	84.56
254.96	80.56
255.193	80.56
255.426	75.56
255.659	76.56
255.892	77.56
256.124	94.56
256.357	83.56
256.59	98.56
256.823	78.56
257.056	77.56
257.289	87.56
257.521	90.56
257.754	87.56
257.987	67.56
258.22	88.56
258.452	78.56
258.685	75.56
258.918	72.56
259.151	62.56
259.383	75.56
259.616	76.56
259.849	71.56
260.081	89.56
260.314	82.56
260.547	83.56
260.779	84.56
261.012	72.56
261.244	80.56
261.477	90.56
261.71	78.56
261.942	72.56
262.175	76.56
262.407	73.56
262.64	85.56
262.872	95.56
263.105	85.56
263.337	82.56
263.57	74.56
263.802	72.56
264.035	80.56
264.267	73.56
264.499	93.56
264.732	77.56
264.964	81.56
265.197	83.56
265.429	87.56
265.661	90.56
265.894	84.56
266.126	76.56
266.358	72.56
266.591	82.56
266.823	88.56
267.055	72.56
267.287	75.56
267.52	80.56
267.752	93.56
267.984	99.56
268.216	90.56
268.448	78.56
268.681	76.56
268.913	79.56
269.145	81.56
269.377	84.56
269.609	82.56
269.841	78.56
270.073	88.56
270.306	68.56
270.538	74.56
270.77	73.56
271.002	85.56
271.234	73.56
271.466	91.56
271.698	91.56
271.93	88.56
272.162	93.56
272.394	88.56
272.626	76.56
272.858	82.56
273.09	75.56
273.322	87.56
273.553	81.56
273.785	85.56
274.017	83.56
274.249	97.56
274.481	98.56
274.713	81.56
274.945	79.56
275.176	85.56
275.408	90.56
275.64	78.56
275.872	67.56
276.104	83.56
276.335	82.56
276.567	78.56
276.799	81.56
277.031	93.56
277.262	89.56
277.494	84.56
277.726	83.56
277.957	67.56
278.189	82.56
278.421	79.56
278.652	84.56
278.884	87.56
279.115	69.56
279.347	93.56
279.579	82.56
279.81	79.56
280.042	83.56
280.273	83.56
280.505	77.56
280.736	84.56
280.968	79.56
281.199	68.56
281.431	100.56
281.662	88.56
281.894	64.56
282.125	73.56
282.356	85.56
282.588	91.56
282.819	92.56
283.051	90.56
283.282	79.56
283.513	104.56
283.745	88.56
283.976	75.56
284.207	79.56
284.439	86.56
284.67	82.56
284.901	93.56
285.132	84.56
285.364	94.56
285.595	96.56
285.826	89.56
286.057	80.56
286.288	84.56
286.52	88.56
286.751	87.56
286.982	85.56
287.213	71.56
287.444	92.56
287.675	80.56
287.906	81.56
288.138	74.56
288.369	71.56
288.6	80.56
288.831	79.56
289.062	86.56
289.293	85.56
289.524	88.56
289.755	97.56
289.986	76.56
290.217	80.56
290.448	90.56
290.679	80.56
290.91	80.56
291.141	80.56
291.371	74.56
291.602	76.56
291.833	93.56
292.064	83.56
292.295	74.56
292.526	99.56
292.757	81.56
292.987	80.56
293.218	93.56
293.449	91.56
293.68	102.56
293.91	81.56
294.141	91.56
294.372	90.56
294.603	75.56
294.833	83.56
295.064	78.56
295.295	93.56
295.525	87.56
295.756	78.56
295.987	87.56
296.217	82.56
296.448	82.56
296.679	87.56
296.909	79.56
297.14	80.56
297.37	79.56
297.601	87.56
297.831	77.56
298.062	82.56
298.292	96.56
298.523	70.56
298.753	89.56
298.984	98.56
299.214	91.56
299.445	89.56
299.675	94.56
299.905	88.56
300.136	89.56
300.366	83.56
300.597	75.56
300.827	72.56
301.057	78.56
301.288	83.56
301.518	89.56
301.748	98.56
301.979	83.56
302.209	77.56
302.439	72.56
302.669	83.56
302.9	95.56
303.13	88.56
303.36	90.56
303.59	68.56
303.82	82.56
304.051	76.56
304.281	72.56
304.511	78.56
304.741	98.56
304.971	89.56
305.201	88.56
305.431	95.56
305.661	83.56
305.891	73.56
306.121	91.56
306.352	89.56
306.582	77.56
306.812	88.56
307.042	86.56
307.272	76.56
307.502	87.56
307.731	83.56
307.961	74.56
308.191	89.56
308.421	90.56
308.651	83.56
308.881	89.56
309.111	90.56
309.341	95.56
309.571	79.56
309.8	64.56
310.03	84.56
310.26	87.56
310.49	89.56
310.72	91.56
310.949	85.56
311.179	69.56
311.409	85.56
311.639	88.56
311.868	79.56
312.098	90.56
312.328	82.56
312.557	83.56
312.787	80.56
313.017	79.56
313.246	83.56
313.476	97.56
313.706	95.56
313.935	73.56
314.165	78.56
314.394	70.56
314.624	81.56
314.853	83.56
315.083	76.56
315.312	86.56
315.542	77.56
315.771	82.56
316.001	79.56
316.23	86.56
316.46	105.56
316.689	83.56
316.919	98.56
317.148	82.56
317.377	79.56
317.607	85.56
317.836	79.56
318.065	91.56
318.295	74.56
318.524	76.56
318.753	89.56
318.983	76.56
319.212	96.56
319.441	90.56
319.67	89.56
319.9	97.56
320.129	95.56
320.358	89.56
320.587	93.56
320.816	86.56
321.046	82.56
321.275	91.56
321.504	81.56
321.733	82.56
321.962	90.56
322.191	91.56
322.42	88.56
322.649	94.56
322.878	85.56
323.108	88.56
323.337	89.56
323.566	95.56
323.795	97.56
324.024	90.56
324.253	84.56
324.482	80.56
324.71	98.56
324.939	75.56
325.168	77.56
325.397	92.56
325.626	91.56
325.855	86.56
326.084	74.56
326.313	77.56
326.542	81.56
326.77	85.56
326.999	93.56
327.228	84.56
327.457	93.56
327.686	96.56
327.914	75.56
328.143	88.56
328.372	84.56
328.6	81.56
328.829	95.56
329.058	87.56
329.287	84.56
329.515	84.56
329.744	88.56
329.972	85.56
330.201	72.56
330.43	88.56
330.658	88.56
330.887	72.56
331.115	87.56
331.344	89.56
331.572	96.56
331.801	91.56
332.03	86.56
332.258	82.56
332.486	90.56
332.715	89.56
332.943	68.56
333.172	87.56
333.4	97.56
333.629	95.56
333.857	83.56
334.085	83.56
334.314	80.56
334.542	91.56
334.771	64.56
334.999	100.56
335.227	85.56
335.455	81.56
335.684	93.56
335.912	82.56
336.14	80.56
336.369	85.56
336.597	76.56
336.825	78.56
337.053	89.56
337.281	93.56
337.51	64.56
337.738	79.56
337.966	88.56
338.194	76.56
338.422	88.56
338.65	90.56
338.878	84.56
339.106	101.56
339.334	100.56
339.562	82.56
339.79	84.56
340.018	82.56
340.246	98.56
340.474	81.56
340.702	85.56
340.93	83.56
341.158	92.56
341.386	74.56
341.614	87.56
341.842	81.56
342.07	89.56
342.298	93.56
342.526	74.56
342.754	67.56
342.981	87.56
343.209	89.56
343.437	83.56
343.665	96.56
343.893	78.56
344.12	74.56
344.348	92.56
344.576	106.56
344.804	85.56
345.031	77.56
345.259	84.56
345.487	96.56
345.714	82.56
345.942	85.56
346.17	88.56
346.397	83.56
346.625	91.56
346.853	76.56
347.08	90.56
347.308	82.56
347.535	75.56
347.763	76.56
347.99	97.56
348.218	109.56
348.445	80.56
348.673	92.56
348.9	86.56
349.128	84.56
349.355	88.56
349.583	87.56
349.81	88.56
350.037	96.56
350.265	89.56
350.492	103.56
350.72	94.56
350.947	77.56
351.174	87.56
351.402	81.56
351.629	83.56
351.856	78.56
352.083	88.56
352.311	75.56
352.538	71.56
352.765	97.56
352.992	90.56
353.22	85.56
353.447	84.56
353.674	91.56
353.901	78.56
354.128	73.56
354.355	77.56
354.583	96.56
354.81	87.56
355.037	85.56
355.264	89.56
355.491	80.56
355.718	94.56
355.945	90.56
356.172	76.56
356.399	82.56
356.626	76.56
356.853	82.56
357.08	89.56
357.307	73.56
357.534	80.56
357.761	74.56
357.988	76.56
358.215	92.56
358.441	93.56
358.668	70.56
358.895	73.56
359.122	88.56
359.349	93.56
359.576	63.56
359.802	76.56
360.029	80.56
360.256	77.56
360.483	77.56
360.709	97.56
360.936	90.56
361.163	87.56
361.39	75.56
361.616	76.56
361.843	95.56
362.07	87.56
362.296	99.56
362.523	86.56
362.749	84.56
362.976	90.56
363.203	95.56
363.429	67.56
363.656	85.56
363.882	64.56
364.109	77.56
364.335	88.56
364.562	76.56
364.788	76.56
365.015	84.56
365.241	89.56
365.468	92.56
365.694	97.56
365.92	91.56
366.147	94.56
366.373	69.56
366.599	81.56
366.826	81.56
367.052	76.56
367.278	91.56
367.505	76.56
367.731	81.56
367.957	82.56
368.184	108.56
368.41	91.56
368.636	64.56
368.862	73.56
369.089	76.56
369.315	84.56
369.541	89.56
369.767	78.56
369.993	82.56
370.219	97.56
370.445	94.56
370.672	80.56
370.898	90.56
371.124	72.56
371.35	74.56
371.576	92.56
371.802	80.56
372.028	74.56
372.254	103.56
372.48	87.56
372.706	73.56
372.932	92.56
373.158	97.56
373.384	93.56
373.61	70.56
373.835	96.56
374.061	75.56
374.287	74.56
374.513	86.56
374.739	77.56
374.965	85.56
375.191	84.56
375.416	77.56
375.642	83.56
375.868	81.56
376.094	84.56
376.319	92.56
376.545	85.56
376.771	84.56
376.997	93.56
377.222	93.56
377.448	97.56
377.674	84.56
377.899	85.56
378.125	99.56
378.35	88.56
378.576	78.56
378.802	88.56
379.027	76.56
379.253	72.56
379.478	89.56
379.704	84.56
379.929	78.56
380.155	84.56
380.38	91.56
380.606	83.56
380.831	90.56
381.057	73.56
381.282	78.56
381.507	100.56
381.733	98.56
381.958	87.56
382.184	87.56
382.409	69.56
382.634	95.56
382.86	92.56
383.085	87.56
383.31	95.56
383.535	88.56
383.761	84.56
383.986	101.56
384.211	85.56
384.436	78.56
384.662	81.56
384.887	88.56
385.112	83.56
385.337	85.56
385.562	78.56
385.787	73.56
386.013	91.56
386.238	92.56
386.463	95.56
386.688	87.56
386.913	69.56
387.138	81.56
387.363	87.56
387.588	83.56
387.813	102.56
388.038	96.56
388.263	81.56
388.488	76.56
388.713	81.56
388.938	92.56
389.163	89.56
389.387	91.56
389.612	77.56
389.837	82.56
390.062	96.56
390.287	84.56
390.512	87.56
390.736	85.56
390.961	81.56
391.186	83.56
391.411	89.56
391.636	91.56
391.86	88.56
392.085	90.56
392.31	89.56
392.534	88.56
392.759	79.56
392.984	88.56
393.208	92.56
393.433	84.56
393.658	102.56
393.882	102.56
394.107	99.56
394.331	75.56
394.556	74.56
394.78	84.56
395.005	81.56
395.229	88.56
395.454	95.56
395.678	84.56
395.903	67.56
396.127	87.56
396.352	90.56
396.576	94.56
396.801	90.56
397.025	82.56
397.249	96.56
397.474	87.56
397.698	84.56
397.922	80.56
398.147	85.56
398.371	83.56
398.595	75.56
398.82	98.56
399.044	93.56
399.268	99.56
399.492	91.56
399.717	92.56
399.941	85.56
400.165	98.56
400.389	97.56
400.613	91.56
400.837	93.56
401.062	90.56
401.286	113.56
401.51	89.56
401.734	90.56
401.958	80.56
402.182	86.56
402.406	85.56
402.63	102.56
402.854	103.56
403.078	95.56
403.302	99.56
403.526	99.56
403.75	87.56
403.974	99.56
404.198	76.56
404.422	85.56
404.645	80.56
404.869	90.56
405.093	80.56
405.317	74.56
405.541	104.56
405.765	113.56
405.988	93.56
406.212	102.56
406.436	110.56
406.66	82.56
406.883	83.56
407.107	96.56
407.331	90.56
407.555	80.56
407.778	93.56
408.002	80.56
408.226	91.56
408.449	76.56
408.673	83.56
408.896	101.56
409.12	102.56
409.344	96.56
409.567	103.56
409.791	101.56
410.014	100.56
410.238	75.56
410.461	79.56
410.685	111.56
410.908	102.56
411.132	89.56
411.355	90.56
411.578	99.56
411.802	86.56
412.025	91.56
412.249	91.56
412.472	80.56
412.695	86.56
412.919	85.56
413.142	95.56
413.365	93.56
413.589	87.56
413.812	87.56
414.035	89.56
414.258	77.56
414.482	99.56
414.705	92.56
414.928	77.56
415.151	82.56
415.374	85.56
415.597	95.56
415.821	80.56
416.044	91.56
416.267	88.56
416.49	104.56
416.713	88.56
416.936	83.56
417.159	81.56
417.382	103.56
417.605	91.56
417.828	90.56
418.051	89.56
418.274	92.56
418.497	101.56
418.72	94.56
418.943	95.56
419.166	85.56
419.389	97.56
419.611	83.56
419.834	98.56
420.057	101.56
420.28	92.56
420.503	97.56
420.726	102.56
420.948	98.56
421.171	96.56
421.394	83.56
421.617	92.56
421.839	108.56
422.062	86.56
422.285	86.56
422.507	85.56
422.73	111.56
422.953	90.56
423.175	77.56
423.398	92.56
423.621	81.56
423.843	101.56
424.066	86.56
424.288	88.56
424.511	103.56
424.733	85.56
424.956	103.56
425.178	94.56
425.401	89.56
425.623	110.56
425.846	97.56
426.068	100.56
426.291	86.56
426.513	88.56
426.735	94.56
426.958	88.56
427.18	94.56
427.402	92.56
427.625	102.56
427.847	79.56
428.069	98.56
428.292	77.56
428.514	89.56
428.736	91.56
428.958	93.56
429.181	89.56
429.403	92.56
429.625	85.56
429.847	111.56
430.069	104.56
430.292	101.56
430.514	77.56
430.736	89.56
430.958	91.56
431.18	93.56
431.402	111.56
431.624	86.56
431.846	79.56
432.068	77.56
432.29	83.56
432.512	91.56
432.734	96.56
432.956	100.56
433.178	96.56
433.4	91.56
433.622	99.56
433.844	87.56
434.066	113.56
434.287	79.56
434.509	79.56
434.731	87.56
434.953	89.56
435.175	102.56
435.397	100.56
435.618	74.56
435.84	102.56
436.062	89.56
436.284	91.56
436.505	100.56
436.727	89.56
436.949	106.56
437.17	105.56
437.392	84.56
437.614	102.56
437.835	71.56
438.057	89.56
438.278	89.56
438.5	102.56
438.721	111.56
438.943	105.56
439.165	84.56
439.386	92.56
439.608	100.56
439.829	110.56
440.05	91.56
440.272	109.56
440.493	90.56
440.715	91.56
440.936	109.56
441.158	89.56
441.379	101.56
441.6	91.56
441.822	93.56
442.043	106.56
442.264	100.56
442.486	112.56
442.707	97.56
442.928	92.56
443.149	81.56
443.371	114.56
443.592	107.56
443.813	91.56
444.034	111.56
444.255	90.56
444.476	95.56
444.698	103.56
444.919	102.56
445.14	212.56
445.361	167.56
445.582	105.56
445.803	98.56
446.024	110.56
446.245	97.56
446.466	103.56
446.687	104.56
446.908	99.56
447.129	96.56
447.35	103.56
447.571	107.56
447.792	104.56
448.013	102.56
448.234	83.56
448.455	90.56
448.675	100.56
448.896	101.56
449.117	108.56
449.338	99.56
449.559	97.56
449.779	90.56
450	97.56
450.221	96.56
450.442	87.56
450.662	99.56
450.883	104.56
451.104	81.56
451.324	85.56
451.545	95.56
451.766	87.56
451.986	91.56
452.207	88.56
452.428	95.56
452.648	111.56
452.869	95.56
453.089	87.56
453.31	86.56
453.53	95.56
453.751	95.56
453.971	95.56
454.192	94.56
454.412	72.56
454.633	93.56
454.853	101.56
455.073	90.56
455.294	99.56
455.514	101.56
455.734	100.56
455.955	94.56
456.175	95.56
456.395	111.56
456.616	96.56
456.836	99.56
457.056	94.56
457.276	86.56
457.497	83.56
457.717	74.56
457.937	89.56
458.157	80.56
458.377	72.56
458.598	92.56
458.818	85.56
459.038	83.56
459.258	75.56
459.478	75.56
459.698	80.56
459.918	83.56
460.138	77.56
460.358	92.56
460.578	107.56
460.798	91.56
461.018	96.56
461.238	108.56
461.458	95.56
461.678	91.56
461.898	87.56
462.118	99.56
462.338	88.56
462.558	111.56
462.777	89.56
462.997	70.56
463.217	90.56
463.437	92.56
463.657	81.56
463.876	80.56
464.096	80.56
464.316	87.56
464.536	103.56
464.755	102.56
464.975	93.56
465.195	97.56
465.414	99.56
465.634	89.56
465.854	87.56
466.073	96.56
466.293	112.56
466.512	91.56
466.732	96.56
466.951	87.56
467.171	86.56
467.391	115.56
467.61	97.56
467.829	90.56
468.049	115.56
468.268	90.56
468.488	84.56
468.707	102.56
468.927	92.56
469.146	91.56
469.365	84.56
469.585	100.56
469.804	85.56
470.023	94.56
470.243	104.56
470.462	99.56
470.681	98.56
470.901	108.56
471.12	120.56
471.339	110.56
471.558	104.56
471.777	93.56
471.997	90.56
472.216	81.56
472.435	91.56
472.654	84.56
472.873	98.56
473.092	92.56
473.311	97.56
473.53	83.56
473.749	80.56
473.968	95.56
474.187	103.56
474.406	98.56
474.625	83.56
474.844	92.56
475.063	92.56
475.282	98.56
475.501	93.56
475.72	104.56
475.939	88.56
476.158	101.56
476.377	104.56
476.596	105.56
476.814	91.56
477.033	92.56
477.252	100.56
477.471	95.56
477.69	92.56
477.908	101.56
478.127	110.56
478.346	99.56
478.564	92.56
478.783	108.56
479.002	90.56
479.22	103.56
479.439	100.56
479.658	105.56
479.876	116.56
480.095	90.56
480.313	89.56
480.532	92.56
480.751	88.56
480.969	88.56
481.188	86.56
481.406	104.56
481.624	91.56
481.843	81.56
482.061	86.56
482.28	99.56
482.498	93.56
482.717	94.56
482.935	80.56
483.153	91.56
483.372	103.56
483.59	97.56
483.808	104.56
484.027	100.56
484.245	93.56
484.463	90.56
484.681	112.56
484.9	100.56
485.118	96.56
485.336	100.56
485.554	98.56
485.772	94.56
485.99	101.56
486.209	88.56
486.427	105.56
486.645	104.56
486.863	112.56
487.081	102.56
487.299	81.56
487.517	81.56
487.735	112.56
487.953	109.56
488.171	104.56
488.389	115.56
488.607	95.56
488.825	100.56
489.043	92.56
489.261	100.56
489.479	104.56
489.696	103.56
489.914	101.56
490.132	102.56
490.35	112.56
490.568	95.56
490.786	109.56
491.003	98.56
491.221	118.56
491.439	106.56
491.657	123.56
491.874	121.56
492.092	114.56
492.31	119.56
492.527	126.56
492.745	123.56
492.963	120.56
493.18	123.56
493.398	106.56
493.615	119.56
493.833	102.56
494.05	101.56
494.268	119.56
494.485	105.56
494.703	100.56
494.92	112.56
495.138	117.56
495.355	113.56
495.573	111.56
495.79	108.56
496.008	104.56
496.225	108.56
496.442	119.56
496.66	95.56
496.877	111.56
497.094	103.56
497.312	104.56
497.529	111.56
497.746	98.56
497.963	96.56
498.181	98.56
498.398	97.56
498.615	103.56
498.832	91.56
499.049	96.56
499.267	98.56
499.484	88.56
499.701	86.56
499.918	91.56
500.135	95.56
500.352	98.56
500.569	113.56
500.786	107.56
501.003	109.56
501.22	113.56
501.437	109.56
501.654	84.56
501.871	89.56
502.088	96.56
502.305	78.56
502.522	106.56
502.739	94.56
502.956	102.56
503.172	87.56
503.389	95.56
503.606	86.56
503.823	111.56
504.04	100.56
504.256	94.56
504.473	99.56
504.69	89.56
504.907	104.56
505.123	73.56
505.34	92.56
505.557	92.56
505.773	104.56
505.99	87.56
506.207	92.56
506.423	95.56
506.64	96.56
506.856	99.56
507.073	93.56
507.289	97.56
507.506	107.56
507.722	94.56
507.939	105.56
508.155	104.56
508.372	83.56
508.588	82.56
508.805	103.56
509.021	80.56
509.238	95.56
509.454	84.56
509.67	97.56
509.887	91.56
510.103	86.56
510.319	92.56
510.536	88.56
510.752	97.56
510.968	76.56
511.184	76.56
511.401	82.56
511.617	82.56
511.833	85.56
512.049	84.56
512.265	103.56
512.481	89.56
512.698	96.56
512.914	88.56
513.13	86.56
513.346	83.56
513.562	86.56
513.778	75.56
513.994	82.56
514.21	85.56
514.426	87.56
514.642	85.56
514.858	81.56
515.074	83.56
515.29	101.56
515.506	93.56
515.721	87.56
515.937	85.56
516.153	82.56
516.369	87.56
516.585	83.56
516.801	89.56
