Data from Location3.07152019.Energy5.Lamp.07192019.3%Agarose_HRD10591_15-17-46-269.txt Node
Date: Fri Jul 19 15:17:46 EDT 2019
User: cochatt
Spectrometer: HR+D1059
Trigger mode: 1
Integration Time (sec): 1.000000E-1
Scans to average: 1
Electric dark correction enabled: true
Nonlinearity correction enabled: false
Boxcar width: 0
XAxis mode: Wavelengths
Number of Pixels in Spectrum: 2048
>>>>>Begin Spectral Data<<<<<
223.165	-5.62
223.4	-5.62
223.635	-5.62
223.869	-9.62
224.104	0.38
224.338	-21.62
224.573	-25.62
224.808	-17.62
225.042	-15.62
225.277	-7.62
225.511	-2.62
225.746	8.38
225.98	3.38
226.215	18.38
226.449	20.38
226.683	11.38
226.918	18.38
227.152	25.38
227.387	38.38
227.621	42.38
227.856	46.38
228.09	45.38
228.324	56.38
228.559	44.38
228.793	36.38
229.027	56.38
229.262	67.38
229.496	59.38
229.73	71.38
229.964	75.38
230.199	59.38
230.433	92.38
230.667	81.38
230.901	88.38
231.136	75.38
231.37	79.38
231.604	79.38
231.838	73.38
232.072	64.38
232.306	93.38
232.541	78.38
232.775	94.38
233.009	89.38
233.243	70.38
233.477	72.38
233.711	89.38
233.945	79.38
234.179	79.38
234.413	87.38
234.647	61.38
234.881	71.38
235.115	72.38
235.349	71.38
235.583	75.38
235.817	74.38
236.051	72.38
236.285	76.38
236.519	76.38
236.753	86.38
236.987	72.38
237.221	90.38
237.455	90.38
237.689	71.38
237.922	73.38
238.156	65.38
238.39	72.38
238.624	67.38
238.858	87.38
239.091	71.38
239.325	78.38
239.559	82.38
239.793	68.38
240.027	84.38
240.26	82.38
240.494	81.38
240.728	69.38
240.961	71.38
241.195	67.38
241.429	80.38
241.662	68.38
241.896	81.38
242.13	80.38
242.363	80.38
242.597	76.38
242.83	88.38
243.064	76.38
243.298	59.38
243.531	65.38
243.765	81.38
243.998	73.38
244.232	66.38
244.465	78.38
244.699	82.38
244.932	71.38
245.166	73.38
245.399	89.38
245.633	72.38
245.866	74.38
246.099	75.38
246.333	82.38
246.566	80.38
246.8	79.38
247.033	75.38
247.266	75.38
247.5	79.38
247.733	79.38
247.966	70.38
248.2	70.38
248.433	63.38
248.666	78.38
248.899	59.38
249.133	86.38
249.366	87.38
249.599	82.38
249.832	90.38
250.066	82.38
250.299	92.38
250.532	91.38
250.765	74.38
250.998	72.38
251.231	81.38
251.465	59.38
251.698	73.38
251.931	81.38
252.164	70.38
252.397	72.38
252.63	64.38
252.863	83.38
253.096	85.38
253.329	68.38
253.562	85.38
253.795	80.38
254.028	82.38
254.261	70.38
254.494	83.38
254.727	92.38
254.96	64.38
255.193	75.38
255.426	80.38
255.659	78.38
255.892	69.38
256.124	83.38
256.357	62.38
256.59	84.38
256.823	93.38
257.056	90.38
257.289	85.38
257.521	59.38
257.754	88.38
257.987	81.38
258.22	59.38
258.452	84.38
258.685	99.38
258.918	86.38
259.151	88.38
259.383	77.38
259.616	78.38
259.849	79.38
260.081	86.38
260.314	78.38
260.547	95.38
260.779	90.38
261.012	73.38
261.244	89.38
261.477	76.38
261.71	74.38
261.942	71.38
262.175	78.38
262.407	80.38
262.64	82.38
262.872	68.38
263.105	82.38
263.337	87.38
263.57	92.38
263.802	87.38
264.035	79.38
264.267	78.38
264.499	82.38
264.732	98.38
264.964	87.38
265.197	93.38
265.429	88.38
265.661	92.38
265.894	100.38
266.126	69.38
266.358	67.38
266.591	95.38
266.823	76.38
267.055	65.38
267.287	76.38
267.52	78.38
267.752	73.38
267.984	73.38
268.216	82.38
268.448	97.38
268.681	80.38
268.913	76.38
269.145	74.38
269.377	76.38
269.609	88.38
269.841	80.38
270.073	85.38
270.306	94.38
270.538	84.38
270.77	78.38
271.002	90.38
271.234	80.38
271.466	86.38
271.698	75.38
271.93	80.38
272.162	86.38
272.394	91.38
272.626	77.38
272.858	80.38
273.09	80.38
273.322	81.38
273.553	70.38
273.785	105.38
274.017	85.38
274.249	83.38
274.481	92.38
274.713	86.38
274.945	82.38
275.176	86.38
275.408	90.38
275.64	87.38
275.872	91.38
276.104	67.38
276.335	85.38
276.567	81.38
276.799	84.38
277.031	70.38
277.262	94.38
277.494	80.38
277.726	96.38
277.957	66.38
278.189	66.38
278.421	73.38
278.652	79.38
278.884	94.38
279.115	89.38
279.347	83.38
279.579	78.38
279.81	79.38
280.042	82.38
280.273	95.38
280.505	85.38
280.736	82.38
280.968	81.38
281.199	74.38
281.431	77.38
281.662	86.38
281.894	88.38
282.125	86.38
282.356	100.38
282.588	75.38
282.819	84.38
283.051	77.38
283.282	71.38
283.513	70.38
283.745	84.38
283.976	84.38
284.207	72.38
284.439	79.38
284.67	78.38
284.901	85.38
285.132	74.38
285.364	95.38
285.595	82.38
285.826	94.38
286.057	83.38
286.288	86.38
286.52	84.38
286.751	84.38
286.982	74.38
287.213	84.38
287.444	83.38
287.675	93.38
287.906	89.38
288.138	90.38
288.369	91.38
288.6	78.38
288.831	84.38
289.062	89.38
289.293	89.38
289.524	72.38
289.755	88.38
289.986	84.38
290.217	75.38
290.448	79.38
290.679	80.38
290.91	93.38
291.141	85.38
291.371	76.38
291.602	92.38
291.833	95.38
292.064	101.38
292.295	95.38
292.526	83.38
292.757	94.38
292.987	88.38
293.218	74.38
293.449	100.38
293.68	90.38
293.91	90.38
294.141	86.38
294.372	85.38
294.603	87.38
294.833	86.38
295.064	92.38
295.295	82.38
295.525	88.38
295.756	80.38
295.987	91.38
296.217	86.38
296.448	78.38
296.679	85.38
296.909	87.38
297.14	98.38
297.37	82.38
297.601	83.38
297.831	101.38
298.062	88.38
298.292	76.38
298.523	86.38
298.753	88.38
298.984	100.38
299.214	88.38
299.445	86.38
299.675	85.38
299.905	95.38
300.136	79.38
300.366	84.38
300.597	84.38
300.827	89.38
301.057	77.38
301.288	82.38
301.518	79.38
301.748	89.38
301.979	86.38
302.209	83.38
302.439	82.38
302.669	82.38
302.9	80.38
303.13	66.38
303.36	81.38
303.59	81.38
303.82	76.38
304.051	84.38
304.281	86.38
304.511	81.38
304.741	77.38
304.971	96.38
305.201	87.38
305.431	88.38
305.661	85.38
305.891	72.38
306.121	87.38
306.352	84.38
306.582	91.38
306.812	88.38
307.042	78.38
307.272	78.38
307.502	90.38
307.731	83.38
307.961	80.38
308.191	94.38
308.421	85.38
308.651	78.38
308.881	74.38
309.111	82.38
309.341	81.38
309.571	87.38
309.8	82.38
310.03	79.38
310.26	93.38
310.49	90.38
310.72	74.38
310.949	80.38
311.179	91.38
311.409	80.38
311.639	84.38
311.868	72.38
312.098	88.38
312.328	85.38
312.557	98.38
312.787	84.38
313.017	103.38
313.246	90.38
313.476	85.38
313.706	78.38
313.935	86.38
314.165	93.38
314.394	88.38
314.624	80.38
314.853	97.38
315.083	94.38
315.312	102.38
315.542	84.38
315.771	80.38
316.001	78.38
316.23	83.38
316.46	90.38
316.689	89.38
316.919	101.38
317.148	91.38
317.377	89.38
317.607	100.38
317.836	99.38
318.065	85.38
318.295	77.38
318.524	78.38
318.753	79.38
318.983	76.38
319.212	90.38
319.441	78.38
319.67	94.38
319.9	85.38
320.129	81.38
320.358	86.38
320.587	82.38
320.816	86.38
321.046	99.38
321.275	96.38
321.504	88.38
321.733	78.38
321.962	71.38
322.191	85.38
322.42	82.38
322.649	89.38
322.878	87.38
323.108	83.38
323.337	82.38
323.566	82.38
323.795	81.38
324.024	97.38
324.253	80.38
324.482	88.38
324.71	85.38
324.939	79.38
325.168	90.38
325.397	72.38
325.626	80.38
325.855	89.38
326.084	68.38
326.313	83.38
326.542	67.38
326.77	80.38
326.999	102.38
327.228	76.38
327.457	83.38
327.686	82.38
327.914	82.38
328.143	82.38
328.372	65.38
328.6	94.38
328.829	84.38
329.058	89.38
329.287	101.38
329.515	83.38
329.744	82.38
329.972	103.38
330.201	90.38
330.43	83.38
330.658	79.38
330.887	96.38
331.115	91.38
331.344	92.38
331.572	83.38
331.801	99.38
332.03	82.38
332.258	80.38
332.486	83.38
332.715	94.38
332.943	87.38
333.172	74.38
333.4	82.38
333.629	83.38
333.857	95.38
334.085	87.38
334.314	82.38
334.542	94.38
334.771	88.38
334.999	92.38
335.227	76.38
335.455	79.38
335.684	75.38
335.912	86.38
336.14	91.38
336.369	76.38
336.597	79.38
336.825	80.38
337.053	98.38
337.281	74.38
337.51	75.38
337.738	83.38
337.966	81.38
338.194	92.38
338.422	92.38
338.65	86.38
338.878	82.38
339.106	89.38
339.334	66.38
339.562	78.38
339.79	75.38
340.018	95.38
340.246	87.38
340.474	87.38
340.702	87.38
340.93	89.38
341.158	94.38
341.386	87.38
341.614	86.38
341.842	80.38
342.07	82.38
342.298	82.38
342.526	92.38
342.754	93.38
342.981	80.38
343.209	83.38
343.437	88.38
343.665	76.38
343.893	89.38
344.12	75.38
344.348	87.38
344.576	80.38
344.804	83.38
345.031	105.38
345.259	99.38
345.487	74.38
345.714	85.38
345.942	74.38
346.17	75.38
346.397	86.38
346.625	87.38
346.853	72.38
347.08	88.38
347.308	99.38
347.535	89.38
347.763	73.38
347.99	80.38
348.218	80.38
348.445	89.38
348.673	73.38
348.9	78.38
349.128	92.38
349.355	69.38
349.583	80.38
349.81	86.38
350.037	59.38
350.265	82.38
350.492	76.38
350.72	96.38
350.947	89.38
351.174	84.38
351.402	88.38
351.629	89.38
351.856	84.38
352.083	76.38
352.311	81.38
352.538	84.38
352.765	97.38
352.992	74.38
353.22	80.38
353.447	91.38
353.674	97.38
353.901	94.38
354.128	97.38
354.355	75.38
354.583	88.38
354.81	90.38
355.037	85.38
355.264	83.38
355.491	86.38
355.718	80.38
355.945	81.38
356.172	75.38
356.399	74.38
356.626	71.38
356.853	91.38
357.08	86.38
357.307	74.38
357.534	87.38
357.761	84.38
357.988	69.38
358.215	83.38
358.441	89.38
358.668	68.38
358.895	84.38
359.122	83.38
359.349	78.38
359.576	81.38
359.802	79.38
360.029	89.38
360.256	105.38
360.483	79.38
360.709	99.38
360.936	90.38
361.163	78.38
361.39	87.38
361.616	87.38
361.843	87.38
362.07	84.38
362.296	92.38
362.523	88.38
362.749	83.38
362.976	83.38
363.203	90.38
363.429	79.38
363.656	88.38
363.882	98.38
364.109	84.38
364.335	92.38
364.562	91.38
364.788	105.38
365.015	83.38
365.241	88.38
365.468	95.38
365.694	86.38
365.92	80.38
366.147	82.38
366.373	85.38
366.599	85.38
366.826	93.38
367.052	93.38
367.278	78.38
367.505	92.38
367.731	89.38
367.957	92.38
368.184	73.38
368.41	87.38
368.636	89.38
368.862	86.38
369.089	91.38
369.315	91.38
369.541	90.38
369.767	78.38
369.993	93.38
370.219	81.38
370.445	89.38
370.672	86.38
370.898	77.38
371.124	73.38
371.35	80.38
371.576	103.38
371.802	83.38
372.028	66.38
372.254	75.38
372.48	88.38
372.706	75.38
372.932	83.38
373.158	83.38
373.384	82.38
373.61	107.38
373.835	89.38
374.061	76.38
374.287	84.38
374.513	82.38
374.739	88.38
374.965	87.38
375.191	85.38
375.416	88.38
375.642	91.38
375.868	88.38
376.094	80.38
376.319	83.38
376.545	91.38
376.771	81.38
376.997	92.38
377.222	80.38
377.448	82.38
377.674	76.38
377.899	80.38
378.125	74.38
378.35	93.38
378.576	80.38
378.802	91.38
379.027	71.38
379.253	79.38
379.478	80.38
379.704	81.38
379.929	94.38
380.155	89.38
380.38	87.38
380.606	85.38
380.831	87.38
381.057	86.38
381.282	93.38
381.507	93.38
381.733	85.38
381.958	79.38
382.184	79.38
382.409	82.38
382.634	81.38
382.86	92.38
383.085	80.38
383.31	81.38
383.535	96.38
383.761	85.38
383.986	72.38
384.211	73.38
384.436	81.38
384.662	81.38
384.887	89.38
385.112	96.38
385.337	87.38
385.562	85.38
385.787	90.38
386.013	98.38
386.238	96.38
386.463	90.38
386.688	87.38
386.913	87.38
387.138	96.38
387.363	88.38
387.588	97.38
387.813	90.38
388.038	82.38
388.263	78.38
388.488	78.38
388.713	79.38
388.938	83.38
389.163	86.38
389.387	89.38
389.612	76.38
389.837	95.38
390.062	99.38
390.287	89.38
390.512	88.38
390.736	89.38
390.961	80.38
391.186	87.38
391.411	84.38
391.636	91.38
391.86	93.38
392.085	90.38
392.31	90.38
392.534	71.38
392.759	103.38
392.984	91.38
393.208	100.38
393.433	101.38
393.658	81.38
393.882	88.38
394.107	85.38
394.331	85.38
394.556	88.38
394.78	81.38
395.005	99.38
395.229	98.38
395.454	80.38
395.678	87.38
395.903	93.38
396.127	85.38
396.352	88.38
396.576	104.38
396.801	91.38
397.025	92.38
397.249	82.38
397.474	98.38
397.698	94.38
397.922	83.38
398.147	85.38
398.371	95.38
398.595	66.38
398.82	93.38
399.044	92.38
399.268	85.38
399.492	108.38
399.717	91.38
399.941	100.38
400.165	82.38
400.389	87.38
400.613	92.38
400.837	76.38
401.062	79.38
401.286	74.38
401.51	90.38
401.734	89.38
401.958	87.38
402.182	78.38
402.406	97.38
402.63	87.38
402.854	94.38
403.078	88.38
403.302	74.38
403.526	89.38
403.75	105.38
403.974	88.38
404.198	83.38
404.422	88.38
404.645	100.38
404.869	88.38
405.093	91.38
405.317	91.38
405.541	91.38
405.765	84.38
405.988	89.38
406.212	94.38
406.436	96.38
406.66	102.38
406.883	83.38
407.107	97.38
407.331	99.38
407.555	99.38
407.778	86.38
408.002	85.38
408.226	80.38
408.449	79.38
408.673	91.38
408.896	81.38
409.12	95.38
409.344	105.38
409.567	91.38
409.791	89.38
410.014	78.38
410.238	97.38
410.461	91.38
410.685	83.38
410.908	96.38
411.132	83.38
411.355	75.38
411.578	81.38
411.802	91.38
412.025	83.38
412.249	81.38
412.472	98.38
412.695	94.38
412.919	92.38
413.142	102.38
413.365	90.38
413.589	71.38
413.812	91.38
414.035	87.38
414.258	100.38
414.482	93.38
414.705	90.38
414.928	89.38
415.151	86.38
415.374	84.38
415.597	88.38
415.821	81.38
416.044	94.38
416.267	108.38
416.49	94.38
416.713	97.38
416.936	97.38
417.159	84.38
417.382	93.38
417.605	99.38
417.828	90.38
418.051	90.38
418.274	81.38
418.497	90.38
418.72	104.38
418.943	104.38
419.166	101.38
419.389	107.38
419.611	97.38
419.834	100.38
420.057	103.38
420.28	74.38
420.503	103.38
420.726	105.38
420.948	92.38
421.171	84.38
421.394	94.38
421.617	89.38
421.839	82.38
422.062	96.38
422.285	91.38
422.507	97.38
422.73	85.38
422.953	96.38
423.175	87.38
423.398	85.38
423.621	91.38
423.843	92.38
424.066	102.38
424.288	86.38
424.511	91.38
424.733	106.38
424.956	91.38
425.178	95.38
425.401	100.38
425.623	92.38
425.846	105.38
426.068	98.38
426.291	91.38
426.513	107.38
426.735	102.38
426.958	105.38
427.18	95.38
427.402	96.38
427.625	88.38
427.847	86.38
428.069	83.38
428.292	94.38
428.514	89.38
428.736	88.38
428.958	94.38
429.181	93.38
429.403	105.38
429.625	84.38
429.847	92.38
430.069	97.38
430.292	104.38
430.514	88.38
430.736	89.38
430.958	89.38
431.18	91.38
431.402	93.38
431.624	85.38
431.846	91.38
432.068	101.38
432.29	90.38
432.512	90.38
432.734	83.38
432.956	95.38
433.178	98.38
433.4	104.38
433.622	98.38
433.844	87.38
434.066	94.38
434.287	95.38
434.509	81.38
434.731	85.38
434.953	84.38
435.175	97.38
435.397	91.38
435.618	92.38
435.84	87.38
436.062	91.38
436.284	80.38
436.505	91.38
436.727	101.38
436.949	82.38
437.17	93.38
437.392	84.38
437.614	102.38
437.835	85.38
438.057	92.38
438.278	84.38
438.5	94.38
438.721	96.38
438.943	90.38
439.165	83.38
439.386	87.38
439.608	111.38
439.829	105.38
440.05	103.38
440.272	100.38
440.493	97.38
440.715	103.38
440.936	84.38
441.158	102.38
441.379	92.38
441.6	98.38
441.822	103.38
442.043	99.38
442.264	98.38
442.486	104.38
442.707	102.38
442.928	94.38
443.149	97.38
443.371	86.38
443.592	91.38
443.813	105.38
444.034	97.38
444.255	117.38
444.476	89.38
444.698	84.38
444.919	84.38
445.14	208.38
445.361	157.38
445.582	102.38
445.803	97.38
446.024	81.38
446.245	99.38
446.466	111.38
446.687	84.38
446.908	98.38
447.129	102.38
447.35	101.38
447.571	100.38
447.792	98.38
448.013	103.38
448.234	110.38
448.455	88.38
448.675	89.38
448.896	95.38
449.117	105.38
449.338	93.38
449.559	97.38
449.779	93.38
450	102.38
450.221	100.38
450.442	92.38
450.662	78.38
450.883	90.38
451.104	85.38
451.324	92.38
451.545	94.38
451.766	94.38
451.986	91.38
452.207	97.38
452.428	94.38
452.648	103.38
452.869	103.38
453.089	88.38
453.31	93.38
453.53	97.38
453.751	83.38
453.971	90.38
454.192	68.38
454.412	79.38
454.633	88.38
454.853	92.38
455.073	99.38
455.294	83.38
455.514	84.38
455.734	92.38
455.955	83.38
456.175	87.38
456.395	91.38
456.616	88.38
456.836	78.38
457.056	90.38
457.276	76.38
457.497	84.38
457.717	74.38
457.937	88.38
458.157	82.38
458.377	76.38
458.598	80.38
458.818	81.38
459.038	76.38
459.258	87.38
459.478	94.38
459.698	94.38
459.918	88.38
460.138	91.38
460.358	87.38
460.578	84.38
460.798	85.38
461.018	79.38
461.238	97.38
461.458	98.38
461.678	92.38
461.898	81.38
462.118	79.38
462.338	88.38
462.558	92.38
462.777	87.38
462.997	68.38
463.217	76.38
463.437	86.38
463.657	87.38
463.876	81.38
464.096	65.38
464.316	84.38
464.536	97.38
464.755	100.38
464.975	87.38
465.195	95.38
465.414	90.38
465.634	75.38
465.854	95.38
466.073	77.38
466.293	97.38
466.512	99.38
466.732	81.38
466.951	84.38
467.171	94.38
467.391	89.38
467.61	104.38
467.829	95.38
468.049	88.38
468.268	99.38
468.488	95.38
468.707	96.38
468.927	97.38
469.146	93.38
469.365	102.38
469.585	91.38
469.804	91.38
470.023	107.38
470.243	92.38
470.462	99.38
470.681	88.38
470.901	101.38
471.12	102.38
471.339	99.38
471.558	98.38
471.777	84.38
471.997	87.38
472.216	95.38
472.435	99.38
472.654	95.38
472.873	83.38
473.092	87.38
473.311	78.38
473.53	81.38
473.749	87.38
473.968	91.38
474.187	108.38
474.406	95.38
474.625	92.38
474.844	95.38
475.063	86.38
475.282	78.38
475.501	84.38
475.72	90.38
475.939	80.38
476.158	82.38
476.377	94.38
476.596	90.38
476.814	87.38
477.033	94.38
477.252	97.38
477.471	94.38
477.69	95.38
477.908	83.38
478.127	102.38
478.346	88.38
478.564	91.38
478.783	85.38
479.002	98.38
479.22	98.38
479.439	91.38
479.658	105.38
479.876	88.38
480.095	95.38
480.313	97.38
480.532	95.38
480.751	90.38
480.969	87.38
481.188	79.38
481.406	87.38
481.624	91.38
481.843	83.38
482.061	92.38
482.28	81.38
482.498	95.38
482.717	96.38
482.935	88.38
483.153	112.38
483.372	96.38
483.59	91.38
483.808	86.38
484.027	94.38
484.245	91.38
484.463	110.38
484.681	113.38
484.9	90.38
485.118	94.38
485.336	94.38
485.554	92.38
485.772	84.38
485.99	100.38
486.209	83.38
486.427	86.38
486.645	85.38
486.863	90.38
487.081	100.38
487.299	108.38
487.517	88.38
487.735	115.38
487.953	106.38
488.171	112.38
488.389	106.38
488.607	104.38
488.825	91.38
489.043	85.38
489.261	110.38
489.479	94.38
489.696	100.38
489.914	103.38
490.132	95.38
490.35	101.38
490.568	103.38
490.786	107.38
491.003	111.38
491.221	110.38
491.439	113.38
491.657	124.38
491.874	116.38
492.092	141.38
492.31	128.38
492.527	125.38
492.745	122.38
492.963	103.38
493.18	100.38
493.398	120.38
493.615	108.38
493.833	112.38
494.05	122.38
494.268	130.38
494.485	107.38
494.703	106.38
494.92	115.38
495.138	101.38
495.355	118.38
495.573	82.38
495.79	116.38
496.008	115.38
496.225	121.38
496.442	105.38
496.66	113.38
496.877	108.38
497.094	112.38
497.312	100.38
497.529	96.38
497.746	102.38
497.963	96.38
498.181	87.38
498.398	78.38
498.615	95.38
498.832	100.38
499.049	75.38
499.267	95.38
499.484	84.38
499.701	91.38
499.918	92.38
500.135	102.38
500.352	113.38
500.569	89.38
500.786	100.38
501.003	106.38
501.22	89.38
501.437	99.38
501.654	87.38
501.871	79.38
502.088	102.38
502.305	81.38
502.522	87.38
502.739	103.38
502.956	115.38
503.172	91.38
503.389	91.38
503.606	69.38
503.823	87.38
504.04	94.38
504.256	91.38
504.473	87.38
504.69	88.38
504.907	102.38
505.123	91.38
505.34	95.38
505.557	100.38
505.773	94.38
505.99	82.38
506.207	84.38
506.423	84.38
506.64	81.38
506.856	75.38
507.073	87.38
507.289	94.38
507.506	96.38
507.722	82.38
507.939	78.38
508.155	96.38
508.372	77.38
508.588	89.38
508.805	88.38
509.021	89.38
509.238	84.38
509.454	84.38
509.67	84.38
509.887	87.38
510.103	101.38
510.319	91.38
510.536	91.38
510.752	72.38
510.968	80.38
511.184	76.38
511.401	88.38
511.617	84.38
511.833	66.38
512.049	86.38
512.265	99.38
512.481	73.38
512.698	90.38
512.914	80.38
513.13	88.38
513.346	87.38
513.562	90.38
513.778	99.38
513.994	93.38
514.21	87.38
514.426	95.38
514.642	80.38
514.858	86.38
515.074	75.38
515.29	85.38
515.506	94.38
515.721	88.38
515.937	79.38
516.153	72.38
516.369	74.38
516.585	94.38
516.801	79.38
517.016	87.38
517.232	77.38
517.448	86.38
