Data from Location3.07152019.Energy5.Lamp.07192019.3%Agarose_HRD10591_15-18-43-270.txt Node
Date: Fri Jul 19 15:18:43 EDT 2019
User: cochatt
Spectrometer: HR+D1059
Trigger mode: 1
Integration Time (sec): 1.000000E-1
Scans to average: 1
Electric dark correction enabled: true
Nonlinearity correction enabled: false
Boxcar width: 0
XAxis mode: Wavelengths
Number of Pixels in Spectrum: 2048
>>>>>Begin Spectral Data<<<<<
223.165	-25.5
223.4	-25.5
223.635	-25.5
223.869	-21.5
224.104	-4.5
224.338	-15.5
224.573	-19.5
224.808	0.5
225.042	-4.5
225.277	-16.5
225.511	3.5
225.746	3.5
225.98	2.5
226.215	1.5
226.449	15.5
226.683	11.5
226.918	28.5
227.152	40.5
227.387	48.5
227.621	50.5
227.856	19.5
228.09	50.5
228.324	50.5
228.559	55.5
228.793	48.5
229.027	72.5
229.262	72.5
229.496	62.5
229.73	70.5
229.964	69.5
230.199	69.5
230.433	75.5
230.667	73.5
230.901	91.5
231.136	90.5
231.37	79.5
231.604	86.5
231.838	81.5
232.072	75.5
232.306	74.5
232.541	97.5
232.775	103.5
233.009	80.5
233.243	91.5
233.477	88.5
233.711	96.5
233.945	81.5
234.179	83.5
234.413	84.5
234.647	84.5
234.881	82.5
235.115	71.5
235.349	76.5
235.583	88.5
235.817	82.5
236.051	86.5
236.285	73.5
236.519	80.5
236.753	71.5
236.987	86.5
237.221	76.5
237.455	70.5
237.689	78.5
237.922	87.5
238.156	81.5
238.39	84.5
238.624	75.5
238.858	77.5
239.091	69.5
239.325	66.5
239.559	74.5
239.793	74.5
240.027	82.5
240.26	72.5
240.494	84.5
240.728	83.5
240.961	77.5
241.195	81.5
241.429	75.5
241.662	73.5
241.896	82.5
242.13	84.5
242.363	85.5
242.597	73.5
242.83	80.5
243.064	84.5
243.298	80.5
243.531	63.5
243.765	84.5
243.998	68.5
244.232	77.5
244.465	55.5
244.699	87.5
244.932	84.5
245.166	76.5
245.399	82.5
245.633	73.5
245.866	87.5
246.099	76.5
246.333	78.5
246.566	87.5
246.8	73.5
247.033	82.5
247.266	80.5
247.5	87.5
247.733	53.5
247.966	75.5
248.2	80.5
248.433	74.5
248.666	70.5
248.899	78.5
249.133	79.5
249.366	72.5
249.599	84.5
249.832	63.5
250.066	89.5
250.299	74.5
250.532	76.5
250.765	83.5
250.998	73.5
251.231	75.5
251.465	81.5
251.698	79.5
251.931	83.5
252.164	69.5
252.397	78.5
252.63	84.5
252.863	73.5
253.096	87.5
253.329	69.5
253.562	79.5
253.795	80.5
254.028	83.5
254.261	88.5
254.494	61.5
254.727	91.5
254.96	68.5
255.193	83.5
255.426	77.5
255.659	81.5
255.892	84.5
256.124	84.5
256.357	83.5
256.59	80.5
256.823	83.5
257.056	82.5
257.289	86.5
257.521	76.5
257.754	75.5
257.987	97.5
258.22	73.5
258.452	76.5
258.685	80.5
258.918	81.5
259.151	89.5
259.383	85.5
259.616	80.5
259.849	82.5
260.081	89.5
260.314	86.5
260.547	82.5
260.779	82.5
261.012	71.5
261.244	73.5
261.477	90.5
261.71	68.5
261.942	81.5
262.175	83.5
262.407	86.5
262.64	79.5
262.872	78.5
263.105	81.5
263.337	82.5
263.57	95.5
263.802	75.5
264.035	74.5
264.267	82.5
264.499	65.5
264.732	85.5
264.964	85.5
265.197	69.5
265.429	84.5
265.661	79.5
265.894	78.5
266.126	86.5
266.358	80.5
266.591	82.5
266.823	76.5
267.055	80.5
267.287	83.5
267.52	76.5
267.752	91.5
267.984	85.5
268.216	87.5
268.448	95.5
268.681	85.5
268.913	71.5
269.145	74.5
269.377	81.5
269.609	74.5
269.841	71.5
270.073	75.5
270.306	82.5
270.538	82.5
270.77	73.5
271.002	72.5
271.234	94.5
271.466	84.5
271.698	79.5
271.93	79.5
272.162	90.5
272.394	87.5
272.626	86.5
272.858	84.5
273.09	83.5
273.322	71.5
273.553	88.5
273.785	79.5
274.017	79.5
274.249	83.5
274.481	86.5
274.713	83.5
274.945	83.5
275.176	82.5
275.408	86.5
275.64	82.5
275.872	81.5
276.104	80.5
276.335	73.5
276.567	70.5
276.799	84.5
277.031	91.5
277.262	85.5
277.494	89.5
277.726	88.5
277.957	90.5
278.189	83.5
278.421	71.5
278.652	78.5
278.884	89.5
279.115	78.5
279.347	88.5
279.579	80.5
279.81	92.5
280.042	83.5
280.273	82.5
280.505	86.5
280.736	85.5
280.968	90.5
281.199	86.5
281.431	72.5
281.662	85.5
281.894	92.5
282.125	81.5
282.356	72.5
282.588	74.5
282.819	98.5
283.051	80.5
283.282	91.5
283.513	85.5
283.745	72.5
283.976	80.5
284.207	68.5
284.439	87.5
284.67	72.5
284.901	91.5
285.132	82.5
285.364	83.5
285.595	97.5
285.826	83.5
286.057	97.5
286.288	76.5
286.52	81.5
286.751	79.5
286.982	68.5
287.213	84.5
287.444	79.5
287.675	92.5
287.906	86.5
288.138	79.5
288.369	90.5
288.6	99.5
288.831	84.5
289.062	86.5
289.293	79.5
289.524	78.5
289.755	90.5
289.986	98.5
290.217	78.5
290.448	87.5
290.679	72.5
290.91	94.5
291.141	84.5
291.371	80.5
291.602	71.5
291.833	79.5
292.064	86.5
292.295	75.5
292.526	83.5
292.757	88.5
292.987	86.5
293.218	86.5
293.449	86.5
293.68	87.5
293.91	94.5
294.141	97.5
294.372	75.5
294.603	90.5
294.833	79.5
295.064	72.5
295.295	84.5
295.525	90.5
295.756	87.5
295.987	65.5
296.217	81.5
296.448	81.5
296.679	76.5
296.909	89.5
297.14	80.5
297.37	90.5
297.601	82.5
297.831	76.5
298.062	87.5
298.292	96.5
298.523	76.5
298.753	71.5
298.984	82.5
299.214	86.5
299.445	103.5
299.675	80.5
299.905	96.5
300.136	71.5
300.366	74.5
300.597	84.5
300.827	92.5
301.057	85.5
301.288	77.5
301.518	83.5
301.748	86.5
301.979	84.5
302.209	76.5
302.439	76.5
302.669	91.5
302.9	83.5
303.13	81.5
303.36	86.5
303.59	81.5
303.82	80.5
304.051	85.5
304.281	71.5
304.511	89.5
304.741	89.5
304.971	87.5
305.201	83.5
305.431	91.5
305.661	90.5
305.891	92.5
306.121	78.5
306.352	97.5
306.582	79.5
306.812	77.5
307.042	99.5
307.272	81.5
307.502	87.5
307.731	84.5
307.961	92.5
308.191	87.5
308.421	98.5
308.651	77.5
308.881	87.5
309.111	74.5
309.341	87.5
309.571	84.5
309.8	78.5
310.03	83.5
310.26	92.5
310.49	78.5
310.72	80.5
310.949	86.5
311.179	92.5
311.409	92.5
311.639	72.5
311.868	90.5
312.098	88.5
312.328	84.5
312.557	89.5
312.787	82.5
313.017	78.5
313.246	86.5
313.476	85.5
313.706	85.5
313.935	93.5
314.165	95.5
314.394	82.5
314.624	84.5
314.853	88.5
315.083	91.5
315.312	93.5
315.542	83.5
315.771	90.5
316.001	96.5
316.23	80.5
316.46	75.5
316.689	89.5
316.919	85.5
317.148	74.5
317.377	89.5
317.607	85.5
317.836	87.5
318.065	83.5
318.295	94.5
318.524	89.5
318.753	71.5
318.983	83.5
319.212	82.5
319.441	74.5
319.67	94.5
319.9	91.5
320.129	80.5
320.358	86.5
320.587	81.5
320.816	83.5
321.046	77.5
321.275	96.5
321.504	88.5
321.733	75.5
321.962	90.5
322.191	84.5
322.42	92.5
322.649	82.5
322.878	93.5
323.108	89.5
323.337	79.5
323.566	82.5
323.795	85.5
324.024	86.5
324.253	89.5
324.482	94.5
324.71	75.5
324.939	92.5
325.168	81.5
325.397	82.5
325.626	73.5
325.855	82.5
326.084	88.5
326.313	83.5
326.542	75.5
326.77	78.5
326.999	82.5
327.228	88.5
327.457	93.5
327.686	78.5
327.914	66.5
328.143	84.5
328.372	81.5
328.6	65.5
328.829	77.5
329.058	82.5
329.287	74.5
329.515	73.5
329.744	89.5
329.972	88.5
330.201	87.5
330.43	91.5
330.658	76.5
330.887	79.5
331.115	76.5
331.344	77.5
331.572	79.5
331.801	96.5
332.03	90.5
332.258	76.5
332.486	82.5
332.715	77.5
332.943	92.5
333.172	82.5
333.4	86.5
333.629	99.5
333.857	77.5
334.085	88.5
334.314	75.5
334.542	86.5
334.771	87.5
334.999	76.5
335.227	82.5
335.455	81.5
335.684	94.5
335.912	79.5
336.14	76.5
336.369	99.5
336.597	89.5
336.825	77.5
337.053	82.5
337.281	88.5
337.51	80.5
337.738	93.5
337.966	82.5
338.194	82.5
338.422	69.5
338.65	86.5
338.878	95.5
339.106	85.5
339.334	90.5
339.562	74.5
339.79	82.5
340.018	82.5
340.246	83.5
340.474	89.5
340.702	88.5
340.93	83.5
341.158	80.5
341.386	89.5
341.614	75.5
341.842	75.5
342.07	76.5
342.298	80.5
342.526	84.5
342.754	80.5
342.981	93.5
343.209	83.5
343.437	94.5
343.665	69.5
343.893	80.5
344.12	81.5
344.348	83.5
344.576	78.5
344.804	82.5
345.031	79.5
345.259	67.5
345.487	75.5
345.714	103.5
345.942	85.5
346.17	80.5
346.397	75.5
346.625	76.5
346.853	71.5
347.08	96.5
347.308	85.5
347.535	86.5
347.763	83.5
347.99	90.5
348.218	95.5
348.445	88.5
348.673	79.5
348.9	85.5
349.128	72.5
349.355	90.5
349.583	102.5
349.81	95.5
350.037	84.5
350.265	82.5
350.492	84.5
350.72	89.5
350.947	82.5
351.174	77.5
351.402	72.5
351.629	81.5
351.856	86.5
352.083	88.5
352.311	75.5
352.538	84.5
352.765	88.5
352.992	78.5
353.22	67.5
353.447	74.5
353.674	86.5
353.901	84.5
354.128	76.5
354.355	91.5
354.583	73.5
354.81	83.5
355.037	88.5
355.264	77.5
355.491	87.5
355.718	91.5
355.945	82.5
356.172	77.5
356.399	80.5
356.626	76.5
356.853	89.5
357.08	91.5
357.307	83.5
357.534	88.5
357.761	82.5
357.988	82.5
358.215	90.5
358.441	73.5
358.668	87.5
358.895	94.5
359.122	71.5
359.349	60.5
359.576	84.5
359.802	79.5
360.029	86.5
360.256	83.5
360.483	79.5
360.709	96.5
360.936	91.5
361.163	74.5
361.39	87.5
361.616	88.5
361.843	79.5
362.07	88.5
362.296	81.5
362.523	91.5
362.749	92.5
362.976	89.5
363.203	71.5
363.429	91.5
363.656	94.5
363.882	87.5
364.109	90.5
364.335	92.5
364.562	76.5
364.788	89.5
365.015	91.5
365.241	81.5
365.468	86.5
365.694	91.5
365.92	87.5
366.147	88.5
366.373	82.5
366.599	83.5
366.826	88.5
367.052	79.5
367.278	85.5
367.505	92.5
367.731	84.5
367.957	97.5
368.184	79.5
368.41	88.5
368.636	86.5
368.862	76.5
369.089	75.5
369.315	95.5
369.541	90.5
369.767	87.5
369.993	76.5
370.219	78.5
370.445	73.5
370.672	89.5
370.898	90.5
371.124	83.5
371.35	89.5
371.576	94.5
371.802	76.5
372.028	91.5
372.254	75.5
372.48	81.5
372.706	79.5
372.932	100.5
373.158	92.5
373.384	90.5
373.61	84.5
373.835	81.5
374.061	84.5
374.287	78.5
374.513	77.5
374.739	81.5
374.965	88.5
375.191	82.5
375.416	80.5
375.642	85.5
375.868	86.5
376.094	85.5
376.319	67.5
376.545	77.5
376.771	86.5
376.997	88.5
377.222	87.5
377.448	92.5
377.674	90.5
377.899	87.5
378.125	81.5
378.35	95.5
378.576	75.5
378.802	89.5
379.027	79.5
379.253	94.5
379.478	87.5
379.704	94.5
379.929	89.5
380.155	86.5
380.38	91.5
380.606	81.5
380.831	82.5
381.057	85.5
381.282	98.5
381.507	88.5
381.733	99.5
381.958	94.5
382.184	80.5
382.409	83.5
382.634	94.5
382.86	79.5
383.085	86.5
383.31	94.5
383.535	77.5
383.761	82.5
383.986	74.5
384.211	85.5
384.436	92.5
384.662	82.5
384.887	88.5
385.112	102.5
385.337	81.5
385.562	84.5
385.787	80.5
386.013	80.5
386.238	94.5
386.463	67.5
386.688	68.5
386.913	103.5
387.138	87.5
387.363	95.5
387.588	92.5
387.813	92.5
388.038	86.5
388.263	86.5
388.488	87.5
388.713	95.5
388.938	98.5
389.163	85.5
389.387	88.5
389.612	90.5
389.837	89.5
390.062	85.5
390.287	83.5
390.512	82.5
390.736	81.5
390.961	84.5
391.186	93.5
391.411	79.5
391.636	83.5
391.86	81.5
392.085	79.5
392.31	78.5
392.534	88.5
392.759	93.5
392.984	90.5
393.208	100.5
393.433	86.5
393.658	100.5
393.882	100.5
394.107	95.5
394.331	79.5
394.556	94.5
394.78	85.5
395.005	71.5
395.229	100.5
395.454	97.5
395.678	84.5
395.903	105.5
396.127	77.5
396.352	90.5
396.576	73.5
396.801	96.5
397.025	67.5
397.249	82.5
397.474	80.5
397.698	89.5
397.922	81.5
398.147	75.5
398.371	78.5
398.595	92.5
398.82	95.5
399.044	89.5
399.268	79.5
399.492	85.5
399.717	85.5
399.941	76.5
400.165	89.5
400.389	84.5
400.613	103.5
400.837	79.5
401.062	87.5
401.286	83.5
401.51	95.5
401.734	85.5
401.958	79.5
402.182	89.5
402.406	84.5
402.63	107.5
402.854	94.5
403.078	87.5
403.302	86.5
403.526	85.5
403.75	97.5
403.974	93.5
404.198	96.5
404.422	83.5
404.645	85.5
404.869	87.5
405.093	78.5
405.317	84.5
405.541	88.5
405.765	92.5
405.988	88.5
406.212	78.5
406.436	91.5
406.66	87.5
406.883	89.5
407.107	87.5
407.331	89.5
407.555	92.5
407.778	86.5
408.002	91.5
408.226	91.5
408.449	88.5
408.673	78.5
408.896	83.5
409.12	91.5
409.344	92.5
409.567	95.5
409.791	86.5
410.014	100.5
410.238	84.5
410.461	85.5
410.685	102.5
410.908	70.5
411.132	89.5
411.355	100.5
411.578	91.5
411.802	98.5
412.025	87.5
412.249	93.5
412.472	87.5
412.695	71.5
412.919	84.5
413.142	85.5
413.365	84.5
413.589	70.5
413.812	89.5
414.035	83.5
414.258	103.5
414.482	105.5
414.705	103.5
414.928	83.5
415.151	86.5
415.374	89.5
415.597	87.5
415.821	86.5
416.044	95.5
416.267	79.5
416.49	91.5
416.713	96.5
416.936	104.5
417.159	97.5
417.382	82.5
417.605	82.5
417.828	105.5
418.051	105.5
418.274	97.5
418.497	79.5
418.72	102.5
418.943	105.5
419.166	92.5
419.389	93.5
419.611	115.5
419.834	114.5
420.057	94.5
420.28	92.5
420.503	99.5
420.726	104.5
420.948	98.5
421.171	97.5
421.394	89.5
421.617	93.5
421.839	105.5
422.062	86.5
422.285	75.5
422.507	92.5
422.73	83.5
422.953	92.5
423.175	97.5
423.398	99.5
423.621	105.5
423.843	99.5
424.066	85.5
424.288	90.5
424.511	97.5
424.733	101.5
424.956	86.5
425.178	104.5
425.401	89.5
425.623	105.5
425.846	95.5
426.068	104.5
426.291	102.5
426.513	94.5
426.735	104.5
426.958	106.5
427.18	90.5
427.402	101.5
427.625	83.5
427.847	108.5
428.069	84.5
428.292	95.5
428.514	94.5
428.736	80.5
428.958	109.5
429.181	99.5
429.403	89.5
429.625	103.5
429.847	105.5
430.069	94.5
430.292	89.5
430.514	79.5
430.736	86.5
430.958	88.5
431.18	93.5
431.402	82.5
431.624	94.5
431.846	88.5
432.068	88.5
432.29	79.5
432.512	102.5
432.734	86.5
432.956	91.5
433.178	99.5
433.4	115.5
433.622	103.5
433.844	99.5
434.066	97.5
434.287	103.5
434.509	91.5
434.731	77.5
434.953	88.5
435.175	82.5
435.397	95.5
435.618	87.5
435.84	89.5
436.062	93.5
436.284	106.5
436.505	103.5
436.727	102.5
436.949	95.5
437.17	98.5
437.392	100.5
437.614	92.5
437.835	92.5
438.057	89.5
438.278	98.5
438.5	89.5
438.721	99.5
438.943	97.5
439.165	87.5
439.386	95.5
439.608	110.5
439.829	83.5
440.05	100.5
440.272	96.5
440.493	107.5
440.715	118.5
440.936	94.5
441.158	99.5
441.379	116.5
441.6	93.5
441.822	102.5
442.043	92.5
442.264	97.5
442.486	94.5
442.707	96.5
442.928	94.5
443.149	102.5
443.371	107.5
443.592	98.5
443.813	88.5
444.034	76.5
444.255	88.5
444.476	94.5
444.698	105.5
444.919	105.5
445.14	221.5
445.361	148.5
445.582	94.5
445.803	100.5
446.024	83.5
446.245	88.5
446.466	112.5
446.687	102.5
446.908	106.5
447.129	111.5
447.35	100.5
447.571	105.5
447.792	100.5
448.013	100.5
448.234	107.5
448.455	104.5
448.675	107.5
448.896	112.5
449.117	96.5
449.338	83.5
449.559	101.5
449.779	95.5
450	102.5
450.221	111.5
450.442	115.5
450.662	89.5
450.883	91.5
451.104	104.5
451.324	100.5
451.545	88.5
451.766	97.5
451.986	102.5
452.207	81.5
452.428	91.5
452.648	102.5
452.869	88.5
453.089	92.5
453.31	96.5
453.53	112.5
453.751	85.5
453.971	80.5
454.192	85.5
454.412	78.5
454.633	88.5
454.853	94.5
455.073	99.5
455.294	90.5
455.514	103.5
455.734	98.5
455.955	99.5
456.175	95.5
456.395	104.5
456.616	101.5
456.836	82.5
457.056	94.5
457.276	83.5
457.497	102.5
457.717	103.5
457.937	85.5
458.157	88.5
458.377	82.5
458.598	82.5
458.818	93.5
459.038	82.5
459.258	75.5
459.478	98.5
459.698	88.5
459.918	89.5
460.138	94.5
460.358	89.5
460.578	80.5
460.798	90.5
461.018	93.5
461.238	87.5
461.458	93.5
461.678	91.5
461.898	80.5
462.118	95.5
462.338	94.5
462.558	82.5
462.777	105.5
462.997	86.5
463.217	80.5
463.437	102.5
463.657	87.5
463.876	84.5
464.096	100.5
464.316	87.5
464.536	89.5
464.755	104.5
464.975	92.5
465.195	90.5
465.414	82.5
465.634	80.5
465.854	104.5
466.073	79.5
466.293	100.5
466.512	88.5
466.732	94.5
466.951	96.5
467.171	101.5
467.391	92.5
467.61	103.5
467.829	107.5
468.049	95.5
468.268	107.5
468.488	95.5
468.707	89.5
468.927	97.5
469.146	102.5
469.365	99.5
469.585	92.5
469.804	87.5
470.023	91.5
470.243	111.5
470.462	102.5
470.681	111.5
470.901	97.5
471.12	104.5
471.339	101.5
471.558	103.5
471.777	99.5
471.997	100.5
472.216	85.5
472.435	88.5
472.654	100.5
472.873	100.5
473.092	100.5
473.311	87.5
473.53	94.5
473.749	98.5
473.968	98.5
474.187	86.5
474.406	94.5
474.625	85.5
474.844	105.5
475.063	105.5
475.282	79.5
475.501	79.5
475.72	90.5
475.939	91.5
476.158	111.5
476.377	88.5
476.596	84.5
476.814	86.5
477.033	89.5
477.252	102.5
477.471	97.5
477.69	102.5
477.908	111.5
478.127	104.5
478.346	99.5
478.564	92.5
478.783	96.5
479.002	118.5
479.22	97.5
479.439	103.5
479.658	108.5
479.876	89.5
480.095	96.5
480.313	88.5
480.532	111.5
480.751	110.5
480.969	93.5
481.188	73.5
481.406	87.5
481.624	86.5
481.843	82.5
482.061	93.5
482.28	110.5
482.498	87.5
482.717	82.5
482.935	94.5
483.153	102.5
483.372	107.5
483.59	97.5
483.808	102.5
484.027	102.5
484.245	93.5
484.463	97.5
484.681	102.5
484.9	98.5
485.118	90.5
485.336	86.5
485.554	99.5
485.772	85.5
485.99	86.5
486.209	84.5
486.427	93.5
486.645	88.5
486.863	106.5
487.081	94.5
487.299	87.5
487.517	100.5
487.735	108.5
487.953	124.5
488.171	115.5
488.389	115.5
488.607	110.5
488.825	106.5
489.043	103.5
489.261	91.5
489.479	103.5
489.696	98.5
489.914	108.5
490.132	96.5
490.35	96.5
490.568	102.5
490.786	106.5
491.003	98.5
491.221	112.5
491.439	114.5
491.657	121.5
491.874	132.5
492.092	138.5
492.31	134.5
492.527	132.5
492.745	121.5
492.963	130.5
493.18	124.5
493.398	107.5
493.615	110.5
493.833	120.5
494.05	119.5
494.268	104.5
494.485	126.5
494.703	109.5
494.92	110.5
495.138	119.5
495.355	102.5
495.573	104.5
495.79	90.5
496.008	109.5
496.225	112.5
496.442	113.5
496.66	118.5
496.877	115.5
497.094	100.5
497.312	110.5
497.529	118.5
497.746	95.5
497.963	101.5
498.181	94.5
498.398	83.5
498.615	103.5
498.832	98.5
499.049	86.5
499.267	84.5
499.484	96.5
499.701	94.5
499.918	91.5
500.135	94.5
500.352	106.5
500.569	84.5
500.786	99.5
501.003	103.5
501.22	94.5
501.437	105.5
501.654	99.5
501.871	88.5
502.088	92.5
502.305	104.5
502.522	112.5
502.739	100.5
502.956	83.5
503.172	103.5
503.389	96.5
503.606	89.5
503.823	89.5
504.04	104.5
504.256	87.5
504.473	80.5
504.69	96.5
504.907	99.5
505.123	104.5
505.34	101.5
505.557	96.5
505.773	98.5
505.99	103.5
506.207	86.5
506.423	101.5
506.64	103.5
506.856	101.5
507.073	99.5
507.289	85.5
507.506	94.5
507.722	98.5
507.939	104.5
508.155	104.5
508.372	73.5
508.588	90.5
508.805	80.5
509.021	89.5
509.238	95.5
509.454	80.5
509.67	73.5
509.887	92.5
510.103	82.5
510.319	89.5
510.536	83.5
510.752	79.5
510.968	88.5
511.184	85.5
511.401	81.5
511.617	92.5
511.833	89.5
512.049	97.5
512.265	85.5
512.481	82.5
512.698	98.5
512.914	89.5
513.13	95.5
513.346	86.5
513.562	99.5
513.778	95.5
513.994	92.5
514.21	102.5
514.426	71.5
514.642	92.5
514.858	88.5
515.074	82.5
515.29	104.5
515.506	98.5
515.721	96.5
515.937	87.5
516.153	85.5
516.369	80.5
516.585	92.5
516.801	76.5
517.016	76.5
517.232	92.5
517.448	69.5
517.664	82.5
517.879	83.5
518.095	74.5
518.311	89.5
518.527	110.5
518.742	82.5
518.958	112.5
519.173	87.5
519.389	98.5
519.605	82.5
519.82	75.5
520.036	107.5
520.251	90.5
520.467	97.5
520.682	96.5
520.898	83.5
521.113	94.5
521.329	79.5
521.544	82.5
521.76	90.5
521.975	63.5
522.19	80.5
522.406	89.5
522.621	95.5
522.836	96.5
523.052	107.5
523.267	94.5
523.482	75.5
523.698	95.5
523.913	83.5
524.128	89.5
524.343	106.5
524.559	82.5
524.774	86.5
524.989	101.5
525.204	117.5
525.419	97.5
525.634	84.5
525.849	94.5
526.064	81.5
526.28	94.5
526.495	83.5
526.71	89.5
526.925	94.5
527.14	84.5
527.355	82.5
527.57	85.5
527.785	83.5
527.999	92.5
528.214	98.5
528.429	94.5
528.644	105.5
528.859	104.5
529.074	110.5
529.289	116.5
529.503	115.5
529.718	106.5
529.933	87.5
530.148	89.5
530.363	84.5
530.577	70.5
530.792	86.5
531.007	88.5
531.221	99.5
531.436	76.5
531.651	75.5
531.865	78.5
532.08	85.5
532.295	88.5
532.509	90.5
532.724	94.5
532.938	91.5
533.153	83.5
533.367	90.5
533.582	92.5
533.796	100.5
534.011	100.5
534.225	81.5
534.44	78.5
534.654	75.5
534.868	91.5
535.083	95.5
535.297	87.5
535.511	93.5
535.726	94.5
535.94	98.5
536.154	86.5
536.369	82.5
536.583	90.5
536.797	98.5
