Data from Location3.07152019.Energy5.Lamp.07192019.3%Agarose_HRD10591_15-17-31-269.txt Node
Date: Fri Jul 19 15:17:31 EDT 2019
User: cochatt
Spectrometer: HR+D1059
Trigger mode: 1
Integration Time (sec): 1.000000E-1
Scans to average: 1
Electric dark correction enabled: true
Nonlinearity correction enabled: false
Boxcar width: 0
XAxis mode: Wavelengths
Number of Pixels in Spectrum: 2048
>>>>>Begin Spectral Data<<<<<
223.165	-7.06
223.4	-7.06
223.635	-7.06
223.869	-17.06
224.104	-4.06
224.338	-11.06
224.573	-7.06
224.808	-8.06
225.042	-7.06
225.277	2.94
225.511	-9.06
225.746	-4.06
225.98	14.94
226.215	-5.06
226.449	-2.06
226.683	14.94
226.918	17.94
227.152	30.94
227.387	20.94
227.621	38.94
227.856	40.94
228.09	58.94
228.324	54.94
228.559	65.94
228.793	62.94
229.027	54.94
229.262	66.94
229.496	60.94
229.73	71.94
229.964	66.94
230.199	75.94
230.433	74.94
230.667	90.94
230.901	89.94
231.136	79.94
231.37	74.94
231.604	69.94
231.838	78.94
232.072	82.94
232.306	88.94
232.541	87.94
232.775	84.94
233.009	80.94
233.243	78.94
233.477	79.94
233.711	82.94
233.945	76.94
234.179	96.94
234.413	91.94
234.647	93.94
234.881	83.94
235.115	81.94
235.349	83.94
235.583	81.94
235.817	73.94
236.051	76.94
236.285	88.94
236.519	80.94
236.753	88.94
236.987	79.94
237.221	83.94
237.455	89.94
237.689	76.94
237.922	89.94
238.156	79.94
238.39	59.94
238.624	72.94
238.858	74.94
239.091	75.94
239.325	91.94
239.559	86.94
239.793	78.94
240.027	88.94
240.26	62.94
240.494	84.94
240.728	80.94
240.961	68.94
241.195	75.94
241.429	86.94
241.662	74.94
241.896	87.94
242.13	70.94
242.363	66.94
242.597	82.94
242.83	80.94
243.064	71.94
243.298	66.94
243.531	79.94
243.765	83.94
243.998	74.94
244.232	76.94
244.465	84.94
244.699	82.94
244.932	85.94
245.166	74.94
245.399	82.94
245.633	80.94
245.866	68.94
246.099	100.94
246.333	83.94
246.566	79.94
246.8	73.94
247.033	86.94
247.266	68.94
247.5	80.94
247.733	81.94
247.966	87.94
248.2	71.94
248.433	73.94
248.666	69.94
248.899	93.94
249.133	72.94
249.366	86.94
249.599	77.94
249.832	80.94
250.066	76.94
250.299	75.94
250.532	81.94
250.765	87.94
250.998	77.94
251.231	74.94
251.465	85.94
251.698	76.94
251.931	68.94
252.164	88.94
252.397	84.94
252.63	70.94
252.863	81.94
253.096	82.94
253.329	86.94
253.562	83.94
253.795	94.94
254.028	81.94
254.261	86.94
254.494	61.94
254.727	83.94
254.96	72.94
255.193	70.94
255.426	79.94
255.659	75.94
255.892	67.94
256.124	74.94
256.357	82.94
256.59	59.94
256.823	92.94
257.056	74.94
257.289	80.94
257.521	80.94
257.754	82.94
257.987	89.94
258.22	81.94
258.452	75.94
258.685	81.94
258.918	75.94
259.151	77.94
259.383	77.94
259.616	77.94
259.849	76.94
260.081	89.94
260.314	75.94
260.547	84.94
260.779	74.94
261.012	80.94
261.244	80.94
261.477	81.94
261.71	68.94
261.942	68.94
262.175	86.94
262.407	81.94
262.64	72.94
262.872	76.94
263.105	96.94
263.337	80.94
263.57	65.94
263.802	89.94
264.035	79.94
264.267	86.94
264.499	75.94
264.732	86.94
264.964	83.94
265.197	70.94
265.429	82.94
265.661	74.94
265.894	75.94
266.126	74.94
266.358	64.94
266.591	86.94
266.823	71.94
267.055	88.94
267.287	88.94
267.52	73.94
267.752	68.94
267.984	93.94
268.216	97.94
268.448	80.94
268.681	95.94
268.913	74.94
269.145	79.94
269.377	80.94
269.609	94.94
269.841	89.94
270.073	106.94
270.306	90.94
270.538	94.94
270.77	84.94
271.002	92.94
271.234	70.94
271.466	78.94
271.698	78.94
271.93	83.94
272.162	86.94
272.394	87.94
272.626	79.94
272.858	83.94
273.09	84.94
273.322	79.94
273.553	75.94
273.785	100.94
274.017	77.94
274.249	87.94
274.481	84.94
274.713	90.94
274.945	80.94
275.176	69.94
275.408	73.94
275.64	70.94
275.872	80.94
276.104	72.94
276.335	78.94
276.567	84.94
276.799	104.94
277.031	74.94
277.262	75.94
277.494	66.94
277.726	88.94
277.957	83.94
278.189	75.94
278.421	80.94
278.652	91.94
278.884	82.94
279.115	83.94
279.347	84.94
279.579	75.94
279.81	83.94
280.042	86.94
280.273	79.94
280.505	79.94
280.736	82.94
280.968	69.94
281.199	99.94
281.431	81.94
281.662	83.94
281.894	81.94
282.125	88.94
282.356	80.94
282.588	89.94
282.819	78.94
283.051	91.94
283.282	100.94
283.513	93.94
283.745	83.94
283.976	91.94
284.207	82.94
284.439	64.94
284.67	84.94
284.901	88.94
285.132	78.94
285.364	81.94
285.595	95.94
285.826	92.94
286.057	99.94
286.288	91.94
286.52	88.94
286.751	91.94
286.982	87.94
287.213	72.94
287.444	84.94
287.675	99.94
287.906	84.94
288.138	102.94
288.369	85.94
288.6	78.94
288.831	86.94
289.062	86.94
289.293	99.94
289.524	86.94
289.755	89.94
289.986	97.94
290.217	97.94
290.448	61.94
290.679	85.94
290.91	82.94
291.141	68.94
291.371	85.94
291.602	76.94
291.833	88.94
292.064	80.94
292.295	65.94
292.526	77.94
292.757	78.94
292.987	90.94
293.218	88.94
293.449	90.94
293.68	81.94
293.91	80.94
294.141	75.94
294.372	90.94
294.603	97.94
294.833	89.94
295.064	98.94
295.295	95.94
295.525	87.94
295.756	97.94
295.987	84.94
296.217	87.94
296.448	74.94
296.679	85.94
296.909	92.94
297.14	72.94
297.37	87.94
297.601	80.94
297.831	91.94
298.062	86.94
298.292	103.94
298.523	84.94
298.753	83.94
298.984	76.94
299.214	82.94
299.445	86.94
299.675	87.94
299.905	89.94
300.136	93.94
300.366	78.94
300.597	66.94
300.827	84.94
301.057	83.94
301.288	82.94
301.518	102.94
301.748	83.94
301.979	89.94
302.209	90.94
302.439	86.94
302.669	85.94
302.9	82.94
303.13	81.94
303.36	82.94
303.59	83.94
303.82	74.94
304.051	70.94
304.281	81.94
304.511	94.94
304.741	76.94
304.971	88.94
305.201	94.94
305.431	88.94
305.661	78.94
305.891	86.94
306.121	75.94
306.352	78.94
306.582	95.94
306.812	75.94
307.042	82.94
307.272	92.94
307.502	80.94
307.731	94.94
307.961	93.94
308.191	79.94
308.421	83.94
308.651	78.94
308.881	98.94
309.111	69.94
309.341	86.94
309.571	74.94
309.8	78.94
310.03	73.94
310.26	94.94
310.49	79.94
310.72	76.94
310.949	82.94
311.179	91.94
311.409	64.94
311.639	78.94
311.868	83.94
312.098	84.94
312.328	83.94
312.557	89.94
312.787	91.94
313.017	94.94
313.246	82.94
313.476	86.94
313.706	93.94
313.935	97.94
314.165	65.94
314.394	84.94
314.624	88.94
314.853	91.94
315.083	79.94
315.312	90.94
315.542	93.94
315.771	85.94
316.001	97.94
316.23	76.94
316.46	94.94
316.689	81.94
316.919	95.94
317.148	90.94
317.377	91.94
317.607	105.94
317.836	76.94
318.065	81.94
318.295	78.94
318.524	75.94
318.753	80.94
318.983	83.94
319.212	79.94
319.441	79.94
319.67	88.94
319.9	89.94
320.129	76.94
320.358	86.94
320.587	89.94
320.816	70.94
321.046	88.94
321.275	93.94
321.504	84.94
321.733	84.94
321.962	96.94
322.191	79.94
322.42	89.94
322.649	83.94
322.878	83.94
323.108	90.94
323.337	77.94
323.566	98.94
323.795	87.94
324.024	89.94
324.253	74.94
324.482	98.94
324.71	81.94
324.939	88.94
325.168	94.94
325.397	74.94
325.626	79.94
325.855	72.94
326.084	99.94
326.313	83.94
326.542	92.94
326.77	91.94
326.999	82.94
327.228	81.94
327.457	74.94
327.686	77.94
327.914	92.94
328.143	82.94
328.372	91.94
328.6	67.94
328.829	85.94
329.058	77.94
329.287	81.94
329.515	96.94
329.744	83.94
329.972	85.94
330.201	94.94
330.43	94.94
330.658	91.94
330.887	68.94
331.115	88.94
331.344	87.94
331.572	92.94
331.801	83.94
332.03	81.94
332.258	93.94
332.486	71.94
332.715	84.94
332.943	84.94
333.172	95.94
333.4	97.94
333.629	85.94
333.857	81.94
334.085	76.94
334.314	86.94
334.542	83.94
334.771	90.94
334.999	81.94
335.227	86.94
335.455	87.94
335.684	90.94
335.912	98.94
336.14	83.94
336.369	72.94
336.597	77.94
336.825	97.94
337.053	77.94
337.281	80.94
337.51	86.94
337.738	100.94
337.966	90.94
338.194	89.94
338.422	83.94
338.65	83.94
338.878	103.94
339.106	72.94
339.334	98.94
339.562	86.94
339.79	96.94
340.018	86.94
340.246	82.94
340.474	82.94
340.702	83.94
340.93	89.94
341.158	81.94
341.386	82.94
341.614	74.94
341.842	84.94
342.07	96.94
342.298	92.94
342.526	89.94
342.754	84.94
342.981	81.94
343.209	92.94
343.437	95.94
343.665	76.94
343.893	89.94
344.12	90.94
344.348	82.94
344.576	89.94
344.804	82.94
345.031	94.94
345.259	81.94
345.487	77.94
345.714	84.94
345.942	85.94
346.17	74.94
346.397	85.94
346.625	85.94
346.853	82.94
347.08	81.94
347.308	91.94
347.535	79.94
347.763	72.94
347.99	74.94
348.218	83.94
348.445	93.94
348.673	83.94
348.9	75.94
349.128	97.94
349.355	85.94
349.583	80.94
349.81	87.94
350.037	89.94
350.265	89.94
350.492	93.94
350.72	83.94
350.947	91.94
351.174	85.94
351.402	79.94
351.629	85.94
351.856	80.94
352.083	85.94
352.311	77.94
352.538	89.94
352.765	76.94
352.992	92.94
353.22	86.94
353.447	78.94
353.674	92.94
353.901	94.94
354.128	89.94
354.355	81.94
354.583	88.94
354.81	84.94
355.037	91.94
355.264	76.94
355.491	84.94
355.718	89.94
355.945	83.94
356.172	84.94
356.399	90.94
356.626	84.94
356.853	77.94
357.08	79.94
357.307	71.94
357.534	80.94
357.761	101.94
357.988	101.94
358.215	89.94
358.441	66.94
358.668	84.94
358.895	92.94
359.122	88.94
359.349	89.94
359.576	80.94
359.802	70.94
360.029	75.94
360.256	83.94
360.483	69.94
360.709	81.94
360.936	83.94
361.163	104.94
361.39	81.94
361.616	90.94
361.843	82.94
362.07	82.94
362.296	89.94
362.523	86.94
362.749	87.94
362.976	86.94
363.203	79.94
363.429	85.94
363.656	100.94
363.882	71.94
364.109	78.94
364.335	91.94
364.562	84.94
364.788	88.94
365.015	98.94
365.241	96.94
365.468	96.94
365.694	97.94
365.92	83.94
366.147	86.94
366.373	84.94
366.599	77.94
366.826	91.94
367.052	80.94
367.278	85.94
367.505	71.94
367.731	98.94
367.957	83.94
368.184	84.94
368.41	90.94
368.636	87.94
368.862	64.94
369.089	100.94
369.315	86.94
369.541	90.94
369.767	92.94
369.993	92.94
370.219	92.94
370.445	84.94
370.672	86.94
370.898	83.94
371.124	76.94
371.35	86.94
371.576	71.94
371.802	83.94
372.028	87.94
372.254	80.94
372.48	79.94
372.706	91.94
372.932	85.94
373.158	74.94
373.384	85.94
373.61	77.94
373.835	88.94
374.061	76.94
374.287	80.94
374.513	80.94
374.739	76.94
374.965	71.94
375.191	94.94
375.416	92.94
375.642	85.94
375.868	92.94
376.094	74.94
376.319	84.94
376.545	89.94
376.771	100.94
376.997	74.94
377.222	88.94
377.448	92.94
377.674	80.94
377.899	87.94
378.125	83.94
378.35	92.94
378.576	86.94
378.802	82.94
379.027	92.94
379.253	86.94
379.478	78.94
379.704	65.94
379.929	71.94
380.155	80.94
380.38	75.94
380.606	72.94
380.831	83.94
381.057	103.94
381.282	82.94
381.507	91.94
381.733	89.94
381.958	83.94
382.184	76.94
382.409	72.94
382.634	91.94
382.86	83.94
383.085	77.94
383.31	86.94
383.535	75.94
383.761	85.94
383.986	92.94
384.211	95.94
384.436	86.94
384.662	98.94
384.887	94.94
385.112	89.94
385.337	74.94
385.562	83.94
385.787	91.94
386.013	94.94
386.238	83.94
386.463	80.94
386.688	85.94
386.913	79.94
387.138	82.94
387.363	84.94
387.588	94.94
387.813	88.94
388.038	83.94
388.263	88.94
388.488	82.94
388.713	94.94
388.938	83.94
389.163	87.94
389.387	84.94
389.612	92.94
389.837	81.94
390.062	95.94
390.287	89.94
390.512	88.94
390.736	80.94
390.961	85.94
391.186	95.94
391.411	86.94
391.636	75.94
391.86	84.94
392.085	86.94
392.31	99.94
392.534	82.94
392.759	72.94
392.984	93.94
393.208	85.94
393.433	75.94
393.658	82.94
393.882	88.94
394.107	91.94
394.331	103.94
394.556	81.94
394.78	89.94
395.005	84.94
395.229	91.94
395.454	100.94
395.678	74.94
395.903	82.94
396.127	94.94
396.352	100.94
396.576	88.94
396.801	97.94
397.025	75.94
397.249	92.94
397.474	93.94
397.698	89.94
397.922	108.94
398.147	92.94
398.371	81.94
398.595	89.94
398.82	88.94
399.044	80.94
399.268	74.94
399.492	79.94
399.717	84.94
399.941	108.94
400.165	94.94
400.389	86.94
400.613	95.94
400.837	98.94
401.062	83.94
401.286	83.94
401.51	92.94
401.734	83.94
401.958	92.94
402.182	93.94
402.406	86.94
402.63	86.94
402.854	100.94
403.078	99.94
403.302	96.94
403.526	96.94
403.75	89.94
403.974	88.94
404.198	101.94
404.422	104.94
404.645	98.94
404.869	98.94
405.093	96.94
405.317	103.94
405.541	99.94
405.765	100.94
405.988	74.94
406.212	82.94
406.436	84.94
406.66	104.94
406.883	91.94
407.107	96.94
407.331	86.94
407.555	103.94
407.778	95.94
408.002	86.94
408.226	80.94
408.449	101.94
408.673	92.94
408.896	92.94
409.12	91.94
409.344	107.94
409.567	95.94
409.791	94.94
410.014	82.94
410.238	91.94
410.461	83.94
410.685	90.94
410.908	101.94
411.132	106.94
411.355	95.94
411.578	100.94
411.802	89.94
412.025	98.94
412.249	85.94
412.472	91.94
412.695	98.94
412.919	86.94
413.142	100.94
413.365	96.94
413.589	92.94
413.812	89.94
414.035	101.94
414.258	96.94
414.482	97.94
414.705	94.94
414.928	99.94
415.151	98.94
415.374	98.94
415.597	99.94
415.821	107.94
416.044	104.94
416.267	99.94
416.49	100.94
416.713	96.94
416.936	89.94
417.159	90.94
417.382	88.94
417.605	87.94
417.828	99.94
418.051	85.94
418.274	100.94
418.497	105.94
418.72	105.94
418.943	85.94
419.166	79.94
419.389	94.94
419.611	98.94
419.834	103.94
420.057	97.94
420.28	93.94
420.503	86.94
420.726	95.94
420.948	105.94
421.171	99.94
421.394	81.94
421.617	90.94
421.839	93.94
422.062	94.94
422.285	85.94
422.507	90.94
422.73	101.94
422.953	89.94
423.175	91.94
423.398	92.94
423.621	102.94
423.843	99.94
424.066	80.94
424.288	113.94
424.511	108.94
424.733	101.94
424.956	89.94
425.178	111.94
425.401	98.94
425.623	83.94
425.846	93.94
426.068	94.94
426.291	85.94
426.513	99.94
426.735	96.94
426.958	102.94
427.18	93.94
427.402	92.94
427.625	90.94
427.847	82.94
428.069	77.94
428.292	91.94
428.514	82.94
428.736	107.94
428.958	92.94
429.181	102.94
429.403	87.94
429.625	86.94
429.847	82.94
430.069	87.94
430.292	99.94
430.514	88.94
430.736	101.94
430.958	89.94
431.18	114.94
431.402	90.94
431.624	95.94
431.846	79.94
432.068	82.94
432.29	71.94
432.512	89.94
432.734	83.94
432.956	100.94
433.178	93.94
433.4	91.94
433.622	95.94
433.844	95.94
434.066	74.94
434.287	78.94
434.509	94.94
434.731	95.94
434.953	81.94
435.175	87.94
435.397	99.94
435.618	90.94
435.84	98.94
436.062	83.94
436.284	87.94
436.505	90.94
436.727	82.94
436.949	96.94
437.17	89.94
437.392	92.94
437.614	91.94
437.835	91.94
438.057	99.94
438.278	76.94
438.5	87.94
438.721	111.94
438.943	90.94
439.165	95.94
439.386	96.94
439.608	99.94
439.829	102.94
440.05	107.94
440.272	98.94
440.493	100.94
440.715	98.94
440.936	98.94
441.158	100.94
441.379	100.94
441.6	92.94
441.822	106.94
442.043	101.94
442.264	89.94
442.486	108.94
442.707	100.94
442.928	87.94
443.149	92.94
443.371	95.94
443.592	91.94
443.813	96.94
444.034	95.94
444.255	103.94
444.476	112.94
444.698	91.94
444.919	89.94
445.14	216.94
445.361	162.94
445.582	92.94
445.803	98.94
446.024	91.94
446.245	100.94
446.466	108.94
446.687	97.94
446.908	96.94
447.129	96.94
447.35	86.94
447.571	102.94
447.792	115.94
448.013	96.94
448.234	98.94
448.455	96.94
448.675	101.94
448.896	90.94
449.117	103.94
449.338	89.94
449.559	98.94
449.779	94.94
450	93.94
450.221	88.94
450.442	113.94
450.662	86.94
450.883	89.94
451.104	95.94
451.324	86.94
451.545	108.94
451.766	96.94
451.986	92.94
452.207	104.94
452.428	99.94
452.648	85.94
452.869	104.94
453.089	95.94
453.31	68.94
453.53	86.94
453.751	80.94
453.971	85.94
454.192	84.94
454.412	81.94
454.633	107.94
454.853	91.94
455.073	84.94
455.294	89.94
455.514	91.94
455.734	96.94
455.955	94.94
456.175	99.94
456.395	82.94
456.616	85.94
456.836	97.94
457.056	93.94
457.276	105.94
457.497	95.94
457.717	88.94
457.937	83.94
458.157	86.94
458.377	87.94
458.598	80.94
458.818	85.94
459.038	78.94
459.258	80.94
459.478	88.94
459.698	83.94
459.918	87.94
460.138	83.94
460.358	94.94
460.578	76.94
460.798	95.94
461.018	99.94
461.238	106.94
461.458	100.94
461.678	93.94
461.898	83.94
462.118	83.94
462.338	78.94
462.558	107.94
462.777	96.94
462.997	79.94
463.217	89.94
463.437	90.94
463.657	87.94
463.876	77.94
464.096	91.94
464.316	86.94
464.536	87.94
464.755	91.94
464.975	97.94
465.195	87.94
465.414	89.94
465.634	96.94
465.854	93.94
466.073	90.94
466.293	93.94
466.512	96.94
466.732	102.94
466.951	95.94
467.171	94.94
467.391	103.94
467.61	94.94
467.829	96.94
468.049	85.94
468.268	89.94
468.488	79.94
468.707	86.94
468.927	76.94
469.146	92.94
469.365	94.94
469.585	91.94
469.804	107.94
470.023	114.94
470.243	98.94
470.462	96.94
470.681	105.94
470.901	98.94
471.12	97.94
471.339	105.94
471.558	91.94
471.777	90.94
471.997	92.94
472.216	98.94
472.435	90.94
472.654	86.94
472.873	99.94
473.092	84.94
473.311	90.94
473.53	90.94
473.749	95.94
473.968	86.94
474.187	86.94
474.406	96.94
474.625	95.94
474.844	90.94
475.063	95.94
475.282	100.94
475.501	90.94
475.72	93.94
475.939	93.94
476.158	96.94
476.377	99.94
476.596	75.94
476.814	101.94
477.033	92.94
477.252	91.94
477.471	91.94
477.69	96.94
477.908	101.94
478.127	107.94
478.346	107.94
478.564	102.94
478.783	99.94
479.002	87.94
479.22	91.94
479.439	100.94
479.658	97.94
479.876	76.94
480.095	88.94
480.313	76.94
480.532	87.94
480.751	95.94
480.969	81.94
481.188	85.94
481.406	92.94
481.624	88.94
481.843	92.94
482.061	85.94
482.28	95.94
482.498	98.94
482.717	91.94
482.935	91.94
483.153	86.94
483.372	91.94
483.59	90.94
483.808	94.94
484.027	97.94
484.245	95.94
484.463	100.94
484.681	110.94
484.9	84.94
485.118	93.94
485.336	83.94
485.554	93.94
485.772	88.94
485.99	89.94
486.209	88.94
486.427	88.94
486.645	85.94
486.863	100.94
487.081	93.94
487.299	91.94
487.517	101.94
487.735	101.94
487.953	112.94
488.171	104.94
488.389	108.94
488.607	98.94
488.825	99.94
489.043	96.94
489.261	98.94
489.479	95.94
489.696	95.94
489.914	104.94
490.132	113.94
490.35	109.94
490.568	106.94
490.786	94.94
491.003	106.94
491.221	105.94
491.439	110.94
491.657	111.94
491.874	120.94
492.092	118.94
492.31	122.94
492.527	133.94
492.745	125.94
492.963	111.94
493.18	105.94
493.398	108.94
493.615	112.94
493.833	124.94
494.05	116.94
494.268	107.94
494.485	101.94
494.703	124.94
494.92	99.94
495.138	106.94
495.355	108.94
495.573	117.94
495.79	117.94
496.008	113.94
496.225	95.94
496.442	98.94
496.66	127.94
496.877	102.94
497.094	92.94
497.312	101.94
497.529	84.94
497.746	98.94
497.963	94.94
498.181	91.94
498.398	94.94
498.615	82.94
498.832	96.94
499.049	100.94
499.267	96.94
499.484	89.94
499.701	104.94
499.918	94.94
500.135	95.94
500.352	104.94
500.569	106.94
500.786	98.94
501.003	96.94
501.22	95.94
501.437	108.94
501.654	102.94
501.871	102.94
502.088	106.94
502.305	95.94
502.522	98.94
502.739	92.94
502.956	105.94
503.172	96.94
503.389	83.94
503.606	86.94
503.823	102.94
504.04	90.94
504.256	105.94
504.473	97.94
504.69	80.94
504.907	88.94
505.123	95.94
505.34	75.94
505.557	103.94
505.773	99.94
505.99	92.94
506.207	82.94
506.423	92.94
506.64	94.94
506.856	88.94
507.073	92.94
507.289	103.94
507.506	90.94
507.722	83.94
507.939	79.94
508.155	92.94
508.372	84.94
508.588	74.94
508.805	75.94
509.021	91.94
509.238	85.94
509.454	90.94
509.67	85.94
509.887	91.94
510.103	86.94
510.319	102.94
510.536	96.94
510.752	94.94
510.968	83.94
511.184	83.94
511.401	74.94
511.617	83.94
511.833	94.94
512.049	81.94
512.265	77.94
512.481	78.94
512.698	89.94
512.914	93.94
513.13	91.94
513.346	90.94
513.562	88.94
513.778	85.94
513.994	90.94
514.21	95.94
514.426	90.94
514.642	95.94
514.858	79.94
515.074	93.94
515.29	94.94
515.506	91.94
515.721	95.94
515.937	86.94
516.153	85.94
516.369	84.94
516.585	87.94
516.801	80.94
517.016	86.94
517.232	89.94
517.448	85.94
