Data from Location3.07152019.Energy5.Lamp.07192019.3%Agarose_HRD10591_15-19-19-270.txt Node
Date: Fri Jul 19 15:19:19 EDT 2019
User: cochatt
Spectrometer: HR+D1059
Trigger mode: 1
Integration Time (sec): 1.000000E-1
Scans to average: 1
Electric dark correction enabled: true
Nonlinearity correction enabled: false
Boxcar width: 0
XAxis mode: Wavelengths
Number of Pixels in Spectrum: 2048
>>>>>Begin Spectral Data<<<<<
223.165	-11.44
223.4	-11.44
223.635	-11.44
223.869	-23.44
224.104	-15.44
224.338	-19.44
224.573	-21.44
224.808	-13.44
225.042	-9.44
225.277	8.56
225.511	5.56
225.746	-4.44
225.98	3.56
226.215	17.56
226.449	20.56
226.683	6.56
226.918	22.56
227.152	33.56
227.387	21.56
227.621	22.56
227.856	30.56
228.09	49.56
228.324	59.56
228.559	54.56
228.793	61.56
229.027	69.56
229.262	67.56
229.496	74.56
229.73	72.56
229.964	66.56
230.199	80.56
230.433	83.56
230.667	81.56
230.901	82.56
231.136	76.56
231.37	74.56
231.604	79.56
231.838	80.56
232.072	82.56
232.306	73.56
232.541	79.56
232.775	86.56
233.009	79.56
233.243	82.56
233.477	64.56
233.711	80.56
233.945	93.56
234.179	86.56
234.413	95.56
234.647	87.56
234.881	86.56
235.115	71.56
235.349	75.56
235.583	75.56
235.817	82.56
236.051	65.56
236.285	69.56
236.519	69.56
236.753	75.56
236.987	73.56
237.221	83.56
237.455	72.56
237.689	71.56
237.922	76.56
238.156	73.56
238.39	70.56
238.624	74.56
238.858	65.56
239.091	88.56
239.325	95.56
239.559	74.56
239.793	84.56
240.027	86.56
240.26	70.56
240.494	81.56
240.728	65.56
240.961	69.56
241.195	79.56
241.429	71.56
241.662	86.56
241.896	87.56
242.13	78.56
242.363	70.56
242.597	73.56
242.83	76.56
243.064	72.56
243.298	79.56
243.531	81.56
243.765	67.56
243.998	75.56
244.232	86.56
244.465	70.56
244.699	75.56
244.932	81.56
245.166	68.56
245.399	71.56
245.633	76.56
245.866	70.56
246.099	80.56
246.333	64.56
246.566	66.56
246.8	71.56
247.033	91.56
247.266	61.56
247.5	91.56
247.733	72.56
247.966	79.56
248.2	78.56
248.433	74.56
248.666	90.56
248.899	87.56
249.133	85.56
249.366	86.56
249.599	91.56
249.832	78.56
250.066	71.56
250.299	91.56
250.532	68.56
250.765	81.56
250.998	87.56
251.231	75.56
251.465	79.56
251.698	80.56
251.931	66.56
252.164	81.56
252.397	90.56
252.63	75.56
252.863	87.56
253.096	73.56
253.329	70.56
253.562	81.56
253.795	86.56
254.028	79.56
254.261	72.56
254.494	78.56
254.727	81.56
254.96	78.56
255.193	75.56
255.426	80.56
255.659	76.56
255.892	93.56
256.124	78.56
256.357	69.56
256.59	83.56
256.823	68.56
257.056	70.56
257.289	87.56
257.521	89.56
257.754	85.56
257.987	86.56
258.22	75.56
258.452	68.56
258.685	88.56
258.918	80.56
259.151	87.56
259.383	96.56
259.616	91.56
259.849	83.56
260.081	96.56
260.314	77.56
260.547	82.56
260.779	82.56
261.012	74.56
261.244	79.56
261.477	101.56
261.71	96.56
261.942	84.56
262.175	87.56
262.407	77.56
262.64	88.56
262.872	94.56
263.105	83.56
263.337	82.56
263.57	88.56
263.802	73.56
264.035	90.56
264.267	92.56
264.499	82.56
264.732	91.56
264.964	83.56
265.197	67.56
265.429	86.56
265.661	81.56
265.894	83.56
266.126	74.56
266.358	74.56
266.591	82.56
266.823	88.56
267.055	80.56
267.287	87.56
267.52	87.56
267.752	89.56
267.984	71.56
268.216	69.56
268.448	76.56
268.681	78.56
268.913	73.56
269.145	81.56
269.377	78.56
269.609	84.56
269.841	91.56
270.073	81.56
270.306	97.56
270.538	85.56
270.77	77.56
271.002	80.56
271.234	78.56
271.466	85.56
271.698	75.56
271.93	82.56
272.162	89.56
272.394	78.56
272.626	79.56
272.858	92.56
273.09	90.56
273.322	95.56
273.553	74.56
273.785	79.56
274.017	86.56
274.249	82.56
274.481	93.56
274.713	99.56
274.945	84.56
275.176	87.56
275.408	89.56
275.64	82.56
275.872	80.56
276.104	86.56
276.335	86.56
276.567	78.56
276.799	78.56
277.031	72.56
277.262	71.56
277.494	90.56
277.726	80.56
277.957	67.56
278.189	69.56
278.421	76.56
278.652	86.56
278.884	90.56
279.115	72.56
279.347	79.56
279.579	84.56
279.81	90.56
280.042	78.56
280.273	95.56
280.505	94.56
280.736	85.56
280.968	73.56
281.199	87.56
281.431	82.56
281.662	77.56
281.894	95.56
282.125	85.56
282.356	95.56
282.588	88.56
282.819	96.56
283.051	96.56
283.282	83.56
283.513	87.56
283.745	83.56
283.976	87.56
284.207	84.56
284.439	93.56
284.67	79.56
284.901	82.56
285.132	75.56
285.364	82.56
285.595	94.56
285.826	77.56
286.057	88.56
286.288	88.56
286.52	75.56
286.751	103.56
286.982	91.56
287.213	79.56
287.444	89.56
287.675	92.56
287.906	92.56
288.138	87.56
288.369	81.56
288.6	97.56
288.831	83.56
289.062	94.56
289.293	86.56
289.524	88.56
289.755	100.56
289.986	96.56
290.217	94.56
290.448	91.56
290.679	86.56
290.91	82.56
291.141	78.56
291.371	83.56
291.602	86.56
291.833	83.56
292.064	87.56
292.295	96.56
292.526	91.56
292.757	88.56
292.987	71.56
293.218	82.56
293.449	88.56
293.68	82.56
293.91	65.56
294.141	88.56
294.372	91.56
294.603	87.56
294.833	70.56
295.064	81.56
295.295	107.56
295.525	87.56
295.756	86.56
295.987	67.56
296.217	82.56
296.448	86.56
296.679	77.56
296.909	102.56
297.14	72.56
297.37	90.56
297.601	78.56
297.831	89.56
298.062	87.56
298.292	86.56
298.523	88.56
298.753	81.56
298.984	86.56
299.214	80.56
299.445	85.56
299.675	95.56
299.905	79.56
300.136	81.56
300.366	76.56
300.597	88.56
300.827	93.56
301.057	83.56
301.288	76.56
301.518	81.56
301.748	85.56
301.979	82.56
302.209	70.56
302.439	76.56
302.669	82.56
302.9	84.56
303.13	85.56
303.36	74.56
303.59	91.56
303.82	79.56
304.051	78.56
304.281	82.56
304.511	97.56
304.741	81.56
304.971	67.56
305.201	71.56
305.431	82.56
305.661	94.56
305.891	79.56
306.121	87.56
306.352	87.56
306.582	79.56
306.812	89.56
307.042	81.56
307.272	80.56
307.502	92.56
307.731	76.56
307.961	95.56
308.191	89.56
308.421	96.56
308.651	85.56
308.881	82.56
309.111	83.56
309.341	89.56
309.571	80.56
309.8	78.56
310.03	75.56
310.26	76.56
310.49	79.56
310.72	81.56
310.949	97.56
311.179	94.56
311.409	85.56
311.639	81.56
311.868	86.56
312.098	95.56
312.328	100.56
312.557	96.56
312.787	78.56
313.017	87.56
313.246	100.56
313.476	72.56
313.706	81.56
313.935	77.56
314.165	74.56
314.394	90.56
314.624	89.56
314.853	70.56
315.083	81.56
315.312	91.56
315.542	76.56
315.771	80.56
316.001	79.56
316.23	89.56
316.46	75.56
316.689	93.56
316.919	80.56
317.148	99.56
317.377	82.56
317.607	76.56
317.836	75.56
318.065	71.56
318.295	76.56
318.524	91.56
318.753	83.56
318.983	95.56
319.212	83.56
319.441	73.56
319.67	99.56
319.9	81.56
320.129	87.56
320.358	79.56
320.587	83.56
320.816	89.56
321.046	97.56
321.275	88.56
321.504	86.56
321.733	74.56
321.962	85.56
322.191	80.56
322.42	96.56
322.649	81.56
322.878	75.56
323.108	73.56
323.337	77.56
323.566	93.56
323.795	96.56
324.024	93.56
324.253	89.56
324.482	80.56
324.71	83.56
324.939	90.56
325.168	80.56
325.397	96.56
325.626	83.56
325.855	72.56
326.084	69.56
326.313	89.56
326.542	76.56
326.77	81.56
326.999	91.56
327.228	75.56
327.457	81.56
327.686	80.56
327.914	81.56
328.143	73.56
328.372	85.56
328.6	82.56
328.829	83.56
329.058	57.56
329.287	73.56
329.515	84.56
329.744	89.56
329.972	86.56
330.201	105.56
330.43	97.56
330.658	91.56
330.887	79.56
331.115	95.56
331.344	90.56
331.572	82.56
331.801	91.56
332.03	92.56
332.258	91.56
332.486	95.56
332.715	83.56
332.943	86.56
333.172	101.56
333.4	98.56
333.629	89.56
333.857	66.56
334.085	80.56
334.314	90.56
334.542	79.56
334.771	86.56
334.999	86.56
335.227	81.56
335.455	76.56
335.684	87.56
335.912	80.56
336.14	84.56
336.369	81.56
336.597	82.56
336.825	79.56
337.053	67.56
337.281	73.56
337.51	76.56
337.738	83.56
337.966	89.56
338.194	83.56
338.422	73.56
338.65	72.56
338.878	81.56
339.106	93.56
339.334	95.56
339.562	82.56
339.79	73.56
340.018	86.56
340.246	84.56
340.474	77.56
340.702	90.56
340.93	93.56
341.158	77.56
341.386	90.56
341.614	75.56
341.842	79.56
342.07	75.56
342.298	91.56
342.526	94.56
342.754	85.56
342.981	70.56
343.209	75.56
343.437	81.56
343.665	69.56
343.893	84.56
344.12	91.56
344.348	84.56
344.576	77.56
344.804	81.56
345.031	75.56
345.259	85.56
345.487	92.56
345.714	97.56
345.942	92.56
346.17	77.56
346.397	95.56
346.625	80.56
346.853	95.56
347.08	75.56
347.308	82.56
347.535	98.56
347.763	87.56
347.99	71.56
348.218	82.56
348.445	80.56
348.673	95.56
348.9	91.56
349.128	95.56
349.355	85.56
349.583	85.56
349.81	81.56
350.037	87.56
350.265	94.56
350.492	86.56
350.72	75.56
350.947	79.56
351.174	86.56
351.402	81.56
351.629	81.56
351.856	72.56
352.083	84.56
352.311	90.56
352.538	85.56
352.765	75.56
352.992	82.56
353.22	77.56
353.447	89.56
353.674	87.56
353.901	92.56
354.128	90.56
354.355	81.56
354.583	91.56
354.81	99.56
355.037	94.56
355.264	85.56
355.491	82.56
355.718	88.56
355.945	76.56
356.172	93.56
356.399	80.56
356.626	85.56
356.853	80.56
357.08	82.56
357.307	91.56
357.534	80.56
357.761	85.56
357.988	99.56
358.215	82.56
358.441	68.56
358.668	72.56
358.895	86.56
359.122	71.56
359.349	76.56
359.576	91.56
359.802	88.56
360.029	88.56
360.256	96.56
360.483	90.56
360.709	77.56
360.936	83.56
361.163	74.56
361.39	78.56
361.616	83.56
361.843	87.56
362.07	84.56
362.296	90.56
362.523	88.56
362.749	89.56
362.976	83.56
363.203	95.56
363.429	79.56
363.656	89.56
363.882	74.56
364.109	86.56
364.335	82.56
364.562	74.56
364.788	78.56
365.015	86.56
365.241	79.56
365.468	84.56
365.694	68.56
365.92	67.56
366.147	74.56
366.373	78.56
366.599	72.56
366.826	76.56
367.052	96.56
367.278	83.56
367.505	84.56
367.731	79.56
367.957	78.56
368.184	80.56
368.41	63.56
368.636	83.56
368.862	87.56
369.089	92.56
369.315	76.56
369.541	82.56
369.767	85.56
369.993	81.56
370.219	81.56
370.445	82.56
370.672	80.56
370.898	84.56
371.124	81.56
371.35	78.56
371.576	90.56
371.802	90.56
372.028	91.56
372.254	84.56
372.48	71.56
372.706	96.56
372.932	75.56
373.158	86.56
373.384	92.56
373.61	86.56
373.835	87.56
374.061	78.56
374.287	81.56
374.513	85.56
374.739	78.56
374.965	73.56
375.191	90.56
375.416	80.56
375.642	80.56
375.868	85.56
376.094	86.56
376.319	89.56
376.545	79.56
376.771	75.56
376.997	76.56
377.222	97.56
377.448	71.56
377.674	79.56
377.899	88.56
378.125	81.56
378.35	88.56
378.576	85.56
378.802	83.56
379.027	86.56
379.253	87.56
379.478	71.56
379.704	86.56
379.929	80.56
380.155	93.56
380.38	74.56
380.606	92.56
380.831	76.56
381.057	95.56
381.282	94.56
381.507	99.56
381.733	93.56
381.958	82.56
382.184	78.56
382.409	75.56
382.634	86.56
382.86	88.56
383.085	96.56
383.31	77.56
383.535	82.56
383.761	71.56
383.986	83.56
384.211	69.56
384.436	79.56
384.662	68.56
384.887	85.56
385.112	85.56
385.337	84.56
385.562	86.56
385.787	79.56
386.013	86.56
386.238	90.56
386.463	104.56
386.688	88.56
386.913	85.56
387.138	83.56
387.363	92.56
387.588	88.56
387.813	87.56
388.038	92.56
388.263	81.56
388.488	99.56
388.713	102.56
388.938	87.56
389.163	86.56
389.387	87.56
389.612	79.56
389.837	83.56
390.062	84.56
390.287	89.56
390.512	74.56
390.736	83.56
390.961	85.56
391.186	90.56
391.411	88.56
391.636	94.56
391.86	83.56
392.085	74.56
392.31	78.56
392.534	86.56
392.759	97.56
392.984	85.56
393.208	95.56
393.433	74.56
393.658	80.56
393.882	91.56
394.107	87.56
394.331	87.56
394.556	65.56
394.78	80.56
395.005	77.56
395.229	86.56
395.454	90.56
395.678	89.56
395.903	94.56
396.127	86.56
396.352	87.56
396.576	90.56
396.801	83.56
397.025	81.56
397.249	96.56
397.474	98.56
397.698	74.56
397.922	89.56
398.147	85.56
398.371	89.56
398.595	88.56
398.82	86.56
399.044	79.56
399.268	80.56
399.492	83.56
399.717	75.56
399.941	84.56
400.165	77.56
400.389	106.56
400.613	94.56
400.837	81.56
401.062	96.56
401.286	83.56
401.51	85.56
401.734	84.56
401.958	83.56
402.182	86.56
402.406	87.56
402.63	78.56
402.854	74.56
403.078	91.56
403.302	78.56
403.526	90.56
403.75	90.56
403.974	95.56
404.198	98.56
404.422	88.56
404.645	90.56
404.869	108.56
405.093	96.56
405.317	97.56
405.541	101.56
405.765	97.56
405.988	85.56
406.212	95.56
406.436	90.56
406.66	79.56
406.883	82.56
407.107	92.56
407.331	93.56
407.555	90.56
407.778	78.56
408.002	94.56
408.226	88.56
408.449	80.56
408.673	91.56
408.896	87.56
409.12	93.56
409.344	97.56
409.567	90.56
409.791	92.56
410.014	90.56
410.238	88.56
410.461	94.56
410.685	95.56
410.908	85.56
411.132	107.56
411.355	97.56
411.578	94.56
411.802	89.56
412.025	84.56
412.249	89.56
412.472	94.56
412.695	81.56
412.919	81.56
413.142	94.56
413.365	91.56
413.589	109.56
413.812	79.56
414.035	86.56
414.258	94.56
414.482	82.56
414.705	86.56
414.928	81.56
415.151	78.56
415.374	99.56
415.597	81.56
415.821	93.56
416.044	99.56
416.267	77.56
416.49	70.56
416.713	88.56
416.936	80.56
417.159	105.56
417.382	83.56
417.605	91.56
417.828	94.56
418.051	75.56
418.274	102.56
418.497	103.56
418.72	90.56
418.943	86.56
419.166	91.56
419.389	94.56
419.611	90.56
419.834	93.56
420.057	99.56
420.28	86.56
420.503	86.56
420.726	98.56
420.948	94.56
421.171	99.56
421.394	99.56
421.617	84.56
421.839	79.56
422.062	89.56
422.285	97.56
422.507	86.56
422.73	75.56
422.953	92.56
423.175	77.56
423.398	89.56
423.621	93.56
423.843	90.56
424.066	99.56
424.288	98.56
424.511	95.56
424.733	96.56
424.956	95.56
425.178	96.56
425.401	95.56
425.623	89.56
425.846	86.56
426.068	89.56
426.291	90.56
426.513	94.56
426.735	102.56
426.958	101.56
427.18	99.56
427.402	108.56
427.625	93.56
427.847	103.56
428.069	89.56
428.292	96.56
428.514	92.56
428.736	93.56
428.958	86.56
429.181	89.56
429.403	82.56
429.625	102.56
429.847	99.56
430.069	97.56
430.292	92.56
430.514	106.56
430.736	78.56
430.958	94.56
431.18	85.56
431.402	96.56
431.624	82.56
431.846	84.56
432.068	66.56
432.29	87.56
432.512	91.56
432.734	92.56
432.956	88.56
433.178	97.56
433.4	89.56
433.622	107.56
433.844	117.56
434.066	95.56
434.287	87.56
434.509	81.56
434.731	81.56
434.953	83.56
435.175	89.56
435.397	92.56
435.618	101.56
435.84	85.56
436.062	80.56
436.284	89.56
436.505	94.56
436.727	105.56
436.949	96.56
437.17	79.56
437.392	89.56
437.614	77.56
437.835	87.56
438.057	91.56
438.278	94.56
438.5	98.56
438.721	100.56
438.943	95.56
439.165	81.56
439.386	84.56
439.608	117.56
439.829	98.56
440.05	93.56
440.272	96.56
440.493	99.56
440.715	105.56
440.936	83.56
441.158	95.56
441.379	91.56
441.6	86.56
441.822	104.56
442.043	98.56
442.264	98.56
442.486	90.56
442.707	95.56
442.928	106.56
443.149	103.56
443.371	107.56
443.592	98.56
443.813	104.56
444.034	97.56
444.255	114.56
444.476	78.56
444.698	87.56
444.919	108.56
445.14	214.56
445.361	173.56
445.582	102.56
445.803	101.56
446.024	98.56
446.245	96.56
446.466	108.56
446.687	90.56
446.908	95.56
447.129	110.56
447.35	107.56
447.571	93.56
447.792	103.56
448.013	91.56
448.234	101.56
448.455	102.56
448.675	94.56
448.896	102.56
449.117	115.56
449.338	100.56
449.559	107.56
449.779	86.56
450	90.56
450.221	98.56
450.442	99.56
450.662	78.56
450.883	91.56
451.104	95.56
451.324	100.56
451.545	90.56
451.766	79.56
451.986	95.56
452.207	96.56
452.428	95.56
452.648	89.56
452.869	94.56
453.089	95.56
453.31	84.56
453.53	77.56
453.751	97.56
453.971	94.56
454.192	94.56
454.412	94.56
454.633	85.56
454.853	97.56
455.073	75.56
455.294	90.56
455.514	97.56
455.734	72.56
455.955	97.56
456.175	101.56
456.395	85.56
456.616	98.56
456.836	101.56
457.056	86.56
457.276	82.56
457.497	90.56
457.717	96.56
457.937	89.56
458.157	75.56
458.377	84.56
458.598	80.56
458.818	86.56
459.038	86.56
459.258	73.56
459.478	71.56
459.698	97.56
459.918	85.56
460.138	88.56
460.358	88.56
460.578	89.56
460.798	82.56
461.018	78.56
461.238	91.56
461.458	90.56
461.678	84.56
461.898	94.56
462.118	94.56
462.338	87.56
462.558	86.56
462.777	81.56
462.997	77.56
463.217	105.56
463.437	78.56
463.657	92.56
463.876	87.56
464.096	94.56
464.316	76.56
464.536	89.56
464.755	82.56
464.975	70.56
465.195	84.56
465.414	96.56
465.634	90.56
465.854	91.56
466.073	91.56
466.293	101.56
466.512	96.56
466.732	93.56
466.951	88.56
467.171	87.56
467.391	102.56
467.61	111.56
467.829	109.56
468.049	100.56
468.268	97.56
468.488	98.56
468.707	106.56
468.927	96.56
469.146	94.56
469.365	89.56
469.585	110.56
469.804	93.56
470.023	98.56
470.243	92.56
470.462	102.56
470.681	85.56
470.901	85.56
471.12	106.56
471.339	82.56
471.558	96.56
471.777	86.56
471.997	95.56
472.216	95.56
472.435	89.56
472.654	97.56
472.873	97.56
473.092	106.56
473.311	88.56
473.53	76.56
473.749	96.56
473.968	92.56
474.187	99.56
474.406	98.56
474.625	91.56
474.844	103.56
475.063	96.56
475.282	88.56
475.501	90.56
475.72	90.56
475.939	88.56
476.158	92.56
476.377	86.56
476.596	96.56
476.814	105.56
477.033	92.56
477.252	88.56
477.471	92.56
477.69	84.56
477.908	100.56
478.127	101.56
478.346	104.56
478.564	95.56
478.783	91.56
479.002	90.56
479.22	101.56
479.439	84.56
479.658	103.56
479.876	99.56
480.095	72.56
480.313	76.56
480.532	95.56
480.751	99.56
480.969	83.56
481.188	82.56
481.406	70.56
481.624	95.56
481.843	97.56
482.061	91.56
482.28	95.56
482.498	84.56
482.717	83.56
482.935	96.56
483.153	87.56
483.372	90.56
483.59	101.56
483.808	90.56
484.027	84.56
484.245	87.56
484.463	92.56
484.681	117.56
484.9	90.56
485.118	107.56
485.336	94.56
485.554	88.56
485.772	78.56
485.99	97.56
486.209	96.56
486.427	77.56
486.645	91.56
486.863	90.56
487.081	99.56
487.299	97.56
487.517	89.56
487.735	105.56
487.953	111.56
488.171	105.56
488.389	98.56
488.607	96.56
488.825	102.56
489.043	107.56
489.261	85.56
489.479	96.56
489.696	101.56
489.914	90.56
490.132	87.56
490.35	98.56
490.568	101.56
490.786	94.56
491.003	95.56
491.221	124.56
491.439	104.56
491.657	124.56
491.874	118.56
492.092	118.56
492.31	126.56
492.527	122.56
492.745	122.56
492.963	104.56
493.18	105.56
493.398	118.56
493.615	112.56
493.833	112.56
494.05	112.56
494.268	112.56
494.485	111.56
494.703	111.56
494.92	100.56
495.138	104.56
495.355	106.56
495.573	114.56
495.79	110.56
496.008	120.56
496.225	116.56
496.442	104.56
496.66	112.56
496.877	102.56
497.094	112.56
497.312	104.56
497.529	119.56
497.746	95.56
497.963	98.56
498.181	89.56
498.398	89.56
498.615	90.56
498.832	83.56
499.049	85.56
499.267	102.56
499.484	84.56
499.701	97.56
499.918	91.56
500.135	93.56
500.352	91.56
500.569	109.56
500.786	102.56
501.003	117.56
501.22	99.56
501.437	105.56
501.654	107.56
501.871	104.56
502.088	98.56
502.305	88.56
502.522	92.56
502.739	111.56
502.956	98.56
503.172	103.56
503.389	94.56
503.606	84.56
503.823	84.56
504.04	103.56
504.256	90.56
504.473	86.56
504.69	90.56
504.907	89.56
505.123	86.56
505.34	100.56
505.557	104.56
505.773	94.56
505.99	79.56
506.207	82.56
506.423	84.56
506.64	99.56
506.856	84.56
507.073	83.56
507.289	102.56
507.506	94.56
507.722	113.56
507.939	79.56
508.155	87.56
508.372	90.56
508.588	89.56
508.805	91.56
509.021	83.56
509.238	81.56
509.454	91.56
509.67	84.56
509.887	91.56
510.103	86.56
510.319	77.56
510.536	85.56
510.752	85.56
510.968	85.56
511.184	84.56
511.401	81.56
511.617	86.56
511.833	83.56
512.049	86.56
512.265	80.56
512.481	79.56
512.698	89.56
512.914	79.56
513.13	88.56
513.346	76.56
513.562	84.56
513.778	80.56
513.994	85.56
514.21	84.56
514.426	96.56
514.642	88.56
514.858	75.56
515.074	75.56
515.29	99.56
515.506	99.56
515.721	75.56
515.937	87.56
516.153	89.56
516.369	97.56
516.585	89.56
516.801	80.56
517.016	73.56
517.232	86.56
517.448	95.56
517.664	84.56
