Data from Location3.07152019.Energy5.Lamp.07192019.3%Agarose_HRD10591_15-16-38-270.txt Node
Date: Fri Jul 19 15:16:38 EDT 2019
User: cochatt
Spectrometer: HR+D1059
Trigger mode: 1
Integration Time (sec): 1.000000E-1
Scans to average: 1
Electric dark correction enabled: true
Nonlinearity correction enabled: false
Boxcar width: 0
XAxis mode: Wavelengths
Number of Pixels in Spectrum: 2048
>>>>>Begin Spectral Data<<<<<
223.165	-12.56
223.4	-12.56
223.635	-12.56
223.869	-7.56
224.104	-17.56
224.338	-18.56
224.573	-5.56
224.808	-9.56
225.042	-12.56
225.277	-0.56
225.511	-7.56
225.746	-9.56
225.98	-7.56
226.215	10.44
226.449	-7.56
226.683	29.44
226.918	28.44
227.152	48.44
227.387	36.44
227.621	41.44
227.856	40.44
228.09	37.44
228.324	52.44
228.559	52.44
228.793	65.44
229.027	68.44
229.262	69.44
229.496	56.44
229.73	55.44
229.964	65.44
230.199	69.44
230.433	76.44
230.667	83.44
230.901	77.44
231.136	82.44
231.37	82.44
231.604	77.44
231.838	81.44
232.072	85.44
232.306	78.44
232.541	77.44
232.775	99.44
233.009	76.44
233.243	83.44
233.477	73.44
233.711	76.44
233.945	77.44
234.179	87.44
234.413	95.44
234.647	89.44
234.881	90.44
235.115	95.44
235.349	80.44
235.583	77.44
235.817	81.44
236.051	89.44
236.285	86.44
236.519	75.44
236.753	88.44
236.987	71.44
237.221	80.44
237.455	73.44
237.689	81.44
237.922	86.44
238.156	72.44
238.39	70.44
238.624	67.44
238.858	80.44
239.091	73.44
239.325	83.44
239.559	79.44
239.793	78.44
240.027	75.44
240.26	72.44
240.494	74.44
240.728	81.44
240.961	72.44
241.195	68.44
241.429	72.44
241.662	72.44
241.896	88.44
242.13	69.44
242.363	63.44
242.597	79.44
242.83	85.44
243.064	79.44
243.298	76.44
243.531	81.44
243.765	83.44
243.998	81.44
244.232	76.44
244.465	78.44
244.699	82.44
244.932	77.44
245.166	78.44
245.399	91.44
245.633	76.44
245.866	72.44
246.099	87.44
246.333	92.44
246.566	87.44
246.8	74.44
247.033	81.44
247.266	92.44
247.5	84.44
247.733	95.44
247.966	73.44
248.2	84.44
248.433	88.44
248.666	88.44
248.899	83.44
249.133	73.44
249.366	86.44
249.599	81.44
249.832	77.44
250.066	79.44
250.299	75.44
250.532	87.44
250.765	76.44
250.998	92.44
251.231	89.44
251.465	81.44
251.698	87.44
251.931	91.44
252.164	81.44
252.397	67.44
252.63	84.44
252.863	85.44
253.096	81.44
253.329	88.44
253.562	72.44
253.795	89.44
254.028	98.44
254.261	85.44
254.494	92.44
254.727	95.44
254.96	77.44
255.193	76.44
255.426	75.44
255.659	68.44
255.892	72.44
256.124	72.44
256.357	86.44
256.59	71.44
256.823	75.44
257.056	79.44
257.289	74.44
257.521	81.44
257.754	81.44
257.987	85.44
258.22	84.44
258.452	87.44
258.685	77.44
258.918	90.44
259.151	86.44
259.383	73.44
259.616	91.44
259.849	84.44
260.081	91.44
260.314	87.44
260.547	80.44
260.779	77.44
261.012	74.44
261.244	86.44
261.477	77.44
261.71	81.44
261.942	82.44
262.175	74.44
262.407	85.44
262.64	74.44
262.872	65.44
263.105	71.44
263.337	87.44
263.57	83.44
263.802	79.44
264.035	90.44
264.267	82.44
264.499	77.44
264.732	82.44
264.964	83.44
265.197	86.44
265.429	76.44
265.661	77.44
265.894	98.44
266.126	85.44
266.358	78.44
266.591	81.44
266.823	88.44
267.055	94.44
267.287	78.44
267.52	63.44
267.752	77.44
267.984	81.44
268.216	86.44
268.448	86.44
268.681	79.44
268.913	78.44
269.145	81.44
269.377	90.44
269.609	78.44
269.841	74.44
270.073	89.44
270.306	82.44
270.538	84.44
270.77	85.44
271.002	84.44
271.234	92.44
271.466	84.44
271.698	97.44
271.93	80.44
272.162	81.44
272.394	80.44
272.626	77.44
272.858	85.44
273.09	84.44
273.322	82.44
273.553	87.44
273.785	73.44
274.017	87.44
274.249	85.44
274.481	83.44
274.713	93.44
274.945	86.44
275.176	84.44
275.408	93.44
275.64	80.44
275.872	93.44
276.104	80.44
276.335	89.44
276.567	91.44
276.799	85.44
277.031	80.44
277.262	77.44
277.494	85.44
277.726	90.44
277.957	97.44
278.189	79.44
278.421	90.44
278.652	91.44
278.884	83.44
279.115	72.44
279.347	74.44
279.579	82.44
279.81	83.44
280.042	87.44
280.273	92.44
280.505	71.44
280.736	86.44
280.968	83.44
281.199	89.44
281.431	86.44
281.662	97.44
281.894	93.44
282.125	82.44
282.356	84.44
282.588	81.44
282.819	90.44
283.051	89.44
283.282	94.44
283.513	98.44
283.745	103.44
283.976	80.44
284.207	86.44
284.439	83.44
284.67	89.44
284.901	88.44
285.132	81.44
285.364	75.44
285.595	80.44
285.826	83.44
286.057	89.44
286.288	87.44
286.52	97.44
286.751	81.44
286.982	60.44
287.213	77.44
287.444	89.44
287.675	83.44
287.906	89.44
288.138	85.44
288.369	94.44
288.6	75.44
288.831	88.44
289.062	95.44
289.293	82.44
289.524	84.44
289.755	95.44
289.986	92.44
290.217	89.44
290.448	83.44
290.679	99.44
290.91	89.44
291.141	93.44
291.371	79.44
291.602	83.44
291.833	97.44
292.064	85.44
292.295	91.44
292.526	87.44
292.757	87.44
292.987	90.44
293.218	87.44
293.449	83.44
293.68	91.44
293.91	88.44
294.141	79.44
294.372	81.44
294.603	89.44
294.833	79.44
295.064	86.44
295.295	89.44
295.525	82.44
295.756	88.44
295.987	95.44
296.217	100.44
296.448	97.44
296.679	81.44
296.909	90.44
297.14	91.44
297.37	97.44
297.601	84.44
297.831	91.44
298.062	101.44
298.292	96.44
298.523	82.44
298.753	76.44
298.984	88.44
299.214	80.44
299.445	97.44
299.675	91.44
299.905	83.44
300.136	83.44
300.366	91.44
300.597	91.44
300.827	97.44
301.057	89.44
301.288	88.44
301.518	99.44
301.748	77.44
301.979	78.44
302.209	90.44
302.439	84.44
302.669	75.44
302.9	83.44
303.13	82.44
303.36	89.44
303.59	90.44
303.82	86.44
304.051	71.44
304.281	86.44
304.511	95.44
304.741	103.44
304.971	77.44
305.201	95.44
305.431	85.44
305.661	77.44
305.891	77.44
306.121	99.44
306.352	83.44
306.582	80.44
306.812	92.44
307.042	79.44
307.272	86.44
307.502	89.44
307.731	84.44
307.961	94.44
308.191	100.44
308.421	87.44
308.651	95.44
308.881	94.44
309.111	78.44
309.341	87.44
309.571	95.44
309.8	84.44
310.03	69.44
310.26	81.44
310.49	82.44
310.72	88.44
310.949	87.44
311.179	82.44
311.409	88.44
311.639	79.44
311.868	77.44
312.098	84.44
312.328	79.44
312.557	104.44
312.787	90.44
313.017	89.44
313.246	88.44
313.476	88.44
313.706	85.44
313.935	86.44
314.165	88.44
314.394	84.44
314.624	85.44
314.853	83.44
315.083	77.44
315.312	70.44
315.542	77.44
315.771	86.44
316.001	88.44
316.23	90.44
316.46	94.44
316.689	89.44
316.919	95.44
317.148	97.44
317.377	95.44
317.607	79.44
317.836	86.44
318.065	107.44
318.295	80.44
318.524	70.44
318.753	89.44
318.983	92.44
319.212	85.44
319.441	90.44
319.67	87.44
319.9	83.44
320.129	85.44
320.358	91.44
320.587	83.44
320.816	90.44
321.046	87.44
321.275	94.44
321.504	74.44
321.733	73.44
321.962	91.44
322.191	87.44
322.42	78.44
322.649	77.44
322.878	84.44
323.108	89.44
323.337	92.44
323.566	78.44
323.795	88.44
324.024	92.44
324.253	94.44
324.482	91.44
324.71	88.44
324.939	90.44
325.168	91.44
325.397	94.44
325.626	84.44
325.855	77.44
326.084	91.44
326.313	86.44
326.542	81.44
326.77	84.44
326.999	72.44
327.228	88.44
327.457	87.44
327.686	92.44
327.914	101.44
328.143	81.44
328.372	86.44
328.6	92.44
328.829	92.44
329.058	95.44
329.287	101.44
329.515	93.44
329.744	87.44
329.972	89.44
330.201	87.44
330.43	80.44
330.658	80.44
330.887	84.44
331.115	92.44
331.344	87.44
331.572	77.44
331.801	83.44
332.03	84.44
332.258	81.44
332.486	86.44
332.715	86.44
332.943	69.44
333.172	75.44
333.4	90.44
333.629	94.44
333.857	92.44
334.085	81.44
334.314	100.44
334.542	78.44
334.771	74.44
334.999	82.44
335.227	90.44
335.455	78.44
335.684	78.44
335.912	83.44
336.14	84.44
336.369	87.44
336.597	89.44
336.825	73.44
337.053	91.44
337.281	90.44
337.51	85.44
337.738	97.44
337.966	92.44
338.194	83.44
338.422	99.44
338.65	97.44
338.878	84.44
339.106	90.44
339.334	92.44
339.562	81.44
339.79	91.44
340.018	76.44
340.246	83.44
340.474	96.44
340.702	99.44
340.93	87.44
341.158	86.44
341.386	94.44
341.614	77.44
341.842	98.44
342.07	84.44
342.298	83.44
342.526	99.44
342.754	91.44
342.981	91.44
343.209	95.44
343.437	88.44
343.665	87.44
343.893	89.44
344.12	97.44
344.348	101.44
344.576	101.44
344.804	83.44
345.031	92.44
345.259	84.44
345.487	91.44
345.714	91.44
345.942	89.44
346.17	76.44
346.397	83.44
346.625	81.44
346.853	98.44
347.08	87.44
347.308	100.44
347.535	97.44
347.763	80.44
347.99	78.44
348.218	76.44
348.445	92.44
348.673	84.44
348.9	68.44
349.128	93.44
349.355	84.44
349.583	101.44
349.81	81.44
350.037	95.44
350.265	95.44
350.492	78.44
350.72	86.44
350.947	88.44
351.174	84.44
351.402	86.44
351.629	87.44
351.856	76.44
352.083	91.44
352.311	96.44
352.538	78.44
352.765	76.44
352.992	95.44
353.22	91.44
353.447	84.44
353.674	84.44
353.901	76.44
354.128	90.44
354.355	87.44
354.583	95.44
354.81	83.44
355.037	81.44
355.264	87.44
355.491	86.44
355.718	86.44
355.945	88.44
356.172	99.44
356.399	95.44
356.626	74.44
356.853	103.44
357.08	98.44
357.307	90.44
357.534	86.44
357.761	76.44
357.988	89.44
358.215	81.44
358.441	78.44
358.668	87.44
358.895	84.44
359.122	75.44
359.349	89.44
359.576	87.44
359.802	78.44
360.029	80.44
360.256	93.44
360.483	87.44
360.709	89.44
360.936	105.44
361.163	86.44
361.39	77.44
361.616	107.44
361.843	80.44
362.07	84.44
362.296	90.44
362.523	87.44
362.749	97.44
362.976	82.44
363.203	96.44
363.429	101.44
363.656	93.44
363.882	100.44
364.109	72.44
364.335	82.44
364.562	70.44
364.788	87.44
365.015	85.44
365.241	98.44
365.468	84.44
365.694	89.44
365.92	84.44
366.147	82.44
366.373	101.44
366.599	92.44
366.826	98.44
367.052	81.44
367.278	104.44
367.505	83.44
367.731	86.44
367.957	86.44
368.184	84.44
368.41	87.44
368.636	85.44
368.862	82.44
369.089	94.44
369.315	78.44
369.541	82.44
369.767	97.44
369.993	85.44
370.219	97.44
370.445	80.44
370.672	86.44
370.898	87.44
371.124	93.44
371.35	71.44
371.576	88.44
371.802	90.44
372.028	75.44
372.254	90.44
372.48	83.44
372.706	83.44
372.932	80.44
373.158	95.44
373.384	97.44
373.61	84.44
373.835	99.44
374.061	82.44
374.287	73.44
374.513	79.44
374.739	87.44
374.965	77.44
375.191	85.44
375.416	93.44
375.642	92.44
375.868	101.44
376.094	89.44
376.319	83.44
376.545	89.44
376.771	100.44
376.997	87.44
377.222	75.44
377.448	70.44
377.674	88.44
377.899	100.44
378.125	91.44
378.35	74.44
378.576	99.44
378.802	91.44
379.027	84.44
379.253	82.44
379.478	87.44
379.704	84.44
379.929	99.44
380.155	89.44
380.38	79.44
380.606	84.44
380.831	83.44
381.057	93.44
381.282	84.44
381.507	92.44
381.733	88.44
381.958	90.44
382.184	84.44
382.409	91.44
382.634	107.44
382.86	98.44
383.085	86.44
383.31	85.44
383.535	94.44
383.761	85.44
383.986	92.44
384.211	85.44
384.436	85.44
384.662	90.44
384.887	83.44
385.112	95.44
385.337	106.44
385.562	86.44
385.787	86.44
386.013	92.44
386.238	92.44
386.463	84.44
386.688	89.44
386.913	82.44
387.138	81.44
387.363	87.44
387.588	92.44
387.813	100.44
388.038	86.44
388.263	73.44
388.488	92.44
388.713	90.44
388.938	82.44
389.163	92.44
389.387	89.44
389.612	95.44
389.837	100.44
390.062	86.44
390.287	76.44
390.512	90.44
390.736	87.44
390.961	87.44
391.186	90.44
391.411	84.44
391.636	84.44
391.86	98.44
392.085	91.44
392.31	78.44
392.534	93.44
392.759	105.44
392.984	70.44
393.208	75.44
393.433	85.44
393.658	91.44
393.882	92.44
394.107	83.44
394.331	84.44
394.556	93.44
394.78	88.44
395.005	87.44
395.229	87.44
395.454	94.44
395.678	83.44
395.903	96.44
396.127	103.44
396.352	103.44
396.576	84.44
396.801	89.44
397.025	89.44
397.249	84.44
397.474	85.44
397.698	82.44
397.922	99.44
398.147	83.44
398.371	79.44
398.595	86.44
398.82	67.44
399.044	92.44
399.268	96.44
399.492	99.44
399.717	92.44
399.941	93.44
400.165	91.44
400.389	92.44
400.613	79.44
400.837	90.44
401.062	80.44
401.286	88.44
401.51	85.44
401.734	82.44
401.958	98.44
402.182	85.44
402.406	97.44
402.63	93.44
402.854	77.44
403.078	80.44
403.302	89.44
403.526	104.44
403.75	101.44
403.974	105.44
404.198	95.44
404.422	90.44
404.645	103.44
404.869	100.44
405.093	101.44
405.317	89.44
405.541	94.44
405.765	96.44
405.988	95.44
406.212	90.44
406.436	84.44
406.66	94.44
406.883	100.44
407.107	89.44
407.331	96.44
407.555	101.44
407.778	83.44
408.002	83.44
408.226	83.44
408.449	82.44
408.673	86.44
408.896	81.44
409.12	90.44
409.344	85.44
409.567	96.44
409.791	108.44
410.014	106.44
410.238	84.44
410.461	91.44
410.685	90.44
410.908	80.44
411.132	93.44
411.355	81.44
411.578	110.44
411.802	92.44
412.025	81.44
412.249	104.44
412.472	92.44
412.695	80.44
412.919	90.44
413.142	98.44
413.365	102.44
413.589	95.44
413.812	96.44
414.035	90.44
414.258	87.44
414.482	92.44
414.705	91.44
414.928	93.44
415.151	102.44
415.374	90.44
415.597	88.44
415.821	117.44
416.044	107.44
416.267	94.44
416.49	98.44
416.713	99.44
416.936	88.44
417.159	96.44
417.382	87.44
417.605	84.44
417.828	92.44
418.051	94.44
418.274	88.44
418.497	92.44
418.72	97.44
418.943	92.44
419.166	87.44
419.389	74.44
419.611	95.44
419.834	94.44
420.057	95.44
420.28	101.44
420.503	106.44
420.726	104.44
420.948	86.44
421.171	99.44
421.394	100.44
421.617	102.44
421.839	102.44
422.062	85.44
422.285	91.44
422.507	103.44
422.73	102.44
422.953	96.44
423.175	82.44
423.398	93.44
423.621	97.44
423.843	99.44
424.066	91.44
424.288	100.44
424.511	102.44
424.733	97.44
424.956	101.44
425.178	92.44
425.401	108.44
425.623	110.44
425.846	99.44
426.068	105.44
426.291	93.44
426.513	107.44
426.735	98.44
426.958	100.44
427.18	104.44
427.402	83.44
427.625	92.44
427.847	97.44
428.069	111.44
428.292	100.44
428.514	88.44
428.736	99.44
428.958	106.44
429.181	116.44
429.403	92.44
429.625	94.44
429.847	111.44
430.069	95.44
430.292	88.44
430.514	78.44
430.736	101.44
430.958	83.44
431.18	99.44
431.402	94.44
431.624	96.44
431.846	101.44
432.068	95.44
432.29	96.44
432.512	93.44
432.734	92.44
432.956	115.44
433.178	104.44
433.4	104.44
433.622	100.44
433.844	87.44
434.066	102.44
434.287	93.44
434.509	81.44
434.731	80.44
434.953	82.44
435.175	91.44
435.397	104.44
435.618	89.44
435.84	95.44
436.062	100.44
436.284	76.44
436.505	89.44
436.727	101.44
436.949	93.44
437.17	101.44
437.392	97.44
437.614	86.44
437.835	96.44
438.057	81.44
438.278	84.44
438.5	100.44
438.721	100.44
438.943	89.44
439.165	88.44
439.386	104.44
439.608	101.44
439.829	99.44
440.05	101.44
440.272	103.44
440.493	98.44
440.715	101.44
440.936	102.44
441.158	91.44
441.379	97.44
441.6	95.44
441.822	103.44
442.043	99.44
442.264	100.44
442.486	93.44
442.707	86.44
442.928	96.44
443.149	103.44
443.371	95.44
443.592	91.44
443.813	87.44
444.034	109.44
444.255	106.44
444.476	90.44
444.698	103.44
444.919	84.44
445.14	181.44
445.361	139.44
445.582	99.44
445.803	88.44
446.024	101.44
446.245	108.44
446.466	112.44
446.687	111.44
446.908	102.44
447.129	118.44
447.35	95.44
447.571	105.44
447.792	104.44
448.013	94.44
448.234	109.44
448.455	101.44
448.675	108.44
448.896	98.44
449.117	88.44
449.338	103.44
449.559	95.44
449.779	95.44
450	99.44
450.221	95.44
450.442	87.44
450.662	88.44
450.883	88.44
451.104	96.44
451.324	104.44
451.545	91.44
451.766	88.44
451.986	101.44
452.207	84.44
452.428	87.44
452.648	89.44
452.869	96.44
453.089	82.44
453.31	82.44
453.53	87.44
453.751	98.44
453.971	98.44
454.192	98.44
454.412	94.44
454.633	79.44
454.853	99.44
455.073	84.44
455.294	93.44
455.514	90.44
455.734	85.44
455.955	89.44
456.175	78.44
456.395	102.44
456.616	85.44
456.836	97.44
457.056	74.44
457.276	88.44
457.497	92.44
457.717	74.44
457.937	77.44
458.157	88.44
458.377	85.44
458.598	94.44
458.818	92.44
459.038	77.44
459.258	85.44
459.478	77.44
459.698	88.44
459.918	83.44
460.138	74.44
460.358	81.44
460.578	95.44
460.798	103.44
461.018	99.44
461.238	88.44
461.458	100.44
461.678	80.44
461.898	85.44
462.118	93.44
462.338	99.44
462.558	87.44
462.777	84.44
462.997	81.44
463.217	83.44
463.437	84.44
463.657	84.44
463.876	77.44
464.096	100.44
464.316	81.44
464.536	87.44
464.755	84.44
464.975	88.44
465.195	94.44
465.414	91.44
465.634	94.44
465.854	91.44
466.073	90.44
466.293	107.44
466.512	93.44
466.732	94.44
466.951	100.44
467.171	102.44
467.391	111.44
467.61	95.44
467.829	93.44
468.049	104.44
468.268	87.44
468.488	103.44
468.707	83.44
468.927	91.44
469.146	105.44
469.365	97.44
469.585	96.44
469.804	92.44
470.023	103.44
470.243	103.44
470.462	90.44
470.681	114.44
470.901	102.44
471.12	93.44
471.339	111.44
471.558	100.44
471.777	95.44
471.997	103.44
472.216	92.44
472.435	102.44
472.654	91.44
472.873	98.44
473.092	92.44
473.311	116.44
473.53	93.44
473.749	104.44
473.968	88.44
474.187	94.44
474.406	89.44
474.625	95.44
474.844	101.44
475.063	91.44
475.282	87.44
475.501	96.44
475.72	107.44
475.939	115.44
476.158	112.44
476.377	90.44
476.596	99.44
476.814	91.44
477.033	92.44
477.252	109.44
477.471	92.44
477.69	92.44
477.908	90.44
478.127	84.44
478.346	86.44
478.564	95.44
478.783	96.44
479.002	104.44
479.22	101.44
479.439	104.44
479.658	88.44
479.876	89.44
480.095	92.44
480.313	98.44
480.532	90.44
480.751	100.44
480.969	81.44
481.188	95.44
481.406	93.44
481.624	93.44
481.843	86.44
482.061	83.44
482.28	103.44
482.498	84.44
482.717	96.44
482.935	105.44
483.153	102.44
483.372	104.44
483.59	103.44
483.808	118.44
484.027	92.44
484.245	82.44
484.463	97.44
484.681	108.44
484.9	89.44
485.118	106.44
485.336	97.44
485.554	105.44
485.772	83.44
485.99	93.44
486.209	86.44
486.427	93.44
486.645	88.44
486.863	101.44
487.081	99.44
487.299	91.44
487.517	101.44
487.735	111.44
487.953	113.44
488.171	114.44
488.389	118.44
488.607	106.44
488.825	98.44
489.043	96.44
489.261	109.44
489.479	100.44
489.696	108.44
489.914	92.44
490.132	106.44
490.35	101.44
490.568	85.44
490.786	105.44
491.003	102.44
491.221	106.44
491.439	116.44
491.657	114.44
491.874	132.44
492.092	131.44
492.31	141.44
492.527	137.44
492.745	125.44
492.963	114.44
493.18	104.44
493.398	123.44
493.615	117.44
493.833	102.44
494.05	112.44
494.268	104.44
494.485	102.44
494.703	116.44
494.92	126.44
495.138	118.44
495.355	104.44
495.573	113.44
495.79	112.44
496.008	99.44
496.225	107.44
496.442	99.44
496.66	108.44
496.877	111.44
497.094	118.44
497.312	94.44
497.529	121.44
497.746	90.44
497.963	99.44
498.181	93.44
498.398	102.44
498.615	106.44
498.832	95.44
499.049	86.44
499.267	82.44
499.484	100.44
499.701	99.44
499.918	103.44
500.135	105.44
500.352	109.44
500.569	103.44
500.786	99.44
501.003	101.44
501.22	96.44
501.437	107.44
501.654	95.44
501.871	91.44
502.088	90.44
502.305	99.44
502.522	98.44
502.739	112.44
502.956	89.44
503.172	90.44
503.389	95.44
503.606	95.44
503.823	103.44
504.04	105.44
504.256	112.44
504.473	71.44
504.69	102.44
504.907	93.44
505.123	94.44
505.34	108.44
505.557	91.44
505.773	92.44
505.99	101.44
506.207	106.44
506.423	90.44
506.64	99.44
506.856	91.44
507.073	90.44
507.289	112.44
507.506	108.44
507.722	91.44
507.939	101.44
508.155	87.44
508.372	108.44
508.588	91.44
508.805	108.44
509.021	92.44
509.238	84.44
509.454	73.44
509.67	103.44
509.887	92.44
510.103	80.44
510.319	93.44
510.536	101.44
510.752	90.44
510.968	82.44
511.184	87.44
511.401	80.44
511.617	74.44
511.833	78.44
512.049	75.44
512.265	89.44
512.481	98.44
512.698	93.44
512.914	92.44
513.13	103.44
513.346	85.44
513.562	95.44
513.778	91.44
513.994	107.44
514.21	78.44
514.426	88.44
514.642	89.44
514.858	89.44
515.074	91.44
515.29	85.44
515.506	90.44
515.721	88.44
515.937	88.44
516.153	73.44
516.369	89.44
