Data from Location3.07152019.Energy5.Lamp.07192019.3%Agarose_HRD10591_15-18-22-269.txt Node
Date: Fri Jul 19 15:18:22 EDT 2019
User: cochatt
Spectrometer: HR+D1059
Trigger mode: 1
Integration Time (sec): 1.000000E-1
Scans to average: 1
Electric dark correction enabled: true
Nonlinearity correction enabled: false
Boxcar width: 0
XAxis mode: Wavelengths
Number of Pixels in Spectrum: 2048
>>>>>Begin Spectral Data<<<<<
223.165	-8.69
223.4	-8.69
223.635	-8.69
223.869	-26.69
224.104	-24.69
224.338	-10.69
224.573	-20.69
224.808	-12.69
225.042	-0.69
225.277	-0.69
225.511	-19.69
225.746	14.31
225.98	-1.69
226.215	14.31
226.449	19.31
226.683	18.31
226.918	26.31
227.152	34.31
227.387	30.31
227.621	35.31
227.856	49.31
228.09	43.31
228.324	35.31
228.559	41.31
228.793	54.31
229.027	65.31
229.262	58.31
229.496	62.31
229.73	67.31
229.964	67.31
230.199	70.31
230.433	81.31
230.667	63.31
230.901	61.31
231.136	72.31
231.37	78.31
231.604	69.31
231.838	76.31
232.072	70.31
232.306	89.31
232.541	77.31
232.775	71.31
233.009	81.31
233.243	75.31
233.477	71.31
233.711	74.31
233.945	77.31
234.179	58.31
234.413	75.31
234.647	88.31
234.881	83.31
235.115	82.31
235.349	80.31
235.583	59.31
235.817	77.31
236.051	77.31
236.285	60.31
236.519	70.31
236.753	75.31
236.987	65.31
237.221	72.31
237.455	66.31
237.689	69.31
237.922	80.31
238.156	51.31
238.39	67.31
238.624	59.31
238.858	79.31
239.091	90.31
239.325	81.31
239.559	76.31
239.793	77.31
240.027	83.31
240.26	61.31
240.494	82.31
240.728	85.31
240.961	81.31
241.195	73.31
241.429	82.31
241.662	76.31
241.896	81.31
242.13	83.31
242.363	77.31
242.597	76.31
242.83	74.31
243.064	63.31
243.298	71.31
243.531	71.31
243.765	74.31
243.998	77.31
244.232	76.31
244.465	85.31
244.699	75.31
244.932	68.31
245.166	67.31
245.399	66.31
245.633	54.31
245.866	73.31
246.099	86.31
246.333	68.31
246.566	75.31
246.8	63.31
247.033	68.31
247.266	71.31
247.5	74.31
247.733	70.31
247.966	77.31
248.2	55.31
248.433	79.31
248.666	92.31
248.899	73.31
249.133	71.31
249.366	88.31
249.599	55.31
249.832	79.31
250.066	79.31
250.299	89.31
250.532	65.31
250.765	73.31
250.998	71.31
251.231	78.31
251.465	94.31
251.698	69.31
251.931	72.31
252.164	75.31
252.397	58.31
252.63	79.31
252.863	73.31
253.096	76.31
253.329	83.31
253.562	68.31
253.795	82.31
254.028	70.31
254.261	82.31
254.494	75.31
254.727	76.31
254.96	65.31
255.193	82.31
255.426	75.31
255.659	90.31
255.892	87.31
256.124	86.31
256.357	90.31
256.59	75.31
256.823	82.31
257.056	69.31
257.289	84.31
257.521	71.31
257.754	78.31
257.987	88.31
258.22	82.31
258.452	91.31
258.685	85.31
258.918	63.31
259.151	66.31
259.383	89.31
259.616	76.31
259.849	79.31
260.081	77.31
260.314	79.31
260.547	68.31
260.779	65.31
261.012	85.31
261.244	75.31
261.477	73.31
261.71	82.31
261.942	80.31
262.175	77.31
262.407	73.31
262.64	86.31
262.872	67.31
263.105	91.31
263.337	89.31
263.57	78.31
263.802	78.31
264.035	85.31
264.267	76.31
264.499	67.31
264.732	86.31
264.964	70.31
265.197	79.31
265.429	68.31
265.661	81.31
265.894	81.31
266.126	71.31
266.358	83.31
266.591	82.31
266.823	90.31
267.055	86.31
267.287	67.31
267.52	69.31
267.752	73.31
267.984	81.31
268.216	74.31
268.448	72.31
268.681	89.31
268.913	92.31
269.145	81.31
269.377	78.31
269.609	83.31
269.841	68.31
270.073	77.31
270.306	79.31
270.538	78.31
270.77	81.31
271.002	81.31
271.234	83.31
271.466	82.31
271.698	83.31
271.93	70.31
272.162	73.31
272.394	77.31
272.626	74.31
272.858	77.31
273.09	83.31
273.322	77.31
273.553	74.31
273.785	63.31
274.017	72.31
274.249	75.31
274.481	76.31
274.713	93.31
274.945	97.31
275.176	87.31
275.408	91.31
275.64	73.31
275.872	55.31
276.104	76.31
276.335	82.31
276.567	66.31
276.799	84.31
277.031	90.31
277.262	78.31
277.494	75.31
277.726	97.31
277.957	74.31
278.189	90.31
278.421	85.31
278.652	94.31
278.884	74.31
279.115	91.31
279.347	75.31
279.579	72.31
279.81	85.31
280.042	75.31
280.273	81.31
280.505	98.31
280.736	78.31
280.968	78.31
281.199	84.31
281.431	72.31
281.662	79.31
281.894	76.31
282.125	76.31
282.356	78.31
282.588	81.31
282.819	91.31
283.051	72.31
283.282	89.31
283.513	83.31
283.745	76.31
283.976	82.31
284.207	70.31
284.439	73.31
284.67	79.31
284.901	76.31
285.132	84.31
285.364	92.31
285.595	85.31
285.826	78.31
286.057	84.31
286.288	82.31
286.52	85.31
286.751	71.31
286.982	76.31
287.213	80.31
287.444	92.31
287.675	84.31
287.906	71.31
288.138	82.31
288.369	81.31
288.6	87.31
288.831	70.31
289.062	69.31
289.293	76.31
289.524	88.31
289.755	82.31
289.986	71.31
290.217	85.31
290.448	85.31
290.679	92.31
290.91	83.31
291.141	80.31
291.371	73.31
291.602	84.31
291.833	79.31
292.064	81.31
292.295	85.31
292.526	82.31
292.757	86.31
292.987	77.31
293.218	82.31
293.449	81.31
293.68	73.31
293.91	81.31
294.141	74.31
294.372	72.31
294.603	78.31
294.833	76.31
295.064	87.31
295.295	79.31
295.525	76.31
295.756	75.31
295.987	71.31
296.217	75.31
296.448	78.31
296.679	73.31
296.909	75.31
297.14	68.31
297.37	74.31
297.601	65.31
297.831	75.31
298.062	85.31
298.292	94.31
298.523	76.31
298.753	71.31
298.984	68.31
299.214	91.31
299.445	78.31
299.675	78.31
299.905	85.31
300.136	77.31
300.366	66.31
300.597	85.31
300.827	71.31
301.057	74.31
301.288	81.31
301.518	88.31
301.748	84.31
301.979	74.31
302.209	86.31
302.439	76.31
302.669	81.31
302.9	77.31
303.13	87.31
303.36	73.31
303.59	59.31
303.82	74.31
304.051	85.31
304.281	77.31
304.511	79.31
304.741	75.31
304.971	84.31
305.201	80.31
305.431	77.31
305.661	88.31
305.891	74.31
306.121	87.31
306.352	84.31
306.582	84.31
306.812	95.31
307.042	76.31
307.272	85.31
307.502	87.31
307.731	88.31
307.961	80.31
308.191	79.31
308.421	85.31
308.651	84.31
308.881	84.31
309.111	84.31
309.341	89.31
309.571	77.31
309.8	89.31
310.03	83.31
310.26	78.31
310.49	91.31
310.72	78.31
310.949	79.31
311.179	65.31
311.409	79.31
311.639	69.31
311.868	86.31
312.098	79.31
312.328	77.31
312.557	76.31
312.787	82.31
313.017	81.31
313.246	83.31
313.476	78.31
313.706	76.31
313.935	79.31
314.165	70.31
314.394	77.31
314.624	63.31
314.853	87.31
315.083	88.31
315.312	84.31
315.542	84.31
315.771	97.31
316.001	91.31
316.23	88.31
316.46	94.31
316.689	86.31
316.919	92.31
317.148	99.31
317.377	79.31
317.607	77.31
317.836	72.31
318.065	79.31
318.295	80.31
318.524	77.31
318.753	85.31
318.983	77.31
319.212	77.31
319.441	92.31
319.67	97.31
319.9	85.31
320.129	80.31
320.358	67.31
320.587	71.31
320.816	86.31
321.046	62.31
321.275	78.31
321.504	89.31
321.733	90.31
321.962	75.31
322.191	79.31
322.42	71.31
322.649	84.31
322.878	68.31
323.108	67.31
323.337	89.31
323.566	87.31
323.795	90.31
324.024	69.31
324.253	81.31
324.482	90.31
324.71	82.31
324.939	88.31
325.168	81.31
325.397	78.31
325.626	65.31
325.855	69.31
326.084	86.31
326.313	64.31
326.542	84.31
326.77	90.31
326.999	73.31
327.228	93.31
327.457	96.31
327.686	87.31
327.914	76.31
328.143	84.31
328.372	90.31
328.6	78.31
328.829	80.31
329.058	80.31
329.287	83.31
329.515	84.31
329.744	81.31
329.972	62.31
330.201	78.31
330.43	69.31
330.658	78.31
330.887	83.31
331.115	71.31
331.344	82.31
331.572	83.31
331.801	78.31
332.03	84.31
332.258	84.31
332.486	91.31
332.715	78.31
332.943	78.31
333.172	85.31
333.4	72.31
333.629	76.31
333.857	83.31
334.085	93.31
334.314	81.31
334.542	85.31
334.771	78.31
334.999	78.31
335.227	74.31
335.455	83.31
335.684	86.31
335.912	82.31
336.14	89.31
336.369	80.31
336.597	75.31
336.825	90.31
337.053	74.31
337.281	77.31
337.51	75.31
337.738	78.31
337.966	79.31
338.194	83.31
338.422	85.31
338.65	89.31
338.878	71.31
339.106	74.31
339.334	64.31
339.562	73.31
339.79	80.31
340.018	82.31
340.246	69.31
340.474	88.31
340.702	77.31
340.93	77.31
341.158	74.31
341.386	68.31
341.614	93.31
341.842	81.31
342.07	86.31
342.298	70.31
342.526	87.31
342.754	83.31
342.981	64.31
343.209	84.31
343.437	83.31
343.665	76.31
343.893	77.31
344.12	83.31
344.348	78.31
344.576	86.31
344.804	77.31
345.031	78.31
345.259	82.31
345.487	67.31
345.714	85.31
345.942	83.31
346.17	73.31
346.397	74.31
346.625	86.31
346.853	96.31
347.08	75.31
347.308	79.31
347.535	79.31
347.763	82.31
347.99	77.31
348.218	69.31
348.445	79.31
348.673	70.31
348.9	87.31
349.128	93.31
349.355	61.31
349.583	70.31
349.81	86.31
350.037	66.31
350.265	72.31
350.492	85.31
350.72	77.31
350.947	82.31
351.174	82.31
351.402	104.31
351.629	96.31
351.856	79.31
352.083	75.31
352.311	84.31
352.538	76.31
352.765	82.31
352.992	77.31
353.22	81.31
353.447	83.31
353.674	83.31
353.901	77.31
354.128	88.31
354.355	73.31
354.583	87.31
354.81	91.31
355.037	77.31
355.264	78.31
355.491	69.31
355.718	69.31
355.945	82.31
356.172	61.31
356.399	77.31
356.626	87.31
356.853	78.31
357.08	75.31
357.307	76.31
357.534	83.31
357.761	79.31
357.988	83.31
358.215	83.31
358.441	76.31
358.668	79.31
358.895	73.31
359.122	75.31
359.349	75.31
359.576	79.31
359.802	65.31
360.029	66.31
360.256	81.31
360.483	83.31
360.709	78.31
360.936	83.31
361.163	78.31
361.39	80.31
361.616	81.31
361.843	77.31
362.07	79.31
362.296	82.31
362.523	94.31
362.749	81.31
362.976	86.31
363.203	85.31
363.429	79.31
363.656	67.31
363.882	82.31
364.109	70.31
364.335	84.31
364.562	69.31
364.788	84.31
365.015	78.31
365.241	82.31
365.468	78.31
365.694	85.31
365.92	79.31
366.147	76.31
366.373	75.31
366.599	91.31
366.826	71.31
367.052	87.31
367.278	80.31
367.505	85.31
367.731	78.31
367.957	64.31
368.184	79.31
368.41	73.31
368.636	65.31
368.862	73.31
369.089	84.31
369.315	87.31
369.541	96.31
369.767	67.31
369.993	79.31
370.219	82.31
370.445	80.31
370.672	79.31
370.898	98.31
371.124	78.31
371.35	71.31
371.576	84.31
371.802	76.31
372.028	83.31
372.254	80.31
372.48	87.31
372.706	94.31
372.932	82.31
373.158	77.31
373.384	92.31
373.61	83.31
373.835	76.31
374.061	82.31
374.287	95.31
374.513	88.31
374.739	84.31
374.965	72.31
375.191	71.31
375.416	70.31
375.642	80.31
375.868	87.31
376.094	85.31
376.319	74.31
376.545	81.31
376.771	70.31
376.997	73.31
377.222	82.31
377.448	67.31
377.674	78.31
377.899	86.31
378.125	83.31
378.35	81.31
378.576	93.31
378.802	59.31
379.027	79.31
379.253	64.31
379.478	87.31
379.704	84.31
379.929	90.31
380.155	88.31
380.38	78.31
380.606	71.31
380.831	93.31
381.057	84.31
381.282	86.31
381.507	90.31
381.733	85.31
381.958	76.31
382.184	99.31
382.409	78.31
382.634	66.31
382.86	82.31
383.085	73.31
383.31	93.31
383.535	82.31
383.761	71.31
383.986	89.31
384.211	91.31
384.436	85.31
384.662	77.31
384.887	71.31
385.112	88.31
385.337	75.31
385.562	80.31
385.787	60.31
386.013	87.31
386.238	85.31
386.463	85.31
386.688	83.31
386.913	97.31
387.138	95.31
387.363	87.31
387.588	75.31
387.813	81.31
388.038	68.31
388.263	80.31
388.488	81.31
388.713	87.31
388.938	78.31
389.163	91.31
389.387	90.31
389.612	85.31
389.837	78.31
390.062	76.31
390.287	76.31
390.512	89.31
390.736	73.31
390.961	71.31
391.186	81.31
391.411	85.31
391.636	100.31
391.86	56.31
392.085	83.31
392.31	88.31
392.534	81.31
392.759	86.31
392.984	79.31
393.208	90.31
393.433	78.31
393.658	81.31
393.882	74.31
394.107	75.31
394.331	76.31
394.556	73.31
394.78	75.31
395.005	74.31
395.229	75.31
395.454	85.31
395.678	97.31
395.903	78.31
396.127	74.31
396.352	87.31
396.576	73.31
396.801	71.31
397.025	88.31
397.249	84.31
397.474	99.31
397.698	67.31
397.922	86.31
398.147	79.31
398.371	73.31
398.595	89.31
398.82	80.31
399.044	72.31
399.268	82.31
399.492	79.31
399.717	89.31
399.941	84.31
400.165	95.31
400.389	86.31
400.613	89.31
400.837	83.31
401.062	82.31
401.286	89.31
401.51	84.31
401.734	88.31
401.958	86.31
402.182	77.31
402.406	84.31
402.63	83.31
402.854	85.31
403.078	93.31
403.302	78.31
403.526	78.31
403.75	81.31
403.974	71.31
404.198	81.31
404.422	86.31
404.645	90.31
404.869	90.31
405.093	79.31
405.317	91.31
405.541	89.31
405.765	87.31
405.988	82.31
406.212	97.31
406.436	94.31
406.66	109.31
406.883	79.31
407.107	93.31
407.331	95.31
407.555	91.31
407.778	96.31
408.002	82.31
408.226	75.31
408.449	82.31
408.673	89.31
408.896	85.31
409.12	93.31
409.344	82.31
409.567	78.31
409.791	88.31
410.014	81.31
410.238	94.31
410.461	85.31
410.685	84.31
410.908	77.31
411.132	79.31
411.355	83.31
411.578	83.31
411.802	84.31
412.025	92.31
412.249	73.31
412.472	77.31
412.695	90.31
412.919	75.31
413.142	83.31
413.365	82.31
413.589	80.31
413.812	71.31
414.035	91.31
414.258	77.31
414.482	74.31
414.705	78.31
414.928	73.31
415.151	89.31
415.374	77.31
415.597	98.31
415.821	77.31
416.044	75.31
416.267	82.31
416.49	95.31
416.713	91.31
416.936	93.31
417.159	85.31
417.382	81.31
417.605	82.31
417.828	87.31
418.051	75.31
418.274	87.31
418.497	92.31
418.72	89.31
418.943	93.31
419.166	71.31
419.389	90.31
419.611	91.31
419.834	89.31
420.057	94.31
420.28	90.31
420.503	84.31
420.726	92.31
420.948	101.31
421.171	90.31
421.394	89.31
421.617	102.31
421.839	100.31
422.062	94.31
422.285	89.31
422.507	76.31
422.73	83.31
422.953	91.31
423.175	87.31
423.398	90.31
423.621	78.31
423.843	78.31
424.066	85.31
424.288	82.31
424.511	89.31
424.733	96.31
424.956	93.31
425.178	110.31
425.401	75.31
425.623	82.31
425.846	97.31
426.068	78.31
426.291	80.31
426.513	101.31
426.735	92.31
426.958	100.31
427.18	89.31
427.402	89.31
427.625	95.31
427.847	82.31
428.069	82.31
428.292	83.31
428.514	93.31
428.736	107.31
428.958	106.31
429.181	104.31
429.403	82.31
429.625	80.31
429.847	95.31
430.069	75.31
430.292	95.31
430.514	83.31
430.736	89.31
430.958	93.31
431.18	79.31
431.402	91.31
431.624	85.31
431.846	86.31
432.068	79.31
432.29	76.31
432.512	89.31
432.734	92.31
432.956	93.31
433.178	93.31
433.4	86.31
433.622	92.31
433.844	84.31
434.066	87.31
434.287	84.31
434.509	86.31
434.731	81.31
434.953	73.31
435.175	72.31
435.397	89.31
435.618	69.31
435.84	92.31
436.062	96.31
436.284	94.31
436.505	83.31
436.727	78.31
436.949	79.31
437.17	73.31
437.392	89.31
437.614	93.31
437.835	91.31
438.057	91.31
438.278	87.31
438.5	89.31
438.721	76.31
438.943	79.31
439.165	83.31
439.386	72.31
439.608	82.31
439.829	85.31
440.05	100.31
440.272	90.31
440.493	86.31
440.715	90.31
440.936	90.31
441.158	101.31
441.379	89.31
441.6	93.31
441.822	97.31
442.043	99.31
442.264	94.31
442.486	84.31
442.707	84.31
442.928	99.31
443.149	94.31
443.371	79.31
443.592	84.31
443.813	103.31
444.034	85.31
444.255	86.31
444.476	90.31
444.698	86.31
444.919	82.31
445.14	204.31
445.361	133.31
445.582	83.31
445.803	90.31
446.024	74.31
446.245	90.31
446.466	102.31
446.687	91.31
446.908	104.31
447.129	92.31
447.35	101.31
447.571	83.31
447.792	95.31
448.013	90.31
448.234	83.31
448.455	85.31
448.675	95.31
448.896	89.31
449.117	101.31
449.338	98.31
449.559	92.31
449.779	83.31
450	93.31
450.221	99.31
450.442	91.31
450.662	95.31
450.883	77.31
451.104	83.31
451.324	88.31
451.545	78.31
451.766	85.31
451.986	87.31
452.207	90.31
452.428	93.31
452.648	105.31
452.869	91.31
453.089	88.31
453.31	93.31
453.53	85.31
453.751	70.31
453.971	82.31
454.192	63.31
454.412	71.31
454.633	75.31
454.853	85.31
455.073	76.31
455.294	102.31
455.514	92.31
455.734	81.31
455.955	88.31
456.175	87.31
456.395	86.31
456.616	68.31
456.836	73.31
457.056	91.31
457.276	83.31
457.497	66.31
457.717	78.31
457.937	85.31
458.157	81.31
458.377	82.31
458.598	77.31
458.818	67.31
459.038	68.31
459.258	76.31
459.478	81.31
459.698	76.31
459.918	68.31
460.138	81.31
460.358	77.31
460.578	94.31
460.798	96.31
461.018	84.31
461.238	103.31
461.458	93.31
461.678	86.31
461.898	93.31
462.118	83.31
462.338	83.31
462.558	88.31
462.777	81.31
462.997	80.31
463.217	73.31
463.437	89.31
463.657	79.31
463.876	74.31
464.096	85.31
464.316	73.31
464.536	90.31
464.755	77.31
464.975	87.31
465.195	98.31
465.414	97.31
465.634	76.31
465.854	71.31
466.073	81.31
466.293	102.31
466.512	86.31
466.732	98.31
466.951	88.31
467.171	94.31
467.391	90.31
467.61	90.31
467.829	92.31
468.049	93.31
468.268	100.31
468.488	95.31
468.707	85.31
468.927	96.31
469.146	93.31
469.365	114.31
469.585	97.31
469.804	89.31
470.023	78.31
470.243	98.31
470.462	110.31
470.681	90.31
470.901	95.31
471.12	75.31
471.339	85.31
471.558	81.31
471.777	94.31
471.997	101.31
472.216	80.31
472.435	83.31
472.654	91.31
472.873	84.31
473.092	89.31
473.311	97.31
473.53	83.31
473.749	75.31
473.968	90.31
474.187	85.31
474.406	87.31
474.625	85.31
474.844	93.31
475.063	82.31
475.282	98.31
475.501	86.31
475.72	85.31
475.939	88.31
476.158	76.31
476.377	89.31
476.596	79.31
476.814	82.31
477.033	80.31
477.252	87.31
477.471	69.31
477.69	82.31
477.908	85.31
478.127	96.31
478.346	98.31
478.564	102.31
478.783	90.31
479.002	95.31
479.22	99.31
479.439	84.31
479.658	84.31
479.876	77.31
480.095	87.31
480.313	81.31
480.532	89.31
480.751	91.31
480.969	77.31
481.188	77.31
481.406	74.31
481.624	84.31
481.843	89.31
482.061	94.31
482.28	72.31
482.498	77.31
482.717	75.31
482.935	99.31
483.153	90.31
483.372	99.31
483.59	96.31
483.808	94.31
484.027	94.31
484.245	84.31
484.463	70.31
484.681	86.31
484.9	90.31
485.118	99.31
485.336	98.31
485.554	83.31
485.772	89.31
485.99	88.31
486.209	74.31
486.427	87.31
486.645	90.31
486.863	89.31
487.081	89.31
487.299	92.31
487.517	100.31
487.735	100.31
487.953	104.31
488.171	117.31
488.389	105.31
488.607	94.31
488.825	100.31
489.043	92.31
489.261	85.31
489.479	87.31
489.696	92.31
489.914	94.31
490.132	94.31
490.35	96.31
490.568	83.31
490.786	98.31
491.003	110.31
491.221	116.31
491.439	114.31
491.657	129.31
491.874	114.31
492.092	125.31
492.31	124.31
492.527	132.31
492.745	123.31
492.963	111.31
493.18	110.31
493.398	83.31
493.615	105.31
493.833	96.31
494.05	112.31
494.268	106.31
494.485	111.31
494.703	116.31
494.92	105.31
495.138	109.31
495.355	97.31
495.573	100.31
495.79	111.31
496.008	101.31
496.225	105.31
496.442	80.31
496.66	97.31
496.877	90.31
497.094	109.31
497.312	93.31
497.529	111.31
497.746	100.31
497.963	100.31
498.181	88.31
498.398	94.31
498.615	79.31
498.832	72.31
499.049	87.31
499.267	86.31
499.484	90.31
499.701	94.31
499.918	99.31
500.135	89.31
500.352	86.31
500.569	93.31
500.786	97.31
501.003	91.31
501.22	104.31
501.437	89.31
501.654	83.31
501.871	93.31
502.088	81.31
502.305	97.31
502.522	97.31
502.739	84.31
502.956	101.31
503.172	101.31
503.389	95.31
503.606	95.31
503.823	89.31
504.04	90.31
504.256	82.31
504.473	93.31
504.69	91.31
504.907	89.31
505.123	83.31
505.34	87.31
505.557	96.31
505.773	99.31
505.99	98.31
506.207	91.31
506.423	78.31
506.64	78.31
506.856	89.31
507.073	83.31
507.289	89.31
507.506	85.31
507.722	95.31
507.939	85.31
508.155	89.31
508.372	73.31
508.588	78.31
508.805	89.31
509.021	94.31
509.238	85.31
509.454	75.31
509.67	73.31
509.887	82.31
510.103	80.31
510.319	82.31
510.536	81.31
510.752	84.31
510.968	79.31
511.184	81.31
511.401	87.31
511.617	91.31
511.833	86.31
512.049	66.31
512.265	86.31
512.481	72.31
512.698	82.31
512.914	72.31
513.13	87.31
513.346	86.31
513.562	75.31
513.778	82.31
513.994	95.31
514.21	80.31
514.426	81.31
514.642	89.31
514.858	86.31
515.074	72.31
515.29	84.31
515.506	73.31
515.721	70.31
515.937	90.31
516.153	77.31
516.369	75.31
516.585	78.31
516.801	85.31
517.016	101.31
517.232	84.31
517.448	68.31
517.664	88.31
517.879	85.31
518.095	82.31
518.311	79.31
518.527	82.31
