Data from Location3.07152019.Energy5.Lamp.07192019.3%Agarose_HRD10591_15-19-29-270.txt Node
Date: Fri Jul 19 15:19:29 EDT 2019
User: cochatt
Spectrometer: HR+D1059
Trigger mode: 1
Integration Time (sec): 1.000000E-1
Scans to average: 1
Electric dark correction enabled: true
Nonlinearity correction enabled: false
Boxcar width: 0
XAxis mode: Wavelengths
Number of Pixels in Spectrum: 2048
>>>>>Begin Spectral Data<<<<<
223.165	-10.12
223.4	-10.12
223.635	-10.12
223.869	-19.12
224.104	-18.12
224.338	-12.12
224.573	-19.12
224.808	-8.12
225.042	1.88
225.277	-0.12
225.511	-2.12
225.746	-0.12
225.98	-0.12
226.215	15.88
226.449	8.88
226.683	22.88
226.918	13.88
227.152	25.88
227.387	39.88
227.621	31.88
227.856	40.88
228.09	54.88
228.324	30.88
228.559	52.88
228.793	61.88
229.027	62.88
229.262	63.88
229.496	66.88
229.73	57.88
229.964	57.88
230.199	63.88
230.433	66.88
230.667	78.88
230.901	77.88
231.136	77.88
231.37	76.88
231.604	62.88
231.838	84.88
232.072	74.88
232.306	77.88
232.541	82.88
232.775	63.88
233.009	81.88
233.243	96.88
233.477	74.88
233.711	86.88
233.945	80.88
234.179	68.88
234.413	66.88
234.647	94.88
234.881	75.88
235.115	73.88
235.349	85.88
235.583	72.88
235.817	66.88
236.051	73.88
236.285	65.88
236.519	86.88
236.753	79.88
236.987	70.88
237.221	74.88
237.455	73.88
237.689	88.88
237.922	70.88
238.156	65.88
238.39	56.88
238.624	79.88
238.858	81.88
239.091	74.88
239.325	78.88
239.559	88.88
239.793	73.88
240.027	88.88
240.26	81.88
240.494	81.88
240.728	68.88
240.961	70.88
241.195	80.88
241.429	64.88
241.662	66.88
241.896	75.88
242.13	70.88
242.363	69.88
242.597	76.88
242.83	79.88
243.064	80.88
243.298	77.88
243.531	82.88
243.765	81.88
243.998	80.88
244.232	72.88
244.465	80.88
244.699	67.88
244.932	79.88
245.166	90.88
245.399	80.88
245.633	73.88
245.866	87.88
246.099	77.88
246.333	85.88
246.566	83.88
246.8	76.88
247.033	61.88
247.266	75.88
247.5	70.88
247.733	77.88
247.966	69.88
248.2	65.88
248.433	70.88
248.666	61.88
248.899	70.88
249.133	80.88
249.366	58.88
249.599	73.88
249.832	72.88
250.066	72.88
250.299	69.88
250.532	67.88
250.765	75.88
250.998	82.88
251.231	73.88
251.465	87.88
251.698	76.88
251.931	69.88
252.164	76.88
252.397	75.88
252.63	69.88
252.863	73.88
253.096	84.88
253.329	68.88
253.562	67.88
253.795	68.88
254.028	79.88
254.261	75.88
254.494	78.88
254.727	83.88
254.96	64.88
255.193	73.88
255.426	68.88
255.659	60.88
255.892	72.88
256.124	74.88
256.357	77.88
256.59	82.88
256.823	76.88
257.056	82.88
257.289	82.88
257.521	84.88
257.754	79.88
257.987	91.88
258.22	87.88
258.452	67.88
258.685	73.88
258.918	81.88
259.151	80.88
259.383	73.88
259.616	67.88
259.849	78.88
260.081	67.88
260.314	67.88
260.547	79.88
260.779	66.88
261.012	86.88
261.244	72.88
261.477	93.88
261.71	79.88
261.942	84.88
262.175	79.88
262.407	75.88
262.64	71.88
262.872	70.88
263.105	81.88
263.337	77.88
263.57	80.88
263.802	78.88
264.035	71.88
264.267	85.88
264.499	77.88
264.732	70.88
264.964	57.88
265.197	85.88
265.429	95.88
265.661	86.88
265.894	77.88
266.126	82.88
266.358	72.88
266.591	81.88
266.823	88.88
267.055	80.88
267.287	85.88
267.52	65.88
267.752	70.88
267.984	63.88
268.216	83.88
268.448	86.88
268.681	77.88
268.913	68.88
269.145	78.88
269.377	78.88
269.609	80.88
269.841	99.88
270.073	74.88
270.306	89.88
270.538	84.88
270.77	90.88
271.002	79.88
271.234	78.88
271.466	78.88
271.698	82.88
271.93	81.88
272.162	70.88
272.394	81.88
272.626	76.88
272.858	83.88
273.09	82.88
273.322	82.88
273.553	64.88
273.785	76.88
274.017	79.88
274.249	69.88
274.481	69.88
274.713	81.88
274.945	74.88
275.176	79.88
275.408	81.88
275.64	76.88
275.872	82.88
276.104	81.88
276.335	82.88
276.567	81.88
276.799	71.88
277.031	79.88
277.262	75.88
277.494	72.88
277.726	78.88
277.957	83.88
278.189	70.88
278.421	76.88
278.652	65.88
278.884	67.88
279.115	100.88
279.347	77.88
279.579	80.88
279.81	66.88
280.042	85.88
280.273	85.88
280.505	73.88
280.736	85.88
280.968	83.88
281.199	84.88
281.431	89.88
281.662	91.88
281.894	72.88
282.125	76.88
282.356	71.88
282.588	69.88
282.819	77.88
283.051	85.88
283.282	80.88
283.513	78.88
283.745	84.88
283.976	80.88
284.207	78.88
284.439	93.88
284.67	77.88
284.901	67.88
285.132	86.88
285.364	85.88
285.595	80.88
285.826	83.88
286.057	71.88
286.288	84.88
286.52	92.88
286.751	88.88
286.982	88.88
287.213	78.88
287.444	70.88
287.675	79.88
287.906	94.88
288.138	69.88
288.369	88.88
288.6	82.88
288.831	78.88
289.062	79.88
289.293	66.88
289.524	91.88
289.755	66.88
289.986	80.88
290.217	83.88
290.448	84.88
290.679	93.88
290.91	86.88
291.141	68.88
291.371	69.88
291.602	78.88
291.833	82.88
292.064	87.88
292.295	92.88
292.526	73.88
292.757	88.88
292.987	78.88
293.218	82.88
293.449	84.88
293.68	73.88
293.91	71.88
294.141	73.88
294.372	81.88
294.603	82.88
294.833	79.88
295.064	91.88
295.295	75.88
295.525	84.88
295.756	97.88
295.987	81.88
296.217	67.88
296.448	87.88
296.679	84.88
296.909	74.88
297.14	85.88
297.37	75.88
297.601	66.88
297.831	79.88
298.062	78.88
298.292	92.88
298.523	89.88
298.753	59.88
298.984	86.88
299.214	93.88
299.445	98.88
299.675	81.88
299.905	83.88
300.136	85.88
300.366	92.88
300.597	72.88
300.827	78.88
301.057	75.88
301.288	77.88
301.518	78.88
301.748	90.88
301.979	83.88
302.209	86.88
302.439	84.88
302.669	83.88
302.9	90.88
303.13	87.88
303.36	80.88
303.59	81.88
303.82	78.88
304.051	84.88
304.281	82.88
304.511	90.88
304.741	88.88
304.971	86.88
305.201	87.88
305.431	79.88
305.661	100.88
305.891	75.88
306.121	87.88
306.352	99.88
306.582	87.88
306.812	87.88
307.042	75.88
307.272	78.88
307.502	83.88
307.731	83.88
307.961	75.88
308.191	68.88
308.421	84.88
308.651	84.88
308.881	72.88
309.111	79.88
309.341	83.88
309.571	96.88
309.8	84.88
310.03	92.88
310.26	80.88
310.49	70.88
310.72	80.88
310.949	75.88
311.179	70.88
311.409	75.88
311.639	90.88
311.868	90.88
312.098	74.88
312.328	88.88
312.557	86.88
312.787	87.88
313.017	85.88
313.246	79.88
313.476	79.88
313.706	94.88
313.935	89.88
314.165	79.88
314.394	89.88
314.624	76.88
314.853	88.88
315.083	72.88
315.312	69.88
315.542	87.88
315.771	83.88
316.001	77.88
316.23	92.88
316.46	69.88
316.689	79.88
316.919	85.88
317.148	92.88
317.377	88.88
317.607	91.88
317.836	88.88
318.065	77.88
318.295	87.88
318.524	70.88
318.753	85.88
318.983	88.88
319.212	59.88
319.441	77.88
319.67	86.88
319.9	81.88
320.129	83.88
320.358	80.88
320.587	75.88
320.816	80.88
321.046	83.88
321.275	93.88
321.504	79.88
321.733	78.88
321.962	88.88
322.191	70.88
322.42	76.88
322.649	80.88
322.878	76.88
323.108	91.88
323.337	83.88
323.566	65.88
323.795	86.88
324.024	75.88
324.253	76.88
324.482	67.88
324.71	79.88
324.939	95.88
325.168	81.88
325.397	91.88
325.626	76.88
325.855	78.88
326.084	80.88
326.313	68.88
326.542	88.88
326.77	84.88
326.999	88.88
327.228	73.88
327.457	63.88
327.686	86.88
327.914	75.88
328.143	87.88
328.372	90.88
328.6	69.88
328.829	68.88
329.058	74.88
329.287	87.88
329.515	91.88
329.744	86.88
329.972	64.88
330.201	81.88
330.43	86.88
330.658	78.88
330.887	84.88
331.115	75.88
331.344	81.88
331.572	72.88
331.801	78.88
332.03	77.88
332.258	87.88
332.486	79.88
332.715	78.88
332.943	78.88
333.172	70.88
333.4	82.88
333.629	84.88
333.857	85.88
334.085	86.88
334.314	86.88
334.542	65.88
334.771	80.88
334.999	70.88
335.227	87.88
335.455	82.88
335.684	85.88
335.912	99.88
336.14	64.88
336.369	91.88
336.597	67.88
336.825	81.88
337.053	78.88
337.281	81.88
337.51	75.88
337.738	92.88
337.966	77.88
338.194	90.88
338.422	86.88
338.65	79.88
338.878	87.88
339.106	76.88
339.334	89.88
339.562	85.88
339.79	73.88
340.018	91.88
340.246	82.88
340.474	88.88
340.702	71.88
340.93	81.88
341.158	80.88
341.386	94.88
341.614	97.88
341.842	85.88
342.07	85.88
342.298	74.88
342.526	84.88
342.754	81.88
342.981	93.88
343.209	75.88
343.437	92.88
343.665	85.88
343.893	85.88
344.12	75.88
344.348	80.88
344.576	85.88
344.804	82.88
345.031	92.88
345.259	84.88
345.487	79.88
345.714	81.88
345.942	97.88
346.17	71.88
346.397	74.88
346.625	75.88
346.853	92.88
347.08	81.88
347.308	78.88
347.535	85.88
347.763	90.88
347.99	86.88
348.218	80.88
348.445	73.88
348.673	76.88
348.9	73.88
349.128	81.88
349.355	72.88
349.583	72.88
349.81	86.88
350.037	77.88
350.265	72.88
350.492	79.88
350.72	83.88
350.947	73.88
351.174	76.88
351.402	85.88
351.629	68.88
351.856	78.88
352.083	74.88
352.311	79.88
352.538	98.88
352.765	76.88
352.992	78.88
353.22	76.88
353.447	73.88
353.674	81.88
353.901	79.88
354.128	81.88
354.355	64.88
354.583	73.88
354.81	83.88
355.037	87.88
355.264	87.88
355.491	83.88
355.718	78.88
355.945	89.88
356.172	88.88
356.399	72.88
356.626	89.88
356.853	81.88
357.08	79.88
357.307	85.88
357.534	77.88
357.761	82.88
357.988	74.88
358.215	86.88
358.441	74.88
358.668	74.88
358.895	99.88
359.122	77.88
359.349	72.88
359.576	77.88
359.802	68.88
360.029	92.88
360.256	81.88
360.483	74.88
360.709	87.88
360.936	108.88
361.163	81.88
361.39	89.88
361.616	94.88
361.843	83.88
362.07	77.88
362.296	95.88
362.523	69.88
362.749	72.88
362.976	72.88
363.203	85.88
363.429	74.88
363.656	77.88
363.882	83.88
364.109	87.88
364.335	88.88
364.562	84.88
364.788	80.88
365.015	95.88
365.241	80.88
365.468	81.88
365.694	83.88
365.92	95.88
366.147	80.88
366.373	73.88
366.599	90.88
366.826	68.88
367.052	87.88
367.278	83.88
367.505	68.88
367.731	77.88
367.957	71.88
368.184	77.88
368.41	88.88
368.636	77.88
368.862	85.88
369.089	84.88
369.315	91.88
369.541	87.88
369.767	71.88
369.993	79.88
370.219	84.88
370.445	69.88
370.672	86.88
370.898	78.88
371.124	89.88
371.35	64.88
371.576	98.88
371.802	85.88
372.028	86.88
372.254	75.88
372.48	89.88
372.706	82.88
372.932	76.88
373.158	80.88
373.384	80.88
373.61	65.88
373.835	79.88
374.061	73.88
374.287	83.88
374.513	87.88
374.739	99.88
374.965	95.88
375.191	83.88
375.416	76.88
375.642	87.88
375.868	79.88
376.094	69.88
376.319	86.88
376.545	73.88
376.771	76.88
376.997	82.88
377.222	81.88
377.448	72.88
377.674	77.88
377.899	79.88
378.125	90.88
378.35	81.88
378.576	80.88
378.802	102.88
379.027	95.88
379.253	77.88
379.478	100.88
379.704	67.88
379.929	63.88
380.155	94.88
380.38	83.88
380.606	82.88
380.831	108.88
381.057	96.88
381.282	95.88
381.507	92.88
381.733	81.88
381.958	80.88
382.184	76.88
382.409	70.88
382.634	76.88
382.86	81.88
383.085	83.88
383.31	77.88
383.535	72.88
383.761	73.88
383.986	89.88
384.211	80.88
384.436	80.88
384.662	55.88
384.887	69.88
385.112	73.88
385.337	83.88
385.562	77.88
385.787	79.88
386.013	101.88
386.238	90.88
386.463	85.88
386.688	84.88
386.913	78.88
387.138	77.88
387.363	76.88
387.588	86.88
387.813	85.88
388.038	94.88
388.263	80.88
388.488	90.88
388.713	86.88
388.938	92.88
389.163	92.88
389.387	85.88
389.612	69.88
389.837	80.88
390.062	99.88
390.287	80.88
390.512	82.88
390.736	86.88
390.961	84.88
391.186	77.88
391.411	84.88
391.636	87.88
391.86	86.88
392.085	79.88
392.31	85.88
392.534	88.88
392.759	68.88
392.984	92.88
393.208	81.88
393.433	76.88
393.658	91.88
393.882	84.88
394.107	64.88
394.331	90.88
394.556	103.88
394.78	79.88
395.005	85.88
395.229	79.88
395.454	102.88
395.678	88.88
395.903	89.88
396.127	84.88
396.352	89.88
396.576	89.88
396.801	93.88
397.025	84.88
397.249	82.88
397.474	91.88
397.698	81.88
397.922	94.88
398.147	82.88
398.371	70.88
398.595	76.88
398.82	66.88
399.044	78.88
399.268	82.88
399.492	71.88
399.717	85.88
399.941	71.88
400.165	84.88
400.389	89.88
400.613	93.88
400.837	98.88
401.062	91.88
401.286	85.88
401.51	69.88
401.734	87.88
401.958	92.88
402.182	73.88
402.406	69.88
402.63	82.88
402.854	90.88
403.078	97.88
403.302	84.88
403.526	96.88
403.75	79.88
403.974	86.88
404.198	87.88
404.422	80.88
404.645	94.88
404.869	95.88
405.093	94.88
405.317	89.88
405.541	89.88
405.765	79.88
405.988	87.88
406.212	99.88
406.436	88.88
406.66	84.88
406.883	89.88
407.107	72.88
407.331	87.88
407.555	91.88
407.778	106.88
408.002	69.88
408.226	97.88
408.449	85.88
408.673	93.88
408.896	86.88
409.12	101.88
409.344	99.88
409.567	92.88
409.791	84.88
410.014	100.88
410.238	84.88
410.461	79.88
410.685	104.88
410.908	75.88
411.132	82.88
411.355	86.88
411.578	91.88
411.802	76.88
412.025	86.88
412.249	96.88
412.472	92.88
412.695	86.88
412.919	82.88
413.142	84.88
413.365	85.88
413.589	76.88
413.812	90.88
414.035	86.88
414.258	84.88
414.482	95.88
414.705	87.88
414.928	96.88
415.151	85.88
415.374	72.88
415.597	97.88
415.821	82.88
416.044	84.88
416.267	74.88
416.49	95.88
416.713	86.88
416.936	93.88
417.159	88.88
417.382	74.88
417.605	88.88
417.828	97.88
418.051	92.88
418.274	81.88
418.497	78.88
418.72	99.88
418.943	101.88
419.166	97.88
419.389	103.88
419.611	94.88
419.834	87.88
420.057	93.88
420.28	79.88
420.503	97.88
420.726	100.88
420.948	97.88
421.171	92.88
421.394	85.88
421.617	91.88
421.839	81.88
422.062	98.88
422.285	99.88
422.507	86.88
422.73	84.88
422.953	84.88
423.175	93.88
423.398	81.88
423.621	98.88
423.843	92.88
424.066	82.88
424.288	79.88
424.511	100.88
424.733	91.88
424.956	88.88
425.178	99.88
425.401	93.88
425.623	96.88
425.846	92.88
426.068	80.88
426.291	76.88
426.513	86.88
426.735	108.88
426.958	93.88
427.18	91.88
427.402	94.88
427.625	100.88
427.847	98.88
428.069	95.88
428.292	84.88
428.514	95.88
428.736	84.88
428.958	88.88
429.181	96.88
429.403	98.88
429.625	92.88
429.847	80.88
430.069	91.88
430.292	90.88
430.514	73.88
430.736	73.88
430.958	89.88
431.18	91.88
431.402	88.88
431.624	85.88
431.846	72.88
432.068	79.88
432.29	84.88
432.512	90.88
432.734	95.88
432.956	86.88
433.178	93.88
433.4	100.88
433.622	85.88
433.844	87.88
434.066	96.88
434.287	96.88
434.509	80.88
434.731	75.88
434.953	96.88
435.175	88.88
435.397	93.88
435.618	80.88
435.84	91.88
436.062	87.88
436.284	81.88
436.505	95.88
436.727	95.88
436.949	90.88
437.17	93.88
437.392	78.88
437.614	105.88
437.835	87.88
438.057	69.88
438.278	86.88
438.5	91.88
438.721	92.88
438.943	104.88
439.165	95.88
439.386	88.88
439.608	87.88
439.829	92.88
440.05	83.88
440.272	96.88
440.493	94.88
440.715	96.88
440.936	87.88
441.158	91.88
441.379	101.88
441.6	90.88
441.822	101.88
442.043	82.88
442.264	87.88
442.486	88.88
442.707	91.88
442.928	104.88
443.149	108.88
443.371	107.88
443.592	80.88
443.813	95.88
444.034	78.88
444.255	101.88
444.476	88.88
444.698	97.88
444.919	86.88
445.14	216.88
445.361	163.88
445.582	116.88
445.803	94.88
446.024	99.88
446.245	102.88
446.466	95.88
446.687	95.88
446.908	95.88
447.129	103.88
447.35	91.88
447.571	103.88
447.792	86.88
448.013	103.88
448.234	83.88
448.455	87.88
448.675	96.88
448.896	88.88
449.117	102.88
449.338	90.88
449.559	87.88
449.779	75.88
450	102.88
450.221	76.88
450.442	96.88
450.662	92.88
450.883	86.88
451.104	88.88
451.324	92.88
451.545	87.88
451.766	102.88
451.986	95.88
452.207	93.88
452.428	98.88
452.648	99.88
452.869	83.88
453.089	95.88
453.31	85.88
453.53	101.88
453.751	83.88
453.971	86.88
454.192	88.88
454.412	87.88
454.633	88.88
454.853	81.88
455.073	80.88
455.294	77.88
455.514	80.88
455.734	77.88
455.955	79.88
456.175	87.88
456.395	86.88
456.616	77.88
456.836	93.88
457.056	80.88
457.276	92.88
457.497	93.88
457.717	96.88
457.937	99.88
458.157	98.88
458.377	87.88
458.598	88.88
458.818	82.88
459.038	91.88
459.258	74.88
459.478	89.88
459.698	94.88
459.918	97.88
460.138	78.88
460.358	89.88
460.578	87.88
460.798	100.88
461.018	84.88
461.238	83.88
461.458	87.88
461.678	83.88
461.898	83.88
462.118	91.88
462.338	96.88
462.558	73.88
462.777	82.88
462.997	89.88
463.217	73.88
463.437	84.88
463.657	95.88
463.876	93.88
464.096	92.88
464.316	84.88
464.536	84.88
464.755	98.88
464.975	103.88
465.195	85.88
465.414	83.88
465.634	99.88
465.854	84.88
466.073	101.88
466.293	92.88
466.512	98.88
466.732	91.88
466.951	80.88
467.171	96.88
467.391	96.88
467.61	107.88
467.829	80.88
468.049	106.88
468.268	91.88
468.488	97.88
468.707	92.88
468.927	100.88
469.146	95.88
469.365	100.88
469.585	91.88
469.804	84.88
470.023	99.88
470.243	97.88
470.462	99.88
470.681	96.88
470.901	95.88
471.12	102.88
471.339	102.88
471.558	91.88
471.777	93.88
471.997	89.88
472.216	88.88
472.435	99.88
472.654	81.88
472.873	79.88
473.092	85.88
473.311	93.88
473.53	114.88
473.749	88.88
473.968	88.88
474.187	86.88
474.406	79.88
474.625	87.88
474.844	86.88
475.063	101.88
475.282	86.88
475.501	86.88
475.72	88.88
475.939	89.88
476.158	104.88
476.377	102.88
476.596	103.88
476.814	80.88
477.033	71.88
477.252	77.88
477.471	91.88
477.69	88.88
477.908	88.88
478.127	93.88
478.346	93.88
478.564	92.88
478.783	65.88
479.002	77.88
479.22	105.88
479.439	111.88
479.658	94.88
479.876	104.88
480.095	91.88
480.313	86.88
480.532	93.88
480.751	93.88
480.969	81.88
481.188	85.88
481.406	79.88
481.624	97.88
481.843	78.88
482.061	92.88
482.28	89.88
482.498	87.88
482.717	95.88
482.935	101.88
483.153	89.88
483.372	108.88
483.59	100.88
483.808	89.88
484.027	97.88
484.245	91.88
484.463	102.88
484.681	104.88
484.9	99.88
485.118	93.88
485.336	91.88
485.554	87.88
485.772	78.88
485.99	70.88
486.209	93.88
486.427	92.88
486.645	102.88
486.863	94.88
487.081	87.88
487.299	87.88
487.517	96.88
487.735	96.88
487.953	117.88
488.171	113.88
488.389	115.88
488.607	120.88
488.825	97.88
489.043	88.88
489.261	103.88
489.479	93.88
489.696	96.88
489.914	93.88
490.132	79.88
490.35	90.88
490.568	97.88
490.786	103.88
491.003	105.88
491.221	109.88
491.439	107.88
491.657	99.88
491.874	119.88
492.092	123.88
492.31	128.88
492.527	119.88
492.745	123.88
492.963	127.88
493.18	97.88
493.398	98.88
493.615	105.88
493.833	108.88
494.05	104.88
494.268	86.88
494.485	122.88
494.703	117.88
494.92	107.88
495.138	94.88
495.355	102.88
495.573	120.88
495.79	102.88
496.008	102.88
496.225	94.88
496.442	106.88
496.66	118.88
496.877	117.88
497.094	105.88
497.312	100.88
497.529	99.88
497.746	110.88
497.963	98.88
498.181	91.88
498.398	97.88
498.615	80.88
498.832	99.88
499.049	103.88
499.267	92.88
499.484	93.88
499.701	91.88
499.918	95.88
500.135	105.88
500.352	101.88
500.569	91.88
500.786	88.88
501.003	105.88
501.22	97.88
501.437	91.88
501.654	93.88
501.871	94.88
502.088	77.88
502.305	92.88
502.522	85.88
502.739	99.88
502.956	97.88
503.172	98.88
503.389	98.88
503.606	98.88
503.823	85.88
504.04	94.88
504.256	91.88
504.473	97.88
504.69	103.88
504.907	112.88
505.123	79.88
505.34	81.88
505.557	93.88
505.773	96.88
505.99	93.88
506.207	100.88
506.423	99.88
506.64	92.88
506.856	96.88
507.073	87.88
507.289	86.88
507.506	100.88
507.722	92.88
507.939	92.88
508.155	82.88
508.372	87.88
508.588	91.88
508.805	94.88
509.021	75.88
509.238	88.88
509.454	86.88
509.67	101.88
509.887	89.88
510.103	83.88
510.319	86.88
510.536	82.88
510.752	77.88
510.968	81.88
511.184	77.88
511.401	95.88
511.617	84.88
511.833	82.88
512.049	82.88
512.265	90.88
512.481	93.88
512.698	76.88
512.914	83.88
513.13	85.88
513.346	82.88
513.562	92.88
513.778	86.88
513.994	85.88
514.21	69.88
514.426	78.88
514.642	93.88
514.858	71.88
515.074	79.88
515.29	73.88
515.506	95.88
515.721	83.88
515.937	84.88
516.153	94.88
516.369	76.88
516.585	78.88
516.801	84.88
517.016	77.88
517.232	89.88
517.448	75.88
517.664	82.88
517.879	76.88
518.095	80.88
