Data from Location3.07152019.Energy5.Lamp.07192019.3%Agarose_HRD10591_15-19-48-269.txt Node
Date: Fri Jul 19 15:19:48 EDT 2019
User: cochatt
Spectrometer: HR+D1059
Trigger mode: 1
Integration Time (sec): 1.000000E-1
Scans to average: 1
Electric dark correction enabled: true
Nonlinearity correction enabled: false
Boxcar width: 0
XAxis mode: Wavelengths
Number of Pixels in Spectrum: 2048
>>>>>Begin Spectral Data<<<<<
223.165	-2.88
223.4	-2.88
223.635	-2.88
223.869	-18.88
224.104	-15.88
224.338	-0.88
224.573	-13.88
224.808	-19.88
225.042	-0.88
225.277	-16.88
225.511	-7.88
225.746	6.12
225.98	4.12
226.215	11.12
226.449	11.12
226.683	21.12
226.918	16.12
227.152	28.12
227.387	32.12
227.621	26.12
227.856	39.12
228.09	47.12
228.324	49.12
228.559	53.12
228.793	57.12
229.027	72.12
229.262	55.12
229.496	56.12
229.73	72.12
229.964	64.12
230.199	62.12
230.433	69.12
230.667	73.12
230.901	78.12
231.136	71.12
231.37	73.12
231.604	70.12
231.838	81.12
232.072	70.12
232.306	84.12
232.541	94.12
232.775	79.12
233.009	84.12
233.243	62.12
233.477	84.12
233.711	92.12
233.945	82.12
234.179	87.12
234.413	80.12
234.647	76.12
234.881	75.12
235.115	67.12
235.349	70.12
235.583	80.12
235.817	72.12
236.051	84.12
236.285	67.12
236.519	73.12
236.753	69.12
236.987	72.12
237.221	72.12
237.455	75.12
237.689	91.12
237.922	78.12
238.156	82.12
238.39	67.12
238.624	80.12
238.858	72.12
239.091	88.12
239.325	56.12
239.559	62.12
239.793	65.12
240.027	78.12
240.26	78.12
240.494	76.12
240.728	75.12
240.961	82.12
241.195	79.12
241.429	56.12
241.662	80.12
241.896	66.12
242.13	72.12
242.363	80.12
242.597	79.12
242.83	82.12
243.064	70.12
243.298	79.12
243.531	65.12
243.765	71.12
243.998	77.12
244.232	69.12
244.465	73.12
244.699	70.12
244.932	75.12
245.166	77.12
245.399	76.12
245.633	66.12
245.866	61.12
246.099	76.12
246.333	69.12
246.566	64.12
246.8	66.12
247.033	75.12
247.266	64.12
247.5	73.12
247.733	85.12
247.966	78.12
248.2	77.12
248.433	72.12
248.666	67.12
248.899	70.12
249.133	75.12
249.366	53.12
249.599	80.12
249.832	82.12
250.066	74.12
250.299	75.12
250.532	80.12
250.765	89.12
250.998	81.12
251.231	79.12
251.465	77.12
251.698	76.12
251.931	87.12
252.164	88.12
252.397	70.12
252.63	71.12
252.863	82.12
253.096	92.12
253.329	71.12
253.562	72.12
253.795	79.12
254.028	70.12
254.261	79.12
254.494	82.12
254.727	97.12
254.96	65.12
255.193	78.12
255.426	71.12
255.659	74.12
255.892	71.12
256.124	71.12
256.357	82.12
256.59	69.12
256.823	81.12
257.056	92.12
257.289	72.12
257.521	71.12
257.754	80.12
257.987	77.12
258.22	81.12
258.452	78.12
258.685	73.12
258.918	83.12
259.151	72.12
259.383	67.12
259.616	78.12
259.849	81.12
260.081	81.12
260.314	88.12
260.547	80.12
260.779	77.12
261.012	81.12
261.244	75.12
261.477	86.12
261.71	86.12
261.942	75.12
262.175	78.12
262.407	72.12
262.64	73.12
262.872	85.12
263.105	84.12
263.337	79.12
263.57	68.12
263.802	87.12
264.035	83.12
264.267	81.12
264.499	92.12
264.732	72.12
264.964	78.12
265.197	76.12
265.429	85.12
265.661	73.12
265.894	73.12
266.126	80.12
266.358	86.12
266.591	81.12
266.823	72.12
267.055	77.12
267.287	86.12
267.52	81.12
267.752	83.12
267.984	80.12
268.216	72.12
268.448	86.12
268.681	79.12
268.913	89.12
269.145	59.12
269.377	70.12
269.609	79.12
269.841	81.12
270.073	76.12
270.306	84.12
270.538	77.12
270.77	77.12
271.002	87.12
271.234	103.12
271.466	73.12
271.698	97.12
271.93	77.12
272.162	89.12
272.394	87.12
272.626	85.12
272.858	96.12
273.09	65.12
273.322	94.12
273.553	78.12
273.785	68.12
274.017	76.12
274.249	84.12
274.481	81.12
274.713	88.12
274.945	77.12
275.176	66.12
275.408	84.12
275.64	85.12
275.872	94.12
276.104	82.12
276.335	88.12
276.567	87.12
276.799	75.12
277.031	80.12
277.262	79.12
277.494	91.12
277.726	86.12
277.957	79.12
278.189	72.12
278.421	84.12
278.652	82.12
278.884	72.12
279.115	80.12
279.347	79.12
279.579	83.12
279.81	83.12
280.042	81.12
280.273	64.12
280.505	83.12
280.736	65.12
280.968	79.12
281.199	86.12
281.431	92.12
281.662	76.12
281.894	84.12
282.125	69.12
282.356	88.12
282.588	66.12
282.819	71.12
283.051	73.12
283.282	85.12
283.513	73.12
283.745	78.12
283.976	89.12
284.207	88.12
284.439	83.12
284.67	92.12
284.901	73.12
285.132	72.12
285.364	81.12
285.595	81.12
285.826	84.12
286.057	66.12
286.288	70.12
286.52	79.12
286.751	86.12
286.982	74.12
287.213	78.12
287.444	82.12
287.675	89.12
287.906	66.12
288.138	85.12
288.369	82.12
288.6	86.12
288.831	94.12
289.062	85.12
289.293	71.12
289.524	73.12
289.755	83.12
289.986	72.12
290.217	74.12
290.448	84.12
290.679	83.12
290.91	67.12
291.141	80.12
291.371	78.12
291.602	84.12
291.833	69.12
292.064	83.12
292.295	83.12
292.526	80.12
292.757	70.12
292.987	80.12
293.218	92.12
293.449	76.12
293.68	75.12
293.91	73.12
294.141	77.12
294.372	85.12
294.603	73.12
294.833	81.12
295.064	84.12
295.295	66.12
295.525	82.12
295.756	81.12
295.987	93.12
296.217	80.12
296.448	67.12
296.679	84.12
296.909	92.12
297.14	87.12
297.37	81.12
297.601	85.12
297.831	71.12
298.062	75.12
298.292	85.12
298.523	76.12
298.753	87.12
298.984	86.12
299.214	77.12
299.445	80.12
299.675	70.12
299.905	85.12
300.136	79.12
300.366	83.12
300.597	73.12
300.827	80.12
301.057	87.12
301.288	66.12
301.518	85.12
301.748	79.12
301.979	82.12
302.209	89.12
302.439	84.12
302.669	87.12
302.9	92.12
303.13	80.12
303.36	95.12
303.59	85.12
303.82	93.12
304.051	79.12
304.281	90.12
304.511	86.12
304.741	98.12
304.971	71.12
305.201	83.12
305.431	83.12
305.661	64.12
305.891	71.12
306.121	71.12
306.352	69.12
306.582	80.12
306.812	90.12
307.042	88.12
307.272	90.12
307.502	73.12
307.731	87.12
307.961	77.12
308.191	74.12
308.421	72.12
308.651	74.12
308.881	84.12
309.111	77.12
309.341	72.12
309.571	95.12
309.8	88.12
310.03	75.12
310.26	81.12
310.49	88.12
310.72	72.12
310.949	81.12
311.179	78.12
311.409	88.12
311.639	93.12
311.868	85.12
312.098	75.12
312.328	85.12
312.557	76.12
312.787	79.12
313.017	83.12
313.246	80.12
313.476	78.12
313.706	75.12
313.935	81.12
314.165	85.12
314.394	80.12
314.624	80.12
314.853	75.12
315.083	86.12
315.312	78.12
315.542	82.12
315.771	84.12
316.001	93.12
316.23	91.12
316.46	86.12
316.689	78.12
316.919	78.12
317.148	78.12
317.377	87.12
317.607	84.12
317.836	85.12
318.065	84.12
318.295	94.12
318.524	80.12
318.753	91.12
318.983	71.12
319.212	83.12
319.441	80.12
319.67	67.12
319.9	100.12
320.129	85.12
320.358	83.12
320.587	71.12
320.816	79.12
321.046	90.12
321.275	81.12
321.504	66.12
321.733	76.12
321.962	89.12
322.191	89.12
322.42	90.12
322.649	83.12
322.878	99.12
323.108	70.12
323.337	76.12
323.566	81.12
323.795	85.12
324.024	79.12
324.253	67.12
324.482	68.12
324.71	65.12
324.939	89.12
325.168	74.12
325.397	81.12
325.626	88.12
325.855	85.12
326.084	77.12
326.313	88.12
326.542	77.12
326.77	80.12
326.999	72.12
327.228	79.12
327.457	65.12
327.686	77.12
327.914	92.12
328.143	87.12
328.372	76.12
328.6	86.12
328.829	83.12
329.058	77.12
329.287	86.12
329.515	82.12
329.744	71.12
329.972	84.12
330.201	91.12
330.43	95.12
330.658	91.12
330.887	72.12
331.115	80.12
331.344	72.12
331.572	84.12
331.801	80.12
332.03	78.12
332.258	78.12
332.486	93.12
332.715	89.12
332.943	88.12
333.172	83.12
333.4	68.12
333.629	79.12
333.857	88.12
334.085	83.12
334.314	91.12
334.542	77.12
334.771	82.12
334.999	96.12
335.227	65.12
335.455	76.12
335.684	77.12
335.912	79.12
336.14	81.12
336.369	84.12
336.597	75.12
336.825	82.12
337.053	90.12
337.281	72.12
337.51	91.12
337.738	82.12
337.966	76.12
338.194	84.12
338.422	87.12
338.65	93.12
338.878	79.12
339.106	88.12
339.334	94.12
339.562	70.12
339.79	77.12
340.018	66.12
340.246	82.12
340.474	84.12
340.702	77.12
340.93	80.12
341.158	82.12
341.386	83.12
341.614	91.12
341.842	80.12
342.07	86.12
342.298	88.12
342.526	97.12
342.754	68.12
342.981	86.12
343.209	88.12
343.437	88.12
343.665	83.12
343.893	61.12
344.12	82.12
344.348	89.12
344.576	83.12
344.804	88.12
345.031	87.12
345.259	83.12
345.487	87.12
345.714	74.12
345.942	87.12
346.17	76.12
346.397	76.12
346.625	79.12
346.853	81.12
347.08	79.12
347.308	61.12
347.535	65.12
347.763	80.12
347.99	84.12
348.218	81.12
348.445	74.12
348.673	84.12
348.9	71.12
349.128	73.12
349.355	76.12
349.583	76.12
349.81	81.12
350.037	84.12
350.265	86.12
350.492	79.12
350.72	78.12
350.947	67.12
351.174	80.12
351.402	77.12
351.629	81.12
351.856	78.12
352.083	72.12
352.311	64.12
352.538	81.12
352.765	80.12
352.992	78.12
353.22	88.12
353.447	85.12
353.674	74.12
353.901	87.12
354.128	78.12
354.355	78.12
354.583	90.12
354.81	101.12
355.037	86.12
355.264	79.12
355.491	84.12
355.718	69.12
355.945	91.12
356.172	83.12
356.399	76.12
356.626	80.12
356.853	92.12
357.08	87.12
357.307	92.12
357.534	88.12
357.761	76.12
357.988	77.12
358.215	95.12
358.441	72.12
358.668	89.12
358.895	84.12
359.122	85.12
359.349	66.12
359.576	77.12
359.802	84.12
360.029	78.12
360.256	77.12
360.483	72.12
360.709	71.12
360.936	77.12
361.163	81.12
361.39	78.12
361.616	86.12
361.843	85.12
362.07	97.12
362.296	84.12
362.523	87.12
362.749	73.12
362.976	72.12
363.203	81.12
363.429	71.12
363.656	89.12
363.882	65.12
364.109	75.12
364.335	78.12
364.562	79.12
364.788	63.12
365.015	75.12
365.241	79.12
365.468	88.12
365.694	78.12
365.92	100.12
366.147	78.12
366.373	80.12
366.599	79.12
366.826	81.12
367.052	69.12
367.278	91.12
367.505	88.12
367.731	84.12
367.957	88.12
368.184	77.12
368.41	75.12
368.636	71.12
368.862	72.12
369.089	81.12
369.315	76.12
369.541	87.12
369.767	78.12
369.993	84.12
370.219	83.12
370.445	87.12
370.672	90.12
370.898	74.12
371.124	77.12
371.35	68.12
371.576	81.12
371.802	90.12
372.028	89.12
372.254	71.12
372.48	69.12
372.706	80.12
372.932	81.12
373.158	77.12
373.384	88.12
373.61	71.12
373.835	80.12
374.061	77.12
374.287	70.12
374.513	71.12
374.739	84.12
374.965	83.12
375.191	77.12
375.416	76.12
375.642	77.12
375.868	84.12
376.094	80.12
376.319	74.12
376.545	75.12
376.771	79.12
376.997	77.12
377.222	69.12
377.448	82.12
377.674	84.12
377.899	82.12
378.125	84.12
378.35	88.12
378.576	78.12
378.802	76.12
379.027	82.12
379.253	92.12
379.478	81.12
379.704	85.12
379.929	68.12
380.155	63.12
380.38	81.12
380.606	84.12
380.831	78.12
381.057	89.12
381.282	77.12
381.507	79.12
381.733	86.12
381.958	90.12
382.184	80.12
382.409	77.12
382.634	76.12
382.86	58.12
383.085	81.12
383.31	73.12
383.535	73.12
383.761	68.12
383.986	73.12
384.211	76.12
384.436	67.12
384.662	86.12
384.887	73.12
385.112	85.12
385.337	77.12
385.562	74.12
385.787	74.12
386.013	75.12
386.238	84.12
386.463	88.12
386.688	86.12
386.913	85.12
387.138	89.12
387.363	70.12
387.588	69.12
387.813	89.12
388.038	89.12
388.263	78.12
388.488	86.12
388.713	80.12
388.938	71.12
389.163	75.12
389.387	77.12
389.612	87.12
389.837	84.12
390.062	86.12
390.287	89.12
390.512	84.12
390.736	73.12
390.961	90.12
391.186	90.12
391.411	82.12
391.636	72.12
391.86	89.12
392.085	77.12
392.31	79.12
392.534	94.12
392.759	94.12
392.984	78.12
393.208	68.12
393.433	85.12
393.658	89.12
393.882	84.12
394.107	88.12
394.331	86.12
394.556	67.12
394.78	87.12
395.005	70.12
395.229	81.12
395.454	89.12
395.678	78.12
395.903	80.12
396.127	81.12
396.352	91.12
396.576	78.12
396.801	75.12
397.025	80.12
397.249	88.12
397.474	85.12
397.698	89.12
397.922	87.12
398.147	71.12
398.371	81.12
398.595	70.12
398.82	87.12
399.044	93.12
399.268	71.12
399.492	82.12
399.717	83.12
399.941	60.12
400.165	97.12
400.389	82.12
400.613	73.12
400.837	78.12
401.062	78.12
401.286	79.12
401.51	86.12
401.734	85.12
401.958	89.12
402.182	77.12
402.406	93.12
402.63	90.12
402.854	94.12
403.078	86.12
403.302	90.12
403.526	89.12
403.75	86.12
403.974	80.12
404.198	87.12
404.422	91.12
404.645	97.12
404.869	77.12
405.093	100.12
405.317	90.12
405.541	100.12
405.765	85.12
405.988	78.12
406.212	69.12
406.436	85.12
406.66	77.12
406.883	77.12
407.107	87.12
407.331	94.12
407.555	70.12
407.778	84.12
408.002	89.12
408.226	81.12
408.449	87.12
408.673	86.12
408.896	77.12
409.12	66.12
409.344	75.12
409.567	93.12
409.791	87.12
410.014	93.12
410.238	99.12
410.461	82.12
410.685	97.12
410.908	82.12
411.132	96.12
411.355	82.12
411.578	85.12
411.802	85.12
412.025	101.12
412.249	88.12
412.472	80.12
412.695	80.12
412.919	80.12
413.142	92.12
413.365	83.12
413.589	81.12
413.812	72.12
414.035	95.12
414.258	84.12
414.482	88.12
414.705	96.12
414.928	87.12
415.151	77.12
415.374	88.12
415.597	83.12
415.821	85.12
416.044	90.12
416.267	84.12
416.49	90.12
416.713	79.12
416.936	82.12
417.159	89.12
417.382	91.12
417.605	78.12
417.828	92.12
418.051	88.12
418.274	94.12
418.497	100.12
418.72	83.12
418.943	89.12
419.166	99.12
419.389	78.12
419.611	91.12
419.834	97.12
420.057	82.12
420.28	88.12
420.503	88.12
420.726	88.12
420.948	92.12
421.171	104.12
421.394	79.12
421.617	96.12
421.839	91.12
422.062	92.12
422.285	104.12
422.507	99.12
422.73	78.12
422.953	80.12
423.175	79.12
423.398	86.12
423.621	89.12
423.843	85.12
424.066	74.12
424.288	93.12
424.511	95.12
424.733	95.12
424.956	89.12
425.178	103.12
425.401	84.12
425.623	87.12
425.846	89.12
426.068	98.12
426.291	101.12
426.513	87.12
426.735	91.12
426.958	80.12
427.18	94.12
427.402	91.12
427.625	82.12
427.847	77.12
428.069	95.12
428.292	99.12
428.514	95.12
428.736	107.12
428.958	97.12
429.181	88.12
429.403	102.12
429.625	74.12
429.847	77.12
430.069	92.12
430.292	80.12
430.514	89.12
430.736	69.12
430.958	88.12
431.18	76.12
431.402	98.12
431.624	79.12
431.846	76.12
432.068	66.12
432.29	77.12
432.512	90.12
432.734	81.12
432.956	87.12
433.178	90.12
433.4	95.12
433.622	105.12
433.844	88.12
434.066	82.12
434.287	84.12
434.509	84.12
434.731	78.12
434.953	76.12
435.175	87.12
435.397	93.12
435.618	91.12
435.84	100.12
436.062	81.12
436.284	86.12
436.505	94.12
436.727	88.12
436.949	100.12
437.17	95.12
437.392	94.12
437.614	88.12
437.835	76.12
438.057	85.12
438.278	79.12
438.5	95.12
438.721	78.12
438.943	99.12
439.165	89.12
439.386	94.12
439.608	98.12
439.829	94.12
440.05	98.12
440.272	95.12
440.493	92.12
440.715	92.12
440.936	95.12
441.158	84.12
441.379	88.12
441.6	89.12
441.822	106.12
442.043	84.12
442.264	86.12
442.486	84.12
442.707	95.12
442.928	88.12
443.149	72.12
443.371	104.12
443.592	100.12
443.813	87.12
444.034	107.12
444.255	83.12
444.476	91.12
444.698	102.12
444.919	100.12
445.14	216.12
445.361	168.12
445.582	94.12
445.803	88.12
446.024	98.12
446.245	85.12
446.466	95.12
446.687	92.12
446.908	95.12
447.129	96.12
447.35	99.12
447.571	95.12
447.792	92.12
448.013	87.12
448.234	101.12
448.455	88.12
448.675	88.12
448.896	96.12
449.117	84.12
449.338	97.12
449.559	95.12
449.779	87.12
450	115.12
450.221	93.12
450.442	97.12
450.662	99.12
450.883	80.12
451.104	93.12
451.324	97.12
451.545	92.12
451.766	93.12
451.986	96.12
452.207	98.12
452.428	94.12
452.648	86.12
452.869	95.12
453.089	87.12
453.31	86.12
453.53	85.12
453.751	83.12
453.971	76.12
454.192	80.12
454.412	94.12
454.633	96.12
454.853	91.12
455.073	81.12
455.294	88.12
455.514	82.12
455.734	88.12
455.955	72.12
456.175	90.12
456.395	86.12
456.616	96.12
456.836	81.12
457.056	83.12
457.276	78.12
457.497	75.12
457.717	79.12
457.937	100.12
458.157	77.12
458.377	83.12
458.598	79.12
458.818	95.12
459.038	76.12
459.258	83.12
459.478	87.12
459.698	81.12
459.918	92.12
460.138	82.12
460.358	73.12
460.578	87.12
460.798	80.12
461.018	79.12
461.238	93.12
461.458	96.12
461.678	93.12
461.898	100.12
462.118	79.12
462.338	91.12
462.558	79.12
462.777	80.12
462.997	71.12
463.217	82.12
463.437	81.12
463.657	85.12
463.876	97.12
464.096	89.12
464.316	92.12
464.536	82.12
464.755	91.12
464.975	84.12
465.195	96.12
465.414	91.12
465.634	88.12
465.854	94.12
466.073	91.12
466.293	85.12
466.512	94.12
466.732	87.12
466.951	96.12
467.171	93.12
467.391	98.12
467.61	94.12
467.829	92.12
468.049	97.12
468.268	93.12
468.488	78.12
468.707	90.12
468.927	87.12
469.146	86.12
469.365	94.12
469.585	93.12
469.804	90.12
470.023	85.12
470.243	93.12
470.462	84.12
470.681	86.12
470.901	85.12
471.12	92.12
471.339	111.12
471.558	96.12
471.777	100.12
471.997	111.12
472.216	102.12
472.435	71.12
472.654	75.12
472.873	95.12
473.092	82.12
473.311	97.12
473.53	81.12
473.749	93.12
473.968	87.12
474.187	84.12
474.406	95.12
474.625	73.12
474.844	90.12
475.063	89.12
475.282	87.12
475.501	85.12
475.72	86.12
475.939	96.12
476.158	94.12
476.377	103.12
476.596	97.12
476.814	96.12
477.033	79.12
477.252	83.12
477.471	73.12
477.69	95.12
477.908	101.12
478.127	87.12
478.346	107.12
478.564	90.12
478.783	113.12
479.002	95.12
479.22	87.12
479.439	98.12
479.658	90.12
479.876	93.12
480.095	92.12
480.313	86.12
480.532	97.12
480.751	84.12
480.969	69.12
481.188	78.12
481.406	85.12
481.624	76.12
481.843	78.12
482.061	77.12
482.28	86.12
482.498	86.12
482.717	77.12
482.935	113.12
483.153	106.12
483.372	102.12
483.59	85.12
483.808	103.12
484.027	78.12
484.245	84.12
484.463	94.12
484.681	97.12
484.9	94.12
485.118	112.12
485.336	103.12
485.554	100.12
485.772	86.12
485.99	72.12
486.209	79.12
486.427	80.12
486.645	84.12
486.863	91.12
487.081	96.12
487.299	91.12
487.517	106.12
487.735	112.12
487.953	102.12
488.171	107.12
488.389	108.12
488.607	83.12
488.825	86.12
489.043	94.12
489.261	91.12
489.479	99.12
489.696	100.12
489.914	90.12
490.132	91.12
490.35	98.12
490.568	112.12
490.786	101.12
491.003	113.12
491.221	100.12
491.439	95.12
491.657	101.12
491.874	120.12
492.092	127.12
492.31	130.12
492.527	116.12
492.745	124.12
492.963	104.12
493.18	93.12
493.398	101.12
493.615	111.12
493.833	111.12
494.05	99.12
494.268	107.12
494.485	102.12
494.703	103.12
494.92	99.12
495.138	96.12
495.355	114.12
495.573	88.12
495.79	117.12
496.008	115.12
496.225	120.12
496.442	108.12
496.66	111.12
496.877	99.12
497.094	108.12
497.312	98.12
497.529	90.12
497.746	97.12
497.963	94.12
498.181	87.12
498.398	93.12
498.615	89.12
498.832	98.12
499.049	85.12
499.267	103.12
499.484	84.12
499.701	95.12
499.918	89.12
500.135	90.12
500.352	106.12
500.569	98.12
500.786	107.12
501.003	72.12
501.22	92.12
501.437	110.12
501.654	83.12
501.871	89.12
502.088	91.12
502.305	104.12
502.522	103.12
502.739	95.12
502.956	96.12
503.172	92.12
503.389	85.12
503.606	82.12
503.823	94.12
504.04	93.12
504.256	99.12
504.473	87.12
504.69	89.12
504.907	97.12
505.123	79.12
505.34	72.12
505.557	96.12
505.773	88.12
505.99	105.12
506.207	113.12
506.423	96.12
506.64	79.12
506.856	87.12
507.073	89.12
507.289	98.12
507.506	92.12
507.722	92.12
507.939	79.12
508.155	97.12
508.372	100.12
508.588	85.12
508.805	84.12
509.021	84.12
509.238	92.12
509.454	90.12
509.67	79.12
509.887	89.12
510.103	84.12
510.319	78.12
510.536	96.12
510.752	89.12
510.968	89.12
511.184	85.12
511.401	79.12
511.617	74.12
511.833	87.12
512.049	85.12
512.265	90.12
512.481	78.12
512.698	78.12
512.914	96.12
513.13	96.12
513.346	76.12
513.562	76.12
513.778	80.12
513.994	66.12
514.21	86.12
514.426	96.12
514.642	88.12
514.858	80.12
515.074	82.12
515.29	79.12
515.506	62.12
515.721	77.12
515.937	87.12
516.153	83.12
516.369	85.12
516.585	91.12
516.801	92.12
517.016	83.12
517.232	70.12
517.448	86.12
517.664	85.12
517.879	87.12
518.095	85.12
518.311	80.12
