Data from Location3.07152019.Energy5.Lamp.07192019.3%Agarose_HRD10591_15-19-32-270.txt Node
Date: Fri Jul 19 15:19:32 EDT 2019
User: cochatt
Spectrometer: HR+D1059
Trigger mode: 1
Integration Time (sec): 1.000000E-1
Scans to average: 1
Electric dark correction enabled: true
Nonlinearity correction enabled: false
Boxcar width: 0
XAxis mode: Wavelengths
Number of Pixels in Spectrum: 2048
>>>>>Begin Spectral Data<<<<<
223.165	-18.94
223.4	-18.94
223.635	-18.94
223.869	-14.94
224.104	-27.94
224.338	-10.94
224.573	-12.94
224.808	-2.94
225.042	-12.94
225.277	-0.94
225.511	2.06
225.746	11.06
225.98	7.06
226.215	-1.94
226.449	15.06
226.683	29.06
226.918	14.06
227.152	26.06
227.387	32.06
227.621	36.06
227.856	41.06
228.09	38.06
228.324	42.06
228.559	58.06
228.793	54.06
229.027	67.06
229.262	69.06
229.496	67.06
229.73	65.06
229.964	71.06
230.199	78.06
230.433	74.06
230.667	72.06
230.901	65.06
231.136	73.06
231.37	74.06
231.604	69.06
231.838	75.06
232.072	82.06
232.306	86.06
232.541	86.06
232.775	80.06
233.009	79.06
233.243	77.06
233.477	71.06
233.711	80.06
233.945	82.06
234.179	78.06
234.413	91.06
234.647	74.06
234.881	91.06
235.115	71.06
235.349	83.06
235.583	59.06
235.817	85.06
236.051	75.06
236.285	82.06
236.519	81.06
236.753	87.06
236.987	87.06
237.221	74.06
237.455	88.06
237.689	83.06
237.922	74.06
238.156	77.06
238.39	84.06
238.624	84.06
238.858	75.06
239.091	70.06
239.325	80.06
239.559	75.06
239.793	79.06
240.027	81.06
240.26	82.06
240.494	77.06
240.728	85.06
240.961	62.06
241.195	81.06
241.429	72.06
241.662	79.06
241.896	65.06
242.13	71.06
242.363	63.06
242.597	75.06
242.83	65.06
243.064	66.06
243.298	89.06
243.531	65.06
243.765	72.06
243.998	81.06
244.232	71.06
244.465	83.06
244.699	85.06
244.932	62.06
245.166	66.06
245.399	66.06
245.633	69.06
245.866	90.06
246.099	69.06
246.333	77.06
246.566	85.06
246.8	71.06
247.033	59.06
247.266	77.06
247.5	70.06
247.733	69.06
247.966	77.06
248.2	73.06
248.433	82.06
248.666	67.06
248.899	74.06
249.133	83.06
249.366	77.06
249.599	75.06
249.832	71.06
250.066	94.06
250.299	66.06
250.532	78.06
250.765	70.06
250.998	55.06
251.231	78.06
251.465	96.06
251.698	74.06
251.931	71.06
252.164	67.06
252.397	71.06
252.63	83.06
252.863	80.06
253.096	60.06
253.329	80.06
253.562	79.06
253.795	73.06
254.028	80.06
254.261	86.06
254.494	76.06
254.727	72.06
254.96	71.06
255.193	75.06
255.426	75.06
255.659	74.06
255.892	87.06
256.124	73.06
256.357	81.06
256.59	95.06
256.823	82.06
257.056	73.06
257.289	78.06
257.521	66.06
257.754	80.06
257.987	76.06
258.22	94.06
258.452	81.06
258.685	91.06
258.918	79.06
259.151	71.06
259.383	79.06
259.616	73.06
259.849	85.06
260.081	77.06
260.314	80.06
260.547	86.06
260.779	78.06
261.012	63.06
261.244	87.06
261.477	86.06
261.71	96.06
261.942	83.06
262.175	71.06
262.407	83.06
262.64	81.06
262.872	67.06
263.105	71.06
263.337	93.06
263.57	72.06
263.802	78.06
264.035	84.06
264.267	75.06
264.499	85.06
264.732	71.06
264.964	67.06
265.197	82.06
265.429	87.06
265.661	72.06
265.894	85.06
266.126	86.06
266.358	78.06
266.591	83.06
266.823	85.06
267.055	75.06
267.287	81.06
267.52	86.06
267.752	78.06
267.984	82.06
268.216	79.06
268.448	87.06
268.681	76.06
268.913	71.06
269.145	98.06
269.377	87.06
269.609	75.06
269.841	78.06
270.073	78.06
270.306	101.06
270.538	91.06
270.77	75.06
271.002	80.06
271.234	96.06
271.466	75.06
271.698	85.06
271.93	82.06
272.162	76.06
272.394	73.06
272.626	77.06
272.858	86.06
273.09	70.06
273.322	77.06
273.553	89.06
273.785	83.06
274.017	84.06
274.249	84.06
274.481	72.06
274.713	75.06
274.945	72.06
275.176	71.06
275.408	80.06
275.64	79.06
275.872	84.06
276.104	90.06
276.335	75.06
276.567	88.06
276.799	79.06
277.031	74.06
277.262	93.06
277.494	83.06
277.726	72.06
277.957	89.06
278.189	80.06
278.421	88.06
278.652	84.06
278.884	94.06
279.115	65.06
279.347	77.06
279.579	79.06
279.81	69.06
280.042	91.06
280.273	81.06
280.505	80.06
280.736	84.06
280.968	71.06
281.199	81.06
281.431	83.06
281.662	79.06
281.894	91.06
282.125	86.06
282.356	80.06
282.588	89.06
282.819	65.06
283.051	77.06
283.282	82.06
283.513	79.06
283.745	81.06
283.976	76.06
284.207	80.06
284.439	96.06
284.67	74.06
284.901	82.06
285.132	83.06
285.364	75.06
285.595	79.06
285.826	78.06
286.057	84.06
286.288	80.06
286.52	90.06
286.751	77.06
286.982	82.06
287.213	82.06
287.444	79.06
287.675	72.06
287.906	97.06
288.138	71.06
288.369	83.06
288.6	84.06
288.831	84.06
289.062	80.06
289.293	82.06
289.524	79.06
289.755	76.06
289.986	93.06
290.217	80.06
290.448	77.06
290.679	74.06
290.91	104.06
291.141	81.06
291.371	78.06
291.602	75.06
291.833	86.06
292.064	80.06
292.295	73.06
292.526	91.06
292.757	80.06
292.987	81.06
293.218	75.06
293.449	72.06
293.68	90.06
293.91	80.06
294.141	82.06
294.372	80.06
294.603	92.06
294.833	84.06
295.064	89.06
295.295	82.06
295.525	83.06
295.756	85.06
295.987	78.06
296.217	91.06
296.448	86.06
296.679	88.06
296.909	93.06
297.14	83.06
297.37	84.06
297.601	64.06
297.831	82.06
298.062	83.06
298.292	68.06
298.523	76.06
298.753	72.06
298.984	77.06
299.214	74.06
299.445	87.06
299.675	75.06
299.905	76.06
300.136	70.06
300.366	92.06
300.597	78.06
300.827	95.06
301.057	70.06
301.288	86.06
301.518	76.06
301.748	86.06
301.979	78.06
302.209	74.06
302.439	79.06
302.669	87.06
302.9	74.06
303.13	94.06
303.36	92.06
303.59	93.06
303.82	78.06
304.051	88.06
304.281	85.06
304.511	84.06
304.741	86.06
304.971	89.06
305.201	91.06
305.431	86.06
305.661	97.06
305.891	73.06
306.121	86.06
306.352	83.06
306.582	81.06
306.812	85.06
307.042	90.06
307.272	81.06
307.502	81.06
307.731	74.06
307.961	81.06
308.191	71.06
308.421	89.06
308.651	87.06
308.881	82.06
309.111	73.06
309.341	88.06
309.571	90.06
309.8	83.06
310.03	90.06
310.26	88.06
310.49	83.06
310.72	75.06
310.949	80.06
311.179	74.06
311.409	68.06
311.639	80.06
311.868	85.06
312.098	80.06
312.328	87.06
312.557	79.06
312.787	91.06
313.017	80.06
313.246	78.06
313.476	72.06
313.706	85.06
313.935	77.06
314.165	85.06
314.394	97.06
314.624	88.06
314.853	79.06
315.083	76.06
315.312	80.06
315.542	75.06
315.771	75.06
316.001	94.06
316.23	76.06
316.46	75.06
316.689	101.06
316.919	87.06
317.148	95.06
317.377	84.06
317.607	86.06
317.836	79.06
318.065	94.06
318.295	76.06
318.524	94.06
318.753	64.06
318.983	68.06
319.212	88.06
319.441	75.06
319.67	101.06
319.9	83.06
320.129	73.06
320.358	73.06
320.587	89.06
320.816	82.06
321.046	86.06
321.275	85.06
321.504	70.06
321.733	80.06
321.962	89.06
322.191	89.06
322.42	91.06
322.649	88.06
322.878	84.06
323.108	94.06
323.337	81.06
323.566	74.06
323.795	85.06
324.024	87.06
324.253	79.06
324.482	81.06
324.71	92.06
324.939	92.06
325.168	82.06
325.397	62.06
325.626	81.06
325.855	95.06
326.084	80.06
326.313	82.06
326.542	100.06
326.77	88.06
326.999	81.06
327.228	86.06
327.457	88.06
327.686	79.06
327.914	89.06
328.143	77.06
328.372	92.06
328.6	74.06
328.829	87.06
329.058	85.06
329.287	72.06
329.515	71.06
329.744	83.06
329.972	87.06
330.201	93.06
330.43	77.06
330.658	72.06
330.887	79.06
331.115	85.06
331.344	81.06
331.572	86.06
331.801	73.06
332.03	93.06
332.258	94.06
332.486	80.06
332.715	97.06
332.943	81.06
333.172	90.06
333.4	89.06
333.629	86.06
333.857	91.06
334.085	104.06
334.314	80.06
334.542	93.06
334.771	86.06
334.999	75.06
335.227	89.06
335.455	84.06
335.684	71.06
335.912	85.06
336.14	77.06
336.369	70.06
336.597	97.06
336.825	82.06
337.053	79.06
337.281	86.06
337.51	92.06
337.738	77.06
337.966	78.06
338.194	81.06
338.422	69.06
338.65	83.06
338.878	80.06
339.106	83.06
339.334	77.06
339.562	79.06
339.79	90.06
340.018	90.06
340.246	66.06
340.474	82.06
340.702	87.06
340.93	85.06
341.158	81.06
341.386	87.06
341.614	81.06
341.842	88.06
342.07	79.06
342.298	82.06
342.526	75.06
342.754	99.06
342.981	74.06
343.209	79.06
343.437	85.06
343.665	70.06
343.893	85.06
344.12	80.06
344.348	81.06
344.576	85.06
344.804	85.06
345.031	83.06
345.259	88.06
345.487	82.06
345.714	76.06
345.942	83.06
346.17	82.06
346.397	85.06
346.625	85.06
346.853	77.06
347.08	70.06
347.308	79.06
347.535	85.06
347.763	68.06
347.99	73.06
348.218	92.06
348.445	79.06
348.673	93.06
348.9	84.06
349.128	97.06
349.355	90.06
349.583	87.06
349.81	72.06
350.037	76.06
350.265	86.06
350.492	77.06
350.72	73.06
350.947	73.06
351.174	85.06
351.402	81.06
351.629	76.06
351.856	92.06
352.083	66.06
352.311	81.06
352.538	98.06
352.765	87.06
352.992	75.06
353.22	81.06
353.447	81.06
353.674	90.06
353.901	77.06
354.128	87.06
354.355	78.06
354.583	79.06
354.81	84.06
355.037	76.06
355.264	86.06
355.491	93.06
355.718	80.06
355.945	73.06
356.172	81.06
356.399	86.06
356.626	84.06
356.853	85.06
357.08	77.06
357.307	97.06
357.534	70.06
357.761	95.06
357.988	83.06
358.215	84.06
358.441	76.06
358.668	75.06
358.895	74.06
359.122	80.06
359.349	79.06
359.576	80.06
359.802	69.06
360.029	85.06
360.256	76.06
360.483	82.06
360.709	66.06
360.936	82.06
361.163	75.06
361.39	77.06
361.616	95.06
361.843	80.06
362.07	77.06
362.296	63.06
362.523	81.06
362.749	92.06
362.976	99.06
363.203	95.06
363.429	74.06
363.656	82.06
363.882	88.06
364.109	89.06
364.335	85.06
364.562	80.06
364.788	84.06
365.015	93.06
365.241	67.06
365.468	87.06
365.694	72.06
365.92	85.06
366.147	78.06
366.373	74.06
366.599	76.06
366.826	78.06
367.052	82.06
367.278	87.06
367.505	81.06
367.731	85.06
367.957	80.06
368.184	87.06
368.41	103.06
368.636	74.06
368.862	85.06
369.089	81.06
369.315	87.06
369.541	82.06
369.767	75.06
369.993	89.06
370.219	84.06
370.445	74.06
370.672	90.06
370.898	71.06
371.124	83.06
371.35	86.06
371.576	74.06
371.802	92.06
372.028	83.06
372.254	73.06
372.48	77.06
372.706	83.06
372.932	78.06
373.158	89.06
373.384	72.06
373.61	86.06
373.835	73.06
374.061	77.06
374.287	81.06
374.513	84.06
374.739	74.06
374.965	83.06
375.191	92.06
375.416	86.06
375.642	86.06
375.868	79.06
376.094	82.06
376.319	76.06
376.545	72.06
376.771	88.06
376.997	86.06
377.222	63.06
377.448	98.06
377.674	85.06
377.899	77.06
378.125	91.06
378.35	90.06
378.576	89.06
378.802	90.06
379.027	89.06
379.253	81.06
379.478	92.06
379.704	82.06
379.929	81.06
380.155	85.06
380.38	85.06
380.606	97.06
380.831	85.06
381.057	78.06
381.282	78.06
381.507	85.06
381.733	84.06
381.958	85.06
382.184	78.06
382.409	76.06
382.634	96.06
382.86	97.06
383.085	90.06
383.31	85.06
383.535	81.06
383.761	76.06
383.986	80.06
384.211	101.06
384.436	83.06
384.662	80.06
384.887	72.06
385.112	85.06
385.337	73.06
385.562	95.06
385.787	85.06
386.013	87.06
386.238	86.06
386.463	86.06
386.688	74.06
386.913	88.06
387.138	62.06
387.363	79.06
387.588	90.06
387.813	79.06
388.038	85.06
388.263	83.06
388.488	89.06
388.713	80.06
388.938	88.06
389.163	95.06
389.387	82.06
389.612	82.06
389.837	89.06
390.062	83.06
390.287	83.06
390.512	97.06
390.736	80.06
390.961	71.06
391.186	76.06
391.411	104.06
391.636	79.06
391.86	95.06
392.085	89.06
392.31	67.06
392.534	77.06
392.759	78.06
392.984	80.06
393.208	87.06
393.433	86.06
393.658	82.06
393.882	89.06
394.107	78.06
394.331	76.06
394.556	82.06
394.78	91.06
395.005	78.06
395.229	93.06
395.454	91.06
395.678	93.06
395.903	82.06
396.127	88.06
396.352	84.06
396.576	106.06
396.801	97.06
397.025	95.06
397.249	79.06
397.474	86.06
397.698	90.06
397.922	84.06
398.147	88.06
398.371	91.06
398.595	88.06
398.82	92.06
399.044	81.06
399.268	92.06
399.492	82.06
399.717	72.06
399.941	84.06
400.165	84.06
400.389	74.06
400.613	93.06
400.837	75.06
401.062	75.06
401.286	64.06
401.51	82.06
401.734	85.06
401.958	97.06
402.182	75.06
402.406	76.06
402.63	83.06
402.854	79.06
403.078	85.06
403.302	101.06
403.526	83.06
403.75	79.06
403.974	73.06
404.198	102.06
404.422	91.06
404.645	86.06
404.869	86.06
405.093	101.06
405.317	95.06
405.541	79.06
405.765	83.06
405.988	89.06
406.212	78.06
406.436	71.06
406.66	94.06
406.883	99.06
407.107	90.06
407.331	66.06
407.555	79.06
407.778	104.06
408.002	82.06
408.226	83.06
408.449	92.06
408.673	101.06
408.896	87.06
409.12	79.06
409.344	87.06
409.567	89.06
409.791	81.06
410.014	76.06
410.238	93.06
410.461	101.06
410.685	92.06
410.908	86.06
411.132	93.06
411.355	84.06
411.578	72.06
411.802	102.06
412.025	93.06
412.249	78.06
412.472	91.06
412.695	76.06
412.919	90.06
413.142	100.06
413.365	87.06
413.589	94.06
413.812	93.06
414.035	94.06
414.258	89.06
414.482	74.06
414.705	90.06
414.928	81.06
415.151	86.06
415.374	101.06
415.597	99.06
415.821	99.06
416.044	95.06
416.267	93.06
416.49	91.06
416.713	92.06
416.936	96.06
417.159	86.06
417.382	98.06
417.605	102.06
417.828	97.06
418.051	93.06
418.274	95.06
418.497	88.06
418.72	73.06
418.943	106.06
419.166	79.06
419.389	86.06
419.611	86.06
419.834	95.06
420.057	92.06
420.28	100.06
420.503	94.06
420.726	97.06
420.948	92.06
421.171	90.06
421.394	90.06
421.617	97.06
421.839	95.06
422.062	103.06
422.285	97.06
422.507	102.06
422.73	98.06
422.953	82.06
423.175	82.06
423.398	103.06
423.621	98.06
423.843	105.06
424.066	85.06
424.288	89.06
424.511	96.06
424.733	96.06
424.956	86.06
425.178	93.06
425.401	73.06
425.623	80.06
425.846	94.06
426.068	86.06
426.291	94.06
426.513	101.06
426.735	103.06
426.958	99.06
427.18	94.06
427.402	96.06
427.625	113.06
427.847	100.06
428.069	88.06
428.292	100.06
428.514	86.06
428.736	88.06
428.958	102.06
429.181	104.06
429.403	86.06
429.625	97.06
429.847	101.06
430.069	86.06
430.292	91.06
430.514	96.06
430.736	93.06
430.958	94.06
431.18	90.06
431.402	87.06
431.624	97.06
431.846	92.06
432.068	76.06
432.29	85.06
432.512	81.06
432.734	86.06
432.956	106.06
433.178	112.06
433.4	88.06
433.622	102.06
433.844	79.06
434.066	90.06
434.287	82.06
434.509	78.06
434.731	86.06
434.953	87.06
435.175	82.06
435.397	90.06
435.618	75.06
435.84	97.06
436.062	99.06
436.284	94.06
436.505	96.06
436.727	90.06
436.949	91.06
437.17	85.06
437.392	83.06
437.614	82.06
437.835	83.06
438.057	98.06
438.278	105.06
438.5	93.06
438.721	87.06
438.943	90.06
439.165	108.06
439.386	101.06
439.608	93.06
439.829	96.06
440.05	95.06
440.272	90.06
440.493	88.06
440.715	102.06
440.936	95.06
441.158	97.06
441.379	103.06
441.6	97.06
441.822	87.06
442.043	98.06
442.264	88.06
442.486	93.06
442.707	84.06
442.928	97.06
443.149	91.06
443.371	100.06
443.592	102.06
443.813	106.06
444.034	100.06
444.255	101.06
444.476	106.06
444.698	90.06
444.919	98.06
445.14	219.06
445.361	153.06
445.582	99.06
445.803	89.06
446.024	98.06
446.245	100.06
446.466	96.06
446.687	108.06
446.908	100.06
447.129	101.06
447.35	99.06
447.571	101.06
447.792	103.06
448.013	101.06
448.234	95.06
448.455	91.06
448.675	87.06
448.896	97.06
449.117	90.06
449.338	89.06
449.559	98.06
449.779	88.06
450	82.06
450.221	82.06
450.442	97.06
450.662	87.06
450.883	97.06
451.104	101.06
451.324	99.06
451.545	100.06
451.766	81.06
451.986	92.06
452.207	99.06
452.428	97.06
452.648	101.06
452.869	92.06
453.089	105.06
453.31	79.06
453.53	80.06
453.751	86.06
453.971	97.06
454.192	69.06
454.412	82.06
454.633	90.06
454.853	88.06
455.073	88.06
455.294	93.06
455.514	100.06
455.734	93.06
455.955	97.06
456.175	89.06
456.395	89.06
456.616	93.06
456.836	85.06
457.056	84.06
457.276	87.06
457.497	84.06
457.717	87.06
457.937	83.06
458.157	95.06
458.377	78.06
458.598	74.06
458.818	97.06
459.038	72.06
459.258	85.06
459.478	77.06
459.698	74.06
459.918	72.06
460.138	88.06
460.358	85.06
460.578	91.06
460.798	92.06
461.018	82.06
461.238	98.06
461.458	103.06
461.678	96.06
461.898	86.06
462.118	96.06
462.338	89.06
462.558	76.06
462.777	87.06
462.997	106.06
463.217	82.06
463.437	78.06
463.657	64.06
463.876	92.06
464.096	93.06
464.316	89.06
464.536	81.06
464.755	84.06
464.975	85.06
465.195	88.06
465.414	96.06
465.634	95.06
465.854	82.06
466.073	93.06
466.293	89.06
466.512	99.06
466.732	102.06
466.951	109.06
467.171	97.06
467.391	94.06
467.61	91.06
467.829	98.06
468.049	85.06
468.268	97.06
468.488	101.06
468.707	85.06
468.927	92.06
469.146	101.06
469.365	98.06
469.585	83.06
469.804	92.06
470.023	103.06
470.243	87.06
470.462	97.06
470.681	117.06
470.901	97.06
471.12	92.06
471.339	91.06
471.558	102.06
471.777	92.06
471.997	86.06
472.216	81.06
472.435	89.06
472.654	92.06
472.873	96.06
473.092	94.06
473.311	86.06
473.53	96.06
473.749	105.06
473.968	89.06
474.187	90.06
474.406	103.06
474.625	72.06
474.844	90.06
475.063	93.06
475.282	101.06
475.501	89.06
475.72	98.06
475.939	89.06
476.158	94.06
476.377	81.06
476.596	79.06
476.814	102.06
477.033	94.06
477.252	85.06
477.471	86.06
477.69	107.06
477.908	98.06
478.127	90.06
478.346	85.06
478.564	106.06
478.783	95.06
479.002	82.06
479.22	95.06
479.439	112.06
479.658	88.06
479.876	87.06
480.095	88.06
480.313	96.06
480.532	74.06
480.751	75.06
480.969	91.06
481.188	82.06
481.406	79.06
481.624	90.06
481.843	88.06
482.061	86.06
482.28	94.06
482.498	88.06
482.717	88.06
482.935	94.06
483.153	93.06
483.372	104.06
483.59	109.06
483.808	99.06
484.027	105.06
484.245	95.06
484.463	105.06
484.681	96.06
484.9	91.06
485.118	97.06
485.336	98.06
485.554	94.06
485.772	83.06
485.99	85.06
486.209	79.06
486.427	88.06
486.645	100.06
486.863	89.06
487.081	104.06
487.299	90.06
487.517	82.06
487.735	95.06
487.953	114.06
488.171	128.06
488.389	118.06
488.607	93.06
488.825	99.06
489.043	80.06
489.261	100.06
489.479	101.06
489.696	95.06
489.914	85.06
490.132	103.06
490.35	112.06
490.568	95.06
490.786	98.06
491.003	112.06
491.221	106.06
491.439	101.06
491.657	112.06
491.874	123.06
492.092	121.06
492.31	126.06
492.527	117.06
492.745	118.06
492.963	113.06
493.18	115.06
493.398	107.06
493.615	105.06
493.833	109.06
494.05	113.06
494.268	111.06
494.485	107.06
494.703	105.06
494.92	126.06
495.138	114.06
495.355	109.06
495.573	113.06
495.79	102.06
496.008	113.06
496.225	115.06
496.442	102.06
496.66	93.06
496.877	99.06
497.094	99.06
497.312	105.06
497.529	87.06
497.746	96.06
497.963	86.06
498.181	106.06
498.398	101.06
498.615	91.06
498.832	90.06
499.049	84.06
499.267	98.06
499.484	105.06
499.701	90.06
499.918	102.06
500.135	98.06
500.352	94.06
500.569	84.06
500.786	101.06
501.003	106.06
501.22	99.06
501.437	84.06
501.654	98.06
501.871	96.06
502.088	91.06
502.305	102.06
502.522	103.06
502.739	83.06
502.956	100.06
503.172	84.06
503.389	98.06
503.606	87.06
503.823	91.06
504.04	83.06
504.256	106.06
504.473	99.06
504.69	95.06
504.907	99.06
505.123	92.06
505.34	86.06
505.557	90.06
505.773	100.06
505.99	100.06
506.207	89.06
506.423	83.06
506.64	83.06
506.856	104.06
507.073	95.06
507.289	103.06
507.506	96.06
507.722	82.06
507.939	101.06
508.155	99.06
508.372	87.06
508.588	81.06
508.805	86.06
509.021	93.06
509.238	71.06
509.454	89.06
509.67	75.06
509.887	88.06
510.103	80.06
510.319	72.06
510.536	96.06
510.752	81.06
510.968	84.06
511.184	76.06
511.401	84.06
511.617	88.06
511.833	85.06
512.049	84.06
512.265	83.06
512.481	71.06
512.698	83.06
512.914	73.06
513.13	78.06
513.346	101.06
513.562	93.06
513.778	94.06
513.994	93.06
514.21	79.06
514.426	92.06
514.642	67.06
514.858	89.06
515.074	80.06
515.29	84.06
515.506	88.06
515.721	88.06
515.937	87.06
516.153	89.06
516.369	71.06
516.585	74.06
516.801	82.06
517.016	90.06
517.232	94.06
517.448	88.06
517.664	106.06
