Data from Location3.07152019.Energy5.Lamp.07192019.3%Agarose_HRD10591_15-18-56-270.txt Node
Date: Fri Jul 19 15:18:56 EDT 2019
User: cochatt
Spectrometer: HR+D1059
Trigger mode: 1
Integration Time (sec): 1.000000E-1
Scans to average: 1
Electric dark correction enabled: true
Nonlinearity correction enabled: false
Boxcar width: 0
XAxis mode: Wavelengths
Number of Pixels in Spectrum: 2048
>>>>>Begin Spectral Data<<<<<
223.165	-8.88
223.4	-8.88
223.635	-8.88
223.869	-13.88
224.104	-14.88
224.338	5.12
224.573	-8.88
224.808	-1.88
225.042	-9.88
225.277	-17.88
225.511	-7.88
225.746	1.12
225.98	-14.88
226.215	18.12
226.449	11.12
226.683	21.12
226.918	13.12
227.152	29.12
227.387	26.12
227.621	42.12
227.856	40.12
228.09	42.12
228.324	47.12
228.559	57.12
228.793	64.12
229.027	56.12
229.262	61.12
229.496	67.12
229.73	70.12
229.964	63.12
230.199	81.12
230.433	74.12
230.667	78.12
230.901	73.12
231.136	90.12
231.37	73.12
231.604	70.12
231.838	77.12
232.072	85.12
232.306	89.12
232.541	84.12
232.775	85.12
233.009	84.12
233.243	81.12
233.477	73.12
233.711	81.12
233.945	82.12
234.179	82.12
234.413	75.12
234.647	75.12
234.881	75.12
235.115	94.12
235.349	79.12
235.583	79.12
235.817	79.12
236.051	68.12
236.285	73.12
236.519	68.12
236.753	81.12
236.987	74.12
237.221	78.12
237.455	84.12
237.689	65.12
237.922	71.12
238.156	73.12
238.39	70.12
238.624	74.12
238.858	74.12
239.091	69.12
239.325	71.12
239.559	78.12
239.793	71.12
240.027	83.12
240.26	81.12
240.494	82.12
240.728	79.12
240.961	89.12
241.195	80.12
241.429	80.12
241.662	87.12
241.896	74.12
242.13	77.12
242.363	82.12
242.597	71.12
242.83	86.12
243.064	83.12
243.298	81.12
243.531	88.12
243.765	74.12
243.998	94.12
244.232	95.12
244.465	78.12
244.699	72.12
244.932	82.12
245.166	83.12
245.399	82.12
245.633	78.12
245.866	80.12
246.099	77.12
246.333	70.12
246.566	80.12
246.8	70.12
247.033	67.12
247.266	57.12
247.5	76.12
247.733	82.12
247.966	83.12
248.2	89.12
248.433	63.12
248.666	70.12
248.899	72.12
249.133	82.12
249.366	88.12
249.599	87.12
249.832	70.12
250.066	83.12
250.299	75.12
250.532	66.12
250.765	72.12
250.998	86.12
251.231	82.12
251.465	88.12
251.698	69.12
251.931	88.12
252.164	69.12
252.397	73.12
252.63	71.12
252.863	75.12
253.096	81.12
253.329	81.12
253.562	70.12
253.795	85.12
254.028	79.12
254.261	80.12
254.494	73.12
254.727	74.12
254.96	83.12
255.193	72.12
255.426	80.12
255.659	80.12
255.892	83.12
256.124	74.12
256.357	79.12
256.59	75.12
256.823	72.12
257.056	83.12
257.289	87.12
257.521	80.12
257.754	69.12
257.987	79.12
258.22	79.12
258.452	74.12
258.685	78.12
258.918	83.12
259.151	86.12
259.383	86.12
259.616	92.12
259.849	91.12
260.081	81.12
260.314	86.12
260.547	97.12
260.779	87.12
261.012	83.12
261.244	88.12
261.477	81.12
261.71	85.12
261.942	84.12
262.175	76.12
262.407	88.12
262.64	79.12
262.872	71.12
263.105	87.12
263.337	71.12
263.57	85.12
263.802	75.12
264.035	66.12
264.267	76.12
264.499	83.12
264.732	91.12
264.964	81.12
265.197	88.12
265.429	94.12
265.661	80.12
265.894	75.12
266.126	81.12
266.358	83.12
266.591	78.12
266.823	87.12
267.055	78.12
267.287	81.12
267.52	78.12
267.752	75.12
267.984	73.12
268.216	80.12
268.448	92.12
268.681	73.12
268.913	81.12
269.145	82.12
269.377	79.12
269.609	79.12
269.841	90.12
270.073	74.12
270.306	81.12
270.538	86.12
270.77	82.12
271.002	70.12
271.234	90.12
271.466	71.12
271.698	88.12
271.93	79.12
272.162	70.12
272.394	86.12
272.626	86.12
272.858	74.12
273.09	91.12
273.322	76.12
273.553	72.12
273.785	68.12
274.017	81.12
274.249	94.12
274.481	93.12
274.713	63.12
274.945	82.12
275.176	78.12
275.408	72.12
275.64	85.12
275.872	85.12
276.104	71.12
276.335	75.12
276.567	73.12
276.799	93.12
277.031	77.12
277.262	96.12
277.494	92.12
277.726	97.12
277.957	86.12
278.189	88.12
278.421	82.12
278.652	85.12
278.884	88.12
279.115	92.12
279.347	91.12
279.579	83.12
279.81	84.12
280.042	91.12
280.273	90.12
280.505	79.12
280.736	77.12
280.968	79.12
281.199	83.12
281.431	81.12
281.662	76.12
281.894	89.12
282.125	77.12
282.356	89.12
282.588	82.12
282.819	73.12
283.051	93.12
283.282	83.12
283.513	73.12
283.745	95.12
283.976	67.12
284.207	78.12
284.439	81.12
284.67	81.12
284.901	76.12
285.132	88.12
285.364	69.12
285.595	100.12
285.826	79.12
286.057	84.12
286.288	92.12
286.52	87.12
286.751	86.12
286.982	70.12
287.213	74.12
287.444	85.12
287.675	87.12
287.906	83.12
288.138	81.12
288.369	88.12
288.6	78.12
288.831	79.12
289.062	75.12
289.293	74.12
289.524	75.12
289.755	88.12
289.986	83.12
290.217	97.12
290.448	82.12
290.679	74.12
290.91	95.12
291.141	83.12
291.371	89.12
291.602	84.12
291.833	82.12
292.064	76.12
292.295	74.12
292.526	84.12
292.757	90.12
292.987	83.12
293.218	82.12
293.449	84.12
293.68	77.12
293.91	74.12
294.141	82.12
294.372	79.12
294.603	81.12
294.833	85.12
295.064	70.12
295.295	80.12
295.525	93.12
295.756	69.12
295.987	79.12
296.217	87.12
296.448	72.12
296.679	86.12
296.909	82.12
297.14	88.12
297.37	78.12
297.601	81.12
297.831	86.12
298.062	79.12
298.292	88.12
298.523	94.12
298.753	69.12
298.984	79.12
299.214	81.12
299.445	96.12
299.675	79.12
299.905	75.12
300.136	78.12
300.366	90.12
300.597	83.12
300.827	79.12
301.057	75.12
301.288	77.12
301.518	86.12
301.748	89.12
301.979	83.12
302.209	78.12
302.439	79.12
302.669	79.12
302.9	87.12
303.13	82.12
303.36	81.12
303.59	83.12
303.82	82.12
304.051	81.12
304.281	78.12
304.511	87.12
304.741	83.12
304.971	87.12
305.201	91.12
305.431	81.12
305.661	83.12
305.891	83.12
306.121	81.12
306.352	83.12
306.582	74.12
306.812	81.12
307.042	78.12
307.272	75.12
307.502	81.12
307.731	78.12
307.961	81.12
308.191	67.12
308.421	89.12
308.651	90.12
308.881	71.12
309.111	87.12
309.341	78.12
309.571	81.12
309.8	96.12
310.03	76.12
310.26	69.12
310.49	82.12
310.72	78.12
310.949	89.12
311.179	105.12
311.409	101.12
311.639	89.12
311.868	93.12
312.098	85.12
312.328	84.12
312.557	84.12
312.787	73.12
313.017	80.12
313.246	86.12
313.476	73.12
313.706	78.12
313.935	87.12
314.165	85.12
314.394	79.12
314.624	78.12
314.853	87.12
315.083	89.12
315.312	66.12
315.542	79.12
315.771	85.12
316.001	82.12
316.23	83.12
316.46	87.12
316.689	82.12
316.919	78.12
317.148	91.12
317.377	88.12
317.607	83.12
317.836	90.12
318.065	84.12
318.295	73.12
318.524	79.12
318.753	90.12
318.983	84.12
319.212	80.12
319.441	78.12
319.67	79.12
319.9	87.12
320.129	97.12
320.358	70.12
320.587	69.12
320.816	79.12
321.046	84.12
321.275	73.12
321.504	84.12
321.733	71.12
321.962	90.12
322.191	91.12
322.42	87.12
322.649	83.12
322.878	81.12
323.108	84.12
323.337	75.12
323.566	96.12
323.795	93.12
324.024	75.12
324.253	90.12
324.482	82.12
324.71	85.12
324.939	88.12
325.168	98.12
325.397	96.12
325.626	85.12
325.855	76.12
326.084	81.12
326.313	81.12
326.542	89.12
326.77	88.12
326.999	86.12
327.228	82.12
327.457	74.12
327.686	94.12
327.914	89.12
328.143	72.12
328.372	81.12
328.6	77.12
328.829	81.12
329.058	89.12
329.287	75.12
329.515	76.12
329.744	85.12
329.972	91.12
330.201	93.12
330.43	86.12
330.658	90.12
330.887	76.12
331.115	94.12
331.344	85.12
331.572	83.12
331.801	96.12
332.03	79.12
332.258	65.12
332.486	86.12
332.715	87.12
332.943	87.12
333.172	86.12
333.4	93.12
333.629	97.12
333.857	85.12
334.085	81.12
334.314	87.12
334.542	81.12
334.771	89.12
334.999	74.12
335.227	75.12
335.455	77.12
335.684	79.12
335.912	76.12
336.14	89.12
336.369	83.12
336.597	93.12
336.825	72.12
337.053	81.12
337.281	82.12
337.51	97.12
337.738	82.12
337.966	75.12
338.194	67.12
338.422	81.12
338.65	89.12
338.878	92.12
339.106	94.12
339.334	87.12
339.562	67.12
339.79	70.12
340.018	78.12
340.246	78.12
340.474	82.12
340.702	88.12
340.93	84.12
341.158	84.12
341.386	76.12
341.614	95.12
341.842	77.12
342.07	67.12
342.298	79.12
342.526	81.12
342.754	67.12
342.981	88.12
343.209	78.12
343.437	87.12
343.665	81.12
343.893	78.12
344.12	96.12
344.348	82.12
344.576	63.12
344.804	89.12
345.031	76.12
345.259	79.12
345.487	85.12
345.714	86.12
345.942	75.12
346.17	89.12
346.397	81.12
346.625	74.12
346.853	96.12
347.08	87.12
347.308	74.12
347.535	91.12
347.763	83.12
347.99	81.12
348.218	91.12
348.445	87.12
348.673	74.12
348.9	89.12
349.128	93.12
349.355	91.12
349.583	84.12
349.81	85.12
350.037	80.12
350.265	104.12
350.492	86.12
350.72	98.12
350.947	82.12
351.174	80.12
351.402	83.12
351.629	78.12
351.856	77.12
352.083	85.12
352.311	84.12
352.538	80.12
352.765	87.12
352.992	85.12
353.22	90.12
353.447	79.12
353.674	87.12
353.901	84.12
354.128	76.12
354.355	89.12
354.583	67.12
354.81	84.12
355.037	82.12
355.264	82.12
355.491	94.12
355.718	86.12
355.945	93.12
356.172	76.12
356.399	84.12
356.626	73.12
356.853	70.12
357.08	84.12
357.307	82.12
357.534	69.12
357.761	76.12
357.988	74.12
358.215	75.12
358.441	80.12
358.668	77.12
358.895	66.12
359.122	85.12
359.349	85.12
359.576	83.12
359.802	84.12
360.029	82.12
360.256	88.12
360.483	78.12
360.709	80.12
360.936	82.12
361.163	86.12
361.39	79.12
361.616	71.12
361.843	89.12
362.07	83.12
362.296	90.12
362.523	82.12
362.749	82.12
362.976	93.12
363.203	75.12
363.429	82.12
363.656	69.12
363.882	89.12
364.109	102.12
364.335	79.12
364.562	79.12
364.788	88.12
365.015	80.12
365.241	92.12
365.468	83.12
365.694	84.12
365.92	82.12
366.147	100.12
366.373	79.12
366.599	63.12
366.826	74.12
367.052	72.12
367.278	78.12
367.505	83.12
367.731	92.12
367.957	87.12
368.184	72.12
368.41	83.12
368.636	87.12
368.862	94.12
369.089	90.12
369.315	86.12
369.541	78.12
369.767	79.12
369.993	82.12
370.219	79.12
370.445	82.12
370.672	96.12
370.898	82.12
371.124	106.12
371.35	81.12
371.576	77.12
371.802	86.12
372.028	84.12
372.254	91.12
372.48	88.12
372.706	85.12
372.932	69.12
373.158	87.12
373.384	72.12
373.61	81.12
373.835	86.12
374.061	75.12
374.287	87.12
374.513	80.12
374.739	86.12
374.965	91.12
375.191	88.12
375.416	76.12
375.642	86.12
375.868	82.12
376.094	75.12
376.319	77.12
376.545	71.12
376.771	80.12
376.997	87.12
377.222	69.12
377.448	91.12
377.674	86.12
377.899	84.12
378.125	92.12
378.35	72.12
378.576	82.12
378.802	64.12
379.027	92.12
379.253	79.12
379.478	90.12
379.704	86.12
379.929	84.12
380.155	79.12
380.38	68.12
380.606	89.12
380.831	72.12
381.057	92.12
381.282	85.12
381.507	98.12
381.733	94.12
381.958	86.12
382.184	74.12
382.409	88.12
382.634	89.12
382.86	86.12
383.085	91.12
383.31	77.12
383.535	84.12
383.761	82.12
383.986	90.12
384.211	75.12
384.436	95.12
384.662	79.12
384.887	73.12
385.112	80.12
385.337	90.12
385.562	91.12
385.787	82.12
386.013	81.12
386.238	82.12
386.463	80.12
386.688	82.12
386.913	88.12
387.138	93.12
387.363	82.12
387.588	85.12
387.813	94.12
388.038	78.12
388.263	78.12
388.488	86.12
388.713	81.12
388.938	94.12
389.163	85.12
389.387	78.12
389.612	79.12
389.837	91.12
390.062	78.12
390.287	96.12
390.512	84.12
390.736	72.12
390.961	83.12
391.186	78.12
391.411	92.12
391.636	81.12
391.86	67.12
392.085	85.12
392.31	86.12
392.534	81.12
392.759	98.12
392.984	85.12
393.208	81.12
393.433	90.12
393.658	97.12
393.882	68.12
394.107	84.12
394.331	81.12
394.556	75.12
394.78	87.12
395.005	89.12
395.229	81.12
395.454	85.12
395.678	96.12
395.903	71.12
396.127	93.12
396.352	89.12
396.576	77.12
396.801	76.12
397.025	89.12
397.249	94.12
397.474	97.12
397.698	89.12
397.922	90.12
398.147	95.12
398.371	85.12
398.595	84.12
398.82	81.12
399.044	71.12
399.268	91.12
399.492	94.12
399.717	75.12
399.941	91.12
400.165	79.12
400.389	84.12
400.613	91.12
400.837	78.12
401.062	80.12
401.286	93.12
401.51	78.12
401.734	88.12
401.958	86.12
402.182	100.12
402.406	91.12
402.63	84.12
402.854	82.12
403.078	87.12
403.302	92.12
403.526	77.12
403.75	89.12
403.974	90.12
404.198	73.12
404.422	67.12
404.645	75.12
404.869	85.12
405.093	82.12
405.317	95.12
405.541	98.12
405.765	83.12
405.988	80.12
406.212	87.12
406.436	82.12
406.66	76.12
406.883	87.12
407.107	81.12
407.331	84.12
407.555	81.12
407.778	90.12
408.002	82.12
408.226	78.12
408.449	95.12
408.673	78.12
408.896	75.12
409.12	87.12
409.344	82.12
409.567	75.12
409.791	91.12
410.014	81.12
410.238	84.12
410.461	80.12
410.685	83.12
410.908	96.12
411.132	102.12
411.355	95.12
411.578	87.12
411.802	73.12
412.025	78.12
412.249	92.12
412.472	97.12
412.695	94.12
412.919	81.12
413.142	78.12
413.365	88.12
413.589	89.12
413.812	98.12
414.035	90.12
414.258	101.12
414.482	87.12
414.705	105.12
414.928	90.12
415.151	95.12
415.374	98.12
415.597	92.12
415.821	96.12
416.044	101.12
416.267	84.12
416.49	91.12
416.713	99.12
416.936	86.12
417.159	97.12
417.382	94.12
417.605	96.12
417.828	85.12
418.051	84.12
418.274	82.12
418.497	85.12
418.72	81.12
418.943	98.12
419.166	94.12
419.389	93.12
419.611	99.12
419.834	94.12
420.057	91.12
420.28	78.12
420.503	91.12
420.726	88.12
420.948	97.12
421.171	91.12
421.394	89.12
421.617	95.12
421.839	111.12
422.062	92.12
422.285	89.12
422.507	91.12
422.73	91.12
422.953	90.12
423.175	77.12
423.398	79.12
423.621	94.12
423.843	93.12
424.066	109.12
424.288	99.12
424.511	99.12
424.733	94.12
424.956	84.12
425.178	93.12
425.401	95.12
425.623	90.12
425.846	104.12
426.068	79.12
426.291	97.12
426.513	84.12
426.735	90.12
426.958	76.12
427.18	96.12
427.402	106.12
427.625	89.12
427.847	83.12
428.069	91.12
428.292	82.12
428.514	90.12
428.736	104.12
428.958	98.12
429.181	88.12
429.403	94.12
429.625	86.12
429.847	86.12
430.069	79.12
430.292	102.12
430.514	98.12
430.736	94.12
430.958	101.12
431.18	107.12
431.402	95.12
431.624	97.12
431.846	91.12
432.068	86.12
432.29	83.12
432.512	104.12
432.734	79.12
432.956	83.12
433.178	102.12
433.4	115.12
433.622	93.12
433.844	97.12
434.066	96.12
434.287	90.12
434.509	87.12
434.731	85.12
434.953	89.12
435.175	96.12
435.397	100.12
435.618	91.12
435.84	93.12
436.062	94.12
436.284	90.12
436.505	89.12
436.727	102.12
436.949	95.12
437.17	96.12
437.392	89.12
437.614	102.12
437.835	85.12
438.057	77.12
438.278	84.12
438.5	103.12
438.721	89.12
438.943	99.12
439.165	84.12
439.386	85.12
439.608	103.12
439.829	97.12
440.05	114.12
440.272	107.12
440.493	92.12
440.715	109.12
440.936	112.12
441.158	95.12
441.379	83.12
441.6	97.12
441.822	94.12
442.043	98.12
442.264	82.12
442.486	89.12
442.707	104.12
442.928	103.12
443.149	101.12
443.371	109.12
443.592	93.12
443.813	100.12
444.034	87.12
444.255	97.12
444.476	99.12
444.698	93.12
444.919	82.12
445.14	217.12
445.361	159.12
445.582	103.12
445.803	101.12
446.024	102.12
446.245	107.12
446.466	115.12
446.687	89.12
446.908	90.12
447.129	106.12
447.35	100.12
447.571	94.12
447.792	99.12
448.013	88.12
448.234	115.12
448.455	109.12
448.675	93.12
448.896	81.12
449.117	86.12
449.338	85.12
449.559	88.12
449.779	94.12
450	89.12
450.221	109.12
450.442	96.12
450.662	97.12
450.883	89.12
451.104	105.12
451.324	98.12
451.545	112.12
451.766	98.12
451.986	88.12
452.207	104.12
452.428	93.12
452.648	97.12
452.869	110.12
453.089	89.12
453.31	88.12
453.53	82.12
453.751	83.12
453.971	88.12
454.192	88.12
454.412	72.12
454.633	90.12
454.853	91.12
455.073	97.12
455.294	90.12
455.514	97.12
455.734	84.12
455.955	91.12
456.175	91.12
456.395	84.12
456.616	87.12
456.836	90.12
457.056	93.12
457.276	73.12
457.497	92.12
457.717	82.12
457.937	81.12
458.157	82.12
458.377	83.12
458.598	72.12
458.818	102.12
459.038	80.12
459.258	77.12
459.478	99.12
459.698	73.12
459.918	75.12
460.138	86.12
460.358	94.12
460.578	97.12
460.798	80.12
461.018	83.12
461.238	90.12
461.458	100.12
461.678	81.12
461.898	83.12
462.118	93.12
462.338	88.12
462.558	101.12
462.777	92.12
462.997	85.12
463.217	91.12
463.437	108.12
463.657	95.12
463.876	95.12
464.096	91.12
464.316	92.12
464.536	87.12
464.755	96.12
464.975	81.12
465.195	92.12
465.414	88.12
465.634	81.12
465.854	88.12
466.073	87.12
466.293	100.12
466.512	94.12
466.732	101.12
466.951	102.12
467.171	111.12
467.391	99.12
467.61	104.12
467.829	79.12
468.049	96.12
468.268	85.12
468.488	104.12
468.707	103.12
468.927	107.12
469.146	94.12
469.365	106.12
469.585	95.12
469.804	103.12
470.023	111.12
470.243	90.12
470.462	82.12
470.681	103.12
470.901	94.12
471.12	95.12
471.339	95.12
471.558	105.12
471.777	95.12
471.997	90.12
472.216	109.12
472.435	97.12
472.654	69.12
472.873	97.12
473.092	99.12
473.311	85.12
473.53	103.12
473.749	88.12
473.968	83.12
474.187	84.12
474.406	91.12
474.625	105.12
474.844	84.12
475.063	86.12
475.282	95.12
475.501	87.12
475.72	106.12
475.939	85.12
476.158	82.12
476.377	100.12
476.596	92.12
476.814	100.12
477.033	93.12
477.252	71.12
477.471	84.12
477.69	98.12
477.908	95.12
478.127	102.12
478.346	96.12
478.564	97.12
478.783	91.12
479.002	86.12
479.22	106.12
479.439	110.12
479.658	85.12
479.876	77.12
480.095	81.12
480.313	76.12
480.532	83.12
480.751	83.12
480.969	86.12
481.188	77.12
481.406	81.12
481.624	77.12
481.843	87.12
482.061	83.12
482.28	85.12
482.498	81.12
482.717	79.12
482.935	80.12
483.153	102.12
483.372	104.12
483.59	104.12
483.808	102.12
484.027	89.12
484.245	80.12
484.463	97.12
484.681	90.12
484.9	94.12
485.118	97.12
485.336	87.12
485.554	90.12
485.772	86.12
485.99	80.12
486.209	85.12
486.427	93.12
486.645	86.12
486.863	110.12
487.081	94.12
487.299	105.12
487.517	94.12
487.735	106.12
487.953	103.12
488.171	115.12
488.389	111.12
488.607	99.12
488.825	94.12
489.043	102.12
489.261	97.12
489.479	106.12
489.696	113.12
489.914	106.12
490.132	104.12
490.35	87.12
490.568	119.12
490.786	99.12
491.003	111.12
491.221	111.12
491.439	115.12
491.657	119.12
491.874	117.12
492.092	127.12
492.31	131.12
492.527	137.12
492.745	118.12
492.963	109.12
493.18	101.12
493.398	111.12
493.615	106.12
493.833	115.12
494.05	119.12
494.268	113.12
494.485	106.12
494.703	104.12
494.92	97.12
495.138	106.12
495.355	113.12
495.573	100.12
495.79	102.12
496.008	105.12
496.225	96.12
496.442	125.12
496.66	115.12
496.877	96.12
497.094	119.12
497.312	111.12
497.529	116.12
497.746	109.12
497.963	83.12
498.181	93.12
498.398	102.12
498.615	88.12
498.832	89.12
499.049	91.12
499.267	94.12
499.484	87.12
499.701	97.12
499.918	117.12
500.135	99.12
500.352	101.12
500.569	87.12
500.786	103.12
501.003	105.12
501.22	113.12
501.437	118.12
501.654	110.12
501.871	106.12
502.088	100.12
502.305	91.12
502.522	96.12
502.739	101.12
502.956	96.12
503.172	98.12
503.389	92.12
503.606	92.12
503.823	94.12
504.04	93.12
504.256	84.12
504.473	97.12
504.69	94.12
504.907	107.12
505.123	85.12
505.34	90.12
505.557	73.12
505.773	94.12
505.99	91.12
506.207	97.12
506.423	93.12
506.64	101.12
506.856	87.12
507.073	94.12
507.289	100.12
507.506	109.12
507.722	90.12
507.939	93.12
508.155	99.12
508.372	95.12
508.588	96.12
508.805	86.12
509.021	93.12
509.238	84.12
509.454	82.12
509.67	87.12
509.887	86.12
510.103	97.12
510.319	78.12
510.536	81.12
510.752	81.12
510.968	83.12
511.184	83.12
511.401	70.12
511.617	85.12
511.833	91.12
512.049	74.12
512.265	90.12
512.481	90.12
512.698	87.12
512.914	99.12
513.13	85.12
513.346	85.12
513.562	91.12
513.778	87.12
513.994	93.12
514.21	87.12
514.426	90.12
514.642	86.12
514.858	95.12
515.074	102.12
515.29	81.12
515.506	89.12
515.721	85.12
515.937	78.12
516.153	90.12
516.369	93.12
516.585	76.12
516.801	80.12
517.016	91.12
517.232	89.12
517.448	79.12
517.664	74.12
