Data from Location3.07152019.Energy5.Lamp.07192019.3%Agarose_HRD10591_15-18-12-269.txt Node
Date: Fri Jul 19 15:18:12 EDT 2019
User: cochatt
Spectrometer: HR+D1059
Trigger mode: 1
Integration Time (sec): 1.000000E-1
Scans to average: 1
Electric dark correction enabled: true
Nonlinearity correction enabled: false
Boxcar width: 0
XAxis mode: Wavelengths
Number of Pixels in Spectrum: 2048
>>>>>Begin Spectral Data<<<<<
223.165	-26.62
223.4	-26.62
223.635	-26.62
223.869	0.38
224.104	-29.62
224.338	3.38
224.573	-9.62
224.808	-17.62
225.042	-15.62
225.277	1.38
225.511	-9.62
225.746	8.38
225.98	1.38
226.215	15.38
226.449	16.38
226.683	16.38
226.918	16.38
227.152	29.38
227.387	17.38
227.621	31.38
227.856	37.38
228.09	38.38
228.324	48.38
228.559	64.38
228.793	58.38
229.027	72.38
229.262	61.38
229.496	46.38
229.73	55.38
229.964	64.38
230.199	62.38
230.433	79.38
230.667	81.38
230.901	77.38
231.136	98.38
231.37	78.38
231.604	76.38
231.838	67.38
232.072	78.38
232.306	89.38
232.541	79.38
232.775	76.38
233.009	79.38
233.243	79.38
233.477	91.38
233.711	66.38
233.945	84.38
234.179	67.38
234.413	82.38
234.647	80.38
234.881	84.38
235.115	74.38
235.349	69.38
235.583	84.38
235.817	73.38
236.051	78.38
236.285	71.38
236.519	90.38
236.753	74.38
236.987	64.38
237.221	78.38
237.455	66.38
237.689	69.38
237.922	84.38
238.156	78.38
238.39	79.38
238.624	65.38
238.858	82.38
239.091	70.38
239.325	56.38
239.559	68.38
239.793	69.38
240.027	74.38
240.26	76.38
240.494	73.38
240.728	80.38
240.961	82.38
241.195	94.38
241.429	86.38
241.662	76.38
241.896	81.38
242.13	73.38
242.363	66.38
242.597	68.38
242.83	71.38
243.064	70.38
243.298	72.38
243.531	75.38
243.765	82.38
243.998	69.38
244.232	74.38
244.465	72.38
244.699	70.38
244.932	70.38
245.166	72.38
245.399	67.38
245.633	82.38
245.866	68.38
246.099	79.38
246.333	79.38
246.566	64.38
246.8	82.38
247.033	80.38
247.266	80.38
247.5	83.38
247.733	70.38
247.966	80.38
248.2	71.38
248.433	90.38
248.666	71.38
248.899	86.38
249.133	76.38
249.366	59.38
249.599	71.38
249.832	79.38
250.066	67.38
250.299	87.38
250.532	91.38
250.765	83.38
250.998	80.38
251.231	81.38
251.465	70.38
251.698	76.38
251.931	77.38
252.164	81.38
252.397	71.38
252.63	76.38
252.863	77.38
253.096	67.38
253.329	77.38
253.562	74.38
253.795	76.38
254.028	87.38
254.261	77.38
254.494	85.38
254.727	92.38
254.96	75.38
255.193	86.38
255.426	96.38
255.659	78.38
255.892	87.38
256.124	82.38
256.357	70.38
256.59	87.38
256.823	83.38
257.056	70.38
257.289	78.38
257.521	73.38
257.754	79.38
257.987	65.38
258.22	78.38
258.452	76.38
258.685	80.38
258.918	66.38
259.151	96.38
259.383	80.38
259.616	89.38
259.849	73.38
260.081	84.38
260.314	62.38
260.547	70.38
260.779	70.38
261.012	80.38
261.244	91.38
261.477	82.38
261.71	83.38
261.942	90.38
262.175	73.38
262.407	92.38
262.64	99.38
262.872	65.38
263.105	70.38
263.337	75.38
263.57	69.38
263.802	67.38
264.035	86.38
264.267	59.38
264.499	83.38
264.732	85.38
264.964	77.38
265.197	80.38
265.429	94.38
265.661	76.38
265.894	86.38
266.126	87.38
266.358	80.38
266.591	81.38
266.823	82.38
267.055	82.38
267.287	84.38
267.52	74.38
267.752	80.38
267.984	71.38
268.216	91.38
268.448	80.38
268.681	72.38
268.913	83.38
269.145	74.38
269.377	90.38
269.609	85.38
269.841	84.38
270.073	70.38
270.306	59.38
270.538	77.38
270.77	77.38
271.002	77.38
271.234	74.38
271.466	72.38
271.698	88.38
271.93	83.38
272.162	74.38
272.394	93.38
272.626	82.38
272.858	69.38
273.09	84.38
273.322	86.38
273.553	91.38
273.785	87.38
274.017	87.38
274.249	82.38
274.481	70.38
274.713	79.38
274.945	82.38
275.176	76.38
275.408	86.38
275.64	77.38
275.872	80.38
276.104	66.38
276.335	82.38
276.567	92.38
276.799	83.38
277.031	71.38
277.262	68.38
277.494	81.38
277.726	73.38
277.957	77.38
278.189	80.38
278.421	87.38
278.652	85.38
278.884	84.38
279.115	78.38
279.347	82.38
279.579	88.38
279.81	81.38
280.042	85.38
280.273	77.38
280.505	80.38
280.736	79.38
280.968	89.38
281.199	95.38
281.431	68.38
281.662	75.38
281.894	94.38
282.125	79.38
282.356	85.38
282.588	79.38
282.819	80.38
283.051	85.38
283.282	82.38
283.513	90.38
283.745	88.38
283.976	86.38
284.207	73.38
284.439	74.38
284.67	80.38
284.901	76.38
285.132	72.38
285.364	80.38
285.595	90.38
285.826	76.38
286.057	86.38
286.288	68.38
286.52	91.38
286.751	77.38
286.982	72.38
287.213	84.38
287.444	83.38
287.675	77.38
287.906	99.38
288.138	68.38
288.369	89.38
288.6	78.38
288.831	72.38
289.062	83.38
289.293	84.38
289.524	76.38
289.755	77.38
289.986	88.38
290.217	80.38
290.448	80.38
290.679	81.38
290.91	64.38
291.141	68.38
291.371	79.38
291.602	72.38
291.833	70.38
292.064	74.38
292.295	83.38
292.526	82.38
292.757	85.38
292.987	80.38
293.218	88.38
293.449	81.38
293.68	76.38
293.91	65.38
294.141	76.38
294.372	74.38
294.603	76.38
294.833	81.38
295.064	95.38
295.295	67.38
295.525	76.38
295.756	92.38
295.987	86.38
296.217	84.38
296.448	65.38
296.679	80.38
296.909	89.38
297.14	80.38
297.37	93.38
297.601	86.38
297.831	86.38
298.062	69.38
298.292	81.38
298.523	83.38
298.753	81.38
298.984	92.38
299.214	85.38
299.445	76.38
299.675	78.38
299.905	98.38
300.136	80.38
300.366	76.38
300.597	69.38
300.827	79.38
301.057	76.38
301.288	75.38
301.518	87.38
301.748	68.38
301.979	67.38
302.209	75.38
302.439	77.38
302.669	82.38
302.9	84.38
303.13	84.38
303.36	84.38
303.59	70.38
303.82	73.38
304.051	80.38
304.281	93.38
304.511	86.38
304.741	65.38
304.971	75.38
305.201	87.38
305.431	86.38
305.661	94.38
305.891	90.38
306.121	96.38
306.352	81.38
306.582	95.38
306.812	64.38
307.042	71.38
307.272	74.38
307.502	81.38
307.731	86.38
307.961	89.38
308.191	77.38
308.421	82.38
308.651	85.38
308.881	90.38
309.111	100.38
309.341	69.38
309.571	75.38
309.8	91.38
310.03	80.38
310.26	92.38
310.49	92.38
310.72	83.38
310.949	74.38
311.179	82.38
311.409	80.38
311.639	80.38
311.868	79.38
312.098	84.38
312.328	83.38
312.557	72.38
312.787	83.38
313.017	86.38
313.246	69.38
313.476	94.38
313.706	86.38
313.935	94.38
314.165	94.38
314.394	77.38
314.624	80.38
314.853	76.38
315.083	86.38
315.312	92.38
315.542	91.38
315.771	87.38
316.001	72.38
316.23	79.38
316.46	71.38
316.689	89.38
316.919	82.38
317.148	82.38
317.377	63.38
317.607	87.38
317.836	80.38
318.065	85.38
318.295	91.38
318.524	81.38
318.753	90.38
318.983	85.38
319.212	85.38
319.441	88.38
319.67	87.38
319.9	82.38
320.129	80.38
320.358	91.38
320.587	69.38
320.816	80.38
321.046	87.38
321.275	82.38
321.504	85.38
321.733	85.38
321.962	73.38
322.191	79.38
322.42	92.38
322.649	85.38
322.878	85.38
323.108	86.38
323.337	91.38
323.566	85.38
323.795	97.38
324.024	78.38
324.253	82.38
324.482	89.38
324.71	84.38
324.939	99.38
325.168	83.38
325.397	74.38
325.626	75.38
325.855	81.38
326.084	75.38
326.313	84.38
326.542	75.38
326.77	91.38
326.999	84.38
327.228	80.38
327.457	72.38
327.686	94.38
327.914	95.38
328.143	101.38
328.372	73.38
328.6	87.38
328.829	80.38
329.058	75.38
329.287	92.38
329.515	81.38
329.744	84.38
329.972	77.38
330.201	71.38
330.43	68.38
330.658	83.38
330.887	70.38
331.115	83.38
331.344	76.38
331.572	77.38
331.801	79.38
332.03	84.38
332.258	86.38
332.486	76.38
332.715	93.38
332.943	88.38
333.172	84.38
333.4	81.38
333.629	90.38
333.857	79.38
334.085	81.38
334.314	71.38
334.542	67.38
334.771	85.38
334.999	89.38
335.227	77.38
335.455	76.38
335.684	74.38
335.912	87.38
336.14	87.38
336.369	79.38
336.597	102.38
336.825	88.38
337.053	89.38
337.281	100.38
337.51	86.38
337.738	85.38
337.966	88.38
338.194	94.38
338.422	87.38
338.65	87.38
338.878	88.38
339.106	83.38
339.334	91.38
339.562	75.38
339.79	78.38
340.018	81.38
340.246	63.38
340.474	83.38
340.702	80.38
340.93	68.38
341.158	98.38
341.386	68.38
341.614	88.38
341.842	86.38
342.07	93.38
342.298	78.38
342.526	85.38
342.754	93.38
342.981	95.38
343.209	94.38
343.437	95.38
343.665	75.38
343.893	88.38
344.12	88.38
344.348	98.38
344.576	82.38
344.804	87.38
345.031	88.38
345.259	86.38
345.487	76.38
345.714	94.38
345.942	79.38
346.17	76.38
346.397	75.38
346.625	63.38
346.853	82.38
347.08	83.38
347.308	80.38
347.535	61.38
347.763	93.38
347.99	90.38
348.218	67.38
348.445	84.38
348.673	88.38
348.9	75.38
349.128	95.38
349.355	85.38
349.583	74.38
349.81	83.38
350.037	74.38
350.265	87.38
350.492	82.38
350.72	88.38
350.947	78.38
351.174	91.38
351.402	72.38
351.629	78.38
351.856	87.38
352.083	76.38
352.311	78.38
352.538	87.38
352.765	73.38
352.992	85.38
353.22	86.38
353.447	65.38
353.674	78.38
353.901	88.38
354.128	88.38
354.355	79.38
354.583	75.38
354.81	94.38
355.037	95.38
355.264	76.38
355.491	76.38
355.718	78.38
355.945	65.38
356.172	66.38
356.399	83.38
356.626	79.38
356.853	88.38
357.08	91.38
357.307	85.38
357.534	84.38
357.761	95.38
357.988	83.38
358.215	86.38
358.441	87.38
358.668	72.38
358.895	88.38
359.122	76.38
359.349	76.38
359.576	75.38
359.802	80.38
360.029	83.38
360.256	92.38
360.483	82.38
360.709	66.38
360.936	86.38
361.163	74.38
361.39	98.38
361.616	95.38
361.843	74.38
362.07	78.38
362.296	75.38
362.523	75.38
362.749	74.38
362.976	79.38
363.203	84.38
363.429	80.38
363.656	86.38
363.882	73.38
364.109	79.38
364.335	89.38
364.562	86.38
364.788	72.38
365.015	89.38
365.241	67.38
365.468	80.38
365.694	95.38
365.92	78.38
366.147	66.38
366.373	78.38
366.599	91.38
366.826	80.38
367.052	93.38
367.278	78.38
367.505	77.38
367.731	86.38
367.957	70.38
368.184	81.38
368.41	86.38
368.636	86.38
368.862	96.38
369.089	85.38
369.315	75.38
369.541	76.38
369.767	91.38
369.993	85.38
370.219	74.38
370.445	94.38
370.672	93.38
370.898	86.38
371.124	80.38
371.35	92.38
371.576	91.38
371.802	90.38
372.028	77.38
372.254	69.38
372.48	89.38
372.706	77.38
372.932	96.38
373.158	96.38
373.384	87.38
373.61	72.38
373.835	76.38
374.061	73.38
374.287	69.38
374.513	90.38
374.739	75.38
374.965	69.38
375.191	75.38
375.416	73.38
375.642	80.38
375.868	93.38
376.094	89.38
376.319	86.38
376.545	72.38
376.771	84.38
376.997	84.38
377.222	78.38
377.448	79.38
377.674	80.38
377.899	81.38
378.125	69.38
378.35	85.38
378.576	78.38
378.802	85.38
379.027	80.38
379.253	87.38
379.478	80.38
379.704	75.38
379.929	83.38
380.155	76.38
380.38	80.38
380.606	80.38
380.831	78.38
381.057	83.38
381.282	82.38
381.507	87.38
381.733	83.38
381.958	76.38
382.184	78.38
382.409	83.38
382.634	81.38
382.86	83.38
383.085	80.38
383.31	64.38
383.535	83.38
383.761	79.38
383.986	85.38
384.211	69.38
384.436	86.38
384.662	92.38
384.887	79.38
385.112	79.38
385.337	72.38
385.562	80.38
385.787	81.38
386.013	69.38
386.238	63.38
386.463	79.38
386.688	78.38
386.913	81.38
387.138	92.38
387.363	78.38
387.588	95.38
387.813	78.38
388.038	100.38
388.263	98.38
388.488	74.38
388.713	96.38
388.938	86.38
389.163	80.38
389.387	71.38
389.612	79.38
389.837	77.38
390.062	90.38
390.287	87.38
390.512	91.38
390.736	92.38
390.961	80.38
391.186	87.38
391.411	81.38
391.636	82.38
391.86	82.38
392.085	87.38
392.31	76.38
392.534	90.38
392.759	90.38
392.984	91.38
393.208	82.38
393.433	88.38
393.658	91.38
393.882	82.38
394.107	82.38
394.331	74.38
394.556	94.38
394.78	80.38
395.005	93.38
395.229	94.38
395.454	97.38
395.678	82.38
395.903	91.38
396.127	81.38
396.352	86.38
396.576	80.38
396.801	71.38
397.025	83.38
397.249	82.38
397.474	98.38
397.698	89.38
397.922	90.38
398.147	80.38
398.371	98.38
398.595	82.38
398.82	82.38
399.044	82.38
399.268	70.38
399.492	83.38
399.717	76.38
399.941	106.38
400.165	94.38
400.389	90.38
400.613	86.38
400.837	84.38
401.062	78.38
401.286	84.38
401.51	78.38
401.734	76.38
401.958	97.38
402.182	83.38
402.406	83.38
402.63	85.38
402.854	87.38
403.078	88.38
403.302	95.38
403.526	92.38
403.75	83.38
403.974	91.38
404.198	82.38
404.422	75.38
404.645	88.38
404.869	90.38
405.093	88.38
405.317	88.38
405.541	86.38
405.765	83.38
405.988	95.38
406.212	89.38
406.436	95.38
406.66	91.38
406.883	80.38
407.107	71.38
407.331	83.38
407.555	94.38
407.778	78.38
408.002	74.38
408.226	78.38
408.449	80.38
408.673	90.38
408.896	81.38
409.12	77.38
409.344	90.38
409.567	84.38
409.791	75.38
410.014	110.38
410.238	94.38
410.461	80.38
410.685	72.38
410.908	81.38
411.132	78.38
411.355	93.38
411.578	85.38
411.802	91.38
412.025	78.38
412.249	82.38
412.472	85.38
412.695	73.38
412.919	75.38
413.142	87.38
413.365	81.38
413.589	84.38
413.812	80.38
414.035	93.38
414.258	78.38
414.482	86.38
414.705	77.38
414.928	78.38
415.151	82.38
415.374	82.38
415.597	95.38
415.821	87.38
416.044	91.38
416.267	105.38
416.49	84.38
416.713	98.38
416.936	88.38
417.159	110.38
417.382	88.38
417.605	83.38
417.828	90.38
418.051	86.38
418.274	88.38
418.497	92.38
418.72	88.38
418.943	92.38
419.166	83.38
419.389	106.38
419.611	87.38
419.834	78.38
420.057	91.38
420.28	87.38
420.503	94.38
420.726	97.38
420.948	86.38
421.171	87.38
421.394	97.38
421.617	87.38
421.839	88.38
422.062	88.38
422.285	91.38
422.507	98.38
422.73	78.38
422.953	86.38
423.175	85.38
423.398	111.38
423.621	86.38
423.843	90.38
424.066	89.38
424.288	75.38
424.511	93.38
424.733	93.38
424.956	98.38
425.178	87.38
425.401	94.38
425.623	92.38
425.846	97.38
426.068	100.38
426.291	96.38
426.513	89.38
426.735	93.38
426.958	84.38
427.18	90.38
427.402	82.38
427.625	86.38
427.847	92.38
428.069	84.38
428.292	82.38
428.514	85.38
428.736	85.38
428.958	83.38
429.181	88.38
429.403	63.38
429.625	76.38
429.847	86.38
430.069	87.38
430.292	94.38
430.514	92.38
430.736	87.38
430.958	95.38
431.18	95.38
431.402	95.38
431.624	94.38
431.846	80.38
432.068	83.38
432.29	77.38
432.512	89.38
432.734	92.38
432.956	91.38
433.178	102.38
433.4	97.38
433.622	98.38
433.844	90.38
434.066	77.38
434.287	84.38
434.509	72.38
434.731	74.38
434.953	80.38
435.175	81.38
435.397	90.38
435.618	98.38
435.84	85.38
436.062	81.38
436.284	91.38
436.505	77.38
436.727	77.38
436.949	91.38
437.17	99.38
437.392	96.38
437.614	103.38
437.835	85.38
438.057	94.38
438.278	84.38
438.5	70.38
438.721	94.38
438.943	87.38
439.165	94.38
439.386	98.38
439.608	88.38
439.829	97.38
440.05	99.38
440.272	86.38
440.493	99.38
440.715	94.38
440.936	84.38
441.158	96.38
441.379	100.38
441.6	97.38
441.822	98.38
442.043	104.38
442.264	91.38
442.486	94.38
442.707	83.38
442.928	71.38
443.149	87.38
443.371	89.38
443.592	98.38
443.813	89.38
444.034	83.38
444.255	97.38
444.476	86.38
444.698	108.38
444.919	89.38
445.14	166.38
445.361	134.38
445.582	106.38
445.803	98.38
446.024	94.38
446.245	88.38
446.466	99.38
446.687	99.38
446.908	98.38
447.129	95.38
447.35	96.38
447.571	113.38
447.792	90.38
448.013	95.38
448.234	96.38
448.455	84.38
448.675	80.38
448.896	95.38
449.117	88.38
449.338	94.38
449.559	91.38
449.779	83.38
450	90.38
450.221	85.38
450.442	102.38
450.662	101.38
450.883	84.38
451.104	84.38
451.324	88.38
451.545	99.38
451.766	98.38
451.986	92.38
452.207	101.38
452.428	96.38
452.648	87.38
452.869	83.38
453.089	98.38
453.31	75.38
453.53	82.38
453.751	88.38
453.971	88.38
454.192	87.38
454.412	83.38
454.633	93.38
454.853	78.38
455.073	82.38
455.294	86.38
455.514	79.38
455.734	101.38
455.955	99.38
456.175	94.38
456.395	103.38
456.616	87.38
456.836	71.38
457.056	95.38
457.276	84.38
457.497	86.38
457.717	100.38
457.937	73.38
458.157	82.38
458.377	96.38
458.598	91.38
458.818	78.38
459.038	88.38
459.258	80.38
459.478	68.38
459.698	91.38
459.918	82.38
460.138	80.38
460.358	78.38
460.578	80.38
460.798	86.38
461.018	76.38
461.238	110.38
461.458	96.38
461.678	99.38
461.898	93.38
462.118	85.38
462.338	94.38
462.558	92.38
462.777	92.38
462.997	84.38
463.217	75.38
463.437	87.38
463.657	99.38
463.876	97.38
464.096	97.38
464.316	91.38
464.536	78.38
464.755	94.38
464.975	91.38
465.195	90.38
465.414	96.38
465.634	91.38
465.854	90.38
466.073	92.38
466.293	98.38
466.512	85.38
466.732	112.38
466.951	94.38
467.171	102.38
467.391	104.38
467.61	104.38
467.829	100.38
468.049	104.38
468.268	103.38
468.488	101.38
468.707	88.38
468.927	97.38
469.146	92.38
469.365	94.38
469.585	79.38
469.804	96.38
470.023	95.38
470.243	109.38
470.462	100.38
470.681	95.38
470.901	83.38
471.12	82.38
471.339	97.38
471.558	102.38
471.777	82.38
471.997	71.38
472.216	93.38
472.435	83.38
472.654	94.38
472.873	105.38
473.092	90.38
473.311	82.38
473.53	85.38
473.749	84.38
473.968	85.38
474.187	91.38
474.406	77.38
474.625	94.38
474.844	97.38
475.063	86.38
475.282	100.38
475.501	100.38
475.72	72.38
475.939	91.38
476.158	96.38
476.377	88.38
476.596	85.38
476.814	82.38
477.033	90.38
477.252	96.38
477.471	77.38
477.69	92.38
477.908	110.38
478.127	103.38
478.346	76.38
478.564	90.38
478.783	95.38
479.002	95.38
479.22	83.38
479.439	91.38
479.658	91.38
479.876	90.38
480.095	100.38
480.313	91.38
480.532	98.38
480.751	87.38
480.969	78.38
481.188	85.38
481.406	78.38
481.624	81.38
481.843	87.38
482.061	72.38
482.28	86.38
482.498	96.38
482.717	85.38
482.935	94.38
483.153	93.38
483.372	99.38
483.59	95.38
483.808	111.38
484.027	102.38
484.245	90.38
484.463	84.38
484.681	110.38
484.9	83.38
485.118	100.38
485.336	97.38
485.554	89.38
485.772	93.38
485.99	78.38
486.209	83.38
486.427	87.38
486.645	94.38
486.863	86.38
487.081	95.38
487.299	99.38
487.517	84.38
487.735	98.38
487.953	118.38
488.171	107.38
488.389	119.38
488.607	111.38
488.825	86.38
489.043	98.38
489.261	91.38
489.479	89.38
489.696	95.38
489.914	90.38
490.132	110.38
490.35	102.38
490.568	100.38
490.786	95.38
491.003	101.38
491.221	104.38
491.439	114.38
491.657	120.38
491.874	124.38
492.092	131.38
492.31	123.38
492.527	135.38
492.745	111.38
492.963	127.38
493.18	108.38
493.398	109.38
493.615	104.38
493.833	114.38
494.05	110.38
494.268	88.38
494.485	95.38
494.703	108.38
494.92	98.38
495.138	114.38
495.355	116.38
495.573	104.38
495.79	106.38
496.008	115.38
496.225	102.38
496.442	110.38
496.66	110.38
496.877	116.38
497.094	118.38
497.312	106.38
497.529	97.38
497.746	94.38
497.963	93.38
498.181	92.38
498.398	85.38
498.615	92.38
498.832	96.38
499.049	94.38
499.267	94.38
499.484	88.38
499.701	101.38
499.918	100.38
500.135	97.38
500.352	108.38
500.569	92.38
500.786	95.38
501.003	97.38
501.22	100.38
501.437	98.38
501.654	90.38
501.871	81.38
502.088	100.38
502.305	85.38
502.522	93.38
502.739	85.38
502.956	85.38
503.172	96.38
503.389	93.38
503.606	81.38
503.823	89.38
504.04	96.38
504.256	86.38
504.473	72.38
504.69	86.38
504.907	92.38
505.123	97.38
505.34	91.38
505.557	82.38
505.773	83.38
505.99	95.38
506.207	77.38
506.423	89.38
506.64	85.38
506.856	91.38
507.073	91.38
507.289	99.38
507.506	95.38
507.722	71.38
507.939	81.38
508.155	81.38
508.372	80.38
508.588	85.38
508.805	106.38
509.021	93.38
509.238	82.38
509.454	93.38
509.67	96.38
509.887	86.38
510.103	84.38
510.319	78.38
510.536	79.38
510.752	79.38
510.968	70.38
511.184	70.38
511.401	71.38
511.617	81.38
511.833	69.38
512.049	74.38
512.265	85.38
512.481	86.38
512.698	79.38
512.914	93.38
513.13	74.38
513.346	87.38
513.562	100.38
513.778	82.38
513.994	72.38
514.21	81.38
514.426	79.38
514.642	83.38
514.858	87.38
515.074	81.38
515.29	94.38
515.506	86.38
515.721	78.38
515.937	88.38
516.153	80.38
516.369	90.38
516.585	85.38
516.801	84.38
517.016	66.38
517.232	90.38
517.448	64.38
517.664	93.38
517.879	88.38
518.095	78.38
518.311	91.38
