Data from Location3.07152019.Energy5.Lamp.07192019.3%Agarose_HRD10591_15-19-28-270.txt Node
Date: Fri Jul 19 15:19:28 EDT 2019
User: cochatt
Spectrometer: HR+D1059
Trigger mode: 1
Integration Time (sec): 1.000000E-1
Scans to average: 1
Electric dark correction enabled: true
Nonlinearity correction enabled: false
Boxcar width: 0
XAxis mode: Wavelengths
Number of Pixels in Spectrum: 2048
>>>>>Begin Spectral Data<<<<<
223.165	-16.94
223.4	-16.94
223.635	-16.94
223.869	-16.94
224.104	-19.94
224.338	-17.94
224.573	-4.94
224.808	-16.94
225.042	5.06
225.277	-11.94
225.511	-10.94
225.746	-2.94
225.98	0.06
226.215	21.06
226.449	19.06
226.683	31.06
226.918	18.06
227.152	25.06
227.387	37.06
227.621	35.06
227.856	39.06
228.09	49.06
228.324	52.06
228.559	58.06
228.793	55.06
229.027	60.06
229.262	69.06
229.496	55.06
229.73	59.06
229.964	61.06
230.199	79.06
230.433	88.06
230.667	87.06
230.901	71.06
231.136	77.06
231.37	72.06
231.604	81.06
231.838	70.06
232.072	83.06
232.306	83.06
232.541	83.06
232.775	67.06
233.009	71.06
233.243	84.06
233.477	79.06
233.711	75.06
233.945	91.06
234.179	79.06
234.413	101.06
234.647	84.06
234.881	74.06
235.115	81.06
235.349	78.06
235.583	84.06
235.817	79.06
236.051	73.06
236.285	84.06
236.519	69.06
236.753	73.06
236.987	77.06
237.221	80.06
237.455	84.06
237.689	64.06
237.922	88.06
238.156	81.06
238.39	80.06
238.624	64.06
238.858	81.06
239.091	84.06
239.325	90.06
239.559	68.06
239.793	73.06
240.027	69.06
240.26	76.06
240.494	68.06
240.728	82.06
240.961	71.06
241.195	55.06
241.429	73.06
241.662	68.06
241.896	66.06
242.13	93.06
242.363	78.06
242.597	76.06
242.83	80.06
243.064	61.06
243.298	67.06
243.531	72.06
243.765	83.06
243.998	66.06
244.232	70.06
244.465	75.06
244.699	77.06
244.932	74.06
245.166	74.06
245.399	71.06
245.633	71.06
245.866	68.06
246.099	86.06
246.333	79.06
246.566	87.06
246.8	65.06
247.033	82.06
247.266	77.06
247.5	82.06
247.733	86.06
247.966	82.06
248.2	82.06
248.433	71.06
248.666	84.06
248.899	74.06
249.133	62.06
249.366	101.06
249.599	97.06
249.832	71.06
250.066	87.06
250.299	87.06
250.532	80.06
250.765	74.06
250.998	78.06
251.231	91.06
251.465	73.06
251.698	74.06
251.931	87.06
252.164	83.06
252.397	84.06
252.63	84.06
252.863	86.06
253.096	70.06
253.329	72.06
253.562	86.06
253.795	85.06
254.028	79.06
254.261	73.06
254.494	86.06
254.727	83.06
254.96	74.06
255.193	75.06
255.426	68.06
255.659	86.06
255.892	75.06
256.124	75.06
256.357	81.06
256.59	82.06
256.823	83.06
257.056	80.06
257.289	74.06
257.521	78.06
257.754	80.06
257.987	86.06
258.22	93.06
258.452	74.06
258.685	80.06
258.918	80.06
259.151	89.06
259.383	90.06
259.616	83.06
259.849	92.06
260.081	68.06
260.314	70.06
260.547	72.06
260.779	88.06
261.012	77.06
261.244	80.06
261.477	75.06
261.71	85.06
261.942	81.06
262.175	79.06
262.407	77.06
262.64	77.06
262.872	79.06
263.105	85.06
263.337	72.06
263.57	79.06
263.802	74.06
264.035	71.06
264.267	76.06
264.499	75.06
264.732	76.06
264.964	96.06
265.197	72.06
265.429	77.06
265.661	74.06
265.894	82.06
266.126	77.06
266.358	71.06
266.591	83.06
266.823	91.06
267.055	75.06
267.287	83.06
267.52	86.06
267.752	79.06
267.984	81.06
268.216	68.06
268.448	83.06
268.681	86.06
268.913	98.06
269.145	85.06
269.377	77.06
269.609	88.06
269.841	63.06
270.073	84.06
270.306	78.06
270.538	80.06
270.77	86.06
271.002	74.06
271.234	81.06
271.466	72.06
271.698	91.06
271.93	86.06
272.162	84.06
272.394	88.06
272.626	92.06
272.858	82.06
273.09	89.06
273.322	92.06
273.553	93.06
273.785	82.06
274.017	76.06
274.249	70.06
274.481	82.06
274.713	81.06
274.945	86.06
275.176	88.06
275.408	70.06
275.64	89.06
275.872	82.06
276.104	92.06
276.335	87.06
276.567	86.06
276.799	82.06
277.031	79.06
277.262	99.06
277.494	82.06
277.726	82.06
277.957	85.06
278.189	69.06
278.421	87.06
278.652	92.06
278.884	82.06
279.115	76.06
279.347	83.06
279.579	80.06
279.81	79.06
280.042	81.06
280.273	80.06
280.505	83.06
280.736	76.06
280.968	80.06
281.199	73.06
281.431	80.06
281.662	80.06
281.894	96.06
282.125	76.06
282.356	93.06
282.588	98.06
282.819	82.06
283.051	76.06
283.282	92.06
283.513	91.06
283.745	85.06
283.976	91.06
284.207	73.06
284.439	86.06
284.67	94.06
284.901	87.06
285.132	80.06
285.364	83.06
285.595	80.06
285.826	71.06
286.057	76.06
286.288	98.06
286.52	90.06
286.751	86.06
286.982	88.06
287.213	78.06
287.444	87.06
287.675	89.06
287.906	86.06
288.138	75.06
288.369	75.06
288.6	92.06
288.831	81.06
289.062	96.06
289.293	87.06
289.524	80.06
289.755	91.06
289.986	76.06
290.217	88.06
290.448	80.06
290.679	91.06
290.91	85.06
291.141	89.06
291.371	87.06
291.602	83.06
291.833	71.06
292.064	74.06
292.295	80.06
292.526	90.06
292.757	83.06
292.987	88.06
293.218	83.06
293.449	75.06
293.68	84.06
293.91	93.06
294.141	80.06
294.372	81.06
294.603	90.06
294.833	80.06
295.064	86.06
295.295	78.06
295.525	88.06
295.756	104.06
295.987	95.06
296.217	81.06
296.448	96.06
296.679	89.06
296.909	83.06
297.14	86.06
297.37	86.06
297.601	75.06
297.831	93.06
298.062	86.06
298.292	88.06
298.523	98.06
298.753	79.06
298.984	91.06
299.214	83.06
299.445	82.06
299.675	88.06
299.905	81.06
300.136	84.06
300.366	102.06
300.597	87.06
300.827	91.06
301.057	92.06
301.288	82.06
301.518	94.06
301.748	80.06
301.979	86.06
302.209	80.06
302.439	65.06
302.669	81.06
302.9	90.06
303.13	84.06
303.36	91.06
303.59	80.06
303.82	89.06
304.051	94.06
304.281	81.06
304.511	89.06
304.741	93.06
304.971	79.06
305.201	84.06
305.431	79.06
305.661	86.06
305.891	82.06
306.121	72.06
306.352	78.06
306.582	75.06
306.812	81.06
307.042	85.06
307.272	84.06
307.502	84.06
307.731	88.06
307.961	66.06
308.191	86.06
308.421	71.06
308.651	86.06
308.881	84.06
309.111	88.06
309.341	87.06
309.571	91.06
309.8	84.06
310.03	67.06
310.26	97.06
310.49	82.06
310.72	87.06
310.949	89.06
311.179	84.06
311.409	86.06
311.639	86.06
311.868	94.06
312.098	82.06
312.328	83.06
312.557	79.06
312.787	88.06
313.017	91.06
313.246	90.06
313.476	85.06
313.706	91.06
313.935	87.06
314.165	85.06
314.394	77.06
314.624	88.06
314.853	93.06
315.083	87.06
315.312	90.06
315.542	78.06
315.771	79.06
316.001	72.06
316.23	73.06
316.46	70.06
316.689	90.06
316.919	88.06
317.148	91.06
317.377	94.06
317.607	91.06
317.836	94.06
318.065	110.06
318.295	90.06
318.524	75.06
318.753	83.06
318.983	72.06
319.212	80.06
319.441	76.06
319.67	100.06
319.9	75.06
320.129	99.06
320.358	90.06
320.587	105.06
320.816	87.06
321.046	91.06
321.275	81.06
321.504	92.06
321.733	72.06
321.962	87.06
322.191	81.06
322.42	74.06
322.649	85.06
322.878	91.06
323.108	89.06
323.337	82.06
323.566	87.06
323.795	90.06
324.024	94.06
324.253	82.06
324.482	91.06
324.71	92.06
324.939	86.06
325.168	76.06
325.397	88.06
325.626	82.06
325.855	80.06
326.084	98.06
326.313	78.06
326.542	88.06
326.77	91.06
326.999	90.06
327.228	90.06
327.457	82.06
327.686	89.06
327.914	85.06
328.143	89.06
328.372	91.06
328.6	77.06
328.829	85.06
329.058	94.06
329.287	82.06
329.515	86.06
329.744	99.06
329.972	88.06
330.201	87.06
330.43	85.06
330.658	78.06
330.887	70.06
331.115	81.06
331.344	82.06
331.572	84.06
331.801	76.06
332.03	87.06
332.258	89.06
332.486	71.06
332.715	91.06
332.943	82.06
333.172	82.06
333.4	79.06
333.629	84.06
333.857	100.06
334.085	84.06
334.314	86.06
334.542	80.06
334.771	74.06
334.999	74.06
335.227	89.06
335.455	90.06
335.684	85.06
335.912	88.06
336.14	96.06
336.369	84.06
336.597	91.06
336.825	91.06
337.053	84.06
337.281	88.06
337.51	73.06
337.738	81.06
337.966	75.06
338.194	89.06
338.422	90.06
338.65	89.06
338.878	81.06
339.106	75.06
339.334	95.06
339.562	86.06
339.79	83.06
340.018	71.06
340.246	79.06
340.474	82.06
340.702	91.06
340.93	85.06
341.158	76.06
341.386	75.06
341.614	91.06
341.842	90.06
342.07	89.06
342.298	77.06
342.526	80.06
342.754	94.06
342.981	85.06
343.209	86.06
343.437	85.06
343.665	89.06
343.893	84.06
344.12	88.06
344.348	82.06
344.576	75.06
344.804	88.06
345.031	92.06
345.259	85.06
345.487	96.06
345.714	83.06
345.942	83.06
346.17	66.06
346.397	86.06
346.625	86.06
346.853	80.06
347.08	75.06
347.308	81.06
347.535	97.06
347.763	83.06
347.99	89.06
348.218	74.06
348.445	73.06
348.673	82.06
348.9	80.06
349.128	88.06
349.355	88.06
349.583	89.06
349.81	84.06
350.037	78.06
350.265	84.06
350.492	79.06
350.72	89.06
350.947	84.06
351.174	85.06
351.402	96.06
351.629	95.06
351.856	83.06
352.083	86.06
352.311	87.06
352.538	90.06
352.765	83.06
352.992	100.06
353.22	85.06
353.447	98.06
353.674	82.06
353.901	78.06
354.128	86.06
354.355	92.06
354.583	83.06
354.81	78.06
355.037	84.06
355.264	94.06
355.491	90.06
355.718	84.06
355.945	91.06
356.172	92.06
356.399	85.06
356.626	87.06
356.853	80.06
357.08	74.06
357.307	88.06
357.534	82.06
357.761	83.06
357.988	89.06
358.215	84.06
358.441	95.06
358.668	94.06
358.895	85.06
359.122	89.06
359.349	80.06
359.576	79.06
359.802	77.06
360.029	78.06
360.256	92.06
360.483	95.06
360.709	84.06
360.936	91.06
361.163	79.06
361.39	71.06
361.616	83.06
361.843	81.06
362.07	94.06
362.296	82.06
362.523	72.06
362.749	73.06
362.976	87.06
363.203	90.06
363.429	85.06
363.656	83.06
363.882	79.06
364.109	79.06
364.335	88.06
364.562	90.06
364.788	67.06
365.015	87.06
365.241	83.06
365.468	84.06
365.694	87.06
365.92	86.06
366.147	88.06
366.373	86.06
366.599	84.06
366.826	81.06
367.052	76.06
367.278	79.06
367.505	70.06
367.731	74.06
367.957	96.06
368.184	87.06
368.41	72.06
368.636	90.06
368.862	79.06
369.089	84.06
369.315	81.06
369.541	80.06
369.767	85.06
369.993	79.06
370.219	86.06
370.445	81.06
370.672	74.06
370.898	92.06
371.124	83.06
371.35	91.06
371.576	85.06
371.802	96.06
372.028	71.06
372.254	79.06
372.48	88.06
372.706	79.06
372.932	91.06
373.158	88.06
373.384	67.06
373.61	94.06
373.835	94.06
374.061	82.06
374.287	86.06
374.513	76.06
374.739	87.06
374.965	91.06
375.191	88.06
375.416	83.06
375.642	78.06
375.868	93.06
376.094	76.06
376.319	95.06
376.545	87.06
376.771	92.06
376.997	98.06
377.222	78.06
377.448	87.06
377.674	76.06
377.899	76.06
378.125	85.06
378.35	90.06
378.576	89.06
378.802	82.06
379.027	92.06
379.253	81.06
379.478	78.06
379.704	94.06
379.929	79.06
380.155	82.06
380.38	83.06
380.606	96.06
380.831	92.06
381.057	84.06
381.282	86.06
381.507	82.06
381.733	85.06
381.958	70.06
382.184	95.06
382.409	76.06
382.634	96.06
382.86	78.06
383.085	99.06
383.31	87.06
383.535	87.06
383.761	75.06
383.986	91.06
384.211	79.06
384.436	64.06
384.662	80.06
384.887	75.06
385.112	78.06
385.337	100.06
385.562	97.06
385.787	89.06
386.013	85.06
386.238	81.06
386.463	94.06
386.688	85.06
386.913	86.06
387.138	96.06
387.363	90.06
387.588	88.06
387.813	94.06
388.038	83.06
388.263	65.06
388.488	76.06
388.713	78.06
388.938	99.06
389.163	93.06
389.387	86.06
389.612	82.06
389.837	100.06
390.062	100.06
390.287	93.06
390.512	94.06
390.736	87.06
390.961	81.06
391.186	88.06
391.411	90.06
391.636	90.06
391.86	98.06
392.085	101.06
392.31	82.06
392.534	82.06
392.759	91.06
392.984	84.06
393.208	103.06
393.433	68.06
393.658	87.06
393.882	95.06
394.107	74.06
394.331	90.06
394.556	90.06
394.78	96.06
395.005	85.06
395.229	84.06
395.454	69.06
395.678	74.06
395.903	88.06
396.127	96.06
396.352	98.06
396.576	83.06
396.801	85.06
397.025	83.06
397.249	73.06
397.474	82.06
397.698	95.06
397.922	94.06
398.147	81.06
398.371	75.06
398.595	88.06
398.82	79.06
399.044	80.06
399.268	94.06
399.492	96.06
399.717	92.06
399.941	87.06
400.165	94.06
400.389	87.06
400.613	96.06
400.837	84.06
401.062	81.06
401.286	103.06
401.51	98.06
401.734	85.06
401.958	96.06
402.182	76.06
402.406	89.06
402.63	80.06
402.854	90.06
403.078	90.06
403.302	74.06
403.526	92.06
403.75	88.06
403.974	81.06
404.198	90.06
404.422	85.06
404.645	81.06
404.869	90.06
405.093	86.06
405.317	98.06
405.541	96.06
405.765	84.06
405.988	97.06
406.212	91.06
406.436	71.06
406.66	98.06
406.883	80.06
407.107	76.06
407.331	82.06
407.555	89.06
407.778	101.06
408.002	89.06
408.226	94.06
408.449	92.06
408.673	88.06
408.896	95.06
409.12	78.06
409.344	85.06
409.567	84.06
409.791	96.06
410.014	90.06
410.238	94.06
410.461	90.06
410.685	91.06
410.908	90.06
411.132	96.06
411.355	93.06
411.578	93.06
411.802	102.06
412.025	91.06
412.249	88.06
412.472	87.06
412.695	87.06
412.919	79.06
413.142	93.06
413.365	79.06
413.589	76.06
413.812	78.06
414.035	97.06
414.258	91.06
414.482	83.06
414.705	85.06
414.928	90.06
415.151	89.06
415.374	84.06
415.597	98.06
415.821	92.06
416.044	80.06
416.267	106.06
416.49	85.06
416.713	91.06
416.936	102.06
417.159	100.06
417.382	90.06
417.605	88.06
417.828	76.06
418.051	83.06
418.274	81.06
418.497	98.06
418.72	83.06
418.943	99.06
419.166	96.06
419.389	90.06
419.611	99.06
419.834	82.06
420.057	98.06
420.28	84.06
420.503	88.06
420.726	81.06
420.948	104.06
421.171	103.06
421.394	101.06
421.617	96.06
421.839	92.06
422.062	103.06
422.285	107.06
422.507	95.06
422.73	92.06
422.953	101.06
423.175	87.06
423.398	92.06
423.621	86.06
423.843	82.06
424.066	91.06
424.288	87.06
424.511	89.06
424.733	95.06
424.956	85.06
425.178	106.06
425.401	99.06
425.623	96.06
425.846	110.06
426.068	102.06
426.291	100.06
426.513	91.06
426.735	89.06
426.958	96.06
427.18	99.06
427.402	104.06
427.625	98.06
427.847	81.06
428.069	91.06
428.292	92.06
428.514	89.06
428.736	85.06
428.958	91.06
429.181	83.06
429.403	91.06
429.625	91.06
429.847	98.06
430.069	101.06
430.292	94.06
430.514	99.06
430.736	91.06
430.958	96.06
431.18	102.06
431.402	97.06
431.624	94.06
431.846	105.06
432.068	91.06
432.29	99.06
432.512	84.06
432.734	98.06
432.956	84.06
433.178	80.06
433.4	101.06
433.622	106.06
433.844	89.06
434.066	95.06
434.287	84.06
434.509	80.06
434.731	93.06
434.953	95.06
435.175	73.06
435.397	90.06
435.618	81.06
435.84	94.06
436.062	99.06
436.284	104.06
436.505	82.06
436.727	97.06
436.949	98.06
437.17	96.06
437.392	90.06
437.614	81.06
437.835	77.06
438.057	79.06
438.278	89.06
438.5	104.06
438.721	105.06
438.943	77.06
439.165	85.06
439.386	88.06
439.608	91.06
439.829	90.06
440.05	104.06
440.272	95.06
440.493	102.06
440.715	98.06
440.936	101.06
441.158	92.06
441.379	91.06
441.6	90.06
441.822	103.06
442.043	92.06
442.264	103.06
442.486	94.06
442.707	92.06
442.928	96.06
443.149	99.06
443.371	101.06
443.592	110.06
443.813	94.06
444.034	107.06
444.255	110.06
444.476	86.06
444.698	104.06
444.919	98.06
445.14	240.06
445.361	152.06
445.582	103.06
445.803	102.06
446.024	97.06
446.245	100.06
446.466	99.06
446.687	95.06
446.908	102.06
447.129	106.06
447.35	97.06
447.571	103.06
447.792	94.06
448.013	91.06
448.234	94.06
448.455	90.06
448.675	101.06
448.896	90.06
449.117	97.06
449.338	90.06
449.559	86.06
449.779	92.06
450	98.06
450.221	85.06
450.442	87.06
450.662	107.06
450.883	87.06
451.104	94.06
451.324	86.06
451.545	86.06
451.766	96.06
451.986	92.06
452.207	88.06
452.428	97.06
452.648	96.06
452.869	98.06
453.089	96.06
453.31	87.06
453.53	89.06
453.751	83.06
453.971	95.06
454.192	89.06
454.412	84.06
454.633	94.06
454.853	99.06
455.073	89.06
455.294	94.06
455.514	92.06
455.734	94.06
455.955	82.06
456.175	95.06
456.395	94.06
456.616	84.06
456.836	86.06
457.056	93.06
457.276	90.06
457.497	81.06
457.717	75.06
457.937	83.06
458.157	85.06
458.377	86.06
458.598	87.06
458.818	88.06
459.038	72.06
459.258	86.06
459.478	71.06
459.698	80.06
459.918	95.06
460.138	90.06
460.358	97.06
460.578	95.06
460.798	101.06
461.018	82.06
461.238	98.06
461.458	87.06
461.678	86.06
461.898	104.06
462.118	97.06
462.338	95.06
462.558	111.06
462.777	94.06
462.997	88.06
463.217	89.06
463.437	91.06
463.657	88.06
463.876	70.06
464.096	101.06
464.316	84.06
464.536	96.06
464.755	97.06
464.975	95.06
465.195	96.06
465.414	94.06
465.634	78.06
465.854	89.06
466.073	83.06
466.293	101.06
466.512	97.06
466.732	91.06
466.951	86.06
467.171	90.06
467.391	83.06
467.61	94.06
467.829	88.06
468.049	103.06
468.268	92.06
468.488	105.06
468.707	92.06
468.927	98.06
469.146	93.06
469.365	110.06
469.585	108.06
469.804	99.06
470.023	84.06
470.243	89.06
470.462	99.06
470.681	100.06
470.901	97.06
471.12	96.06
471.339	93.06
471.558	90.06
471.777	86.06
471.997	103.06
472.216	92.06
472.435	89.06
472.654	90.06
472.873	94.06
473.092	81.06
473.311	86.06
473.53	98.06
473.749	89.06
473.968	96.06
474.187	86.06
474.406	105.06
474.625	101.06
474.844	82.06
475.063	102.06
475.282	98.06
475.501	94.06
475.72	83.06
475.939	99.06
476.158	96.06
476.377	94.06
476.596	101.06
476.814	90.06
477.033	92.06
477.252	63.06
477.471	100.06
477.69	99.06
477.908	90.06
478.127	92.06
478.346	95.06
478.564	98.06
478.783	100.06
479.002	107.06
479.22	97.06
479.439	99.06
479.658	110.06
479.876	86.06
480.095	91.06
480.313	100.06
480.532	100.06
480.751	86.06
480.969	90.06
481.188	87.06
481.406	81.06
481.624	82.06
481.843	75.06
482.061	83.06
482.28	80.06
482.498	85.06
482.717	83.06
482.935	78.06
483.153	84.06
483.372	85.06
483.59	90.06
483.808	91.06
484.027	100.06
484.245	92.06
484.463	108.06
484.681	114.06
484.9	100.06
485.118	110.06
485.336	83.06
485.554	89.06
485.772	84.06
485.99	91.06
486.209	98.06
486.427	78.06
486.645	91.06
486.863	97.06
487.081	97.06
487.299	107.06
487.517	102.06
487.735	107.06
487.953	111.06
488.171	112.06
488.389	112.06
488.607	105.06
488.825	97.06
489.043	98.06
489.261	91.06
489.479	100.06
489.696	102.06
489.914	86.06
490.132	115.06
490.35	114.06
490.568	122.06
490.786	106.06
491.003	98.06
491.221	103.06
491.439	103.06
491.657	115.06
491.874	116.06
492.092	132.06
492.31	131.06
492.527	122.06
492.745	119.06
492.963	124.06
493.18	102.06
493.398	108.06
493.615	115.06
493.833	108.06
494.05	120.06
494.268	101.06
494.485	107.06
494.703	119.06
494.92	110.06
495.138	108.06
495.355	109.06
495.573	98.06
495.79	101.06
496.008	110.06
496.225	100.06
496.442	128.06
496.66	115.06
496.877	114.06
497.094	118.06
497.312	106.06
497.529	115.06
497.746	106.06
497.963	89.06
498.181	81.06
498.398	106.06
498.615	105.06
498.832	97.06
499.049	91.06
499.267	104.06
499.484	82.06
499.701	103.06
499.918	91.06
500.135	100.06
500.352	97.06
500.569	94.06
500.786	101.06
501.003	99.06
501.22	98.06
501.437	106.06
501.654	92.06
501.871	87.06
502.088	92.06
502.305	84.06
502.522	101.06
502.739	87.06
502.956	88.06
503.172	89.06
503.389	88.06
503.606	90.06
503.823	81.06
504.04	95.06
504.256	95.06
504.473	82.06
504.69	95.06
504.907	94.06
505.123	82.06
505.34	89.06
505.557	93.06
505.773	91.06
505.99	95.06
506.207	94.06
506.423	90.06
506.64	82.06
506.856	86.06
507.073	96.06
507.289	94.06
507.506	105.06
507.722	104.06
507.939	81.06
508.155	82.06
508.372	98.06
508.588	93.06
508.805	86.06
509.021	94.06
509.238	76.06
509.454	80.06
509.67	91.06
509.887	95.06
510.103	83.06
510.319	75.06
510.536	91.06
510.752	83.06
510.968	75.06
511.184	91.06
511.401	74.06
511.617	75.06
511.833	76.06
512.049	72.06
512.265	82.06
512.481	91.06
512.698	86.06
512.914	73.06
513.13	88.06
513.346	85.06
513.562	91.06
513.778	87.06
513.994	86.06
514.21	88.06
514.426	86.06
514.642	81.06
514.858	86.06
515.074	84.06
515.29	94.06
515.506	82.06
515.721	81.06
515.937	81.06
516.153	79.06
516.369	79.06
516.585	94.06
516.801	80.06
517.016	87.06
517.232	96.06
517.448	91.06
