Data from Location3.07152019.Energy5.Lamp.07192019.3%Agarose_HRD10591_15-16-52-269.txt Node
Date: Fri Jul 19 15:16:52 EDT 2019
User: cochatt
Spectrometer: HR+D1059
Trigger mode: 1
Integration Time (sec): 1.000000E-1
Scans to average: 1
Electric dark correction enabled: true
Nonlinearity correction enabled: false
Boxcar width: 0
XAxis mode: Wavelengths
Number of Pixels in Spectrum: 2048
>>>>>Begin Spectral Data<<<<<
223.165	-12.94
223.4	-12.94
223.635	-12.94
223.869	-8.94
224.104	-30.94
224.338	-15.94
224.573	-1.94
224.808	-14.94
225.042	-5.94
225.277	0.06
225.511	-2.94
225.746	5.06
225.98	5.06
226.215	2.06
226.449	13.06
226.683	17.06
226.918	24.06
227.152	28.06
227.387	29.06
227.621	28.06
227.856	38.06
228.09	51.06
228.324	51.06
228.559	58.06
228.793	47.06
229.027	50.06
229.262	64.06
229.496	65.06
229.73	72.06
229.964	70.06
230.199	80.06
230.433	71.06
230.667	78.06
230.901	78.06
231.136	79.06
231.37	67.06
231.604	79.06
231.838	82.06
232.072	85.06
232.306	86.06
232.541	86.06
232.775	83.06
233.009	77.06
233.243	83.06
233.477	79.06
233.711	88.06
233.945	78.06
234.179	81.06
234.413	76.06
234.647	93.06
234.881	86.06
235.115	76.06
235.349	74.06
235.583	71.06
235.817	75.06
236.051	72.06
236.285	83.06
236.519	70.06
236.753	79.06
236.987	76.06
237.221	82.06
237.455	79.06
237.689	78.06
237.922	72.06
238.156	65.06
238.39	72.06
238.624	87.06
238.858	60.06
239.091	82.06
239.325	81.06
239.559	84.06
239.793	78.06
240.027	70.06
240.26	79.06
240.494	69.06
240.728	70.06
240.961	83.06
241.195	75.06
241.429	75.06
241.662	84.06
241.896	81.06
242.13	65.06
242.363	69.06
242.597	70.06
242.83	84.06
243.064	86.06
243.298	66.06
243.531	87.06
243.765	81.06
243.998	80.06
244.232	69.06
244.465	91.06
244.699	75.06
244.932	77.06
245.166	70.06
245.399	72.06
245.633	90.06
245.866	78.06
246.099	72.06
246.333	75.06
246.566	70.06
246.8	64.06
247.033	69.06
247.266	81.06
247.5	64.06
247.733	81.06
247.966	70.06
248.2	59.06
248.433	54.06
248.666	80.06
248.899	80.06
249.133	80.06
249.366	91.06
249.599	73.06
249.832	75.06
250.066	64.06
250.299	72.06
250.532	92.06
250.765	82.06
250.998	93.06
251.231	71.06
251.465	85.06
251.698	73.06
251.931	78.06
252.164	78.06
252.397	79.06
252.63	85.06
252.863	69.06
253.096	87.06
253.329	83.06
253.562	78.06
253.795	80.06
254.028	84.06
254.261	63.06
254.494	58.06
254.727	77.06
254.96	61.06
255.193	79.06
255.426	74.06
255.659	73.06
255.892	82.06
256.124	77.06
256.357	84.06
256.59	85.06
256.823	81.06
257.056	65.06
257.289	78.06
257.521	84.06
257.754	83.06
257.987	89.06
258.22	73.06
258.452	80.06
258.685	78.06
258.918	80.06
259.151	84.06
259.383	83.06
259.616	69.06
259.849	75.06
260.081	85.06
260.314	97.06
260.547	86.06
260.779	85.06
261.012	82.06
261.244	81.06
261.477	84.06
261.71	84.06
261.942	89.06
262.175	79.06
262.407	71.06
262.64	78.06
262.872	83.06
263.105	92.06
263.337	61.06
263.57	85.06
263.802	84.06
264.035	82.06
264.267	85.06
264.499	88.06
264.732	79.06
264.964	77.06
265.197	80.06
265.429	82.06
265.661	75.06
265.894	71.06
266.126	90.06
266.358	90.06
266.591	74.06
266.823	76.06
267.055	79.06
267.287	78.06
267.52	69.06
267.752	78.06
267.984	71.06
268.216	69.06
268.448	71.06
268.681	78.06
268.913	92.06
269.145	75.06
269.377	90.06
269.609	93.06
269.841	79.06
270.073	83.06
270.306	81.06
270.538	83.06
270.77	67.06
271.002	75.06
271.234	66.06
271.466	83.06
271.698	80.06
271.93	80.06
272.162	94.06
272.394	89.06
272.626	81.06
272.858	81.06
273.09	79.06
273.322	75.06
273.553	79.06
273.785	74.06
274.017	82.06
274.249	82.06
274.481	78.06
274.713	98.06
274.945	93.06
275.176	68.06
275.408	81.06
275.64	57.06
275.872	74.06
276.104	84.06
276.335	84.06
276.567	93.06
276.799	86.06
277.031	66.06
277.262	79.06
277.494	82.06
277.726	98.06
277.957	78.06
278.189	77.06
278.421	83.06
278.652	77.06
278.884	93.06
279.115	81.06
279.347	85.06
279.579	84.06
279.81	73.06
280.042	85.06
280.273	70.06
280.505	79.06
280.736	80.06
280.968	81.06
281.199	87.06
281.431	84.06
281.662	87.06
281.894	75.06
282.125	64.06
282.356	80.06
282.588	86.06
282.819	72.06
283.051	65.06
283.282	78.06
283.513	78.06
283.745	84.06
283.976	75.06
284.207	84.06
284.439	78.06
284.67	76.06
284.901	87.06
285.132	93.06
285.364	86.06
285.595	78.06
285.826	85.06
286.057	89.06
286.288	87.06
286.52	73.06
286.751	89.06
286.982	88.06
287.213	78.06
287.444	79.06
287.675	92.06
287.906	86.06
288.138	85.06
288.369	76.06
288.6	87.06
288.831	82.06
289.062	90.06
289.293	75.06
289.524	87.06
289.755	92.06
289.986	82.06
290.217	91.06
290.448	83.06
290.679	97.06
290.91	85.06
291.141	80.06
291.371	95.06
291.602	85.06
291.833	80.06
292.064	98.06
292.295	76.06
292.526	87.06
292.757	75.06
292.987	80.06
293.218	83.06
293.449	86.06
293.68	79.06
293.91	80.06
294.141	81.06
294.372	72.06
294.603	76.06
294.833	94.06
295.064	70.06
295.295	86.06
295.525	66.06
295.756	83.06
295.987	87.06
296.217	78.06
296.448	85.06
296.679	72.06
296.909	85.06
297.14	87.06
297.37	81.06
297.601	79.06
297.831	78.06
298.062	84.06
298.292	73.06
298.523	96.06
298.753	71.06
298.984	75.06
299.214	75.06
299.445	85.06
299.675	89.06
299.905	92.06
300.136	85.06
300.366	90.06
300.597	85.06
300.827	86.06
301.057	85.06
301.288	82.06
301.518	81.06
301.748	84.06
301.979	79.06
302.209	96.06
302.439	92.06
302.669	73.06
302.9	70.06
303.13	86.06
303.36	79.06
303.59	77.06
303.82	74.06
304.051	79.06
304.281	78.06
304.511	86.06
304.741	85.06
304.971	76.06
305.201	87.06
305.431	80.06
305.661	94.06
305.891	86.06
306.121	81.06
306.352	71.06
306.582	91.06
306.812	66.06
307.042	89.06
307.272	90.06
307.502	90.06
307.731	88.06
307.961	83.06
308.191	80.06
308.421	86.06
308.651	94.06
308.881	86.06
309.111	71.06
309.341	74.06
309.571	75.06
309.8	80.06
310.03	81.06
310.26	79.06
310.49	91.06
310.72	86.06
310.949	86.06
311.179	90.06
311.409	92.06
311.639	80.06
311.868	86.06
312.098	69.06
312.328	91.06
312.557	89.06
312.787	83.06
313.017	93.06
313.246	82.06
313.476	74.06
313.706	78.06
313.935	73.06
314.165	82.06
314.394	85.06
314.624	86.06
314.853	85.06
315.083	88.06
315.312	80.06
315.542	87.06
315.771	74.06
316.001	75.06
316.23	82.06
316.46	70.06
316.689	82.06
316.919	78.06
317.148	93.06
317.377	87.06
317.607	76.06
317.836	88.06
318.065	87.06
318.295	88.06
318.524	89.06
318.753	96.06
318.983	79.06
319.212	82.06
319.441	82.06
319.67	90.06
319.9	92.06
320.129	84.06
320.358	85.06
320.587	75.06
320.816	87.06
321.046	73.06
321.275	83.06
321.504	89.06
321.733	85.06
321.962	93.06
322.191	85.06
322.42	79.06
322.649	88.06
322.878	83.06
323.108	101.06
323.337	85.06
323.566	82.06
323.795	91.06
324.024	85.06
324.253	94.06
324.482	72.06
324.71	95.06
324.939	85.06
325.168	73.06
325.397	79.06
325.626	79.06
325.855	85.06
326.084	74.06
326.313	82.06
326.542	93.06
326.77	88.06
326.999	99.06
327.228	67.06
327.457	91.06
327.686	74.06
327.914	80.06
328.143	100.06
328.372	88.06
328.6	91.06
328.829	82.06
329.058	83.06
329.287	94.06
329.515	83.06
329.744	84.06
329.972	95.06
330.201	82.06
330.43	93.06
330.658	85.06
330.887	79.06
331.115	95.06
331.344	87.06
331.572	73.06
331.801	70.06
332.03	85.06
332.258	93.06
332.486	89.06
332.715	87.06
332.943	70.06
333.172	86.06
333.4	75.06
333.629	81.06
333.857	87.06
334.085	90.06
334.314	84.06
334.542	86.06
334.771	93.06
334.999	76.06
335.227	72.06
335.455	99.06
335.684	82.06
335.912	85.06
336.14	84.06
336.369	69.06
336.597	90.06
336.825	83.06
337.053	97.06
337.281	91.06
337.51	75.06
337.738	72.06
337.966	74.06
338.194	79.06
338.422	83.06
338.65	91.06
338.878	75.06
339.106	86.06
339.334	79.06
339.562	84.06
339.79	84.06
340.018	76.06
340.246	96.06
340.474	79.06
340.702	87.06
340.93	74.06
341.158	80.06
341.386	81.06
341.614	97.06
341.842	89.06
342.07	86.06
342.298	99.06
342.526	86.06
342.754	78.06
342.981	82.06
343.209	87.06
343.437	89.06
343.665	74.06
343.893	89.06
344.12	96.06
344.348	82.06
344.576	80.06
344.804	75.06
345.031	86.06
345.259	78.06
345.487	86.06
345.714	95.06
345.942	80.06
346.17	81.06
346.397	77.06
346.625	78.06
346.853	73.06
347.08	79.06
347.308	102.06
347.535	92.06
347.763	89.06
347.99	95.06
348.218	87.06
348.445	89.06
348.673	81.06
348.9	85.06
349.128	84.06
349.355	79.06
349.583	81.06
349.81	80.06
350.037	85.06
350.265	83.06
350.492	82.06
350.72	83.06
350.947	88.06
351.174	88.06
351.402	82.06
351.629	91.06
351.856	74.06
352.083	81.06
352.311	66.06
352.538	74.06
352.765	94.06
352.992	86.06
353.22	99.06
353.447	75.06
353.674	82.06
353.901	85.06
354.128	58.06
354.355	81.06
354.583	81.06
354.81	61.06
355.037	74.06
355.264	93.06
355.491	96.06
355.718	75.06
355.945	93.06
356.172	79.06
356.399	70.06
356.626	83.06
356.853	81.06
357.08	81.06
357.307	82.06
357.534	86.06
357.761	85.06
357.988	74.06
358.215	77.06
358.441	84.06
358.668	76.06
358.895	78.06
359.122	88.06
359.349	83.06
359.576	81.06
359.802	85.06
360.029	78.06
360.256	85.06
360.483	86.06
360.709	90.06
360.936	81.06
361.163	74.06
361.39	100.06
361.616	75.06
361.843	90.06
362.07	82.06
362.296	84.06
362.523	90.06
362.749	72.06
362.976	81.06
363.203	92.06
363.429	90.06
363.656	80.06
363.882	80.06
364.109	88.06
364.335	87.06
364.562	94.06
364.788	81.06
365.015	83.06
365.241	74.06
365.468	86.06
365.694	74.06
365.92	92.06
366.147	86.06
366.373	86.06
366.599	85.06
366.826	81.06
367.052	102.06
367.278	92.06
367.505	70.06
367.731	88.06
367.957	85.06
368.184	85.06
368.41	80.06
368.636	81.06
368.862	85.06
369.089	86.06
369.315	62.06
369.541	72.06
369.767	78.06
369.993	91.06
370.219	77.06
370.445	77.06
370.672	80.06
370.898	90.06
371.124	85.06
371.35	65.06
371.576	70.06
371.802	84.06
372.028	98.06
372.254	76.06
372.48	70.06
372.706	89.06
372.932	75.06
373.158	95.06
373.384	85.06
373.61	89.06
373.835	95.06
374.061	78.06
374.287	93.06
374.513	84.06
374.739	85.06
374.965	88.06
375.191	90.06
375.416	88.06
375.642	84.06
375.868	84.06
376.094	87.06
376.319	90.06
376.545	90.06
376.771	63.06
376.997	79.06
377.222	81.06
377.448	103.06
377.674	77.06
377.899	89.06
378.125	80.06
378.35	96.06
378.576	84.06
378.802	83.06
379.027	75.06
379.253	97.06
379.478	78.06
379.704	82.06
379.929	87.06
380.155	69.06
380.38	85.06
380.606	81.06
380.831	91.06
381.057	90.06
381.282	95.06
381.507	79.06
381.733	91.06
381.958	82.06
382.184	81.06
382.409	78.06
382.634	73.06
382.86	93.06
383.085	95.06
383.31	68.06
383.535	80.06
383.761	78.06
383.986	93.06
384.211	99.06
384.436	89.06
384.662	83.06
384.887	76.06
385.112	85.06
385.337	81.06
385.562	94.06
385.787	85.06
386.013	89.06
386.238	93.06
386.463	89.06
386.688	90.06
386.913	85.06
387.138	74.06
387.363	90.06
387.588	90.06
387.813	92.06
388.038	87.06
388.263	71.06
388.488	88.06
388.713	92.06
388.938	87.06
389.163	86.06
389.387	84.06
389.612	77.06
389.837	80.06
390.062	79.06
390.287	78.06
390.512	88.06
390.736	83.06
390.961	85.06
391.186	73.06
391.411	78.06
391.636	81.06
391.86	91.06
392.085	78.06
392.31	89.06
392.534	90.06
392.759	91.06
392.984	96.06
393.208	87.06
393.433	90.06
393.658	81.06
393.882	99.06
394.107	83.06
394.331	81.06
394.556	88.06
394.78	83.06
395.005	84.06
395.229	93.06
395.454	86.06
395.678	93.06
395.903	90.06
396.127	90.06
396.352	67.06
396.576	82.06
396.801	81.06
397.025	75.06
397.249	77.06
397.474	91.06
397.698	104.06
397.922	100.06
398.147	91.06
398.371	92.06
398.595	78.06
398.82	74.06
399.044	87.06
399.268	93.06
399.492	94.06
399.717	86.06
399.941	90.06
400.165	98.06
400.389	95.06
400.613	83.06
400.837	87.06
401.062	74.06
401.286	68.06
401.51	86.06
401.734	90.06
401.958	86.06
402.182	98.06
402.406	96.06
402.63	80.06
402.854	102.06
403.078	89.06
403.302	90.06
403.526	74.06
403.75	97.06
403.974	79.06
404.198	87.06
404.422	87.06
404.645	95.06
404.869	79.06
405.093	82.06
405.317	89.06
405.541	80.06
405.765	80.06
405.988	85.06
406.212	96.06
406.436	95.06
406.66	95.06
406.883	101.06
407.107	102.06
407.331	113.06
407.555	90.06
407.778	85.06
408.002	95.06
408.226	82.06
408.449	93.06
408.673	87.06
408.896	85.06
409.12	98.06
409.344	102.06
409.567	101.06
409.791	87.06
410.014	101.06
410.238	81.06
410.461	90.06
410.685	79.06
410.908	91.06
411.132	85.06
411.355	92.06
411.578	98.06
411.802	97.06
412.025	79.06
412.249	79.06
412.472	101.06
412.695	90.06
412.919	91.06
413.142	89.06
413.365	93.06
413.589	98.06
413.812	106.06
414.035	97.06
414.258	96.06
414.482	97.06
414.705	94.06
414.928	102.06
415.151	97.06
415.374	92.06
415.597	89.06
415.821	82.06
416.044	85.06
416.267	79.06
416.49	84.06
416.713	87.06
416.936	109.06
417.159	78.06
417.382	86.06
417.605	90.06
417.828	95.06
418.051	94.06
418.274	98.06
418.497	93.06
418.72	93.06
418.943	99.06
419.166	90.06
419.389	102.06
419.611	85.06
419.834	82.06
420.057	99.06
420.28	90.06
420.503	83.06
420.726	99.06
420.948	97.06
421.171	91.06
421.394	99.06
421.617	94.06
421.839	101.06
422.062	86.06
422.285	109.06
422.507	98.06
422.73	93.06
422.953	84.06
423.175	100.06
423.398	99.06
423.621	97.06
423.843	86.06
424.066	96.06
424.288	94.06
424.511	90.06
424.733	93.06
424.956	105.06
425.178	98.06
425.401	86.06
425.623	96.06
425.846	87.06
426.068	89.06
426.291	98.06
426.513	82.06
426.735	94.06
426.958	91.06
427.18	109.06
427.402	94.06
427.625	90.06
427.847	106.06
428.069	96.06
428.292	92.06
428.514	105.06
428.736	92.06
428.958	87.06
429.181	96.06
429.403	91.06
429.625	105.06
429.847	107.06
430.069	96.06
430.292	89.06
430.514	99.06
430.736	88.06
430.958	92.06
431.18	99.06
431.402	108.06
431.624	97.06
431.846	81.06
432.068	60.06
432.29	89.06
432.512	87.06
432.734	94.06
432.956	102.06
433.178	92.06
433.4	98.06
433.622	103.06
433.844	105.06
434.066	95.06
434.287	92.06
434.509	91.06
434.731	89.06
434.953	79.06
435.175	90.06
435.397	106.06
435.618	90.06
435.84	82.06
436.062	88.06
436.284	91.06
436.505	85.06
436.727	97.06
436.949	77.06
437.17	94.06
437.392	92.06
437.614	78.06
437.835	93.06
438.057	83.06
438.278	97.06
438.5	97.06
438.721	83.06
438.943	89.06
439.165	96.06
439.386	92.06
439.608	98.06
439.829	97.06
440.05	94.06
440.272	90.06
440.493	103.06
440.715	100.06
440.936	114.06
441.158	98.06
441.379	102.06
441.6	105.06
441.822	97.06
442.043	94.06
442.264	93.06
442.486	111.06
442.707	80.06
442.928	105.06
443.149	92.06
443.371	96.06
443.592	107.06
443.813	94.06
444.034	96.06
444.255	90.06
444.476	95.06
444.698	100.06
444.919	106.06
445.14	231.06
445.361	155.06
445.582	102.06
445.803	93.06
446.024	85.06
446.245	102.06
446.466	96.06
446.687	106.06
446.908	113.06
447.129	101.06
447.35	85.06
447.571	80.06
447.792	101.06
448.013	103.06
448.234	101.06
448.455	97.06
448.675	98.06
448.896	99.06
449.117	90.06
449.338	82.06
449.559	99.06
449.779	94.06
450	88.06
450.221	102.06
450.442	119.06
450.662	103.06
450.883	93.06
451.104	97.06
451.324	92.06
451.545	90.06
451.766	114.06
451.986	91.06
452.207	87.06
452.428	96.06
452.648	104.06
452.869	93.06
453.089	90.06
453.31	86.06
453.53	85.06
453.751	87.06
453.971	96.06
454.192	92.06
454.412	88.06
454.633	73.06
454.853	85.06
455.073	88.06
455.294	89.06
455.514	93.06
455.734	90.06
455.955	89.06
456.175	87.06
456.395	83.06
456.616	91.06
456.836	93.06
457.056	81.06
457.276	93.06
457.497	74.06
457.717	93.06
457.937	89.06
458.157	80.06
458.377	94.06
458.598	85.06
458.818	85.06
459.038	80.06
459.258	90.06
459.478	84.06
459.698	75.06
459.918	96.06
460.138	82.06
460.358	89.06
460.578	78.06
460.798	90.06
461.018	97.06
461.238	73.06
461.458	103.06
461.678	96.06
461.898	87.06
462.118	95.06
462.338	102.06
462.558	76.06
462.777	90.06
462.997	91.06
463.217	99.06
463.437	101.06
463.657	73.06
463.876	73.06
464.096	87.06
464.316	82.06
464.536	92.06
464.755	95.06
464.975	89.06
465.195	87.06
465.414	82.06
465.634	98.06
465.854	79.06
466.073	83.06
466.293	76.06
466.512	91.06
466.732	90.06
466.951	97.06
467.171	92.06
467.391	88.06
467.61	103.06
467.829	98.06
468.049	89.06
468.268	91.06
468.488	98.06
468.707	91.06
468.927	89.06
469.146	105.06
469.365	94.06
469.585	98.06
469.804	94.06
470.023	103.06
470.243	92.06
470.462	102.06
470.681	101.06
470.901	96.06
471.12	87.06
471.339	103.06
471.558	101.06
471.777	99.06
471.997	105.06
472.216	97.06
472.435	90.06
472.654	81.06
472.873	75.06
473.092	78.06
473.311	94.06
473.53	90.06
473.749	84.06
473.968	102.06
474.187	96.06
474.406	102.06
474.625	88.06
474.844	82.06
475.063	87.06
475.282	89.06
475.501	91.06
475.72	90.06
475.939	106.06
476.158	102.06
476.377	97.06
476.596	98.06
476.814	90.06
477.033	93.06
477.252	87.06
477.471	93.06
477.69	94.06
477.908	98.06
478.127	104.06
478.346	92.06
478.564	88.06
478.783	104.06
479.002	92.06
479.22	103.06
479.439	99.06
479.658	93.06
479.876	93.06
480.095	83.06
480.313	100.06
480.532	96.06
480.751	78.06
480.969	81.06
481.188	71.06
481.406	74.06
481.624	82.06
481.843	87.06
482.061	91.06
482.28	80.06
482.498	105.06
482.717	82.06
482.935	82.06
483.153	89.06
483.372	114.06
483.59	95.06
483.808	99.06
484.027	87.06
484.245	99.06
484.463	101.06
484.681	106.06
484.9	90.06
485.118	99.06
485.336	85.06
485.554	100.06
485.772	80.06
485.99	88.06
486.209	85.06
486.427	88.06
486.645	100.06
486.863	86.06
487.081	93.06
487.299	95.06
487.517	102.06
487.735	107.06
487.953	118.06
488.171	121.06
488.389	114.06
488.607	105.06
488.825	76.06
489.043	86.06
489.261	92.06
489.479	102.06
489.696	100.06
489.914	105.06
490.132	107.06
490.35	106.06
490.568	119.06
490.786	103.06
491.003	91.06
491.221	109.06
491.439	107.06
491.657	119.06
491.874	117.06
492.092	121.06
492.31	123.06
492.527	122.06
492.745	125.06
492.963	105.06
493.18	103.06
493.398	115.06
493.615	112.06
493.833	97.06
494.05	117.06
494.268	93.06
494.485	118.06
494.703	119.06
494.92	110.06
495.138	118.06
495.355	114.06
495.573	107.06
495.79	101.06
496.008	120.06
496.225	96.06
496.442	118.06
496.66	117.06
496.877	113.06
497.094	101.06
497.312	116.06
497.529	109.06
497.746	109.06
497.963	102.06
498.181	103.06
498.398	98.06
498.615	76.06
498.832	98.06
499.049	77.06
499.267	87.06
499.484	89.06
499.701	98.06
499.918	97.06
500.135	90.06
500.352	109.06
500.569	105.06
500.786	99.06
501.003	89.06
501.22	96.06
501.437	99.06
501.654	109.06
501.871	97.06
502.088	99.06
502.305	93.06
502.522	72.06
502.739	96.06
502.956	88.06
503.172	82.06
503.389	89.06
503.606	85.06
503.823	82.06
504.04	92.06
504.256	102.06
504.473	84.06
504.69	94.06
504.907	114.06
505.123	88.06
505.34	78.06
505.557	100.06
505.773	74.06
505.99	96.06
506.207	97.06
506.423	81.06
506.64	86.06
506.856	99.06
507.073	86.06
507.289	85.06
507.506	87.06
507.722	90.06
507.939	86.06
508.155	84.06
508.372	84.06
508.588	94.06
508.805	98.06
509.021	88.06
509.238	90.06
509.454	88.06
509.67	73.06
509.887	88.06
510.103	77.06
510.319	89.06
510.536	82.06
510.752	94.06
510.968	82.06
511.184	95.06
511.401	97.06
511.617	85.06
511.833	93.06
512.049	73.06
512.265	86.06
512.481	90.06
512.698	86.06
512.914	85.06
513.13	88.06
513.346	100.06
513.562	92.06
513.778	84.06
513.994	86.06
514.21	86.06
514.426	87.06
514.642	73.06
514.858	85.06
515.074	77.06
515.29	77.06
515.506	91.06
515.721	77.06
515.937	84.06
516.153	85.06
516.369	67.06
516.585	81.06
516.801	75.06
517.016	80.06
517.232	90.06
517.448	85.06
517.664	73.06
