Data from Location3.07152019.Energy5.Lamp.07192019.3%Agarose_HRD10591_15-19-43-270.txt Node
Date: Fri Jul 19 15:19:43 EDT 2019
User: cochatt
Spectrometer: HR+D1059
Trigger mode: 1
Integration Time (sec): 1.000000E-1
Scans to average: 1
Electric dark correction enabled: true
Nonlinearity correction enabled: false
Boxcar width: 0
XAxis mode: Wavelengths
Number of Pixels in Spectrum: 2048
>>>>>Begin Spectral Data<<<<<
223.165	-15.5
223.4	-15.5
223.635	-15.5
223.869	-13.5
224.104	-24.5
224.338	-10.5
224.573	-4.5
224.808	-26.5
225.042	6.5
225.277	-2.5
225.511	-3.5
225.746	-23.5
225.98	7.5
226.215	3.5
226.449	32.5
226.683	20.5
226.918	26.5
227.152	27.5
227.387	27.5
227.621	49.5
227.856	53.5
228.09	48.5
228.324	44.5
228.559	39.5
228.793	59.5
229.027	55.5
229.262	60.5
229.496	64.5
229.73	59.5
229.964	70.5
230.199	72.5
230.433	82.5
230.667	66.5
230.901	64.5
231.136	72.5
231.37	78.5
231.604	61.5
231.838	73.5
232.072	86.5
232.306	68.5
232.541	83.5
232.775	76.5
233.009	76.5
233.243	79.5
233.477	78.5
233.711	77.5
233.945	77.5
234.179	81.5
234.413	94.5
234.647	98.5
234.881	80.5
235.115	74.5
235.349	75.5
235.583	74.5
235.817	66.5
236.051	76.5
236.285	78.5
236.519	72.5
236.753	63.5
236.987	68.5
237.221	72.5
237.455	71.5
237.689	64.5
237.922	71.5
238.156	72.5
238.39	73.5
238.624	84.5
238.858	89.5
239.091	74.5
239.325	68.5
239.559	82.5
239.793	80.5
240.027	72.5
240.26	95.5
240.494	79.5
240.728	85.5
240.961	80.5
241.195	78.5
241.429	75.5
241.662	67.5
241.896	71.5
242.13	76.5
242.363	76.5
242.597	81.5
242.83	74.5
243.064	67.5
243.298	69.5
243.531	92.5
243.765	71.5
243.998	90.5
244.232	89.5
244.465	65.5
244.699	56.5
244.932	69.5
245.166	78.5
245.399	85.5
245.633	94.5
245.866	88.5
246.099	74.5
246.333	65.5
246.566	81.5
246.8	57.5
247.033	72.5
247.266	78.5
247.5	64.5
247.733	61.5
247.966	74.5
248.2	66.5
248.433	90.5
248.666	72.5
248.899	78.5
249.133	64.5
249.366	86.5
249.599	79.5
249.832	72.5
250.066	74.5
250.299	62.5
250.532	73.5
250.765	73.5
250.998	73.5
251.231	78.5
251.465	81.5
251.698	84.5
251.931	65.5
252.164	71.5
252.397	68.5
252.63	86.5
252.863	92.5
253.096	74.5
253.329	78.5
253.562	83.5
253.795	67.5
254.028	80.5
254.261	79.5
254.494	66.5
254.727	75.5
254.96	69.5
255.193	79.5
255.426	71.5
255.659	78.5
255.892	81.5
256.124	82.5
256.357	88.5
256.59	71.5
256.823	71.5
257.056	78.5
257.289	82.5
257.521	77.5
257.754	81.5
257.987	71.5
258.22	81.5
258.452	83.5
258.685	78.5
258.918	70.5
259.151	82.5
259.383	78.5
259.616	87.5
259.849	74.5
260.081	70.5
260.314	77.5
260.547	76.5
260.779	65.5
261.012	74.5
261.244	66.5
261.477	81.5
261.71	84.5
261.942	78.5
262.175	71.5
262.407	74.5
262.64	74.5
262.872	87.5
263.105	72.5
263.337	72.5
263.57	83.5
263.802	71.5
264.035	78.5
264.267	82.5
264.499	76.5
264.732	73.5
264.964	70.5
265.197	77.5
265.429	83.5
265.661	81.5
265.894	88.5
266.126	87.5
266.358	72.5
266.591	81.5
266.823	93.5
267.055	82.5
267.287	69.5
267.52	72.5
267.752	80.5
267.984	79.5
268.216	84.5
268.448	81.5
268.681	76.5
268.913	79.5
269.145	77.5
269.377	80.5
269.609	77.5
269.841	80.5
270.073	68.5
270.306	83.5
270.538	78.5
270.77	85.5
271.002	98.5
271.234	80.5
271.466	70.5
271.698	83.5
271.93	75.5
272.162	68.5
272.394	81.5
272.626	79.5
272.858	72.5
273.09	72.5
273.322	67.5
273.553	80.5
273.785	69.5
274.017	70.5
274.249	80.5
274.481	70.5
274.713	80.5
274.945	93.5
275.176	64.5
275.408	69.5
275.64	86.5
275.872	85.5
276.104	85.5
276.335	72.5
276.567	70.5
276.799	84.5
277.031	96.5
277.262	77.5
277.494	83.5
277.726	84.5
277.957	78.5
278.189	77.5
278.421	82.5
278.652	73.5
278.884	85.5
279.115	78.5
279.347	86.5
279.579	82.5
279.81	76.5
280.042	81.5
280.273	79.5
280.505	78.5
280.736	71.5
280.968	77.5
281.199	88.5
281.431	78.5
281.662	82.5
281.894	73.5
282.125	73.5
282.356	63.5
282.588	80.5
282.819	77.5
283.051	82.5
283.282	87.5
283.513	78.5
283.745	78.5
283.976	79.5
284.207	72.5
284.439	90.5
284.67	69.5
284.901	93.5
285.132	80.5
285.364	98.5
285.595	97.5
285.826	78.5
286.057	83.5
286.288	80.5
286.52	89.5
286.751	92.5
286.982	95.5
287.213	71.5
287.444	60.5
287.675	92.5
287.906	83.5
288.138	82.5
288.369	77.5
288.6	63.5
288.831	91.5
289.062	80.5
289.293	63.5
289.524	82.5
289.755	75.5
289.986	70.5
290.217	92.5
290.448	94.5
290.679	83.5
290.91	78.5
291.141	93.5
291.371	88.5
291.602	73.5
291.833	88.5
292.064	80.5
292.295	80.5
292.526	77.5
292.757	81.5
292.987	75.5
293.218	81.5
293.449	77.5
293.68	79.5
293.91	68.5
294.141	74.5
294.372	77.5
294.603	83.5
294.833	79.5
295.064	71.5
295.295	81.5
295.525	77.5
295.756	76.5
295.987	92.5
296.217	78.5
296.448	80.5
296.679	91.5
296.909	76.5
297.14	72.5
297.37	82.5
297.601	76.5
297.831	79.5
298.062	65.5
298.292	97.5
298.523	87.5
298.753	71.5
298.984	69.5
299.214	88.5
299.445	87.5
299.675	78.5
299.905	85.5
300.136	81.5
300.366	87.5
300.597	80.5
300.827	84.5
301.057	81.5
301.288	68.5
301.518	89.5
301.748	83.5
301.979	89.5
302.209	102.5
302.439	78.5
302.669	82.5
302.9	73.5
303.13	72.5
303.36	75.5
303.59	62.5
303.82	96.5
304.051	80.5
304.281	73.5
304.511	80.5
304.741	88.5
304.971	96.5
305.201	96.5
305.431	76.5
305.661	85.5
305.891	70.5
306.121	93.5
306.352	68.5
306.582	66.5
306.812	68.5
307.042	77.5
307.272	70.5
307.502	84.5
307.731	86.5
307.961	85.5
308.191	88.5
308.421	78.5
308.651	85.5
308.881	89.5
309.111	88.5
309.341	74.5
309.571	90.5
309.8	81.5
310.03	95.5
310.26	82.5
310.49	90.5
310.72	72.5
310.949	90.5
311.179	81.5
311.409	72.5
311.639	88.5
311.868	74.5
312.098	90.5
312.328	65.5
312.557	73.5
312.787	77.5
313.017	76.5
313.246	83.5
313.476	86.5
313.706	82.5
313.935	74.5
314.165	73.5
314.394	81.5
314.624	92.5
314.853	95.5
315.083	82.5
315.312	76.5
315.542	87.5
315.771	97.5
316.001	92.5
316.23	84.5
316.46	78.5
316.689	83.5
316.919	71.5
317.148	88.5
317.377	83.5
317.607	93.5
317.836	92.5
318.065	76.5
318.295	89.5
318.524	72.5
318.753	79.5
318.983	82.5
319.212	89.5
319.441	92.5
319.67	85.5
319.9	66.5
320.129	79.5
320.358	74.5
320.587	86.5
320.816	84.5
321.046	87.5
321.275	82.5
321.504	74.5
321.733	77.5
321.962	84.5
322.191	86.5
322.42	71.5
322.649	76.5
322.878	87.5
323.108	88.5
323.337	67.5
323.566	74.5
323.795	79.5
324.024	91.5
324.253	79.5
324.482	85.5
324.71	79.5
324.939	89.5
325.168	72.5
325.397	81.5
325.626	77.5
325.855	99.5
326.084	84.5
326.313	81.5
326.542	82.5
326.77	89.5
326.999	89.5
327.228	85.5
327.457	87.5
327.686	85.5
327.914	89.5
328.143	81.5
328.372	94.5
328.6	83.5
328.829	71.5
329.058	91.5
329.287	84.5
329.515	79.5
329.744	75.5
329.972	94.5
330.201	85.5
330.43	93.5
330.658	85.5
330.887	83.5
331.115	84.5
331.344	80.5
331.572	83.5
331.801	79.5
332.03	71.5
332.258	86.5
332.486	95.5
332.715	77.5
332.943	87.5
333.172	76.5
333.4	69.5
333.629	77.5
333.857	83.5
334.085	80.5
334.314	81.5
334.542	85.5
334.771	78.5
334.999	90.5
335.227	80.5
335.455	78.5
335.684	88.5
335.912	86.5
336.14	70.5
336.369	89.5
336.597	79.5
336.825	74.5
337.053	72.5
337.281	80.5
337.51	73.5
337.738	76.5
337.966	87.5
338.194	79.5
338.422	79.5
338.65	68.5
338.878	83.5
339.106	100.5
339.334	76.5
339.562	81.5
339.79	77.5
340.018	72.5
340.246	81.5
340.474	82.5
340.702	89.5
340.93	76.5
341.158	72.5
341.386	79.5
341.614	77.5
341.842	69.5
342.07	78.5
342.298	81.5
342.526	84.5
342.754	64.5
342.981	77.5
343.209	74.5
343.437	75.5
343.665	66.5
343.893	79.5
344.12	93.5
344.348	88.5
344.576	75.5
344.804	95.5
345.031	97.5
345.259	68.5
345.487	94.5
345.714	85.5
345.942	85.5
346.17	80.5
346.397	92.5
346.625	69.5
346.853	92.5
347.08	87.5
347.308	83.5
347.535	87.5
347.763	79.5
347.99	76.5
348.218	79.5
348.445	93.5
348.673	98.5
348.9	91.5
349.128	94.5
349.355	80.5
349.583	88.5
349.81	80.5
350.037	86.5
350.265	83.5
350.492	87.5
350.72	89.5
350.947	98.5
351.174	91.5
351.402	76.5
351.629	89.5
351.856	80.5
352.083	81.5
352.311	75.5
352.538	73.5
352.765	89.5
352.992	87.5
353.22	89.5
353.447	82.5
353.674	86.5
353.901	82.5
354.128	84.5
354.355	56.5
354.583	82.5
354.81	76.5
355.037	92.5
355.264	87.5
355.491	73.5
355.718	77.5
355.945	81.5
356.172	91.5
356.399	80.5
356.626	86.5
356.853	68.5
357.08	71.5
357.307	70.5
357.534	93.5
357.761	81.5
357.988	85.5
358.215	85.5
358.441	78.5
358.668	87.5
358.895	86.5
359.122	67.5
359.349	74.5
359.576	71.5
359.802	82.5
360.029	97.5
360.256	86.5
360.483	93.5
360.709	90.5
360.936	73.5
361.163	99.5
361.39	70.5
361.616	78.5
361.843	79.5
362.07	77.5
362.296	75.5
362.523	89.5
362.749	79.5
362.976	70.5
363.203	77.5
363.429	81.5
363.656	81.5
363.882	73.5
364.109	83.5
364.335	86.5
364.562	93.5
364.788	85.5
365.015	86.5
365.241	71.5
365.468	94.5
365.694	77.5
365.92	83.5
366.147	81.5
366.373	71.5
366.599	83.5
366.826	91.5
367.052	81.5
367.278	81.5
367.505	91.5
367.731	91.5
367.957	71.5
368.184	68.5
368.41	79.5
368.636	73.5
368.862	79.5
369.089	78.5
369.315	79.5
369.541	74.5
369.767	77.5
369.993	90.5
370.219	83.5
370.445	65.5
370.672	82.5
370.898	71.5
371.124	74.5
371.35	85.5
371.576	97.5
371.802	78.5
372.028	95.5
372.254	86.5
372.48	83.5
372.706	86.5
372.932	86.5
373.158	83.5
373.384	83.5
373.61	79.5
373.835	83.5
374.061	78.5
374.287	91.5
374.513	73.5
374.739	78.5
374.965	77.5
375.191	75.5
375.416	84.5
375.642	89.5
375.868	84.5
376.094	85.5
376.319	91.5
376.545	80.5
376.771	77.5
376.997	78.5
377.222	90.5
377.448	83.5
377.674	93.5
377.899	84.5
378.125	77.5
378.35	81.5
378.576	63.5
378.802	101.5
379.027	76.5
379.253	88.5
379.478	72.5
379.704	88.5
379.929	94.5
380.155	76.5
380.38	89.5
380.606	78.5
380.831	75.5
381.057	78.5
381.282	95.5
381.507	88.5
381.733	85.5
381.958	86.5
382.184	81.5
382.409	92.5
382.634	97.5
382.86	72.5
383.085	83.5
383.31	74.5
383.535	90.5
383.761	78.5
383.986	84.5
384.211	91.5
384.436	77.5
384.662	84.5
384.887	86.5
385.112	86.5
385.337	85.5
385.562	72.5
385.787	70.5
386.013	83.5
386.238	78.5
386.463	87.5
386.688	81.5
386.913	77.5
387.138	86.5
387.363	86.5
387.588	78.5
387.813	76.5
388.038	80.5
388.263	79.5
388.488	90.5
388.713	88.5
388.938	80.5
389.163	76.5
389.387	93.5
389.612	87.5
389.837	85.5
390.062	86.5
390.287	81.5
390.512	100.5
390.736	96.5
390.961	90.5
391.186	80.5
391.411	83.5
391.636	87.5
391.86	81.5
392.085	85.5
392.31	92.5
392.534	81.5
392.759	95.5
392.984	84.5
393.208	90.5
393.433	72.5
393.658	79.5
393.882	89.5
394.107	85.5
394.331	85.5
394.556	74.5
394.78	87.5
395.005	80.5
395.229	86.5
395.454	96.5
395.678	87.5
395.903	89.5
396.127	77.5
396.352	91.5
396.576	83.5
396.801	86.5
397.025	84.5
397.249	83.5
397.474	81.5
397.698	88.5
397.922	81.5
398.147	84.5
398.371	94.5
398.595	82.5
398.82	84.5
399.044	73.5
399.268	83.5
399.492	75.5
399.717	80.5
399.941	81.5
400.165	98.5
400.389	112.5
400.613	101.5
400.837	94.5
401.062	100.5
401.286	93.5
401.51	93.5
401.734	92.5
401.958	84.5
402.182	94.5
402.406	81.5
402.63	100.5
402.854	95.5
403.078	96.5
403.302	83.5
403.526	82.5
403.75	92.5
403.974	81.5
404.198	77.5
404.422	91.5
404.645	82.5
404.869	85.5
405.093	84.5
405.317	84.5
405.541	87.5
405.765	94.5
405.988	97.5
406.212	99.5
406.436	93.5
406.66	77.5
406.883	98.5
407.107	85.5
407.331	85.5
407.555	79.5
407.778	86.5
408.002	91.5
408.226	69.5
408.449	88.5
408.673	81.5
408.896	77.5
409.12	86.5
409.344	89.5
409.567	80.5
409.791	91.5
410.014	94.5
410.238	87.5
410.461	91.5
410.685	110.5
410.908	77.5
411.132	94.5
411.355	86.5
411.578	79.5
411.802	91.5
412.025	88.5
412.249	91.5
412.472	86.5
412.695	83.5
412.919	84.5
413.142	71.5
413.365	82.5
413.589	80.5
413.812	92.5
414.035	79.5
414.258	101.5
414.482	80.5
414.705	108.5
414.928	93.5
415.151	95.5
415.374	98.5
415.597	78.5
415.821	86.5
416.044	87.5
416.267	92.5
416.49	97.5
416.713	93.5
416.936	86.5
417.159	86.5
417.382	97.5
417.605	84.5
417.828	84.5
418.051	97.5
418.274	95.5
418.497	96.5
418.72	96.5
418.943	94.5
419.166	87.5
419.389	88.5
419.611	86.5
419.834	98.5
420.057	85.5
420.28	76.5
420.503	80.5
420.726	87.5
420.948	99.5
421.171	95.5
421.394	86.5
421.617	91.5
421.839	90.5
422.062	92.5
422.285	97.5
422.507	93.5
422.73	92.5
422.953	93.5
423.175	104.5
423.398	103.5
423.621	69.5
423.843	88.5
424.066	87.5
424.288	102.5
424.511	96.5
424.733	96.5
424.956	89.5
425.178	91.5
425.401	87.5
425.623	88.5
425.846	91.5
426.068	88.5
426.291	101.5
426.513	78.5
426.735	87.5
426.958	93.5
427.18	81.5
427.402	101.5
427.625	77.5
427.847	75.5
428.069	103.5
428.292	99.5
428.514	110.5
428.736	101.5
428.958	112.5
429.181	77.5
429.403	78.5
429.625	88.5
429.847	82.5
430.069	84.5
430.292	96.5
430.514	91.5
430.736	93.5
430.958	91.5
431.18	89.5
431.402	100.5
431.624	73.5
431.846	83.5
432.068	84.5
432.29	66.5
432.512	78.5
432.734	92.5
432.956	83.5
433.178	98.5
433.4	71.5
433.622	97.5
433.844	93.5
434.066	94.5
434.287	86.5
434.509	80.5
434.731	78.5
434.953	73.5
435.175	103.5
435.397	107.5
435.618	98.5
435.84	92.5
436.062	96.5
436.284	85.5
436.505	88.5
436.727	91.5
436.949	89.5
437.17	73.5
437.392	100.5
437.614	107.5
437.835	75.5
438.057	85.5
438.278	95.5
438.5	92.5
438.721	88.5
438.943	89.5
439.165	99.5
439.386	80.5
439.608	95.5
439.829	94.5
440.05	99.5
440.272	101.5
440.493	88.5
440.715	92.5
440.936	97.5
441.158	101.5
441.379	87.5
441.6	87.5
441.822	97.5
442.043	87.5
442.264	100.5
442.486	86.5
442.707	87.5
442.928	113.5
443.149	79.5
443.371	87.5
443.592	87.5
443.813	84.5
444.034	100.5
444.255	116.5
444.476	95.5
444.698	87.5
444.919	87.5
445.14	226.5
445.361	159.5
445.582	91.5
445.803	86.5
446.024	79.5
446.245	95.5
446.466	110.5
446.687	110.5
446.908	84.5
447.129	94.5
447.35	92.5
447.571	89.5
447.792	86.5
448.013	101.5
448.234	86.5
448.455	101.5
448.675	95.5
448.896	99.5
449.117	102.5
449.338	94.5
449.559	95.5
449.779	92.5
450	94.5
450.221	90.5
450.442	96.5
450.662	74.5
450.883	95.5
451.104	81.5
451.324	95.5
451.545	84.5
451.766	90.5
451.986	94.5
452.207	86.5
452.428	81.5
452.648	92.5
452.869	89.5
453.089	95.5
453.31	87.5
453.53	92.5
453.751	89.5
453.971	80.5
454.192	72.5
454.412	86.5
454.633	89.5
454.853	85.5
455.073	89.5
455.294	71.5
455.514	91.5
455.734	80.5
455.955	93.5
456.175	81.5
456.395	96.5
456.616	83.5
456.836	90.5
457.056	83.5
457.276	85.5
457.497	80.5
457.717	85.5
457.937	73.5
458.157	86.5
458.377	67.5
458.598	66.5
458.818	80.5
459.038	78.5
459.258	70.5
459.478	74.5
459.698	93.5
459.918	97.5
460.138	90.5
460.358	94.5
460.578	86.5
460.798	83.5
461.018	80.5
461.238	95.5
461.458	95.5
461.678	90.5
461.898	95.5
462.118	82.5
462.338	92.5
462.558	91.5
462.777	93.5
462.997	88.5
463.217	81.5
463.437	78.5
463.657	83.5
463.876	87.5
464.096	90.5
464.316	95.5
464.536	83.5
464.755	96.5
464.975	82.5
465.195	78.5
465.414	100.5
465.634	85.5
465.854	78.5
466.073	83.5
466.293	95.5
466.512	100.5
466.732	89.5
466.951	89.5
467.171	81.5
467.391	78.5
467.61	94.5
467.829	102.5
468.049	92.5
468.268	79.5
468.488	82.5
468.707	83.5
468.927	96.5
469.146	91.5
469.365	87.5
469.585	96.5
469.804	104.5
470.023	97.5
470.243	88.5
470.462	100.5
470.681	92.5
470.901	105.5
471.12	95.5
471.339	102.5
471.558	83.5
471.777	90.5
471.997	93.5
472.216	98.5
472.435	88.5
472.654	80.5
472.873	88.5
473.092	88.5
473.311	96.5
473.53	72.5
473.749	95.5
473.968	102.5
474.187	87.5
474.406	92.5
474.625	83.5
474.844	93.5
475.063	85.5
475.282	109.5
475.501	95.5
475.72	92.5
475.939	83.5
476.158	86.5
476.377	84.5
476.596	85.5
476.814	82.5
477.033	91.5
477.252	87.5
477.471	95.5
477.69	97.5
477.908	100.5
478.127	97.5
478.346	88.5
478.564	91.5
478.783	82.5
479.002	93.5
479.22	100.5
479.439	115.5
479.658	86.5
479.876	74.5
480.095	84.5
480.313	94.5
480.532	87.5
480.751	90.5
480.969	82.5
481.188	86.5
481.406	72.5
481.624	83.5
481.843	74.5
482.061	71.5
482.28	80.5
482.498	84.5
482.717	83.5
482.935	108.5
483.153	103.5
483.372	102.5
483.59	103.5
483.808	100.5
484.027	94.5
484.245	95.5
484.463	96.5
484.681	123.5
484.9	104.5
485.118	83.5
485.336	88.5
485.554	84.5
485.772	96.5
485.99	95.5
486.209	92.5
486.427	78.5
486.645	89.5
486.863	100.5
487.081	90.5
487.299	87.5
487.517	84.5
487.735	91.5
487.953	110.5
488.171	115.5
488.389	117.5
488.607	90.5
488.825	87.5
489.043	80.5
489.261	101.5
489.479	90.5
489.696	101.5
489.914	100.5
490.132	102.5
490.35	107.5
490.568	100.5
490.786	110.5
491.003	87.5
491.221	102.5
491.439	111.5
491.657	123.5
491.874	129.5
492.092	126.5
492.31	131.5
492.527	117.5
492.745	112.5
492.963	95.5
493.18	103.5
493.398	117.5
493.615	98.5
493.833	129.5
494.05	107.5
494.268	108.5
494.485	113.5
494.703	105.5
494.92	116.5
495.138	96.5
495.355	89.5
495.573	119.5
495.79	91.5
496.008	99.5
496.225	95.5
496.442	96.5
496.66	110.5
496.877	103.5
497.094	110.5
497.312	107.5
497.529	112.5
497.746	100.5
497.963	111.5
498.181	89.5
498.398	92.5
498.615	87.5
498.832	80.5
499.049	84.5
499.267	79.5
499.484	87.5
499.701	103.5
499.918	93.5
500.135	107.5
500.352	105.5
500.569	99.5
500.786	88.5
501.003	97.5
501.22	100.5
501.437	95.5
501.654	98.5
501.871	83.5
502.088	88.5
502.305	91.5
502.522	108.5
502.739	81.5
502.956	94.5
503.172	95.5
503.389	91.5
503.606	91.5
503.823	88.5
504.04	86.5
504.256	85.5
504.473	90.5
504.69	95.5
504.907	109.5
505.123	94.5
505.34	80.5
505.557	90.5
505.773	100.5
505.99	100.5
506.207	92.5
506.423	89.5
506.64	103.5
506.856	96.5
507.073	77.5
507.289	89.5
507.506	108.5
507.722	87.5
507.939	101.5
508.155	86.5
508.372	95.5
508.588	73.5
508.805	103.5
509.021	80.5
509.238	88.5
509.454	87.5
509.67	77.5
509.887	84.5
510.103	89.5
510.319	87.5
510.536	84.5
510.752	83.5
510.968	73.5
511.184	83.5
511.401	90.5
511.617	84.5
511.833	83.5
512.049	75.5
512.265	83.5
512.481	88.5
512.698	78.5
512.914	83.5
513.13	68.5
513.346	82.5
513.562	75.5
513.778	92.5
513.994	74.5
514.21	70.5
514.426	85.5
514.642	86.5
514.858	72.5
515.074	80.5
515.29	85.5
515.506	101.5
515.721	87.5
515.937	90.5
516.153	80.5
516.369	67.5
516.585	85.5
516.801	93.5
517.016	81.5
517.232	79.5
517.448	84.5
517.664	79.5
517.879	80.5
518.095	76.5
518.311	83.5
518.527	79.5
518.742	83.5
518.958	87.5
519.173	105.5
519.389	89.5
519.605	86.5
519.82	84.5
520.036	77.5
520.251	71.5
520.467	87.5
520.682	82.5
520.898	74.5
521.113	89.5
521.329	90.5
521.544	88.5
521.76	86.5
521.975	103.5
522.19	86.5
522.406	94.5
522.621	75.5
522.836	80.5
523.052	96.5
523.267	92.5
523.482	89.5
523.698	91.5
523.913	93.5
524.128	94.5
524.343	87.5
524.559	84.5
524.774	85.5
524.989	97.5
525.204	96.5
525.419	88.5
525.634	95.5
525.849	87.5
526.064	93.5
526.28	82.5
526.495	91.5
526.71	90.5
526.925	76.5
527.14	70.5
527.355	85.5
527.57	80.5
527.785	70.5
527.999	65.5
528.214	84.5
528.429	80.5
528.644	88.5
528.859	108.5
529.074	90.5
529.289	103.5
529.503	77.5
529.718	90.5
529.933	83.5
530.148	83.5
530.363	83.5
530.577	66.5
530.792	69.5
531.007	78.5
531.221	75.5
531.436	76.5
531.651	84.5
531.865	80.5
532.08	94.5
532.295	86.5
532.509	94.5
532.724	77.5
532.938	90.5
533.153	90.5
533.367	80.5
533.582	83.5
533.796	92.5
534.011	81.5
534.225	81.5
534.44	85.5
534.654	82.5
534.868	98.5
535.083	101.5
535.297	87.5
535.511	103.5
535.726	84.5
535.94	91.5
536.154	87.5
536.369	78.5
536.583	76.5
536.797	81.5
537.011	71.5
537.225	78.5
537.44	83.5
537.654	70.5
537.868	86.5
538.082	70.5
538.296	76.5
