Data from Location3.07152019.Energy5.Lamp.07192019.3%Agarose_HRD10591_15-19-42-271.txt Node
Date: Fri Jul 19 15:19:42 EDT 2019
User: cochatt
Spectrometer: HR+D1059
Trigger mode: 1
Integration Time (sec): 1.000000E-1
Scans to average: 1
Electric dark correction enabled: true
Nonlinearity correction enabled: false
Boxcar width: 0
XAxis mode: Wavelengths
Number of Pixels in Spectrum: 2048
>>>>>Begin Spectral Data<<<<<
223.165	-14.25
223.4	-14.25
223.635	-14.25
223.869	-22.25
224.104	-12.25
224.338	-16.25
224.573	-5.25
224.808	-18.25
225.042	-14.25
225.277	-9.25
225.511	2.75
225.746	3.75
225.98	-1.25
226.215	12.75
226.449	22.75
226.683	20.75
226.918	23.75
227.152	26.75
227.387	33.75
227.621	42.75
227.856	43.75
228.09	48.75
228.324	55.75
228.559	64.75
228.793	59.75
229.027	67.75
229.262	72.75
229.496	76.75
229.73	63.75
229.964	64.75
230.199	74.75
230.433	78.75
230.667	73.75
230.901	84.75
231.136	73.75
231.37	81.75
231.604	89.75
231.838	84.75
232.072	65.75
232.306	80.75
232.541	81.75
232.775	81.75
233.009	87.75
233.243	88.75
233.477	71.75
233.711	83.75
233.945	82.75
234.179	80.75
234.413	83.75
234.647	80.75
234.881	85.75
235.115	85.75
235.349	80.75
235.583	95.75
235.817	86.75
236.051	63.75
236.285	71.75
236.519	75.75
236.753	87.75
236.987	74.75
237.221	84.75
237.455	82.75
237.689	76.75
237.922	67.75
238.156	82.75
238.39	71.75
238.624	68.75
238.858	75.75
239.091	76.75
239.325	72.75
239.559	91.75
239.793	79.75
240.027	75.75
240.26	71.75
240.494	74.75
240.728	69.75
240.961	76.75
241.195	73.75
241.429	84.75
241.662	75.75
241.896	64.75
242.13	94.75
242.363	73.75
242.597	87.75
242.83	94.75
243.064	87.75
243.298	64.75
243.531	69.75
243.765	84.75
243.998	72.75
244.232	94.75
244.465	80.75
244.699	75.75
244.932	86.75
245.166	73.75
245.399	69.75
245.633	83.75
245.866	61.75
246.099	78.75
246.333	77.75
246.566	74.75
246.8	92.75
247.033	94.75
247.266	70.75
247.5	80.75
247.733	82.75
247.966	72.75
248.2	89.75
248.433	91.75
248.666	81.75
248.899	82.75
249.133	84.75
249.366	89.75
249.599	74.75
249.832	70.75
250.066	92.75
250.299	86.75
250.532	66.75
250.765	86.75
250.998	72.75
251.231	72.75
251.465	67.75
251.698	66.75
251.931	64.75
252.164	80.75
252.397	84.75
252.63	90.75
252.863	77.75
253.096	82.75
253.329	89.75
253.562	88.75
253.795	87.75
254.028	83.75
254.261	80.75
254.494	76.75
254.727	76.75
254.96	89.75
255.193	80.75
255.426	86.75
255.659	90.75
255.892	83.75
256.124	86.75
256.357	90.75
256.59	59.75
256.823	81.75
257.056	77.75
257.289	73.75
257.521	79.75
257.754	84.75
257.987	92.75
258.22	75.75
258.452	88.75
258.685	80.75
258.918	77.75
259.151	80.75
259.383	69.75
259.616	82.75
259.849	88.75
260.081	83.75
260.314	88.75
260.547	70.75
260.779	79.75
261.012	87.75
261.244	86.75
261.477	69.75
261.71	87.75
261.942	82.75
262.175	74.75
262.407	69.75
262.64	85.75
262.872	77.75
263.105	72.75
263.337	72.75
263.57	84.75
263.802	81.75
264.035	84.75
264.267	85.75
264.499	82.75
264.732	89.75
264.964	82.75
265.197	97.75
265.429	72.75
265.661	83.75
265.894	81.75
266.126	77.75
266.358	78.75
266.591	82.75
266.823	81.75
267.055	80.75
267.287	84.75
267.52	76.75
267.752	97.75
267.984	88.75
268.216	69.75
268.448	83.75
268.681	86.75
268.913	84.75
269.145	78.75
269.377	77.75
269.609	89.75
269.841	90.75
270.073	72.75
270.306	77.75
270.538	104.75
270.77	77.75
271.002	76.75
271.234	69.75
271.466	93.75
271.698	72.75
271.93	79.75
272.162	77.75
272.394	79.75
272.626	93.75
272.858	93.75
273.09	85.75
273.322	82.75
273.553	81.75
273.785	84.75
274.017	86.75
274.249	90.75
274.481	80.75
274.713	93.75
274.945	87.75
275.176	78.75
275.408	84.75
275.64	85.75
275.872	75.75
276.104	89.75
276.335	82.75
276.567	68.75
276.799	83.75
277.031	82.75
277.262	80.75
277.494	99.75
277.726	94.75
277.957	88.75
278.189	71.75
278.421	79.75
278.652	87.75
278.884	91.75
279.115	81.75
279.347	61.75
279.579	84.75
279.81	78.75
280.042	76.75
280.273	80.75
280.505	78.75
280.736	73.75
280.968	97.75
281.199	90.75
281.431	89.75
281.662	96.75
281.894	74.75
282.125	82.75
282.356	83.75
282.588	80.75
282.819	89.75
283.051	99.75
283.282	95.75
283.513	78.75
283.745	82.75
283.976	82.75
284.207	82.75
284.439	79.75
284.67	79.75
284.901	84.75
285.132	72.75
285.364	84.75
285.595	74.75
285.826	88.75
286.057	88.75
286.288	75.75
286.52	84.75
286.751	72.75
286.982	73.75
287.213	86.75
287.444	89.75
287.675	74.75
287.906	73.75
288.138	86.75
288.369	65.75
288.6	87.75
288.831	69.75
289.062	77.75
289.293	84.75
289.524	84.75
289.755	88.75
289.986	76.75
290.217	97.75
290.448	103.75
290.679	93.75
290.91	84.75
291.141	92.75
291.371	97.75
291.602	88.75
291.833	81.75
292.064	83.75
292.295	90.75
292.526	85.75
292.757	94.75
292.987	93.75
293.218	92.75
293.449	92.75
293.68	91.75
293.91	101.75
294.141	99.75
294.372	75.75
294.603	80.75
294.833	92.75
295.064	86.75
295.295	84.75
295.525	82.75
295.756	97.75
295.987	93.75
296.217	90.75
296.448	81.75
296.679	90.75
296.909	81.75
297.14	84.75
297.37	79.75
297.601	102.75
297.831	86.75
298.062	80.75
298.292	89.75
298.523	104.75
298.753	81.75
298.984	91.75
299.214	96.75
299.445	82.75
299.675	74.75
299.905	95.75
300.136	90.75
300.366	76.75
300.597	96.75
300.827	80.75
301.057	75.75
301.288	90.75
301.518	88.75
301.748	90.75
301.979	72.75
302.209	82.75
302.439	79.75
302.669	78.75
302.9	91.75
303.13	92.75
303.36	94.75
303.59	78.75
303.82	87.75
304.051	87.75
304.281	83.75
304.511	91.75
304.741	87.75
304.971	80.75
305.201	93.75
305.431	80.75
305.661	89.75
305.891	81.75
306.121	89.75
306.352	87.75
306.582	91.75
306.812	88.75
307.042	75.75
307.272	86.75
307.502	91.75
307.731	96.75
307.961	86.75
308.191	83.75
308.421	77.75
308.651	82.75
308.881	84.75
309.111	71.75
309.341	85.75
309.571	79.75
309.8	89.75
310.03	95.75
310.26	76.75
310.49	84.75
310.72	79.75
310.949	80.75
311.179	72.75
311.409	81.75
311.639	93.75
311.868	82.75
312.098	84.75
312.328	75.75
312.557	97.75
312.787	86.75
313.017	71.75
313.246	88.75
313.476	90.75
313.706	77.75
313.935	88.75
314.165	91.75
314.394	84.75
314.624	96.75
314.853	86.75
315.083	84.75
315.312	83.75
315.542	77.75
315.771	78.75
316.001	93.75
316.23	90.75
316.46	73.75
316.689	85.75
316.919	72.75
317.148	97.75
317.377	83.75
317.607	85.75
317.836	90.75
318.065	96.75
318.295	96.75
318.524	78.75
318.753	80.75
318.983	83.75
319.212	88.75
319.441	79.75
319.67	92.75
319.9	84.75
320.129	78.75
320.358	91.75
320.587	76.75
320.816	75.75
321.046	87.75
321.275	91.75
321.504	78.75
321.733	80.75
321.962	84.75
322.191	88.75
322.42	95.75
322.649	93.75
322.878	98.75
323.108	86.75
323.337	81.75
323.566	85.75
323.795	93.75
324.024	97.75
324.253	82.75
324.482	80.75
324.71	84.75
324.939	85.75
325.168	89.75
325.397	89.75
325.626	87.75
325.855	78.75
326.084	80.75
326.313	74.75
326.542	68.75
326.77	90.75
326.999	97.75
327.228	78.75
327.457	78.75
327.686	81.75
327.914	96.75
328.143	83.75
328.372	87.75
328.6	84.75
328.829	76.75
329.058	81.75
329.287	80.75
329.515	68.75
329.744	81.75
329.972	85.75
330.201	91.75
330.43	83.75
330.658	83.75
330.887	82.75
331.115	90.75
331.344	92.75
331.572	82.75
331.801	89.75
332.03	88.75
332.258	81.75
332.486	82.75
332.715	75.75
332.943	90.75
333.172	92.75
333.4	72.75
333.629	74.75
333.857	96.75
334.085	92.75
334.314	79.75
334.542	82.75
334.771	89.75
334.999	74.75
335.227	84.75
335.455	88.75
335.684	80.75
335.912	86.75
336.14	86.75
336.369	90.75
336.597	95.75
336.825	90.75
337.053	79.75
337.281	87.75
337.51	98.75
337.738	87.75
337.966	97.75
338.194	80.75
338.422	97.75
338.65	86.75
338.878	106.75
339.106	69.75
339.334	78.75
339.562	82.75
339.79	80.75
340.018	77.75
340.246	101.75
340.474	71.75
340.702	87.75
340.93	91.75
341.158	72.75
341.386	75.75
341.614	86.75
341.842	83.75
342.07	94.75
342.298	91.75
342.526	73.75
342.754	81.75
342.981	96.75
343.209	93.75
343.437	95.75
343.665	91.75
343.893	88.75
344.12	89.75
344.348	75.75
344.576	84.75
344.804	81.75
345.031	82.75
345.259	85.75
345.487	100.75
345.714	88.75
345.942	83.75
346.17	91.75
346.397	88.75
346.625	87.75
346.853	88.75
347.08	96.75
347.308	94.75
347.535	81.75
347.763	70.75
347.99	80.75
348.218	87.75
348.445	89.75
348.673	86.75
348.9	96.75
349.128	90.75
349.355	89.75
349.583	88.75
349.81	90.75
350.037	80.75
350.265	85.75
350.492	63.75
350.72	80.75
350.947	97.75
351.174	83.75
351.402	88.75
351.629	86.75
351.856	81.75
352.083	83.75
352.311	63.75
352.538	80.75
352.765	94.75
352.992	90.75
353.22	80.75
353.447	78.75
353.674	93.75
353.901	94.75
354.128	92.75
354.355	81.75
354.583	88.75
354.81	105.75
355.037	87.75
355.264	94.75
355.491	83.75
355.718	65.75
355.945	85.75
356.172	82.75
356.399	79.75
356.626	88.75
356.853	81.75
357.08	72.75
357.307	86.75
357.534	91.75
357.761	94.75
357.988	98.75
358.215	91.75
358.441	94.75
358.668	88.75
358.895	89.75
359.122	83.75
359.349	84.75
359.576	80.75
359.802	82.75
360.029	93.75
360.256	84.75
360.483	79.75
360.709	93.75
360.936	90.75
361.163	97.75
361.39	83.75
361.616	101.75
361.843	77.75
362.07	79.75
362.296	87.75
362.523	82.75
362.749	88.75
362.976	90.75
363.203	100.75
363.429	82.75
363.656	79.75
363.882	74.75
364.109	74.75
364.335	87.75
364.562	95.75
364.788	87.75
365.015	86.75
365.241	88.75
365.468	89.75
365.694	84.75
365.92	74.75
366.147	89.75
366.373	88.75
366.599	81.75
366.826	76.75
367.052	75.75
367.278	76.75
367.505	93.75
367.731	83.75
367.957	80.75
368.184	88.75
368.41	77.75
368.636	85.75
368.862	82.75
369.089	80.75
369.315	92.75
369.541	90.75
369.767	84.75
369.993	84.75
370.219	87.75
370.445	80.75
370.672	82.75
370.898	87.75
371.124	92.75
371.35	104.75
371.576	92.75
371.802	73.75
372.028	92.75
372.254	98.75
372.48	78.75
372.706	75.75
372.932	93.75
373.158	86.75
373.384	72.75
373.61	87.75
373.835	85.75
374.061	84.75
374.287	77.75
374.513	86.75
374.739	84.75
374.965	85.75
375.191	70.75
375.416	75.75
375.642	81.75
375.868	95.75
376.094	97.75
376.319	81.75
376.545	84.75
376.771	88.75
376.997	102.75
377.222	73.75
377.448	90.75
377.674	80.75
377.899	81.75
378.125	89.75
378.35	91.75
378.576	88.75
378.802	94.75
379.027	84.75
379.253	96.75
379.478	95.75
379.704	76.75
379.929	90.75
380.155	84.75
380.38	83.75
380.606	87.75
380.831	89.75
381.057	91.75
381.282	92.75
381.507	91.75
381.733	85.75
381.958	82.75
382.184	84.75
382.409	70.75
382.634	95.75
382.86	81.75
383.085	90.75
383.31	94.75
383.535	79.75
383.761	94.75
383.986	84.75
384.211	72.75
384.436	87.75
384.662	94.75
384.887	80.75
385.112	88.75
385.337	88.75
385.562	79.75
385.787	83.75
386.013	87.75
386.238	79.75
386.463	81.75
386.688	98.75
386.913	81.75
387.138	93.75
387.363	94.75
387.588	85.75
387.813	79.75
388.038	87.75
388.263	83.75
388.488	78.75
388.713	87.75
388.938	92.75
389.163	86.75
389.387	73.75
389.612	72.75
389.837	70.75
390.062	79.75
390.287	85.75
390.512	92.75
390.736	83.75
390.961	94.75
391.186	82.75
391.411	63.75
391.636	91.75
391.86	80.75
392.085	85.75
392.31	101.75
392.534	78.75
392.759	82.75
392.984	76.75
393.208	92.75
393.433	84.75
393.658	88.75
393.882	95.75
394.107	86.75
394.331	91.75
394.556	92.75
394.78	70.75
395.005	88.75
395.229	91.75
395.454	93.75
395.678	85.75
395.903	82.75
396.127	91.75
396.352	90.75
396.576	96.75
396.801	94.75
397.025	83.75
397.249	94.75
397.474	85.75
397.698	85.75
397.922	94.75
398.147	83.75
398.371	80.75
398.595	91.75
398.82	88.75
399.044	88.75
399.268	76.75
399.492	87.75
399.717	92.75
399.941	91.75
400.165	81.75
400.389	83.75
400.613	84.75
400.837	83.75
401.062	93.75
401.286	84.75
401.51	87.75
401.734	86.75
401.958	75.75
402.182	81.75
402.406	96.75
402.63	80.75
402.854	89.75
403.078	102.75
403.302	82.75
403.526	76.75
403.75	93.75
403.974	94.75
404.198	87.75
404.422	96.75
404.645	90.75
404.869	76.75
405.093	95.75
405.317	74.75
405.541	94.75
405.765	95.75
405.988	91.75
406.212	95.75
406.436	91.75
406.66	100.75
406.883	90.75
407.107	96.75
407.331	85.75
407.555	94.75
407.778	80.75
408.002	99.75
408.226	83.75
408.449	104.75
408.673	87.75
408.896	98.75
409.12	78.75
409.344	92.75
409.567	96.75
409.791	87.75
410.014	82.75
410.238	101.75
410.461	103.75
410.685	98.75
410.908	98.75
411.132	99.75
411.355	74.75
411.578	81.75
411.802	89.75
412.025	91.75
412.249	97.75
412.472	79.75
412.695	86.75
412.919	77.75
413.142	95.75
413.365	84.75
413.589	88.75
413.812	85.75
414.035	100.75
414.258	90.75
414.482	95.75
414.705	88.75
414.928	98.75
415.151	88.75
415.374	89.75
415.597	90.75
415.821	100.75
416.044	97.75
416.267	101.75
416.49	99.75
416.713	83.75
416.936	96.75
417.159	101.75
417.382	102.75
417.605	92.75
417.828	97.75
418.051	99.75
418.274	94.75
418.497	95.75
418.72	100.75
418.943	98.75
419.166	90.75
419.389	99.75
419.611	92.75
419.834	79.75
420.057	118.75
420.28	96.75
420.503	102.75
420.726	97.75
420.948	97.75
421.171	110.75
421.394	90.75
421.617	103.75
421.839	110.75
422.062	92.75
422.285	102.75
422.507	99.75
422.73	93.75
422.953	88.75
423.175	87.75
423.398	96.75
423.621	85.75
423.843	90.75
424.066	89.75
424.288	107.75
424.511	111.75
424.733	95.75
424.956	100.75
425.178	104.75
425.401	91.75
425.623	105.75
425.846	100.75
426.068	80.75
426.291	107.75
426.513	100.75
426.735	105.75
426.958	104.75
427.18	118.75
427.402	95.75
427.625	101.75
427.847	80.75
428.069	96.75
428.292	110.75
428.514	86.75
428.736	100.75
428.958	107.75
429.181	94.75
429.403	88.75
429.625	88.75
429.847	92.75
430.069	86.75
430.292	109.75
430.514	82.75
430.736	96.75
430.958	107.75
431.18	103.75
431.402	84.75
431.624	80.75
431.846	82.75
432.068	79.75
432.29	94.75
432.512	84.75
432.734	106.75
432.956	95.75
433.178	112.75
433.4	98.75
433.622	102.75
433.844	105.75
434.066	99.75
434.287	79.75
434.509	82.75
434.731	78.75
434.953	82.75
435.175	105.75
435.397	87.75
435.618	87.75
435.84	97.75
436.062	98.75
436.284	88.75
436.505	90.75
436.727	87.75
436.949	102.75
437.17	105.75
437.392	92.75
437.614	99.75
437.835	81.75
438.057	81.75
438.278	100.75
438.5	97.75
438.721	91.75
438.943	104.75
439.165	79.75
439.386	98.75
439.608	114.75
439.829	96.75
440.05	106.75
440.272	102.75
440.493	84.75
440.715	94.75
440.936	93.75
441.158	98.75
441.379	99.75
441.6	113.75
441.822	99.75
442.043	110.75
442.264	105.75
442.486	102.75
442.707	122.75
442.928	104.75
443.149	79.75
443.371	91.75
443.592	86.75
443.813	97.75
444.034	92.75
444.255	99.75
444.476	103.75
444.698	94.75
444.919	104.75
445.14	228.75
445.361	149.75
445.582	106.75
445.803	97.75
446.024	95.75
446.245	109.75
446.466	102.75
446.687	103.75
446.908	107.75
447.129	114.75
447.35	102.75
447.571	101.75
447.792	103.75
448.013	105.75
448.234	91.75
448.455	107.75
448.675	97.75
448.896	98.75
449.117	106.75
449.338	94.75
449.559	95.75
449.779	87.75
450	95.75
450.221	93.75
450.442	95.75
450.662	92.75
450.883	92.75
451.104	96.75
451.324	106.75
451.545	101.75
451.766	107.75
451.986	95.75
452.207	92.75
452.428	94.75
452.648	92.75
452.869	97.75
453.089	94.75
453.31	81.75
453.53	91.75
453.751	97.75
453.971	87.75
454.192	88.75
454.412	82.75
454.633	85.75
454.853	94.75
455.073	83.75
455.294	76.75
455.514	101.75
455.734	83.75
455.955	86.75
456.175	102.75
456.395	101.75
456.616	95.75
456.836	90.75
457.056	78.75
457.276	73.75
457.497	82.75
457.717	107.75
457.937	99.75
458.157	80.75
458.377	87.75
458.598	96.75
458.818	84.75
459.038	79.75
459.258	96.75
459.478	83.75
459.698	90.75
459.918	93.75
460.138	78.75
460.358	85.75
460.578	117.75
460.798	82.75
461.018	88.75
461.238	104.75
461.458	84.75
461.678	75.75
461.898	107.75
462.118	97.75
462.338	89.75
462.558	83.75
462.777	102.75
462.997	93.75
463.217	88.75
463.437	81.75
463.657	76.75
463.876	75.75
464.096	99.75
464.316	97.75
464.536	80.75
464.755	94.75
464.975	95.75
465.195	83.75
465.414	97.75
465.634	98.75
465.854	92.75
466.073	87.75
466.293	96.75
466.512	92.75
466.732	110.75
466.951	89.75
467.171	91.75
467.391	88.75
467.61	95.75
467.829	102.75
468.049	107.75
468.268	96.75
468.488	100.75
468.707	87.75
468.927	89.75
469.146	108.75
469.365	99.75
469.585	99.75
469.804	103.75
470.023	100.75
470.243	98.75
470.462	97.75
470.681	89.75
470.901	104.75
471.12	102.75
471.339	104.75
471.558	95.75
471.777	114.75
471.997	108.75
472.216	96.75
472.435	80.75
472.654	84.75
472.873	91.75
473.092	94.75
473.311	96.75
473.53	91.75
473.749	111.75
473.968	112.75
474.187	92.75
474.406	91.75
474.625	85.75
474.844	94.75
475.063	110.75
475.282	84.75
475.501	87.75
475.72	99.75
475.939	95.75
476.158	87.75
476.377	91.75
476.596	102.75
476.814	81.75
477.033	89.75
477.252	99.75
477.471	90.75
477.69	106.75
477.908	100.75
478.127	89.75
478.346	98.75
478.564	97.75
478.783	87.75
479.002	97.75
479.22	106.75
479.439	97.75
479.658	107.75
479.876	107.75
480.095	92.75
480.313	96.75
480.532	80.75
480.751	89.75
480.969	90.75
481.188	91.75
481.406	68.75
481.624	80.75
481.843	84.75
482.061	71.75
482.28	98.75
482.498	96.75
482.717	80.75
482.935	90.75
483.153	105.75
483.372	91.75
483.59	99.75
483.808	103.75
484.027	102.75
484.245	97.75
484.463	92.75
484.681	116.75
484.9	90.75
485.118	89.75
485.336	111.75
485.554	100.75
485.772	99.75
485.99	74.75
486.209	86.75
486.427	97.75
486.645	105.75
486.863	112.75
487.081	97.75
487.299	102.75
487.517	104.75
487.735	116.75
487.953	103.75
488.171	114.75
488.389	110.75
488.607	102.75
488.825	105.75
489.043	116.75
489.261	100.75
489.479	95.75
489.696	97.75
489.914	96.75
490.132	119.75
490.35	85.75
490.568	96.75
490.786	104.75
491.003	102.75
491.221	119.75
491.439	122.75
491.657	121.75
491.874	126.75
492.092	123.75
492.31	130.75
492.527	120.75
492.745	127.75
492.963	127.75
493.18	123.75
493.398	104.75
493.615	89.75
493.833	112.75
494.05	96.75
494.268	107.75
494.485	104.75
494.703	103.75
494.92	106.75
495.138	120.75
495.355	110.75
495.573	117.75
495.79	95.75
496.008	110.75
496.225	103.75
496.442	91.75
496.66	114.75
496.877	103.75
497.094	100.75
497.312	103.75
497.529	116.75
497.746	98.75
497.963	92.75
498.181	102.75
498.398	96.75
498.615	90.75
498.832	91.75
499.049	91.75
499.267	103.75
499.484	100.75
499.701	95.75
499.918	105.75
500.135	98.75
500.352	102.75
500.569	89.75
500.786	116.75
501.003	86.75
501.22	113.75
501.437	99.75
501.654	97.75
501.871	87.75
502.088	101.75
502.305	96.75
502.522	97.75
502.739	87.75
502.956	104.75
503.172	107.75
503.389	100.75
503.606	87.75
503.823	88.75
504.04	98.75
504.256	111.75
504.473	98.75
504.69	103.75
504.907	101.75
505.123	106.75
505.34	87.75
505.557	99.75
505.773	98.75
505.99	88.75
506.207	87.75
506.423	99.75
506.64	85.75
506.856	99.75
507.073	91.75
507.289	101.75
507.506	96.75
507.722	87.75
507.939	105.75
508.155	88.75
508.372	73.75
508.588	92.75
508.805	75.75
509.021	100.75
509.238	100.75
509.454	90.75
509.67	86.75
509.887	86.75
510.103	83.75
510.319	78.75
510.536	100.75
510.752	74.75
510.968	71.75
511.184	86.75
511.401	87.75
511.617	81.75
511.833	91.75
512.049	95.75
512.265	81.75
512.481	93.75
512.698	78.75
512.914	98.75
513.13	77.75
513.346	84.75
513.562	88.75
513.778	76.75
513.994	97.75
514.21	100.75
514.426	97.75
514.642	86.75
514.858	88.75
515.074	96.75
515.29	76.75
515.506	87.75
515.721	82.75
515.937	70.75
516.153	82.75
516.369	93.75
516.585	86.75
516.801	91.75
