Data from Location3.07152019.Energy5.Lamp.07192019.3%Agarose_HRD10591_15-17-27-269.txt Node
Date: Fri Jul 19 15:17:27 EDT 2019
User: cochatt
Spectrometer: HR+D1059
Trigger mode: 1
Integration Time (sec): 1.000000E-1
Scans to average: 1
Electric dark correction enabled: true
Nonlinearity correction enabled: false
Boxcar width: 0
XAxis mode: Wavelengths
Number of Pixels in Spectrum: 2048
>>>>>Begin Spectral Data<<<<<
223.165	-23.19
223.4	-23.19
223.635	-23.19
223.869	-11.19
224.104	-0.19
224.338	-17.19
224.573	-16.19
224.808	-25.19
225.042	-2.19
225.277	-4.19
225.511	-0.19
225.746	-12.19
225.98	1.81
226.215	6.81
226.449	26.81
226.683	15.81
226.918	34.81
227.152	25.81
227.387	38.81
227.621	32.81
227.856	37.81
228.09	36.81
228.324	43.81
228.559	74.81
228.793	62.81
229.027	44.81
229.262	55.81
229.496	63.81
229.73	69.81
229.964	64.81
230.199	56.81
230.433	76.81
230.667	76.81
230.901	82.81
231.136	98.81
231.37	84.81
231.604	66.81
231.838	77.81
232.072	73.81
232.306	71.81
232.541	70.81
232.775	93.81
233.009	86.81
233.243	71.81
233.477	67.81
233.711	87.81
233.945	82.81
234.179	59.81
234.413	76.81
234.647	73.81
234.881	67.81
235.115	78.81
235.349	77.81
235.583	78.81
235.817	81.81
236.051	76.81
236.285	69.81
236.519	69.81
236.753	78.81
236.987	81.81
237.221	79.81
237.455	78.81
237.689	86.81
237.922	76.81
238.156	80.81
238.39	74.81
238.624	81.81
238.858	72.81
239.091	73.81
239.325	80.81
239.559	68.81
239.793	71.81
240.027	90.81
240.26	87.81
240.494	67.81
240.728	68.81
240.961	88.81
241.195	93.81
241.429	74.81
241.662	75.81
241.896	73.81
242.13	77.81
242.363	65.81
242.597	76.81
242.83	77.81
243.064	77.81
243.298	68.81
243.531	68.81
243.765	79.81
243.998	69.81
244.232	68.81
244.465	83.81
244.699	80.81
244.932	71.81
245.166	72.81
245.399	73.81
245.633	68.81
245.866	56.81
246.099	67.81
246.333	61.81
246.566	65.81
246.8	82.81
247.033	75.81
247.266	71.81
247.5	64.81
247.733	75.81
247.966	77.81
248.2	73.81
248.433	67.81
248.666	80.81
248.899	72.81
249.133	86.81
249.366	96.81
249.599	79.81
249.832	71.81
250.066	78.81
250.299	64.81
250.532	89.81
250.765	79.81
250.998	79.81
251.231	70.81
251.465	77.81
251.698	82.81
251.931	71.81
252.164	67.81
252.397	83.81
252.63	84.81
252.863	81.81
253.096	81.81
253.329	67.81
253.562	63.81
253.795	76.81
254.028	78.81
254.261	78.81
254.494	84.81
254.727	77.81
254.96	59.81
255.193	64.81
255.426	78.81
255.659	85.81
255.892	77.81
256.124	76.81
256.357	68.81
256.59	76.81
256.823	67.81
257.056	74.81
257.289	71.81
257.521	77.81
257.754	70.81
257.987	64.81
258.22	73.81
258.452	70.81
258.685	75.81
258.918	83.81
259.151	92.81
259.383	84.81
259.616	91.81
259.849	71.81
260.081	72.81
260.314	86.81
260.547	86.81
260.779	94.81
261.012	88.81
261.244	84.81
261.477	85.81
261.71	68.81
261.942	81.81
262.175	75.81
262.407	85.81
262.64	87.81
262.872	80.81
263.105	79.81
263.337	89.81
263.57	83.81
263.802	76.81
264.035	81.81
264.267	86.81
264.499	72.81
264.732	84.81
264.964	76.81
265.197	74.81
265.429	76.81
265.661	75.81
265.894	80.81
266.126	92.81
266.358	75.81
266.591	71.81
266.823	91.81
267.055	64.81
267.287	85.81
267.52	75.81
267.752	92.81
267.984	81.81
268.216	83.81
268.448	94.81
268.681	88.81
268.913	67.81
269.145	75.81
269.377	76.81
269.609	83.81
269.841	98.81
270.073	81.81
270.306	86.81
270.538	77.81
270.77	77.81
271.002	85.81
271.234	79.81
271.466	82.81
271.698	85.81
271.93	71.81
272.162	74.81
272.394	91.81
272.626	83.81
272.858	76.81
273.09	72.81
273.322	88.81
273.553	78.81
273.785	94.81
274.017	82.81
274.249	94.81
274.481	78.81
274.713	86.81
274.945	77.81
275.176	86.81
275.408	83.81
275.64	83.81
275.872	84.81
276.104	87.81
276.335	84.81
276.567	73.81
276.799	85.81
277.031	91.81
277.262	82.81
277.494	89.81
277.726	79.81
277.957	73.81
278.189	96.81
278.421	76.81
278.652	73.81
278.884	69.81
279.115	85.81
279.347	78.81
279.579	75.81
279.81	99.81
280.042	88.81
280.273	91.81
280.505	73.81
280.736	77.81
280.968	84.81
281.199	83.81
281.431	76.81
281.662	79.81
281.894	101.81
282.125	89.81
282.356	83.81
282.588	81.81
282.819	95.81
283.051	77.81
283.282	86.81
283.513	83.81
283.745	92.81
283.976	77.81
284.207	84.81
284.439	83.81
284.67	84.81
284.901	76.81
285.132	80.81
285.364	82.81
285.595	92.81
285.826	94.81
286.057	80.81
286.288	71.81
286.52	71.81
286.751	85.81
286.982	78.81
287.213	77.81
287.444	85.81
287.675	78.81
287.906	72.81
288.138	73.81
288.369	73.81
288.6	100.81
288.831	82.81
289.062	80.81
289.293	86.81
289.524	99.81
289.755	67.81
289.986	77.81
290.217	92.81
290.448	73.81
290.679	74.81
290.91	79.81
291.141	83.81
291.371	83.81
291.602	70.81
291.833	84.81
292.064	79.81
292.295	71.81
292.526	84.81
292.757	80.81
292.987	84.81
293.218	86.81
293.449	70.81
293.68	76.81
293.91	84.81
294.141	93.81
294.372	71.81
294.603	88.81
294.833	76.81
295.064	72.81
295.295	90.81
295.525	94.81
295.756	82.81
295.987	86.81
296.217	89.81
296.448	79.81
296.679	94.81
296.909	82.81
297.14	84.81
297.37	86.81
297.601	80.81
297.831	84.81
298.062	83.81
298.292	75.81
298.523	96.81
298.753	88.81
298.984	74.81
299.214	86.81
299.445	88.81
299.675	81.81
299.905	93.81
300.136	69.81
300.366	80.81
300.597	80.81
300.827	83.81
301.057	72.81
301.288	91.81
301.518	86.81
301.748	85.81
301.979	76.81
302.209	96.81
302.439	93.81
302.669	81.81
302.9	71.81
303.13	76.81
303.36	83.81
303.59	101.81
303.82	82.81
304.051	92.81
304.281	93.81
304.511	92.81
304.741	90.81
304.971	79.81
305.201	81.81
305.431	79.81
305.661	78.81
305.891	88.81
306.121	91.81
306.352	72.81
306.582	89.81
306.812	83.81
307.042	92.81
307.272	79.81
307.502	102.81
307.731	76.81
307.961	95.81
308.191	74.81
308.421	93.81
308.651	86.81
308.881	95.81
309.111	94.81
309.341	102.81
309.571	88.81
309.8	84.81
310.03	76.81
310.26	71.81
310.49	86.81
310.72	72.81
310.949	90.81
311.179	82.81
311.409	88.81
311.639	85.81
311.868	81.81
312.098	69.81
312.328	91.81
312.557	84.81
312.787	70.81
313.017	90.81
313.246	82.81
313.476	85.81
313.706	94.81
313.935	81.81
314.165	85.81
314.394	86.81
314.624	87.81
314.853	94.81
315.083	85.81
315.312	88.81
315.542	75.81
315.771	83.81
316.001	85.81
316.23	88.81
316.46	89.81
316.689	84.81
316.919	68.81
317.148	79.81
317.377	96.81
317.607	81.81
317.836	67.81
318.065	84.81
318.295	79.81
318.524	72.81
318.753	91.81
318.983	86.81
319.212	74.81
319.441	69.81
319.67	79.81
319.9	82.81
320.129	78.81
320.358	80.81
320.587	92.81
320.816	81.81
321.046	75.81
321.275	85.81
321.504	73.81
321.733	69.81
321.962	69.81
322.191	90.81
322.42	93.81
322.649	96.81
322.878	88.81
323.108	90.81
323.337	86.81
323.566	94.81
323.795	77.81
324.024	79.81
324.253	87.81
324.482	78.81
324.71	84.81
324.939	82.81
325.168	95.81
325.397	90.81
325.626	84.81
325.855	97.81
326.084	79.81
326.313	80.81
326.542	73.81
326.77	86.81
326.999	80.81
327.228	85.81
327.457	84.81
327.686	82.81
327.914	88.81
328.143	72.81
328.372	85.81
328.6	64.81
328.829	78.81
329.058	79.81
329.287	89.81
329.515	100.81
329.744	87.81
329.972	73.81
330.201	90.81
330.43	71.81
330.658	79.81
330.887	80.81
331.115	92.81
331.344	82.81
331.572	83.81
331.801	71.81
332.03	81.81
332.258	84.81
332.486	81.81
332.715	78.81
332.943	83.81
333.172	91.81
333.4	85.81
333.629	69.81
333.857	90.81
334.085	98.81
334.314	78.81
334.542	85.81
334.771	75.81
334.999	77.81
335.227	71.81
335.455	82.81
335.684	85.81
335.912	79.81
336.14	73.81
336.369	82.81
336.597	74.81
336.825	92.81
337.053	94.81
337.281	78.81
337.51	70.81
337.738	95.81
337.966	94.81
338.194	89.81
338.422	84.81
338.65	70.81
338.878	92.81
339.106	86.81
339.334	83.81
339.562	80.81
339.79	87.81
340.018	73.81
340.246	86.81
340.474	79.81
340.702	90.81
340.93	75.81
341.158	81.81
341.386	81.81
341.614	82.81
341.842	63.81
342.07	80.81
342.298	90.81
342.526	65.81
342.754	85.81
342.981	73.81
343.209	79.81
343.437	86.81
343.665	86.81
343.893	81.81
344.12	80.81
344.348	85.81
344.576	78.81
344.804	83.81
345.031	80.81
345.259	96.81
345.487	76.81
345.714	81.81
345.942	87.81
346.17	85.81
346.397	89.81
346.625	91.81
346.853	95.81
347.08	88.81
347.308	83.81
347.535	87.81
347.763	94.81
347.99	78.81
348.218	87.81
348.445	81.81
348.673	92.81
348.9	91.81
349.128	74.81
349.355	76.81
349.583	68.81
349.81	72.81
350.037	92.81
350.265	80.81
350.492	82.81
350.72	74.81
350.947	60.81
351.174	85.81
351.402	91.81
351.629	84.81
351.856	72.81
352.083	80.81
352.311	78.81
352.538	91.81
352.765	84.81
352.992	88.81
353.22	84.81
353.447	73.81
353.674	69.81
353.901	78.81
354.128	85.81
354.355	80.81
354.583	83.81
354.81	84.81
355.037	72.81
355.264	73.81
355.491	78.81
355.718	82.81
355.945	92.81
356.172	76.81
356.399	79.81
356.626	97.81
356.853	86.81
357.08	98.81
357.307	74.81
357.534	75.81
357.761	81.81
357.988	74.81
358.215	83.81
358.441	92.81
358.668	80.81
358.895	77.81
359.122	90.81
359.349	77.81
359.576	87.81
359.802	80.81
360.029	72.81
360.256	82.81
360.483	68.81
360.709	92.81
360.936	83.81
361.163	100.81
361.39	84.81
361.616	73.81
361.843	81.81
362.07	85.81
362.296	89.81
362.523	74.81
362.749	98.81
362.976	83.81
363.203	86.81
363.429	86.81
363.656	87.81
363.882	77.81
364.109	94.81
364.335	84.81
364.562	97.81
364.788	88.81
365.015	77.81
365.241	83.81
365.468	111.81
365.694	82.81
365.92	74.81
366.147	82.81
366.373	85.81
366.599	84.81
366.826	82.81
367.052	82.81
367.278	75.81
367.505	84.81
367.731	86.81
367.957	87.81
368.184	91.81
368.41	94.81
368.636	87.81
368.862	94.81
369.089	72.81
369.315	86.81
369.541	89.81
369.767	77.81
369.993	78.81
370.219	90.81
370.445	73.81
370.672	88.81
370.898	69.81
371.124	95.81
371.35	94.81
371.576	86.81
371.802	82.81
372.028	72.81
372.254	73.81
372.48	84.81
372.706	76.81
372.932	92.81
373.158	88.81
373.384	84.81
373.61	72.81
373.835	80.81
374.061	99.81
374.287	75.81
374.513	84.81
374.739	85.81
374.965	72.81
375.191	89.81
375.416	70.81
375.642	78.81
375.868	80.81
376.094	67.81
376.319	70.81
376.545	87.81
376.771	89.81
376.997	77.81
377.222	88.81
377.448	79.81
377.674	75.81
377.899	79.81
378.125	81.81
378.35	90.81
378.576	86.81
378.802	93.81
379.027	81.81
379.253	86.81
379.478	83.81
379.704	84.81
379.929	95.81
380.155	91.81
380.38	76.81
380.606	91.81
380.831	93.81
381.057	89.81
381.282	87.81
381.507	70.81
381.733	95.81
381.958	77.81
382.184	84.81
382.409	80.81
382.634	86.81
382.86	84.81
383.085	80.81
383.31	85.81
383.535	98.81
383.761	86.81
383.986	84.81
384.211	76.81
384.436	68.81
384.662	92.81
384.887	78.81
385.112	80.81
385.337	83.81
385.562	96.81
385.787	86.81
386.013	89.81
386.238	82.81
386.463	90.81
386.688	81.81
386.913	78.81
387.138	81.81
387.363	86.81
387.588	97.81
387.813	87.81
388.038	94.81
388.263	73.81
388.488	88.81
388.713	81.81
388.938	93.81
389.163	83.81
389.387	95.81
389.612	79.81
389.837	80.81
390.062	74.81
390.287	78.81
390.512	86.81
390.736	98.81
390.961	84.81
391.186	86.81
391.411	78.81
391.636	85.81
391.86	98.81
392.085	81.81
392.31	92.81
392.534	100.81
392.759	83.81
392.984	87.81
393.208	87.81
393.433	88.81
393.658	83.81
393.882	78.81
394.107	78.81
394.331	79.81
394.556	83.81
394.78	85.81
395.005	85.81
395.229	85.81
395.454	92.81
395.678	76.81
395.903	83.81
396.127	87.81
396.352	77.81
396.576	82.81
396.801	98.81
397.025	75.81
397.249	89.81
397.474	88.81
397.698	84.81
397.922	94.81
398.147	76.81
398.371	85.81
398.595	83.81
398.82	94.81
399.044	83.81
399.268	89.81
399.492	91.81
399.717	94.81
399.941	73.81
400.165	77.81
400.389	90.81
400.613	88.81
400.837	79.81
401.062	94.81
401.286	108.81
401.51	75.81
401.734	83.81
401.958	79.81
402.182	88.81
402.406	98.81
402.63	91.81
402.854	92.81
403.078	96.81
403.302	98.81
403.526	94.81
403.75	96.81
403.974	95.81
404.198	96.81
404.422	94.81
404.645	78.81
404.869	88.81
405.093	93.81
405.317	93.81
405.541	85.81
405.765	90.81
405.988	91.81
406.212	96.81
406.436	90.81
406.66	89.81
406.883	86.81
407.107	80.81
407.331	92.81
407.555	73.81
407.778	91.81
408.002	96.81
408.226	90.81
408.449	99.81
408.673	80.81
408.896	86.81
409.12	85.81
409.344	84.81
409.567	78.81
409.791	96.81
410.014	88.81
410.238	95.81
410.461	77.81
410.685	79.81
410.908	78.81
411.132	94.81
411.355	86.81
411.578	93.81
411.802	95.81
412.025	87.81
412.249	93.81
412.472	85.81
412.695	81.81
412.919	86.81
413.142	84.81
413.365	104.81
413.589	92.81
413.812	87.81
414.035	105.81
414.258	89.81
414.482	93.81
414.705	88.81
414.928	95.81
415.151	86.81
415.374	100.81
415.597	79.81
415.821	96.81
416.044	93.81
416.267	94.81
416.49	84.81
416.713	81.81
416.936	87.81
417.159	90.81
417.382	79.81
417.605	93.81
417.828	98.81
418.051	95.81
418.274	109.81
418.497	87.81
418.72	101.81
418.943	96.81
419.166	88.81
419.389	103.81
419.611	78.81
419.834	82.81
420.057	86.81
420.28	94.81
420.503	90.81
420.726	91.81
420.948	83.81
421.171	86.81
421.394	88.81
421.617	94.81
421.839	95.81
422.062	104.81
422.285	92.81
422.507	82.81
422.73	78.81
422.953	89.81
423.175	95.81
423.398	96.81
423.621	102.81
423.843	95.81
424.066	93.81
424.288	92.81
424.511	92.81
424.733	88.81
424.956	103.81
425.178	109.81
425.401	82.81
425.623	93.81
425.846	100.81
426.068	95.81
426.291	84.81
426.513	84.81
426.735	101.81
426.958	86.81
427.18	92.81
427.402	103.81
427.625	93.81
427.847	98.81
428.069	96.81
428.292	100.81
428.514	80.81
428.736	102.81
428.958	97.81
429.181	106.81
429.403	81.81
429.625	94.81
429.847	100.81
430.069	93.81
430.292	102.81
430.514	89.81
430.736	101.81
430.958	80.81
431.18	86.81
431.402	88.81
431.624	94.81
431.846	84.81
432.068	76.81
432.29	93.81
432.512	89.81
432.734	95.81
432.956	88.81
433.178	92.81
433.4	98.81
433.622	82.81
433.844	103.81
434.066	98.81
434.287	83.81
434.509	89.81
434.731	74.81
434.953	80.81
435.175	88.81
435.397	98.81
435.618	82.81
435.84	91.81
436.062	84.81
436.284	73.81
436.505	86.81
436.727	88.81
436.949	81.81
437.17	92.81
437.392	89.81
437.614	90.81
437.835	84.81
438.057	78.81
438.278	90.81
438.5	85.81
438.721	90.81
438.943	96.81
439.165	83.81
439.386	94.81
439.608	119.81
439.829	102.81
440.05	87.81
440.272	101.81
440.493	99.81
440.715	105.81
440.936	104.81
441.158	102.81
441.379	102.81
441.6	104.81
441.822	97.81
442.043	92.81
442.264	101.81
442.486	95.81
442.707	97.81
442.928	88.81
443.149	101.81
443.371	110.81
443.592	93.81
443.813	98.81
444.034	103.81
444.255	92.81
444.476	93.81
444.698	89.81
444.919	94.81
445.14	227.81
445.361	164.81
445.582	103.81
445.803	83.81
446.024	88.81
446.245	104.81
446.466	95.81
446.687	89.81
446.908	92.81
447.129	88.81
447.35	114.81
447.571	101.81
447.792	101.81
448.013	93.81
448.234	101.81
448.455	103.81
448.675	91.81
448.896	78.81
449.117	88.81
449.338	93.81
449.559	92.81
449.779	104.81
450	93.81
450.221	97.81
450.442	101.81
450.662	86.81
450.883	92.81
451.104	97.81
451.324	88.81
451.545	101.81
451.766	90.81
451.986	90.81
452.207	82.81
452.428	94.81
452.648	96.81
452.869	94.81
453.089	101.81
453.31	91.81
453.53	79.81
453.751	97.81
453.971	84.81
454.192	92.81
454.412	86.81
454.633	91.81
454.853	99.81
455.073	77.81
455.294	83.81
455.514	89.81
455.734	91.81
455.955	102.81
456.175	77.81
456.395	80.81
456.616	82.81
456.836	71.81
457.056	70.81
457.276	77.81
457.497	87.81
457.717	80.81
457.937	76.81
458.157	85.81
458.377	89.81
458.598	92.81
458.818	81.81
459.038	83.81
459.258	86.81
459.478	72.81
459.698	84.81
459.918	85.81
460.138	87.81
460.358	95.81
460.578	84.81
460.798	76.81
461.018	86.81
461.238	104.81
461.458	69.81
461.678	90.81
461.898	93.81
462.118	84.81
462.338	88.81
462.558	84.81
462.777	94.81
462.997	105.81
463.217	93.81
463.437	88.81
463.657	84.81
463.876	84.81
464.096	87.81
464.316	92.81
464.536	100.81
464.755	101.81
464.975	115.81
465.195	85.81
465.414	90.81
465.634	114.81
465.854	97.81
466.073	89.81
466.293	97.81
466.512	87.81
466.732	102.81
466.951	99.81
467.171	99.81
467.391	90.81
467.61	91.81
467.829	101.81
468.049	107.81
468.268	99.81
468.488	99.81
468.707	104.81
468.927	94.81
469.146	94.81
469.365	96.81
469.585	90.81
469.804	95.81
470.023	84.81
470.243	79.81
470.462	88.81
470.681	98.81
470.901	105.81
471.12	96.81
471.339	104.81
471.558	95.81
471.777	107.81
471.997	100.81
472.216	96.81
472.435	87.81
472.654	84.81
472.873	80.81
473.092	78.81
473.311	98.81
473.53	94.81
473.749	96.81
473.968	86.81
474.187	82.81
474.406	88.81
474.625	79.81
474.844	84.81
475.063	89.81
475.282	86.81
475.501	80.81
475.72	99.81
475.939	88.81
476.158	91.81
476.377	89.81
476.596	86.81
476.814	91.81
477.033	81.81
477.252	100.81
477.471	85.81
477.69	99.81
477.908	83.81
478.127	99.81
478.346	91.81
478.564	95.81
478.783	92.81
479.002	103.81
479.22	100.81
479.439	90.81
479.658	97.81
479.876	101.81
480.095	93.81
480.313	91.81
480.532	85.81
480.751	91.81
480.969	83.81
481.188	70.81
481.406	90.81
481.624	97.81
481.843	89.81
482.061	98.81
482.28	92.81
482.498	83.81
482.717	94.81
482.935	88.81
483.153	102.81
483.372	108.81
483.59	108.81
483.808	83.81
484.027	90.81
484.245	98.81
484.463	106.81
484.681	114.81
484.9	104.81
485.118	110.81
485.336	104.81
485.554	81.81
485.772	89.81
485.99	86.81
486.209	94.81
486.427	93.81
486.645	98.81
486.863	99.81
487.081	99.81
487.299	110.81
487.517	93.81
487.735	117.81
487.953	99.81
488.171	109.81
488.389	107.81
488.607	100.81
488.825	100.81
489.043	84.81
489.261	112.81
489.479	99.81
489.696	97.81
489.914	87.81
490.132	109.81
490.35	104.81
490.568	96.81
490.786	102.81
491.003	120.81
491.221	107.81
491.439	112.81
491.657	98.81
491.874	105.81
492.092	117.81
492.31	127.81
492.527	132.81
492.745	124.81
492.963	109.81
493.18	102.81
493.398	113.81
493.615	113.81
493.833	108.81
494.05	105.81
494.268	117.81
494.485	113.81
494.703	123.81
494.92	127.81
495.138	118.81
495.355	107.81
495.573	94.81
495.79	101.81
496.008	122.81
496.225	111.81
496.442	111.81
496.66	109.81
496.877	107.81
497.094	95.81
497.312	107.81
497.529	111.81
497.746	110.81
497.963	95.81
498.181	96.81
498.398	108.81
498.615	99.81
498.832	83.81
499.049	92.81
499.267	82.81
499.484	80.81
499.701	99.81
499.918	87.81
500.135	102.81
500.352	93.81
500.569	90.81
500.786	103.81
501.003	92.81
501.22	96.81
501.437	106.81
501.654	80.81
501.871	95.81
502.088	100.81
502.305	97.81
502.522	92.81
502.739	99.81
502.956	105.81
503.172	96.81
503.389	89.81
503.606	102.81
503.823	96.81
504.04	101.81
504.256	97.81
504.473	83.81
504.69	88.81
504.907	96.81
505.123	91.81
505.34	97.81
505.557	97.81
505.773	94.81
505.99	86.81
506.207	103.81
506.423	82.81
506.64	93.81
506.856	81.81
507.073	92.81
507.289	111.81
507.506	97.81
507.722	89.81
507.939	92.81
508.155	83.81
508.372	100.81
508.588	94.81
508.805	94.81
509.021	87.81
509.238	98.81
509.454	88.81
509.67	74.81
509.887	81.81
510.103	93.81
510.319	87.81
510.536	90.81
510.752	85.81
510.968	88.81
511.184	91.81
511.401	81.81
511.617	90.81
511.833	85.81
512.049	95.81
512.265	83.81
512.481	79.81
512.698	85.81
512.914	68.81
513.13	88.81
513.346	84.81
513.562	94.81
513.778	81.81
513.994	88.81
514.21	85.81
514.426	81.81
514.642	91.81
514.858	86.81
515.074	88.81
515.29	83.81
515.506	73.81
515.721	72.81
515.937	103.81
516.153	71.81
516.369	80.81
516.585	86.81
516.801	79.81
517.016	78.81
517.232	83.81
517.448	91.81
517.664	82.81
