Data from Location3.07152019.Energy5.Lamp.07192019.3%Agarose_HRD10591_15-17-00-270.txt Node
Date: Fri Jul 19 15:17:00 EDT 2019
User: cochatt
Spectrometer: HR+D1059
Trigger mode: 1
Integration Time (sec): 1.000000E-1
Scans to average: 1
Electric dark correction enabled: true
Nonlinearity correction enabled: false
Boxcar width: 0
XAxis mode: Wavelengths
Number of Pixels in Spectrum: 2048
>>>>>Begin Spectral Data<<<<<
223.165	-23.19
223.4	-23.19
223.635	-23.19
223.869	-6.19
224.104	-18.19
224.338	-14.19
224.573	-17.19
224.808	-11.19
225.042	-15.19
225.277	-14.19
225.511	-5.19
225.746	5.81
225.98	5.81
226.215	24.81
226.449	23.81
226.683	12.81
226.918	27.81
227.152	23.81
227.387	35.81
227.621	35.81
227.856	58.81
228.09	49.81
228.324	51.81
228.559	46.81
228.793	61.81
229.027	62.81
229.262	69.81
229.496	84.81
229.73	79.81
229.964	67.81
230.199	83.81
230.433	67.81
230.667	54.81
230.901	86.81
231.136	82.81
231.37	79.81
231.604	85.81
231.838	89.81
232.072	87.81
232.306	85.81
232.541	88.81
232.775	77.81
233.009	78.81
233.243	91.81
233.477	101.81
233.711	86.81
233.945	81.81
234.179	77.81
234.413	76.81
234.647	76.81
234.881	87.81
235.115	86.81
235.349	89.81
235.583	92.81
235.817	83.81
236.051	81.81
236.285	86.81
236.519	89.81
236.753	103.81
236.987	79.81
237.221	68.81
237.455	80.81
237.689	77.81
237.922	85.81
238.156	72.81
238.39	93.81
238.624	85.81
238.858	78.81
239.091	86.81
239.325	72.81
239.559	89.81
239.793	83.81
240.027	80.81
240.26	80.81
240.494	79.81
240.728	73.81
240.961	72.81
241.195	76.81
241.429	61.81
241.662	86.81
241.896	70.81
242.13	73.81
242.363	79.81
242.597	75.81
242.83	69.81
243.064	94.81
243.298	91.81
243.531	88.81
243.765	78.81
243.998	84.81
244.232	89.81
244.465	96.81
244.699	86.81
244.932	88.81
245.166	78.81
245.399	80.81
245.633	80.81
245.866	78.81
246.099	78.81
246.333	86.81
246.566	87.81
246.8	81.81
247.033	83.81
247.266	83.81
247.5	87.81
247.733	93.81
247.966	81.81
248.2	76.81
248.433	86.81
248.666	84.81
248.899	87.81
249.133	88.81
249.366	90.81
249.599	76.81
249.832	84.81
250.066	89.81
250.299	87.81
250.532	93.81
250.765	95.81
250.998	91.81
251.231	85.81
251.465	89.81
251.698	87.81
251.931	85.81
252.164	93.81
252.397	91.81
252.63	81.81
252.863	75.81
253.096	86.81
253.329	93.81
253.562	93.81
253.795	91.81
254.028	88.81
254.261	76.81
254.494	89.81
254.727	87.81
254.96	99.81
255.193	94.81
255.426	86.81
255.659	81.81
255.892	89.81
256.124	81.81
256.357	96.81
256.59	87.81
256.823	77.81
257.056	76.81
257.289	89.81
257.521	71.81
257.754	77.81
257.987	88.81
258.22	92.81
258.452	89.81
258.685	91.81
258.918	75.81
259.151	94.81
259.383	95.81
259.616	98.81
259.849	91.81
260.081	89.81
260.314	78.81
260.547	84.81
260.779	90.81
261.012	75.81
261.244	106.81
261.477	91.81
261.71	85.81
261.942	92.81
262.175	86.81
262.407	88.81
262.64	88.81
262.872	94.81
263.105	79.81
263.337	77.81
263.57	94.81
263.802	88.81
264.035	75.81
264.267	77.81
264.499	89.81
264.732	76.81
264.964	89.81
265.197	92.81
265.429	98.81
265.661	109.81
265.894	77.81
266.126	102.81
266.358	87.81
266.591	90.81
266.823	83.81
267.055	74.81
267.287	83.81
267.52	90.81
267.752	88.81
267.984	103.81
268.216	81.81
268.448	84.81
268.681	105.81
268.913	95.81
269.145	92.81
269.377	90.81
269.609	92.81
269.841	82.81
270.073	94.81
270.306	86.81
270.538	89.81
270.77	96.81
271.002	99.81
271.234	78.81
271.466	90.81
271.698	96.81
271.93	97.81
272.162	76.81
272.394	90.81
272.626	87.81
272.858	96.81
273.09	84.81
273.322	84.81
273.553	69.81
273.785	85.81
274.017	75.81
274.249	91.81
274.481	89.81
274.713	91.81
274.945	83.81
275.176	85.81
275.408	90.81
275.64	82.81
275.872	77.81
276.104	96.81
276.335	85.81
276.567	95.81
276.799	96.81
277.031	75.81
277.262	89.81
277.494	89.81
277.726	80.81
277.957	91.81
278.189	88.81
278.421	82.81
278.652	90.81
278.884	100.81
279.115	84.81
279.347	94.81
279.579	84.81
279.81	87.81
280.042	93.81
280.273	93.81
280.505	90.81
280.736	84.81
280.968	80.81
281.199	79.81
281.431	89.81
281.662	95.81
281.894	95.81
282.125	89.81
282.356	84.81
282.588	96.81
282.819	75.81
283.051	83.81
283.282	95.81
283.513	84.81
283.745	88.81
283.976	92.81
284.207	99.81
284.439	86.81
284.67	104.81
284.901	90.81
285.132	90.81
285.364	88.81
285.595	89.81
285.826	89.81
286.057	81.81
286.288	82.81
286.52	94.81
286.751	93.81
286.982	104.81
287.213	92.81
287.444	88.81
287.675	95.81
287.906	99.81
288.138	94.81
288.369	89.81
288.6	91.81
288.831	81.81
289.062	92.81
289.293	86.81
289.524	86.81
289.755	87.81
289.986	70.81
290.217	91.81
290.448	85.81
290.679	83.81
290.91	94.81
291.141	85.81
291.371	99.81
291.602	88.81
291.833	71.81
292.064	89.81
292.295	89.81
292.526	87.81
292.757	89.81
292.987	99.81
293.218	93.81
293.449	95.81
293.68	84.81
293.91	91.81
294.141	75.81
294.372	95.81
294.603	90.81
294.833	82.81
295.064	100.81
295.295	81.81
295.525	89.81
295.756	95.81
295.987	84.81
296.217	94.81
296.448	92.81
296.679	104.81
296.909	93.81
297.14	93.81
297.37	93.81
297.601	73.81
297.831	87.81
298.062	82.81
298.292	86.81
298.523	81.81
298.753	87.81
298.984	85.81
299.214	87.81
299.445	97.81
299.675	80.81
299.905	91.81
300.136	81.81
300.366	93.81
300.597	94.81
300.827	87.81
301.057	81.81
301.288	85.81
301.518	101.81
301.748	85.81
301.979	90.81
302.209	91.81
302.439	84.81
302.669	95.81
302.9	88.81
303.13	84.81
303.36	95.81
303.59	78.81
303.82	95.81
304.051	96.81
304.281	87.81
304.511	95.81
304.741	94.81
304.971	100.81
305.201	95.81
305.431	74.81
305.661	96.81
305.891	84.81
306.121	87.81
306.352	102.81
306.582	81.81
306.812	88.81
307.042	100.81
307.272	86.81
307.502	104.81
307.731	96.81
307.961	89.81
308.191	91.81
308.421	72.81
308.651	86.81
308.881	95.81
309.111	80.81
309.341	97.81
309.571	78.81
309.8	90.81
310.03	93.81
310.26	84.81
310.49	89.81
310.72	94.81
310.949	111.81
311.179	95.81
311.409	93.81
311.639	94.81
311.868	80.81
312.098	92.81
312.328	101.81
312.557	88.81
312.787	104.81
313.017	89.81
313.246	100.81
313.476	93.81
313.706	97.81
313.935	96.81
314.165	93.81
314.394	93.81
314.624	88.81
314.853	90.81
315.083	82.81
315.312	109.81
315.542	97.81
315.771	109.81
316.001	83.81
316.23	87.81
316.46	85.81
316.689	81.81
316.919	87.81
317.148	85.81
317.377	107.81
317.607	96.81
317.836	95.81
318.065	99.81
318.295	85.81
318.524	79.81
318.753	88.81
318.983	88.81
319.212	100.81
319.441	96.81
319.67	105.81
319.9	79.81
320.129	97.81
320.358	99.81
320.587	88.81
320.816	89.81
321.046	90.81
321.275	84.81
321.504	94.81
321.733	87.81
321.962	91.81
322.191	96.81
322.42	83.81
322.649	94.81
322.878	83.81
323.108	97.81
323.337	91.81
323.566	92.81
323.795	102.81
324.024	102.81
324.253	90.81
324.482	87.81
324.71	91.81
324.939	92.81
325.168	92.81
325.397	77.81
325.626	86.81
325.855	89.81
326.084	91.81
326.313	92.81
326.542	94.81
326.77	93.81
326.999	85.81
327.228	103.81
327.457	103.81
327.686	95.81
327.914	98.81
328.143	89.81
328.372	99.81
328.6	93.81
328.829	96.81
329.058	80.81
329.287	84.81
329.515	88.81
329.744	106.81
329.972	80.81
330.201	99.81
330.43	68.81
330.658	88.81
330.887	92.81
331.115	74.81
331.344	92.81
331.572	85.81
331.801	97.81
332.03	81.81
332.258	93.81
332.486	90.81
332.715	89.81
332.943	77.81
333.172	87.81
333.4	72.81
333.629	96.81
333.857	78.81
334.085	89.81
334.314	69.81
334.542	92.81
334.771	88.81
334.999	75.81
335.227	89.81
335.455	90.81
335.684	99.81
335.912	96.81
336.14	83.81
336.369	76.81
336.597	91.81
336.825	95.81
337.053	92.81
337.281	92.81
337.51	99.81
337.738	89.81
337.966	85.81
338.194	82.81
338.422	90.81
338.65	83.81
338.878	85.81
339.106	82.81
339.334	90.81
339.562	91.81
339.79	89.81
340.018	87.81
340.246	101.81
340.474	84.81
340.702	96.81
340.93	81.81
341.158	86.81
341.386	79.81
341.614	83.81
341.842	104.81
342.07	100.81
342.298	95.81
342.526	92.81
342.754	101.81
342.981	101.81
343.209	84.81
343.437	96.81
343.665	110.81
343.893	92.81
344.12	101.81
344.348	84.81
344.576	86.81
344.804	79.81
345.031	88.81
345.259	92.81
345.487	101.81
345.714	96.81
345.942	78.81
346.17	75.81
346.397	78.81
346.625	83.81
346.853	101.81
347.08	100.81
347.308	91.81
347.535	80.81
347.763	86.81
347.99	93.81
348.218	95.81
348.445	92.81
348.673	101.81
348.9	81.81
349.128	97.81
349.355	105.81
349.583	94.81
349.81	90.81
350.037	95.81
350.265	87.81
350.492	78.81
350.72	93.81
350.947	91.81
351.174	98.81
351.402	98.81
351.629	100.81
351.856	89.81
352.083	100.81
352.311	95.81
352.538	85.81
352.765	101.81
352.992	94.81
353.22	90.81
353.447	84.81
353.674	80.81
353.901	87.81
354.128	79.81
354.355	103.81
354.583	97.81
354.81	88.81
355.037	99.81
355.264	102.81
355.491	93.81
355.718	91.81
355.945	100.81
356.172	76.81
356.399	87.81
356.626	90.81
356.853	88.81
357.08	98.81
357.307	89.81
357.534	85.81
357.761	89.81
357.988	92.81
358.215	104.81
358.441	80.81
358.668	76.81
358.895	83.81
359.122	91.81
359.349	86.81
359.576	86.81
359.802	78.81
360.029	94.81
360.256	97.81
360.483	87.81
360.709	103.81
360.936	83.81
361.163	74.81
361.39	98.81
361.616	92.81
361.843	89.81
362.07	87.81
362.296	81.81
362.523	78.81
362.749	100.81
362.976	85.81
363.203	108.81
363.429	96.81
363.656	100.81
363.882	86.81
364.109	88.81
364.335	83.81
364.562	80.81
364.788	82.81
365.015	84.81
365.241	86.81
365.468	90.81
365.694	91.81
365.92	99.81
366.147	104.81
366.373	90.81
366.599	99.81
366.826	96.81
367.052	84.81
367.278	96.81
367.505	86.81
367.731	101.81
367.957	79.81
368.184	92.81
368.41	81.81
368.636	79.81
368.862	96.81
369.089	91.81
369.315	101.81
369.541	83.81
369.767	92.81
369.993	84.81
370.219	79.81
370.445	86.81
370.672	94.81
370.898	97.81
371.124	96.81
371.35	86.81
371.576	79.81
371.802	94.81
372.028	87.81
372.254	79.81
372.48	93.81
372.706	92.81
372.932	97.81
373.158	87.81
373.384	83.81
373.61	92.81
373.835	105.81
374.061	85.81
374.287	94.81
374.513	77.81
374.739	79.81
374.965	95.81
375.191	91.81
375.416	76.81
375.642	109.81
375.868	97.81
376.094	88.81
376.319	95.81
376.545	78.81
376.771	83.81
376.997	89.81
377.222	99.81
377.448	80.81
377.674	101.81
377.899	91.81
378.125	89.81
378.35	97.81
378.576	96.81
378.802	78.81
379.027	103.81
379.253	92.81
379.478	94.81
379.704	93.81
379.929	93.81
380.155	83.81
380.38	105.81
380.606	79.81
380.831	102.81
381.057	93.81
381.282	83.81
381.507	88.81
381.733	89.81
381.958	87.81
382.184	81.81
382.409	93.81
382.634	91.81
382.86	78.81
383.085	106.81
383.31	102.81
383.535	96.81
383.761	91.81
383.986	85.81
384.211	87.81
384.436	93.81
384.662	89.81
384.887	106.81
385.112	78.81
385.337	83.81
385.562	92.81
385.787	87.81
386.013	88.81
386.238	87.81
386.463	82.81
386.688	82.81
386.913	83.81
387.138	94.81
387.363	95.81
387.588	103.81
387.813	99.81
388.038	90.81
388.263	90.81
388.488	104.81
388.713	86.81
388.938	92.81
389.163	92.81
389.387	86.81
389.612	80.81
389.837	90.81
390.062	90.81
390.287	80.81
390.512	88.81
390.736	92.81
390.961	77.81
391.186	105.81
391.411	99.81
391.636	85.81
391.86	104.81
392.085	101.81
392.31	87.81
392.534	92.81
392.759	89.81
392.984	89.81
393.208	95.81
393.433	111.81
393.658	93.81
393.882	94.81
394.107	98.81
394.331	98.81
394.556	90.81
394.78	92.81
395.005	101.81
395.229	97.81
395.454	88.81
395.678	91.81
395.903	87.81
396.127	82.81
396.352	103.81
396.576	101.81
396.801	86.81
397.025	88.81
397.249	100.81
397.474	92.81
397.698	101.81
397.922	89.81
398.147	98.81
398.371	91.81
398.595	93.81
398.82	108.81
399.044	82.81
399.268	99.81
399.492	81.81
399.717	99.81
399.941	90.81
400.165	104.81
400.389	93.81
400.613	88.81
400.837	84.81
401.062	103.81
401.286	103.81
401.51	96.81
401.734	99.81
401.958	89.81
402.182	87.81
402.406	67.81
402.63	89.81
402.854	101.81
403.078	96.81
403.302	95.81
403.526	85.81
403.75	100.81
403.974	109.81
404.198	104.81
404.422	98.81
404.645	94.81
404.869	87.81
405.093	99.81
405.317	100.81
405.541	94.81
405.765	85.81
405.988	89.81
406.212	88.81
406.436	104.81
406.66	96.81
406.883	101.81
407.107	103.81
407.331	94.81
407.555	89.81
407.778	92.81
408.002	95.81
408.226	98.81
408.449	106.81
408.673	97.81
408.896	108.81
409.12	100.81
409.344	101.81
409.567	96.81
409.791	99.81
410.014	103.81
410.238	106.81
410.461	100.81
410.685	90.81
410.908	97.81
411.132	89.81
411.355	101.81
411.578	110.81
411.802	109.81
412.025	98.81
412.249	95.81
412.472	98.81
412.695	81.81
412.919	95.81
413.142	99.81
413.365	84.81
413.589	101.81
413.812	88.81
414.035	102.81
414.258	100.81
414.482	103.81
414.705	96.81
414.928	88.81
415.151	88.81
415.374	95.81
415.597	98.81
415.821	87.81
416.044	101.81
416.267	100.81
416.49	86.81
416.713	102.81
416.936	95.81
417.159	97.81
417.382	102.81
417.605	105.81
417.828	96.81
418.051	98.81
418.274	102.81
418.497	105.81
418.72	102.81
418.943	107.81
419.166	96.81
419.389	104.81
419.611	100.81
419.834	86.81
420.057	92.81
420.28	101.81
420.503	98.81
420.726	101.81
420.948	119.81
421.171	103.81
421.394	99.81
421.617	103.81
421.839	98.81
422.062	91.81
422.285	105.81
422.507	112.81
422.73	96.81
422.953	105.81
423.175	91.81
423.398	91.81
423.621	101.81
423.843	97.81
424.066	109.81
424.288	101.81
424.511	93.81
424.733	113.81
424.956	95.81
425.178	102.81
425.401	108.81
425.623	87.81
425.846	93.81
426.068	109.81
426.291	75.81
426.513	106.81
426.735	104.81
426.958	95.81
427.18	92.81
427.402	102.81
427.625	98.81
427.847	99.81
428.069	98.81
428.292	100.81
428.514	96.81
428.736	81.81
428.958	82.81
429.181	106.81
429.403	86.81
429.625	95.81
429.847	89.81
430.069	95.81
430.292	96.81
430.514	101.81
430.736	87.81
430.958	103.81
431.18	109.81
431.402	109.81
431.624	104.81
431.846	98.81
432.068	97.81
432.29	81.81
432.512	88.81
432.734	84.81
432.956	103.81
433.178	103.81
433.4	97.81
433.622	104.81
433.844	109.81
434.066	99.81
434.287	101.81
434.509	97.81
434.731	97.81
434.953	99.81
435.175	115.81
435.397	101.81
435.618	95.81
435.84	87.81
436.062	100.81
436.284	96.81
436.505	95.81
436.727	104.81
436.949	99.81
437.17	96.81
437.392	97.81
437.614	87.81
437.835	90.81
438.057	111.81
438.278	102.81
438.5	107.81
438.721	103.81
438.943	101.81
439.165	107.81
439.386	99.81
439.608	106.81
439.829	108.81
440.05	117.81
440.272	108.81
440.493	113.81
440.715	103.81
440.936	111.81
441.158	93.81
441.379	104.81
441.6	116.81
441.822	99.81
442.043	105.81
442.264	100.81
442.486	84.81
442.707	102.81
442.928	108.81
443.149	94.81
443.371	126.81
443.592	111.81
443.813	111.81
444.034	96.81
444.255	105.81
444.476	100.81
444.698	93.81
444.919	97.81
445.14	247.81
445.361	154.81
445.582	99.81
445.803	95.81
446.024	104.81
446.245	111.81
446.466	113.81
446.687	89.81
446.908	120.81
447.129	101.81
447.35	118.81
447.571	103.81
447.792	103.81
448.013	87.81
448.234	97.81
448.455	97.81
448.675	100.81
448.896	106.81
449.117	87.81
449.338	118.81
449.559	99.81
449.779	96.81
450	101.81
450.221	103.81
450.442	110.81
450.662	104.81
450.883	90.81
451.104	113.81
451.324	103.81
451.545	103.81
451.766	108.81
451.986	96.81
452.207	95.81
452.428	102.81
452.648	100.81
452.869	84.81
453.089	95.81
453.31	111.81
453.53	85.81
453.751	99.81
453.971	94.81
454.192	84.81
454.412	97.81
454.633	88.81
454.853	104.81
455.073	96.81
455.294	106.81
455.514	95.81
455.734	89.81
455.955	101.81
456.175	100.81
456.395	99.81
456.616	84.81
456.836	100.81
457.056	96.81
457.276	85.81
457.497	102.81
457.717	93.81
457.937	100.81
458.157	89.81
458.377	87.81
458.598	90.81
458.818	97.81
459.038	91.81
459.258	79.81
459.478	89.81
459.698	92.81
459.918	95.81
460.138	83.81
460.358	94.81
460.578	90.81
460.798	97.81
461.018	100.81
461.238	99.81
461.458	96.81
461.678	81.81
461.898	102.81
462.118	107.81
462.338	96.81
462.558	103.81
462.777	96.81
462.997	96.81
463.217	104.81
463.437	93.81
463.657	100.81
463.876	102.81
464.096	100.81
464.316	93.81
464.536	101.81
464.755	106.81
464.975	90.81
465.195	112.81
465.414	95.81
465.634	87.81
465.854	97.81
466.073	99.81
466.293	94.81
466.512	88.81
466.732	103.81
466.951	111.81
467.171	111.81
467.391	109.81
467.61	104.81
467.829	105.81
468.049	112.81
468.268	83.81
468.488	100.81
468.707	102.81
468.927	90.81
469.146	102.81
469.365	107.81
469.585	101.81
469.804	99.81
470.023	103.81
470.243	101.81
470.462	99.81
470.681	116.81
470.901	99.81
471.12	91.81
471.339	122.81
471.558	100.81
471.777	105.81
471.997	105.81
472.216	91.81
472.435	88.81
472.654	107.81
472.873	97.81
473.092	97.81
473.311	101.81
473.53	101.81
473.749	89.81
473.968	93.81
474.187	102.81
474.406	94.81
474.625	103.81
474.844	100.81
475.063	97.81
475.282	103.81
475.501	99.81
475.72	107.81
475.939	118.81
476.158	113.81
476.377	104.81
476.596	86.81
476.814	98.81
477.033	84.81
477.252	96.81
477.471	93.81
477.69	95.81
477.908	118.81
478.127	103.81
478.346	93.81
478.564	100.81
478.783	92.81
479.002	103.81
479.22	104.81
479.439	103.81
479.658	98.81
479.876	101.81
480.095	99.81
480.313	85.81
480.532	94.81
480.751	88.81
480.969	86.81
481.188	82.81
481.406	87.81
481.624	88.81
481.843	86.81
482.061	91.81
482.28	99.81
482.498	99.81
482.717	81.81
482.935	99.81
483.153	95.81
483.372	106.81
483.59	108.81
483.808	114.81
484.027	114.81
484.245	111.81
484.463	120.81
484.681	100.81
484.9	106.81
485.118	110.81
485.336	113.81
485.554	93.81
485.772	94.81
485.99	83.81
486.209	95.81
486.427	90.81
486.645	118.81
486.863	115.81
487.081	94.81
487.299	95.81
487.517	105.81
487.735	112.81
487.953	119.81
488.171	116.81
488.389	120.81
488.607	106.81
488.825	105.81
489.043	111.81
489.261	97.81
489.479	103.81
489.696	92.81
489.914	113.81
490.132	108.81
490.35	103.81
490.568	118.81
490.786	121.81
491.003	129.81
491.221	110.81
491.439	91.81
491.657	118.81
491.874	115.81
492.092	119.81
492.31	139.81
492.527	133.81
492.745	119.81
492.963	122.81
493.18	127.81
493.398	120.81
493.615	119.81
493.833	105.81
494.05	120.81
494.268	125.81
494.485	117.81
494.703	112.81
494.92	100.81
495.138	111.81
495.355	112.81
495.573	115.81
495.79	89.81
496.008	137.81
496.225	97.81
496.442	126.81
496.66	121.81
496.877	104.81
497.094	111.81
497.312	104.81
497.529	112.81
497.746	110.81
497.963	116.81
498.181	96.81
498.398	85.81
498.615	94.81
498.832	111.81
499.049	98.81
499.267	110.81
499.484	94.81
499.701	96.81
499.918	101.81
500.135	103.81
500.352	96.81
500.569	100.81
500.786	94.81
501.003	110.81
501.22	100.81
501.437	106.81
501.654	106.81
501.871	104.81
502.088	87.81
502.305	109.81
502.522	103.81
502.739	97.81
502.956	111.81
503.172	102.81
503.389	102.81
503.606	108.81
503.823	99.81
504.04	108.81
504.256	111.81
504.473	92.81
504.69	103.81
504.907	105.81
505.123	109.81
505.34	120.81
505.557	101.81
505.773	107.81
505.99	112.81
506.207	95.81
506.423	91.81
506.64	89.81
506.856	113.81
507.073	111.81
507.289	91.81
507.506	91.81
507.722	104.81
507.939	102.81
508.155	103.81
508.372	82.81
508.588	107.81
508.805	100.81
509.021	87.81
509.238	82.81
509.454	92.81
509.67	100.81
509.887	88.81
510.103	97.81
510.319	77.81
510.536	94.81
510.752	87.81
510.968	98.81
511.184	85.81
511.401	82.81
511.617	95.81
511.833	94.81
512.049	101.81
512.265	95.81
512.481	96.81
512.698	105.81
512.914	83.81
513.13	93.81
513.346	80.81
513.562	84.81
513.778	80.81
513.994	95.81
514.21	83.81
514.426	79.81
514.642	99.81
