Data from Location3.07152019.Energy5.Lamp.07192019.3%Agarose_HRD10591_15-17-44-269.txt Node
Date: Fri Jul 19 15:17:44 EDT 2019
User: cochatt
Spectrometer: HR+D1059
Trigger mode: 1
Integration Time (sec): 1.000000E-1
Scans to average: 1
Electric dark correction enabled: true
Nonlinearity correction enabled: false
Boxcar width: 0
XAxis mode: Wavelengths
Number of Pixels in Spectrum: 2048
>>>>>Begin Spectral Data<<<<<
223.165	-6.31
223.4	-6.31
223.635	-6.31
223.869	-7.31
224.104	-23.31
224.338	-0.31
224.573	-11.31
224.808	-23.31
225.042	-3.31
225.277	-15.31
225.511	-6.31
225.746	8.69
225.98	8.69
226.215	4.69
226.449	11.69
226.683	18.69
226.918	18.69
227.152	25.69
227.387	33.69
227.621	38.69
227.856	46.69
228.09	57.69
228.324	49.69
228.559	57.69
228.793	49.69
229.027	61.69
229.262	58.69
229.496	55.69
229.73	65.69
229.964	73.69
230.199	79.69
230.433	76.69
230.667	64.69
230.901	67.69
231.136	76.69
231.37	77.69
231.604	82.69
231.838	68.69
232.072	68.69
232.306	65.69
232.541	86.69
232.775	86.69
233.009	78.69
233.243	80.69
233.477	82.69
233.711	83.69
233.945	84.69
234.179	72.69
234.413	69.69
234.647	80.69
234.881	75.69
235.115	67.69
235.349	79.69
235.583	80.69
235.817	86.69
236.051	67.69
236.285	68.69
236.519	77.69
236.753	72.69
236.987	86.69
237.221	70.69
237.455	77.69
237.689	82.69
237.922	68.69
238.156	74.69
238.39	71.69
238.624	81.69
238.858	69.69
239.091	77.69
239.325	78.69
239.559	71.69
239.793	77.69
240.027	82.69
240.26	92.69
240.494	79.69
240.728	65.69
240.961	78.69
241.195	71.69
241.429	58.69
241.662	66.69
241.896	72.69
242.13	81.69
242.363	75.69
242.597	80.69
242.83	84.69
243.064	73.69
243.298	82.69
243.531	75.69
243.765	78.69
243.998	73.69
244.232	69.69
244.465	63.69
244.699	83.69
244.932	61.69
245.166	68.69
245.399	77.69
245.633	83.69
245.866	88.69
246.099	86.69
246.333	81.69
246.566	73.69
246.8	81.69
247.033	84.69
247.266	74.69
247.5	67.69
247.733	77.69
247.966	88.69
248.2	56.69
248.433	70.69
248.666	82.69
248.899	81.69
249.133	65.69
249.366	90.69
249.599	82.69
249.832	76.69
250.066	82.69
250.299	52.69
250.532	74.69
250.765	67.69
250.998	95.69
251.231	79.69
251.465	84.69
251.698	69.69
251.931	76.69
252.164	79.69
252.397	69.69
252.63	82.69
252.863	65.69
253.096	84.69
253.329	80.69
253.562	67.69
253.795	89.69
254.028	87.69
254.261	79.69
254.494	68.69
254.727	85.69
254.96	71.69
255.193	73.69
255.426	73.69
255.659	76.69
255.892	80.69
256.124	83.69
256.357	83.69
256.59	73.69
256.823	60.69
257.056	94.69
257.289	72.69
257.521	68.69
257.754	70.69
257.987	65.69
258.22	62.69
258.452	79.69
258.685	74.69
258.918	89.69
259.151	84.69
259.383	82.69
259.616	75.69
259.849	89.69
260.081	87.69
260.314	86.69
260.547	85.69
260.779	75.69
261.012	84.69
261.244	79.69
261.477	68.69
261.71	74.69
261.942	75.69
262.175	90.69
262.407	73.69
262.64	78.69
262.872	78.69
263.105	88.69
263.337	78.69
263.57	72.69
263.802	84.69
264.035	81.69
264.267	82.69
264.499	83.69
264.732	84.69
264.964	81.69
265.197	67.69
265.429	93.69
265.661	70.69
265.894	78.69
266.126	74.69
266.358	71.69
266.591	76.69
266.823	82.69
267.055	81.69
267.287	78.69
267.52	78.69
267.752	88.69
267.984	99.69
268.216	73.69
268.448	86.69
268.681	84.69
268.913	94.69
269.145	86.69
269.377	91.69
269.609	81.69
269.841	76.69
270.073	73.69
270.306	87.69
270.538	80.69
270.77	94.69
271.002	87.69
271.234	92.69
271.466	85.69
271.698	65.69
271.93	83.69
272.162	82.69
272.394	74.69
272.626	85.69
272.858	87.69
273.09	63.69
273.322	73.69
273.553	93.69
273.785	68.69
274.017	82.69
274.249	74.69
274.481	86.69
274.713	77.69
274.945	76.69
275.176	75.69
275.408	83.69
275.64	73.69
275.872	86.69
276.104	89.69
276.335	91.69
276.567	85.69
276.799	76.69
277.031	78.69
277.262	87.69
277.494	99.69
277.726	94.69
277.957	89.69
278.189	89.69
278.421	87.69
278.652	77.69
278.884	80.69
279.115	81.69
279.347	84.69
279.579	73.69
279.81	67.69
280.042	85.69
280.273	75.69
280.505	78.69
280.736	79.69
280.968	90.69
281.199	78.69
281.431	80.69
281.662	83.69
281.894	78.69
282.125	70.69
282.356	80.69
282.588	96.69
282.819	86.69
283.051	85.69
283.282	83.69
283.513	74.69
283.745	66.69
283.976	68.69
284.207	66.69
284.439	74.69
284.67	71.69
284.901	73.69
285.132	78.69
285.364	82.69
285.595	81.69
285.826	76.69
286.057	90.69
286.288	89.69
286.52	82.69
286.751	75.69
286.982	73.69
287.213	78.69
287.444	91.69
287.675	80.69
287.906	102.69
288.138	90.69
288.369	81.69
288.6	73.69
288.831	86.69
289.062	71.69
289.293	80.69
289.524	70.69
289.755	79.69
289.986	87.69
290.217	78.69
290.448	80.69
290.679	88.69
290.91	92.69
291.141	94.69
291.371	89.69
291.602	82.69
291.833	78.69
292.064	79.69
292.295	86.69
292.526	74.69
292.757	74.69
292.987	81.69
293.218	93.69
293.449	92.69
293.68	93.69
293.91	80.69
294.141	78.69
294.372	78.69
294.603	79.69
294.833	84.69
295.064	93.69
295.295	75.69
295.525	79.69
295.756	82.69
295.987	81.69
296.217	78.69
296.448	68.69
296.679	78.69
296.909	73.69
297.14	73.69
297.37	92.69
297.601	73.69
297.831	80.69
298.062	89.69
298.292	84.69
298.523	80.69
298.753	81.69
298.984	86.69
299.214	88.69
299.445	80.69
299.675	75.69
299.905	69.69
300.136	84.69
300.366	78.69
300.597	89.69
300.827	88.69
301.057	69.69
301.288	82.69
301.518	80.69
301.748	93.69
301.979	75.69
302.209	73.69
302.439	82.69
302.669	84.69
302.9	87.69
303.13	81.69
303.36	80.69
303.59	80.69
303.82	91.69
304.051	82.69
304.281	92.69
304.511	90.69
304.741	82.69
304.971	89.69
305.201	87.69
305.431	76.69
305.661	85.69
305.891	94.69
306.121	75.69
306.352	84.69
306.582	93.69
306.812	94.69
307.042	72.69
307.272	92.69
307.502	76.69
307.731	79.69
307.961	78.69
308.191	72.69
308.421	101.69
308.651	93.69
308.881	69.69
309.111	84.69
309.341	72.69
309.571	76.69
309.8	82.69
310.03	74.69
310.26	80.69
310.49	81.69
310.72	72.69
310.949	81.69
311.179	84.69
311.409	80.69
311.639	86.69
311.868	87.69
312.098	82.69
312.328	77.69
312.557	77.69
312.787	81.69
313.017	85.69
313.246	81.69
313.476	92.69
313.706	85.69
313.935	87.69
314.165	71.69
314.394	92.69
314.624	89.69
314.853	103.69
315.083	83.69
315.312	83.69
315.542	80.69
315.771	82.69
316.001	90.69
316.23	88.69
316.46	88.69
316.689	84.69
316.919	82.69
317.148	88.69
317.377	85.69
317.607	92.69
317.836	82.69
318.065	70.69
318.295	95.69
318.524	92.69
318.753	69.69
318.983	86.69
319.212	70.69
319.441	90.69
319.67	102.69
319.9	85.69
320.129	90.69
320.358	79.69
320.587	76.69
320.816	88.69
321.046	81.69
321.275	76.69
321.504	102.69
321.733	78.69
321.962	83.69
322.191	80.69
322.42	88.69
322.649	79.69
322.878	89.69
323.108	89.69
323.337	84.69
323.566	91.69
323.795	70.69
324.024	70.69
324.253	92.69
324.482	81.69
324.71	79.69
324.939	86.69
325.168	86.69
325.397	94.69
325.626	86.69
325.855	82.69
326.084	87.69
326.313	73.69
326.542	70.69
326.77	87.69
326.999	76.69
327.228	90.69
327.457	84.69
327.686	86.69
327.914	88.69
328.143	82.69
328.372	84.69
328.6	75.69
328.829	80.69
329.058	88.69
329.287	79.69
329.515	82.69
329.744	79.69
329.972	89.69
330.201	82.69
330.43	88.69
330.658	77.69
330.887	79.69
331.115	78.69
331.344	87.69
331.572	85.69
331.801	85.69
332.03	86.69
332.258	89.69
332.486	69.69
332.715	78.69
332.943	82.69
333.172	85.69
333.4	84.69
333.629	78.69
333.857	84.69
334.085	82.69
334.314	72.69
334.542	78.69
334.771	93.69
334.999	75.69
335.227	86.69
335.455	80.69
335.684	80.69
335.912	82.69
336.14	68.69
336.369	71.69
336.597	83.69
336.825	87.69
337.053	88.69
337.281	85.69
337.51	93.69
337.738	86.69
337.966	82.69
338.194	70.69
338.422	102.69
338.65	81.69
338.878	82.69
339.106	84.69
339.334	70.69
339.562	79.69
339.79	86.69
340.018	72.69
340.246	82.69
340.474	73.69
340.702	83.69
340.93	72.69
341.158	83.69
341.386	86.69
341.614	72.69
341.842	77.69
342.07	65.69
342.298	70.69
342.526	93.69
342.754	73.69
342.981	95.69
343.209	89.69
343.437	89.69
343.665	81.69
343.893	74.69
344.12	71.69
344.348	69.69
344.576	81.69
344.804	93.69
345.031	94.69
345.259	81.69
345.487	81.69
345.714	80.69
345.942	78.69
346.17	103.69
346.397	83.69
346.625	95.69
346.853	77.69
347.08	77.69
347.308	86.69
347.535	88.69
347.763	78.69
347.99	105.69
348.218	87.69
348.445	71.69
348.673	69.69
348.9	86.69
349.128	78.69
349.355	74.69
349.583	81.69
349.81	75.69
350.037	96.69
350.265	77.69
350.492	78.69
350.72	60.69
350.947	87.69
351.174	86.69
351.402	83.69
351.629	86.69
351.856	83.69
352.083	72.69
352.311	69.69
352.538	83.69
352.765	82.69
352.992	84.69
353.22	101.69
353.447	86.69
353.674	73.69
353.901	61.69
354.128	89.69
354.355	68.69
354.583	75.69
354.81	74.69
355.037	90.69
355.264	84.69
355.491	79.69
355.718	80.69
355.945	84.69
356.172	73.69
356.399	86.69
356.626	90.69
356.853	84.69
357.08	80.69
357.307	75.69
357.534	93.69
357.761	83.69
357.988	82.69
358.215	80.69
358.441	87.69
358.668	86.69
358.895	77.69
359.122	83.69
359.349	81.69
359.576	73.69
359.802	86.69
360.029	74.69
360.256	78.69
360.483	80.69
360.709	69.69
360.936	89.69
361.163	83.69
361.39	78.69
361.616	82.69
361.843	66.69
362.07	87.69
362.296	88.69
362.523	71.69
362.749	87.69
362.976	78.69
363.203	87.69
363.429	73.69
363.656	84.69
363.882	84.69
364.109	95.69
364.335	77.69
364.562	73.69
364.788	90.69
365.015	77.69
365.241	77.69
365.468	81.69
365.694	76.69
365.92	60.69
366.147	73.69
366.373	73.69
366.599	79.69
366.826	93.69
367.052	89.69
367.278	83.69
367.505	95.69
367.731	83.69
367.957	72.69
368.184	85.69
368.41	81.69
368.636	78.69
368.862	80.69
369.089	91.69
369.315	89.69
369.541	74.69
369.767	72.69
369.993	81.69
370.219	98.69
370.445	92.69
370.672	92.69
370.898	87.69
371.124	91.69
371.35	84.69
371.576	72.69
371.802	81.69
372.028	89.69
372.254	90.69
372.48	89.69
372.706	85.69
372.932	74.69
373.158	92.69
373.384	84.69
373.61	92.69
373.835	70.69
374.061	91.69
374.287	89.69
374.513	80.69
374.739	84.69
374.965	84.69
375.191	83.69
375.416	72.69
375.642	76.69
375.868	82.69
376.094	82.69
376.319	78.69
376.545	95.69
376.771	83.69
376.997	83.69
377.222	87.69
377.448	81.69
377.674	93.69
377.899	89.69
378.125	81.69
378.35	89.69
378.576	79.69
378.802	98.69
379.027	97.69
379.253	76.69
379.478	79.69
379.704	74.69
379.929	79.69
380.155	88.69
380.38	87.69
380.606	83.69
380.831	78.69
381.057	82.69
381.282	80.69
381.507	80.69
381.733	74.69
381.958	80.69
382.184	72.69
382.409	84.69
382.634	86.69
382.86	72.69
383.085	78.69
383.31	78.69
383.535	85.69
383.761	84.69
383.986	78.69
384.211	95.69
384.436	91.69
384.662	78.69
384.887	89.69
385.112	84.69
385.337	71.69
385.562	88.69
385.787	96.69
386.013	81.69
386.238	81.69
386.463	77.69
386.688	84.69
386.913	78.69
387.138	90.69
387.363	74.69
387.588	83.69
387.813	82.69
388.038	83.69
388.263	85.69
388.488	87.69
388.713	88.69
388.938	73.69
389.163	79.69
389.387	73.69
389.612	72.69
389.837	80.69
390.062	77.69
390.287	80.69
390.512	87.69
390.736	71.69
390.961	72.69
391.186	87.69
391.411	75.69
391.636	87.69
391.86	85.69
392.085	95.69
392.31	97.69
392.534	89.69
392.759	86.69
392.984	81.69
393.208	88.69
393.433	82.69
393.658	80.69
393.882	82.69
394.107	76.69
394.331	92.69
394.556	72.69
394.78	84.69
395.005	92.69
395.229	87.69
395.454	79.69
395.678	78.69
395.903	91.69
396.127	83.69
396.352	86.69
396.576	84.69
396.801	89.69
397.025	83.69
397.249	82.69
397.474	80.69
397.698	84.69
397.922	99.69
398.147	86.69
398.371	86.69
398.595	84.69
398.82	86.69
399.044	83.69
399.268	88.69
399.492	86.69
399.717	91.69
399.941	93.69
400.165	101.69
400.389	86.69
400.613	97.69
400.837	82.69
401.062	94.69
401.286	86.69
401.51	93.69
401.734	99.69
401.958	92.69
402.182	83.69
402.406	93.69
402.63	88.69
402.854	90.69
403.078	94.69
403.302	89.69
403.526	94.69
403.75	80.69
403.974	106.69
404.198	85.69
404.422	78.69
404.645	108.69
404.869	83.69
405.093	88.69
405.317	90.69
405.541	90.69
405.765	66.69
405.988	81.69
406.212	100.69
406.436	82.69
406.66	83.69
406.883	80.69
407.107	88.69
407.331	79.69
407.555	85.69
407.778	73.69
408.002	88.69
408.226	89.69
408.449	93.69
408.673	96.69
408.896	96.69
409.12	78.69
409.344	84.69
409.567	77.69
409.791	87.69
410.014	96.69
410.238	79.69
410.461	94.69
410.685	91.69
410.908	88.69
411.132	98.69
411.355	88.69
411.578	102.69
411.802	91.69
412.025	83.69
412.249	92.69
412.472	90.69
412.695	82.69
412.919	79.69
413.142	104.69
413.365	101.69
413.589	97.69
413.812	77.69
414.035	76.69
414.258	86.69
414.482	89.69
414.705	89.69
414.928	93.69
415.151	69.69
415.374	85.69
415.597	101.69
415.821	87.69
416.044	96.69
416.267	87.69
416.49	84.69
416.713	78.69
416.936	96.69
417.159	78.69
417.382	86.69
417.605	91.69
417.828	105.69
418.051	93.69
418.274	95.69
418.497	97.69
418.72	92.69
418.943	97.69
419.166	92.69
419.389	108.69
419.611	101.69
419.834	92.69
420.057	99.69
420.28	96.69
420.503	94.69
420.726	82.69
420.948	83.69
421.171	84.69
421.394	87.69
421.617	95.69
421.839	89.69
422.062	101.69
422.285	90.69
422.507	83.69
422.73	74.69
422.953	82.69
423.175	94.69
423.398	82.69
423.621	94.69
423.843	90.69
424.066	94.69
424.288	108.69
424.511	89.69
424.733	96.69
424.956	88.69
425.178	95.69
425.401	112.69
425.623	95.69
425.846	108.69
426.068	93.69
426.291	83.69
426.513	84.69
426.735	86.69
426.958	110.69
427.18	99.69
427.402	89.69
427.625	81.69
427.847	92.69
428.069	89.69
428.292	96.69
428.514	101.69
428.736	98.69
428.958	80.69
429.181	104.69
429.403	96.69
429.625	87.69
429.847	98.69
430.069	98.69
430.292	103.69
430.514	87.69
430.736	79.69
430.958	96.69
431.18	86.69
431.402	96.69
431.624	92.69
431.846	91.69
432.068	76.69
432.29	77.69
432.512	85.69
432.734	94.69
432.956	98.69
433.178	97.69
433.4	102.69
433.622	88.69
433.844	87.69
434.066	85.69
434.287	92.69
434.509	73.69
434.731	77.69
434.953	103.69
435.175	87.69
435.397	84.69
435.618	80.69
435.84	79.69
436.062	92.69
436.284	102.69
436.505	88.69
436.727	100.69
436.949	88.69
437.17	78.69
437.392	91.69
437.614	100.69
437.835	97.69
438.057	88.69
438.278	90.69
438.5	94.69
438.721	110.69
438.943	96.69
439.165	90.69
439.386	89.69
439.608	87.69
439.829	93.69
440.05	105.69
440.272	91.69
440.493	101.69
440.715	81.69
440.936	98.69
441.158	102.69
441.379	103.69
441.6	82.69
441.822	94.69
442.043	94.69
442.264	78.69
442.486	88.69
442.707	92.69
442.928	93.69
443.149	95.69
443.371	102.69
443.592	106.69
443.813	84.69
444.034	77.69
444.255	91.69
444.476	90.69
444.698	82.69
444.919	88.69
445.14	212.69
445.361	147.69
445.582	99.69
445.803	109.69
446.024	98.69
446.245	112.69
446.466	88.69
446.687	96.69
446.908	80.69
447.129	96.69
447.35	96.69
447.571	99.69
447.792	104.69
448.013	95.69
448.234	106.69
448.455	97.69
448.675	87.69
448.896	105.69
449.117	91.69
449.338	82.69
449.559	105.69
449.779	95.69
450	96.69
450.221	90.69
450.442	94.69
450.662	90.69
450.883	84.69
451.104	93.69
451.324	92.69
451.545	100.69
451.766	93.69
451.986	97.69
452.207	85.69
452.428	91.69
452.648	92.69
452.869	88.69
453.089	91.69
453.31	88.69
453.53	85.69
453.751	91.69
453.971	85.69
454.192	92.69
454.412	82.69
454.633	91.69
454.853	92.69
455.073	90.69
455.294	94.69
455.514	97.69
455.734	89.69
455.955	84.69
456.175	95.69
456.395	80.69
456.616	77.69
456.836	84.69
457.056	94.69
457.276	92.69
457.497	82.69
457.717	83.69
457.937	77.69
458.157	92.69
458.377	75.69
458.598	94.69
458.818	84.69
459.038	88.69
459.258	86.69
459.478	76.69
459.698	92.69
459.918	85.69
460.138	94.69
460.358	78.69
460.578	95.69
460.798	97.69
461.018	83.69
461.238	94.69
461.458	98.69
461.678	89.69
461.898	89.69
462.118	84.69
462.338	80.69
462.558	93.69
462.777	88.69
462.997	80.69
463.217	89.69
463.437	90.69
463.657	80.69
463.876	93.69
464.096	81.69
464.316	81.69
464.536	101.69
464.755	93.69
464.975	85.69
465.195	90.69
465.414	94.69
465.634	98.69
465.854	93.69
466.073	97.69
466.293	81.69
466.512	85.69
466.732	94.69
466.951	97.69
467.171	105.69
467.391	80.69
467.61	82.69
467.829	91.69
468.049	88.69
468.268	98.69
468.488	92.69
468.707	101.69
468.927	104.69
469.146	97.69
469.365	97.69
469.585	92.69
469.804	92.69
470.023	103.69
470.243	98.69
470.462	98.69
470.681	102.69
470.901	91.69
471.12	101.69
471.339	105.69
471.558	116.69
471.777	99.69
471.997	109.69
472.216	86.69
472.435	106.69
472.654	100.69
472.873	100.69
473.092	85.69
473.311	100.69
473.53	84.69
473.749	100.69
473.968	85.69
474.187	84.69
474.406	71.69
474.625	89.69
474.844	85.69
475.063	92.69
475.282	78.69
475.501	91.69
475.72	92.69
475.939	84.69
476.158	93.69
476.377	93.69
476.596	78.69
476.814	97.69
477.033	85.69
477.252	80.69
477.471	98.69
477.69	94.69
477.908	94.69
478.127	106.69
478.346	80.69
478.564	92.69
478.783	92.69
479.002	92.69
479.22	80.69
479.439	99.69
479.658	85.69
479.876	93.69
480.095	85.69
480.313	86.69
480.532	83.69
480.751	78.69
480.969	90.69
481.188	80.69
481.406	86.69
481.624	93.69
481.843	77.69
482.061	83.69
482.28	85.69
482.498	84.69
482.717	72.69
482.935	89.69
483.153	95.69
483.372	88.69
483.59	94.69
483.808	88.69
484.027	87.69
484.245	89.69
484.463	97.69
484.681	107.69
484.9	105.69
485.118	99.69
485.336	85.69
485.554	84.69
485.772	87.69
485.99	76.69
486.209	81.69
486.427	89.69
486.645	75.69
486.863	95.69
487.081	92.69
487.299	95.69
487.517	89.69
487.735	115.69
487.953	120.69
488.171	111.69
488.389	97.69
488.607	98.69
488.825	97.69
489.043	96.69
489.261	96.69
489.479	81.69
489.696	97.69
489.914	100.69
490.132	96.69
490.35	90.69
490.568	84.69
490.786	105.69
491.003	113.69
491.221	94.69
491.439	108.69
491.657	89.69
491.874	131.69
492.092	127.69
492.31	136.69
492.527	126.69
492.745	113.69
492.963	113.69
493.18	109.69
493.398	119.69
493.615	117.69
493.833	105.69
494.05	97.69
494.268	103.69
494.485	114.69
494.703	113.69
494.92	109.69
495.138	88.69
495.355	108.69
495.573	101.69
495.79	106.69
496.008	103.69
496.225	112.69
496.442	102.69
496.66	118.69
496.877	104.69
497.094	99.69
497.312	102.69
497.529	98.69
497.746	97.69
497.963	100.69
498.181	91.69
498.398	90.69
498.615	95.69
498.832	82.69
499.049	98.69
499.267	90.69
499.484	101.69
499.701	107.69
499.918	111.69
500.135	84.69
500.352	93.69
500.569	99.69
500.786	93.69
501.003	109.69
501.22	95.69
501.437	100.69
501.654	95.69
501.871	92.69
502.088	100.69
502.305	96.69
502.522	101.69
502.739	93.69
502.956	96.69
503.172	76.69
503.389	90.69
503.606	87.69
503.823	82.69
504.04	101.69
504.256	97.69
504.473	83.69
504.69	88.69
504.907	92.69
505.123	81.69
505.34	108.69
505.557	100.69
505.773	90.69
505.99	95.69
506.207	82.69
506.423	80.69
506.64	80.69
506.856	85.69
507.073	83.69
507.289	114.69
507.506	92.69
507.722	101.69
507.939	92.69
508.155	97.69
508.372	88.69
508.588	87.69
508.805	74.69
509.021	113.69
509.238	66.69
509.454	67.69
509.67	83.69
509.887	80.69
510.103	88.69
510.319	77.69
510.536	94.69
510.752	88.69
510.968	79.69
511.184	79.69
511.401	71.69
511.617	82.69
511.833	73.69
512.049	99.69
512.265	101.69
512.481	73.69
512.698	72.69
512.914	77.69
513.13	82.69
513.346	80.69
513.562	71.69
513.778	80.69
513.994	90.69
514.21	77.69
514.426	91.69
514.642	80.69
514.858	89.69
515.074	82.69
515.29	96.69
515.506	77.69
515.721	74.69
515.937	93.69
516.153	58.69
516.369	76.69
516.585	76.69
516.801	80.69
517.016	73.69
517.232	93.69
517.448	80.69
517.664	89.69
517.879	73.69
518.095	74.69
