Data from Location3.07152019.Energy5.Lamp.07192019.3%Agarose_HRD10591_15-19-15-269.txt Node
Date: Fri Jul 19 15:19:15 EDT 2019
User: cochatt
Spectrometer: HR+D1059
Trigger mode: 1
Integration Time (sec): 1.000000E-1
Scans to average: 1
Electric dark correction enabled: true
Nonlinearity correction enabled: false
Boxcar width: 0
XAxis mode: Wavelengths
Number of Pixels in Spectrum: 2048
>>>>>Begin Spectral Data<<<<<
223.165	-18.94
223.4	-18.94
223.635	-18.94
223.869	-21.94
224.104	-30.94
224.338	-14.94
224.573	-14.94
224.808	-7.94
225.042	-10.94
225.277	-0.94
225.511	3.06
225.746	4.06
225.98	13.06
226.215	10.06
226.449	23.06
226.683	6.06
226.918	28.06
227.152	34.06
227.387	36.06
227.621	43.06
227.856	56.06
228.09	42.06
228.324	59.06
228.559	39.06
228.793	60.06
229.027	51.06
229.262	80.06
229.496	67.06
229.73	78.06
229.964	74.06
230.199	87.06
230.433	61.06
230.667	86.06
230.901	96.06
231.136	83.06
231.37	80.06
231.604	91.06
231.838	92.06
232.072	98.06
232.306	89.06
232.541	69.06
232.775	89.06
233.009	82.06
233.243	80.06
233.477	77.06
233.711	85.06
233.945	86.06
234.179	77.06
234.413	79.06
234.647	81.06
234.881	74.06
235.115	73.06
235.349	82.06
235.583	82.06
235.817	84.06
236.051	85.06
236.285	72.06
236.519	91.06
236.753	88.06
236.987	87.06
237.221	70.06
237.455	70.06
237.689	69.06
237.922	68.06
238.156	72.06
238.39	73.06
238.624	85.06
238.858	69.06
239.091	85.06
239.325	91.06
239.559	73.06
239.793	82.06
240.027	83.06
240.26	66.06
240.494	77.06
240.728	90.06
240.961	79.06
241.195	75.06
241.429	66.06
241.662	75.06
241.896	78.06
242.13	70.06
242.363	73.06
242.597	89.06
242.83	88.06
243.064	69.06
243.298	83.06
243.531	77.06
243.765	85.06
243.998	81.06
244.232	81.06
244.465	65.06
244.699	69.06
244.932	89.06
245.166	87.06
245.399	75.06
245.633	75.06
245.866	80.06
246.099	75.06
246.333	73.06
246.566	94.06
246.8	69.06
247.033	73.06
247.266	75.06
247.5	80.06
247.733	85.06
247.966	83.06
248.2	70.06
248.433	90.06
248.666	80.06
248.899	85.06
249.133	63.06
249.366	75.06
249.599	70.06
249.832	85.06
250.066	86.06
250.299	78.06
250.532	83.06
250.765	79.06
250.998	79.06
251.231	74.06
251.465	81.06
251.698	83.06
251.931	93.06
252.164	89.06
252.397	72.06
252.63	75.06
252.863	72.06
253.096	73.06
253.329	76.06
253.562	65.06
253.795	67.06
254.028	79.06
254.261	75.06
254.494	81.06
254.727	67.06
254.96	71.06
255.193	75.06
255.426	82.06
255.659	77.06
255.892	88.06
256.124	82.06
256.357	83.06
256.59	82.06
256.823	72.06
257.056	88.06
257.289	83.06
257.521	84.06
257.754	72.06
257.987	83.06
258.22	75.06
258.452	96.06
258.685	82.06
258.918	75.06
259.151	76.06
259.383	90.06
259.616	84.06
259.849	75.06
260.081	71.06
260.314	70.06
260.547	84.06
260.779	70.06
261.012	64.06
261.244	75.06
261.477	83.06
261.71	94.06
261.942	76.06
262.175	81.06
262.407	78.06
262.64	85.06
262.872	74.06
263.105	67.06
263.337	79.06
263.57	72.06
263.802	85.06
264.035	88.06
264.267	78.06
264.499	84.06
264.732	81.06
264.964	103.06
265.197	76.06
265.429	87.06
265.661	95.06
265.894	80.06
266.126	74.06
266.358	89.06
266.591	81.06
266.823	74.06
267.055	83.06
267.287	84.06
267.52	63.06
267.752	96.06
267.984	79.06
268.216	93.06
268.448	86.06
268.681	78.06
268.913	80.06
269.145	85.06
269.377	82.06
269.609	86.06
269.841	89.06
270.073	79.06
270.306	89.06
270.538	95.06
270.77	97.06
271.002	82.06
271.234	85.06
271.466	86.06
271.698	75.06
271.93	83.06
272.162	90.06
272.394	86.06
272.626	82.06
272.858	78.06
273.09	86.06
273.322	81.06
273.553	77.06
273.785	89.06
274.017	84.06
274.249	92.06
274.481	76.06
274.713	83.06
274.945	93.06
275.176	87.06
275.408	93.06
275.64	81.06
275.872	85.06
276.104	85.06
276.335	91.06
276.567	83.06
276.799	84.06
277.031	75.06
277.262	85.06
277.494	80.06
277.726	85.06
277.957	89.06
278.189	97.06
278.421	78.06
278.652	96.06
278.884	78.06
279.115	78.06
279.347	79.06
279.579	85.06
279.81	73.06
280.042	93.06
280.273	71.06
280.505	98.06
280.736	85.06
280.968	80.06
281.199	88.06
281.431	63.06
281.662	70.06
281.894	89.06
282.125	101.06
282.356	67.06
282.588	87.06
282.819	84.06
283.051	93.06
283.282	100.06
283.513	84.06
283.745	80.06
283.976	86.06
284.207	82.06
284.439	90.06
284.67	97.06
284.901	83.06
285.132	95.06
285.364	77.06
285.595	82.06
285.826	74.06
286.057	86.06
286.288	81.06
286.52	90.06
286.751	82.06
286.982	73.06
287.213	85.06
287.444	94.06
287.675	79.06
287.906	83.06
288.138	93.06
288.369	72.06
288.6	86.06
288.831	96.06
289.062	103.06
289.293	103.06
289.524	90.06
289.755	96.06
289.986	79.06
290.217	89.06
290.448	89.06
290.679	86.06
290.91	96.06
291.141	88.06
291.371	94.06
291.602	96.06
291.833	78.06
292.064	96.06
292.295	82.06
292.526	93.06
292.757	92.06
292.987	74.06
293.218	89.06
293.449	87.06
293.68	73.06
293.91	86.06
294.141	77.06
294.372	89.06
294.603	88.06
294.833	93.06
295.064	89.06
295.295	74.06
295.525	101.06
295.756	97.06
295.987	89.06
296.217	74.06
296.448	87.06
296.679	93.06
296.909	90.06
297.14	79.06
297.37	80.06
297.601	77.06
297.831	93.06
298.062	94.06
298.292	76.06
298.523	82.06
298.753	83.06
298.984	75.06
299.214	89.06
299.445	86.06
299.675	85.06
299.905	74.06
300.136	79.06
300.366	81.06
300.597	80.06
300.827	85.06
301.057	81.06
301.288	88.06
301.518	85.06
301.748	88.06
301.979	90.06
302.209	77.06
302.439	81.06
302.669	80.06
302.9	79.06
303.13	88.06
303.36	87.06
303.59	75.06
303.82	90.06
304.051	79.06
304.281	82.06
304.511	83.06
304.741	76.06
304.971	88.06
305.201	82.06
305.431	63.06
305.661	81.06
305.891	86.06
306.121	90.06
306.352	75.06
306.582	66.06
306.812	75.06
307.042	82.06
307.272	79.06
307.502	85.06
307.731	95.06
307.961	81.06
308.191	81.06
308.421	80.06
308.651	75.06
308.881	85.06
309.111	74.06
309.341	81.06
309.571	85.06
309.8	88.06
310.03	94.06
310.26	86.06
310.49	86.06
310.72	87.06
310.949	88.06
311.179	85.06
311.409	79.06
311.639	89.06
311.868	88.06
312.098	85.06
312.328	82.06
312.557	83.06
312.787	94.06
313.017	80.06
313.246	97.06
313.476	91.06
313.706	84.06
313.935	74.06
314.165	89.06
314.394	82.06
314.624	84.06
314.853	92.06
315.083	82.06
315.312	72.06
315.542	67.06
315.771	84.06
316.001	78.06
316.23	94.06
316.46	92.06
316.689	91.06
316.919	91.06
317.148	97.06
317.377	95.06
317.607	93.06
317.836	75.06
318.065	81.06
318.295	81.06
318.524	100.06
318.753	82.06
318.983	78.06
319.212	92.06
319.441	85.06
319.67	86.06
319.9	75.06
320.129	87.06
320.358	77.06
320.587	83.06
320.816	90.06
321.046	85.06
321.275	78.06
321.504	85.06
321.733	85.06
321.962	79.06
322.191	83.06
322.42	86.06
322.649	93.06
322.878	86.06
323.108	87.06
323.337	88.06
323.566	79.06
323.795	81.06
324.024	76.06
324.253	99.06
324.482	93.06
324.71	81.06
324.939	75.06
325.168	81.06
325.397	80.06
325.626	93.06
325.855	95.06
326.084	102.06
326.313	94.06
326.542	82.06
326.77	75.06
326.999	89.06
327.228	89.06
327.457	87.06
327.686	82.06
327.914	78.06
328.143	96.06
328.372	82.06
328.6	87.06
328.829	94.06
329.058	88.06
329.287	85.06
329.515	82.06
329.744	82.06
329.972	81.06
330.201	88.06
330.43	81.06
330.658	75.06
330.887	89.06
331.115	91.06
331.344	91.06
331.572	67.06
331.801	69.06
332.03	85.06
332.258	90.06
332.486	81.06
332.715	76.06
332.943	96.06
333.172	81.06
333.4	87.06
333.629	79.06
333.857	97.06
334.085	76.06
334.314	81.06
334.542	74.06
334.771	89.06
334.999	87.06
335.227	73.06
335.455	87.06
335.684	95.06
335.912	90.06
336.14	77.06
336.369	81.06
336.597	91.06
336.825	94.06
337.053	75.06
337.281	94.06
337.51	92.06
337.738	82.06
337.966	80.06
338.194	79.06
338.422	84.06
338.65	86.06
338.878	87.06
339.106	83.06
339.334	93.06
339.562	75.06
339.79	101.06
340.018	84.06
340.246	78.06
340.474	88.06
340.702	91.06
340.93	71.06
341.158	89.06
341.386	88.06
341.614	84.06
341.842	99.06
342.07	82.06
342.298	74.06
342.526	66.06
342.754	75.06
342.981	82.06
343.209	82.06
343.437	94.06
343.665	85.06
343.893	94.06
344.12	89.06
344.348	85.06
344.576	74.06
344.804	83.06
345.031	63.06
345.259	83.06
345.487	94.06
345.714	88.06
345.942	75.06
346.17	82.06
346.397	92.06
346.625	88.06
346.853	71.06
347.08	82.06
347.308	84.06
347.535	74.06
347.763	79.06
347.99	75.06
348.218	88.06
348.445	81.06
348.673	72.06
348.9	91.06
349.128	90.06
349.355	81.06
349.583	74.06
349.81	90.06
350.037	72.06
350.265	93.06
350.492	100.06
350.72	75.06
350.947	93.06
351.174	85.06
351.402	77.06
351.629	80.06
351.856	76.06
352.083	88.06
352.311	79.06
352.538	75.06
352.765	91.06
352.992	88.06
353.22	86.06
353.447	75.06
353.674	82.06
353.901	85.06
354.128	88.06
354.355	87.06
354.583	84.06
354.81	74.06
355.037	88.06
355.264	77.06
355.491	87.06
355.718	89.06
355.945	79.06
356.172	85.06
356.399	82.06
356.626	93.06
356.853	105.06
357.08	87.06
357.307	91.06
357.534	75.06
357.761	71.06
357.988	79.06
358.215	74.06
358.441	81.06
358.668	89.06
358.895	85.06
359.122	63.06
359.349	81.06
359.576	88.06
359.802	79.06
360.029	73.06
360.256	77.06
360.483	83.06
360.709	82.06
360.936	90.06
361.163	74.06
361.39	93.06
361.616	79.06
361.843	81.06
362.07	94.06
362.296	85.06
362.523	80.06
362.749	90.06
362.976	69.06
363.203	89.06
363.429	90.06
363.656	82.06
363.882	88.06
364.109	87.06
364.335	91.06
364.562	86.06
364.788	83.06
365.015	96.06
365.241	102.06
365.468	86.06
365.694	83.06
365.92	75.06
366.147	63.06
366.373	91.06
366.599	88.06
366.826	80.06
367.052	87.06
367.278	76.06
367.505	83.06
367.731	72.06
367.957	97.06
368.184	86.06
368.41	78.06
368.636	72.06
368.862	82.06
369.089	75.06
369.315	87.06
369.541	83.06
369.767	81.06
369.993	76.06
370.219	88.06
370.445	91.06
370.672	88.06
370.898	75.06
371.124	75.06
371.35	72.06
371.576	92.06
371.802	75.06
372.028	74.06
372.254	85.06
372.48	87.06
372.706	90.06
372.932	93.06
373.158	75.06
373.384	91.06
373.61	86.06
373.835	75.06
374.061	76.06
374.287	83.06
374.513	89.06
374.739	89.06
374.965	69.06
375.191	69.06
375.416	86.06
375.642	80.06
375.868	97.06
376.094	75.06
376.319	83.06
376.545	90.06
376.771	86.06
376.997	85.06
377.222	86.06
377.448	81.06
377.674	63.06
377.899	83.06
378.125	72.06
378.35	88.06
378.576	71.06
378.802	75.06
379.027	73.06
379.253	75.06
379.478	89.06
379.704	84.06
379.929	95.06
380.155	82.06
380.38	80.06
380.606	71.06
380.831	73.06
381.057	85.06
381.282	93.06
381.507	92.06
381.733	92.06
381.958	99.06
382.184	86.06
382.409	76.06
382.634	85.06
382.86	93.06
383.085	86.06
383.31	88.06
383.535	85.06
383.761	95.06
383.986	86.06
384.211	82.06
384.436	73.06
384.662	83.06
384.887	85.06
385.112	83.06
385.337	93.06
385.562	93.06
385.787	91.06
386.013	88.06
386.238	75.06
386.463	79.06
386.688	89.06
386.913	99.06
387.138	91.06
387.363	93.06
387.588	96.06
387.813	82.06
388.038	83.06
388.263	88.06
388.488	78.06
388.713	80.06
388.938	87.06
389.163	88.06
389.387	94.06
389.612	84.06
389.837	85.06
390.062	91.06
390.287	79.06
390.512	76.06
390.736	80.06
390.961	92.06
391.186	75.06
391.411	83.06
391.636	87.06
391.86	93.06
392.085	80.06
392.31	88.06
392.534	81.06
392.759	74.06
392.984	79.06
393.208	90.06
393.433	87.06
393.658	87.06
393.882	78.06
394.107	78.06
394.331	73.06
394.556	82.06
394.78	83.06
395.005	75.06
395.229	85.06
395.454	85.06
395.678	80.06
395.903	81.06
396.127	82.06
396.352	86.06
396.576	89.06
396.801	85.06
397.025	94.06
397.249	96.06
397.474	88.06
397.698	75.06
397.922	81.06
398.147	86.06
398.371	95.06
398.595	89.06
398.82	88.06
399.044	93.06
399.268	95.06
399.492	90.06
399.717	77.06
399.941	87.06
400.165	105.06
400.389	82.06
400.613	86.06
400.837	94.06
401.062	88.06
401.286	90.06
401.51	90.06
401.734	86.06
401.958	86.06
402.182	99.06
402.406	92.06
402.63	92.06
402.854	88.06
403.078	90.06
403.302	95.06
403.526	71.06
403.75	83.06
403.974	89.06
404.198	88.06
404.422	80.06
404.645	98.06
404.869	87.06
405.093	89.06
405.317	83.06
405.541	89.06
405.765	80.06
405.988	88.06
406.212	93.06
406.436	99.06
406.66	93.06
406.883	78.06
407.107	88.06
407.331	98.06
407.555	83.06
407.778	70.06
408.002	84.06
408.226	98.06
408.449	94.06
408.673	86.06
408.896	104.06
409.12	89.06
409.344	89.06
409.567	87.06
409.791	82.06
410.014	83.06
410.238	89.06
410.461	87.06
410.685	92.06
410.908	90.06
411.132	88.06
411.355	94.06
411.578	82.06
411.802	110.06
412.025	79.06
412.249	110.06
412.472	99.06
412.695	76.06
412.919	74.06
413.142	84.06
413.365	94.06
413.589	98.06
413.812	101.06
414.035	93.06
414.258	83.06
414.482	94.06
414.705	94.06
414.928	84.06
415.151	93.06
415.374	91.06
415.597	86.06
415.821	86.06
416.044	87.06
416.267	88.06
416.49	96.06
416.713	79.06
416.936	93.06
417.159	89.06
417.382	101.06
417.605	96.06
417.828	112.06
418.051	90.06
418.274	102.06
418.497	89.06
418.72	92.06
418.943	90.06
419.166	76.06
419.389	109.06
419.611	93.06
419.834	92.06
420.057	89.06
420.28	103.06
420.503	112.06
420.726	88.06
420.948	87.06
421.171	89.06
421.394	91.06
421.617	97.06
421.839	106.06
422.062	104.06
422.285	85.06
422.507	95.06
422.73	94.06
422.953	79.06
423.175	101.06
423.398	101.06
423.621	96.06
423.843	91.06
424.066	94.06
424.288	103.06
424.511	110.06
424.733	106.06
424.956	71.06
425.178	101.06
425.401	84.06
425.623	84.06
425.846	89.06
426.068	87.06
426.291	102.06
426.513	69.06
426.735	83.06
426.958	87.06
427.18	89.06
427.402	96.06
427.625	100.06
427.847	84.06
428.069	95.06
428.292	85.06
428.514	84.06
428.736	92.06
428.958	89.06
429.181	94.06
429.403	85.06
429.625	100.06
429.847	95.06
430.069	92.06
430.292	96.06
430.514	100.06
430.736	90.06
430.958	85.06
431.18	78.06
431.402	100.06
431.624	82.06
431.846	98.06
432.068	81.06
432.29	76.06
432.512	81.06
432.734	92.06
432.956	86.06
433.178	90.06
433.4	97.06
433.622	99.06
433.844	92.06
434.066	80.06
434.287	80.06
434.509	91.06
434.731	103.06
434.953	87.06
435.175	77.06
435.397	99.06
435.618	113.06
435.84	82.06
436.062	95.06
436.284	94.06
436.505	82.06
436.727	94.06
436.949	83.06
437.17	94.06
437.392	97.06
437.614	91.06
437.835	87.06
438.057	81.06
438.278	89.06
438.5	96.06
438.721	98.06
438.943	86.06
439.165	102.06
439.386	96.06
439.608	109.06
439.829	105.06
440.05	97.06
440.272	89.06
440.493	93.06
440.715	94.06
440.936	120.06
441.158	113.06
441.379	117.06
441.6	98.06
441.822	94.06
442.043	103.06
442.264	91.06
442.486	112.06
442.707	90.06
442.928	113.06
443.149	93.06
443.371	97.06
443.592	99.06
443.813	85.06
444.034	97.06
444.255	90.06
444.476	100.06
444.698	80.06
444.919	91.06
445.14	230.06
445.361	150.06
445.582	97.06
445.803	90.06
446.024	95.06
446.245	100.06
446.466	88.06
446.687	90.06
446.908	114.06
447.129	103.06
447.35	95.06
447.571	109.06
447.792	101.06
448.013	95.06
448.234	110.06
448.455	96.06
448.675	106.06
448.896	79.06
449.117	82.06
449.338	92.06
449.559	97.06
449.779	108.06
450	108.06
450.221	90.06
450.442	85.06
450.662	105.06
450.883	98.06
451.104	91.06
451.324	91.06
451.545	92.06
451.766	100.06
451.986	89.06
452.207	103.06
452.428	100.06
452.648	83.06
452.869	93.06
453.089	108.06
453.31	78.06
453.53	83.06
453.751	83.06
453.971	78.06
454.192	75.06
454.412	98.06
454.633	90.06
454.853	92.06
455.073	106.06
455.294	104.06
455.514	87.06
455.734	88.06
455.955	89.06
456.175	87.06
456.395	84.06
456.616	89.06
456.836	92.06
457.056	83.06
457.276	94.06
457.497	74.06
457.717	76.06
457.937	68.06
458.157	84.06
458.377	80.06
458.598	90.06
458.818	85.06
459.038	97.06
459.258	68.06
459.478	80.06
459.698	77.06
459.918	90.06
460.138	87.06
460.358	88.06
460.578	80.06
460.798	101.06
461.018	89.06
461.238	86.06
461.458	87.06
461.678	98.06
461.898	93.06
462.118	87.06
462.338	95.06
462.558	86.06
462.777	96.06
462.997	91.06
463.217	90.06
463.437	86.06
463.657	86.06
463.876	96.06
464.096	96.06
464.316	86.06
464.536	78.06
464.755	95.06
464.975	86.06
465.195	95.06
465.414	90.06
465.634	93.06
465.854	85.06
466.073	80.06
466.293	93.06
466.512	81.06
466.732	96.06
466.951	90.06
467.171	85.06
467.391	103.06
467.61	103.06
467.829	103.06
468.049	96.06
468.268	99.06
468.488	113.06
468.707	88.06
468.927	85.06
469.146	95.06
469.365	97.06
469.585	102.06
469.804	92.06
470.023	105.06
470.243	109.06
470.462	91.06
470.681	107.06
470.901	83.06
471.12	109.06
471.339	101.06
471.558	96.06
471.777	90.06
471.997	99.06
472.216	98.06
472.435	87.06
472.654	93.06
472.873	96.06
473.092	82.06
473.311	82.06
473.53	93.06
473.749	97.06
473.968	109.06
474.187	95.06
474.406	86.06
474.625	88.06
474.844	96.06
475.063	87.06
475.282	85.06
475.501	88.06
475.72	93.06
475.939	80.06
476.158	86.06
476.377	91.06
476.596	96.06
476.814	85.06
477.033	90.06
477.252	97.06
477.471	97.06
477.69	96.06
477.908	97.06
478.127	95.06
478.346	113.06
478.564	95.06
478.783	100.06
479.002	102.06
479.22	94.06
479.439	88.06
479.658	85.06
479.876	82.06
480.095	94.06
480.313	87.06
480.532	94.06
480.751	97.06
480.969	88.06
481.188	101.06
481.406	77.06
481.624	86.06
481.843	74.06
482.061	76.06
482.28	100.06
482.498	81.06
482.717	75.06
482.935	86.06
483.153	99.06
483.372	109.06
483.59	98.06
483.808	94.06
484.027	88.06
484.245	88.06
484.463	95.06
484.681	98.06
484.9	104.06
485.118	106.06
485.336	100.06
485.554	93.06
485.772	91.06
485.99	86.06
486.209	89.06
486.427	87.06
486.645	93.06
486.863	98.06
487.081	90.06
487.299	95.06
487.517	96.06
487.735	106.06
487.953	103.06
488.171	109.06
488.389	110.06
488.607	89.06
488.825	93.06
489.043	103.06
489.261	98.06
489.479	90.06
489.696	100.06
489.914	111.06
490.132	103.06
490.35	104.06
490.568	113.06
490.786	93.06
491.003	119.06
491.221	114.06
491.439	112.06
491.657	105.06
491.874	103.06
492.092	121.06
492.31	132.06
492.527	125.06
492.745	117.06
492.963	113.06
493.18	116.06
493.398	122.06
493.615	115.06
493.833	107.06
494.05	123.06
494.268	101.06
494.485	105.06
494.703	119.06
494.92	101.06
495.138	109.06
495.355	118.06
495.573	106.06
495.79	111.06
496.008	111.06
496.225	106.06
496.442	103.06
496.66	110.06
496.877	87.06
497.094	116.06
497.312	109.06
497.529	100.06
497.746	103.06
497.963	101.06
498.181	98.06
498.398	94.06
498.615	102.06
498.832	86.06
499.049	98.06
499.267	114.06
499.484	102.06
499.701	95.06
499.918	97.06
500.135	120.06
500.352	99.06
500.569	96.06
500.786	112.06
501.003	86.06
501.22	105.06
501.437	103.06
501.654	97.06
501.871	102.06
502.088	103.06
502.305	98.06
502.522	94.06
502.739	96.06
502.956	105.06
503.172	84.06
503.389	99.06
503.606	100.06
503.823	93.06
504.04	85.06
504.256	102.06
504.473	83.06
504.69	96.06
504.907	104.06
505.123	85.06
505.34	102.06
505.557	93.06
505.773	89.06
505.99	93.06
506.207	89.06
506.423	112.06
506.64	100.06
506.856	91.06
507.073	96.06
507.289	98.06
507.506	97.06
507.722	95.06
507.939	95.06
508.155	89.06
508.372	91.06
508.588	90.06
508.805	99.06
509.021	104.06
509.238	86.06
509.454	82.06
509.67	93.06
509.887	83.06
510.103	98.06
510.319	84.06
510.536	85.06
510.752	85.06
510.968	74.06
511.184	79.06
511.401	89.06
511.617	94.06
511.833	71.06
512.049	87.06
512.265	89.06
512.481	86.06
512.698	86.06
512.914	86.06
513.13	83.06
513.346	98.06
513.562	89.06
513.778	87.06
513.994	82.06
514.21	101.06
514.426	83.06
514.642	81.06
514.858	80.06
515.074	82.06
515.29	82.06
515.506	86.06
515.721	81.06
515.937	94.06
516.153	78.06
516.369	90.06
516.585	85.06
516.801	89.06
517.016	93.06
517.232	82.06
517.448	74.06
