Data from Location3.07152019.Energy5.Lamp.07192019.3%Agarose_HRD10591_15-17-22-269.txt Node
Date: Fri Jul 19 15:17:22 EDT 2019
User: cochatt
Spectrometer: HR+D1059
Trigger mode: 1
Integration Time (sec): 1.000000E-1
Scans to average: 1
Electric dark correction enabled: true
Nonlinearity correction enabled: false
Boxcar width: 0
XAxis mode: Wavelengths
Number of Pixels in Spectrum: 2048
>>>>>Begin Spectral Data<<<<<
223.165	-24.12
223.4	-24.12
223.635	-24.12
223.869	-23.12
224.104	-26.12
224.338	-23.12
224.573	-15.12
224.808	-6.12
225.042	11.88
225.277	-5.12
225.511	-9.12
225.746	18.88
225.98	0.88
226.215	8.88
226.449	15.88
226.683	16.88
226.918	26.88
227.152	31.88
227.387	45.88
227.621	35.88
227.856	43.88
228.09	43.88
228.324	47.88
228.559	68.88
228.793	57.88
229.027	66.88
229.262	73.88
229.496	72.88
229.73	72.88
229.964	59.88
230.199	76.88
230.433	70.88
230.667	76.88
230.901	81.88
231.136	72.88
231.37	96.88
231.604	84.88
231.838	64.88
232.072	90.88
232.306	89.88
232.541	89.88
232.775	75.88
233.009	82.88
233.243	73.88
233.477	74.88
233.711	86.88
233.945	100.88
234.179	91.88
234.413	84.88
234.647	94.88
234.881	89.88
235.115	73.88
235.349	79.88
235.583	95.88
235.817	81.88
236.051	84.88
236.285	89.88
236.519	90.88
236.753	68.88
236.987	73.88
237.221	77.88
237.455	90.88
237.689	91.88
237.922	77.88
238.156	74.88
238.39	87.88
238.624	81.88
238.858	85.88
239.091	81.88
239.325	85.88
239.559	80.88
239.793	71.88
240.027	90.88
240.26	67.88
240.494	76.88
240.728	73.88
240.961	72.88
241.195	78.88
241.429	85.88
241.662	86.88
241.896	69.88
242.13	79.88
242.363	82.88
242.597	97.88
242.83	83.88
243.064	78.88
243.298	84.88
243.531	84.88
243.765	98.88
243.998	87.88
244.232	83.88
244.465	75.88
244.699	85.88
244.932	88.88
245.166	76.88
245.399	89.88
245.633	95.88
245.866	57.88
246.099	77.88
246.333	79.88
246.566	79.88
246.8	83.88
247.033	89.88
247.266	96.88
247.5	78.88
247.733	71.88
247.966	84.88
248.2	68.88
248.433	86.88
248.666	92.88
248.899	83.88
249.133	84.88
249.366	78.88
249.599	85.88
249.832	82.88
250.066	81.88
250.299	85.88
250.532	85.88
250.765	78.88
250.998	82.88
251.231	86.88
251.465	88.88
251.698	91.88
251.931	89.88
252.164	101.88
252.397	83.88
252.63	82.88
252.863	87.88
253.096	98.88
253.329	99.88
253.562	84.88
253.795	92.88
254.028	74.88
254.261	75.88
254.494	74.88
254.727	80.88
254.96	86.88
255.193	67.88
255.426	81.88
255.659	82.88
255.892	77.88
256.124	79.88
256.357	90.88
256.59	78.88
256.823	77.88
257.056	88.88
257.289	90.88
257.521	96.88
257.754	78.88
257.987	78.88
258.22	73.88
258.452	81.88
258.685	80.88
258.918	94.88
259.151	82.88
259.383	71.88
259.616	78.88
259.849	95.88
260.081	82.88
260.314	90.88
260.547	87.88
260.779	82.88
261.012	91.88
261.244	78.88
261.477	85.88
261.71	87.88
261.942	86.88
262.175	97.88
262.407	84.88
262.64	78.88
262.872	82.88
263.105	73.88
263.337	85.88
263.57	77.88
263.802	90.88
264.035	89.88
264.267	89.88
264.499	81.88
264.732	76.88
264.964	84.88
265.197	93.88
265.429	102.88
265.661	93.88
265.894	90.88
266.126	75.88
266.358	94.88
266.591	80.88
266.823	104.88
267.055	97.88
267.287	92.88
267.52	93.88
267.752	86.88
267.984	97.88
268.216	93.88
268.448	92.88
268.681	81.88
268.913	86.88
269.145	91.88
269.377	78.88
269.609	95.88
269.841	85.88
270.073	82.88
270.306	85.88
270.538	73.88
270.77	92.88
271.002	86.88
271.234	103.88
271.466	78.88
271.698	91.88
271.93	86.88
272.162	85.88
272.394	85.88
272.626	77.88
272.858	80.88
273.09	84.88
273.322	82.88
273.553	76.88
273.785	89.88
274.017	71.88
274.249	83.88
274.481	82.88
274.713	80.88
274.945	90.88
275.176	90.88
275.408	77.88
275.64	91.88
275.872	70.88
276.104	92.88
276.335	98.88
276.567	85.88
276.799	96.88
277.031	89.88
277.262	95.88
277.494	86.88
277.726	89.88
277.957	73.88
278.189	75.88
278.421	94.88
278.652	93.88
278.884	95.88
279.115	86.88
279.347	94.88
279.579	92.88
279.81	86.88
280.042	96.88
280.273	78.88
280.505	81.88
280.736	91.88
280.968	90.88
281.199	86.88
281.431	87.88
281.662	88.88
281.894	82.88
282.125	84.88
282.356	86.88
282.588	89.88
282.819	88.88
283.051	103.88
283.282	68.88
283.513	88.88
283.745	69.88
283.976	101.88
284.207	79.88
284.439	88.88
284.67	77.88
284.901	93.88
285.132	90.88
285.364	85.88
285.595	90.88
285.826	83.88
286.057	78.88
286.288	86.88
286.52	98.88
286.751	83.88
286.982	87.88
287.213	78.88
287.444	88.88
287.675	84.88
287.906	89.88
288.138	88.88
288.369	78.88
288.6	84.88
288.831	74.88
289.062	93.88
289.293	86.88
289.524	94.88
289.755	93.88
289.986	78.88
290.217	75.88
290.448	94.88
290.679	91.88
290.91	80.88
291.141	99.88
291.371	87.88
291.602	82.88
291.833	92.88
292.064	88.88
292.295	75.88
292.526	96.88
292.757	84.88
292.987	77.88
293.218	82.88
293.449	86.88
293.68	86.88
293.91	78.88
294.141	68.88
294.372	90.88
294.603	88.88
294.833	82.88
295.064	87.88
295.295	92.88
295.525	79.88
295.756	97.88
295.987	91.88
296.217	85.88
296.448	79.88
296.679	88.88
296.909	86.88
297.14	100.88
297.37	91.88
297.601	82.88
297.831	86.88
298.062	80.88
298.292	84.88
298.523	93.88
298.753	89.88
298.984	90.88
299.214	72.88
299.445	85.88
299.675	88.88
299.905	106.88
300.136	85.88
300.366	96.88
300.597	89.88
300.827	93.88
301.057	85.88
301.288	76.88
301.518	94.88
301.748	91.88
301.979	69.88
302.209	96.88
302.439	93.88
302.669	83.88
302.9	85.88
303.13	95.88
303.36	83.88
303.59	82.88
303.82	82.88
304.051	78.88
304.281	97.88
304.511	84.88
304.741	93.88
304.971	88.88
305.201	85.88
305.431	72.88
305.661	85.88
305.891	76.88
306.121	96.88
306.352	86.88
306.582	80.88
306.812	92.88
307.042	95.88
307.272	94.88
307.502	93.88
307.731	94.88
307.961	92.88
308.191	94.88
308.421	98.88
308.651	83.88
308.881	92.88
309.111	68.88
309.341	102.88
309.571	93.88
309.8	70.88
310.03	85.88
310.26	100.88
310.49	75.88
310.72	78.88
310.949	79.88
311.179	95.88
311.409	90.88
311.639	90.88
311.868	82.88
312.098	80.88
312.328	88.88
312.557	82.88
312.787	95.88
313.017	78.88
313.246	92.88
313.476	86.88
313.706	92.88
313.935	84.88
314.165	84.88
314.394	76.88
314.624	78.88
314.853	87.88
315.083	84.88
315.312	85.88
315.542	91.88
315.771	85.88
316.001	79.88
316.23	77.88
316.46	87.88
316.689	96.88
316.919	83.88
317.148	95.88
317.377	86.88
317.607	85.88
317.836	73.88
318.065	84.88
318.295	85.88
318.524	98.88
318.753	95.88
318.983	78.88
319.212	93.88
319.441	86.88
319.67	82.88
319.9	90.88
320.129	72.88
320.358	68.88
320.587	84.88
320.816	90.88
321.046	87.88
321.275	81.88
321.504	74.88
321.733	88.88
321.962	74.88
322.191	99.88
322.42	82.88
322.649	84.88
322.878	78.88
323.108	76.88
323.337	81.88
323.566	84.88
323.795	90.88
324.024	79.88
324.253	89.88
324.482	84.88
324.71	83.88
324.939	87.88
325.168	101.88
325.397	87.88
325.626	80.88
325.855	89.88
326.084	98.88
326.313	77.88
326.542	88.88
326.77	95.88
326.999	85.88
327.228	98.88
327.457	102.88
327.686	99.88
327.914	87.88
328.143	89.88
328.372	81.88
328.6	73.88
328.829	84.88
329.058	83.88
329.287	85.88
329.515	96.88
329.744	84.88
329.972	83.88
330.201	84.88
330.43	76.88
330.658	94.88
330.887	88.88
331.115	104.88
331.344	85.88
331.572	105.88
331.801	89.88
332.03	87.88
332.258	81.88
332.486	82.88
332.715	91.88
332.943	97.88
333.172	91.88
333.4	86.88
333.629	91.88
333.857	88.88
334.085	86.88
334.314	84.88
334.542	102.88
334.771	84.88
334.999	90.88
335.227	89.88
335.455	69.88
335.684	83.88
335.912	93.88
336.14	84.88
336.369	87.88
336.597	83.88
336.825	77.88
337.053	76.88
337.281	79.88
337.51	76.88
337.738	102.88
337.966	83.88
338.194	86.88
338.422	76.88
338.65	82.88
338.878	81.88
339.106	93.88
339.334	86.88
339.562	86.88
339.79	73.88
340.018	76.88
340.246	94.88
340.474	75.88
340.702	85.88
340.93	90.88
341.158	78.88
341.386	95.88
341.614	68.88
341.842	89.88
342.07	78.88
342.298	77.88
342.526	76.88
342.754	76.88
342.981	94.88
343.209	96.88
343.437	103.88
343.665	78.88
343.893	88.88
344.12	81.88
344.348	96.88
344.576	73.88
344.804	88.88
345.031	93.88
345.259	82.88
345.487	95.88
345.714	93.88
345.942	83.88
346.17	82.88
346.397	86.88
346.625	80.88
346.853	103.88
347.08	97.88
347.308	86.88
347.535	99.88
347.763	88.88
347.99	87.88
348.218	85.88
348.445	71.88
348.673	79.88
348.9	92.88
349.128	93.88
349.355	91.88
349.583	85.88
349.81	80.88
350.037	84.88
350.265	87.88
350.492	90.88
350.72	96.88
350.947	65.88
351.174	93.88
351.402	86.88
351.629	94.88
351.856	83.88
352.083	83.88
352.311	82.88
352.538	92.88
352.765	93.88
352.992	98.88
353.22	95.88
353.447	93.88
353.674	82.88
353.901	94.88
354.128	82.88
354.355	84.88
354.583	72.88
354.81	91.88
355.037	78.88
355.264	88.88
355.491	102.88
355.718	82.88
355.945	79.88
356.172	90.88
356.399	86.88
356.626	92.88
356.853	96.88
357.08	92.88
357.307	93.88
357.534	88.88
357.761	74.88
357.988	91.88
358.215	76.88
358.441	86.88
358.668	84.88
358.895	86.88
359.122	77.88
359.349	72.88
359.576	74.88
359.802	78.88
360.029	81.88
360.256	93.88
360.483	80.88
360.709	89.88
360.936	85.88
361.163	82.88
361.39	84.88
361.616	79.88
361.843	84.88
362.07	92.88
362.296	74.88
362.523	96.88
362.749	69.88
362.976	97.88
363.203	81.88
363.429	85.88
363.656	80.88
363.882	94.88
364.109	80.88
364.335	98.88
364.562	84.88
364.788	72.88
365.015	83.88
365.241	80.88
365.468	94.88
365.694	85.88
365.92	90.88
366.147	78.88
366.373	82.88
366.599	81.88
366.826	96.88
367.052	77.88
367.278	99.88
367.505	91.88
367.731	105.88
367.957	91.88
368.184	90.88
368.41	89.88
368.636	90.88
368.862	99.88
369.089	88.88
369.315	90.88
369.541	79.88
369.767	84.88
369.993	93.88
370.219	80.88
370.445	92.88
370.672	79.88
370.898	95.88
371.124	91.88
371.35	85.88
371.576	93.88
371.802	68.88
372.028	83.88
372.254	88.88
372.48	89.88
372.706	89.88
372.932	74.88
373.158	78.88
373.384	102.88
373.61	91.88
373.835	78.88
374.061	96.88
374.287	93.88
374.513	86.88
374.739	92.88
374.965	96.88
375.191	85.88
375.416	89.88
375.642	80.88
375.868	93.88
376.094	79.88
376.319	78.88
376.545	94.88
376.771	92.88
376.997	80.88
377.222	86.88
377.448	85.88
377.674	80.88
377.899	99.88
378.125	87.88
378.35	75.88
378.576	78.88
378.802	95.88
379.027	80.88
379.253	82.88
379.478	96.88
379.704	86.88
379.929	85.88
380.155	103.88
380.38	77.88
380.606	73.88
380.831	86.88
381.057	89.88
381.282	90.88
381.507	81.88
381.733	95.88
381.958	93.88
382.184	101.88
382.409	94.88
382.634	94.88
382.86	78.88
383.085	78.88
383.31	87.88
383.535	90.88
383.761	83.88
383.986	99.88
384.211	89.88
384.436	103.88
384.662	93.88
384.887	86.88
385.112	90.88
385.337	77.88
385.562	80.88
385.787	95.88
386.013	100.88
386.238	91.88
386.463	93.88
386.688	83.88
386.913	90.88
387.138	92.88
387.363	90.88
387.588	96.88
387.813	85.88
388.038	88.88
388.263	99.88
388.488	95.88
388.713	86.88
388.938	88.88
389.163	88.88
389.387	74.88
389.612	97.88
389.837	82.88
390.062	94.88
390.287	100.88
390.512	81.88
390.736	88.88
390.961	79.88
391.186	90.88
391.411	90.88
391.636	93.88
391.86	89.88
392.085	98.88
392.31	100.88
392.534	85.88
392.759	94.88
392.984	94.88
393.208	86.88
393.433	100.88
393.658	90.88
393.882	87.88
394.107	86.88
394.331	96.88
394.556	85.88
394.78	88.88
395.005	73.88
395.229	101.88
395.454	91.88
395.678	92.88
395.903	108.88
396.127	97.88
396.352	84.88
396.576	90.88
396.801	84.88
397.025	86.88
397.249	95.88
397.474	99.88
397.698	83.88
397.922	94.88
398.147	84.88
398.371	88.88
398.595	96.88
398.82	89.88
399.044	86.88
399.268	96.88
399.492	91.88
399.717	86.88
399.941	90.88
400.165	89.88
400.389	86.88
400.613	92.88
400.837	85.88
401.062	87.88
401.286	101.88
401.51	86.88
401.734	105.88
401.958	100.88
402.182	101.88
402.406	79.88
402.63	84.88
402.854	93.88
403.078	87.88
403.302	92.88
403.526	81.88
403.75	95.88
403.974	98.88
404.198	86.88
404.422	92.88
404.645	99.88
404.869	93.88
405.093	88.88
405.317	94.88
405.541	101.88
405.765	87.88
405.988	94.88
406.212	98.88
406.436	93.88
406.66	97.88
406.883	93.88
407.107	96.88
407.331	95.88
407.555	98.88
407.778	94.88
408.002	89.88
408.226	82.88
408.449	97.88
408.673	100.88
408.896	96.88
409.12	91.88
409.344	103.88
409.567	87.88
409.791	88.88
410.014	97.88
410.238	97.88
410.461	89.88
410.685	97.88
410.908	94.88
411.132	95.88
411.355	88.88
411.578	86.88
411.802	90.88
412.025	82.88
412.249	82.88
412.472	84.88
412.695	96.88
412.919	102.88
413.142	106.88
413.365	105.88
413.589	95.88
413.812	78.88
414.035	102.88
414.258	96.88
414.482	94.88
414.705	91.88
414.928	90.88
415.151	96.88
415.374	99.88
415.597	98.88
415.821	97.88
416.044	98.88
416.267	106.88
416.49	86.88
416.713	108.88
416.936	95.88
417.159	95.88
417.382	87.88
417.605	93.88
417.828	94.88
418.051	93.88
418.274	96.88
418.497	84.88
418.72	101.88
418.943	105.88
419.166	103.88
419.389	97.88
419.611	100.88
419.834	88.88
420.057	95.88
420.28	89.88
420.503	102.88
420.726	103.88
420.948	109.88
421.171	91.88
421.394	99.88
421.617	102.88
421.839	99.88
422.062	107.88
422.285	90.88
422.507	107.88
422.73	95.88
422.953	102.88
423.175	89.88
423.398	92.88
423.621	88.88
423.843	108.88
424.066	103.88
424.288	89.88
424.511	98.88
424.733	94.88
424.956	107.88
425.178	106.88
425.401	88.88
425.623	104.88
425.846	104.88
426.068	104.88
426.291	103.88
426.513	97.88
426.735	84.88
426.958	118.88
427.18	96.88
427.402	110.88
427.625	96.88
427.847	88.88
428.069	84.88
428.292	95.88
428.514	98.88
428.736	77.88
428.958	100.88
429.181	100.88
429.403	97.88
429.625	94.88
429.847	106.88
430.069	96.88
430.292	90.88
430.514	84.88
430.736	112.88
430.958	105.88
431.18	92.88
431.402	85.88
431.624	94.88
431.846	90.88
432.068	94.88
432.29	86.88
432.512	92.88
432.734	93.88
432.956	95.88
433.178	91.88
433.4	90.88
433.622	98.88
433.844	107.88
434.066	97.88
434.287	85.88
434.509	84.88
434.731	95.88
434.953	104.88
435.175	97.88
435.397	94.88
435.618	91.88
435.84	88.88
436.062	95.88
436.284	102.88
436.505	96.88
436.727	103.88
436.949	108.88
437.17	98.88
437.392	116.88
437.614	84.88
437.835	86.88
438.057	98.88
438.278	84.88
438.5	88.88
438.721	93.88
438.943	98.88
439.165	106.88
439.386	99.88
439.608	107.88
439.829	101.88
440.05	104.88
440.272	108.88
440.493	107.88
440.715	88.88
440.936	110.88
441.158	104.88
441.379	102.88
441.6	102.88
441.822	102.88
442.043	107.88
442.264	89.88
442.486	105.88
442.707	106.88
442.928	84.88
443.149	88.88
443.371	91.88
443.592	97.88
443.813	120.88
444.034	115.88
444.255	100.88
444.476	104.88
444.698	97.88
444.919	99.88
445.14	239.88
445.361	159.88
445.582	103.88
445.803	92.88
446.024	107.88
446.245	96.88
446.466	101.88
446.687	111.88
446.908	109.88
447.129	107.88
447.35	107.88
447.571	94.88
447.792	118.88
448.013	104.88
448.234	116.88
448.455	91.88
448.675	92.88
448.896	98.88
449.117	104.88
449.338	101.88
449.559	101.88
449.779	98.88
450	97.88
450.221	97.88
450.442	105.88
450.662	108.88
450.883	104.88
451.104	105.88
451.324	100.88
451.545	108.88
451.766	106.88
451.986	101.88
452.207	81.88
452.428	97.88
452.648	101.88
452.869	75.88
453.089	81.88
453.31	69.88
453.53	95.88
453.751	93.88
453.971	92.88
454.192	99.88
454.412	87.88
454.633	98.88
454.853	97.88
455.073	97.88
455.294	90.88
455.514	89.88
455.734	93.88
455.955	76.88
456.175	104.88
456.395	109.88
456.616	101.88
456.836	86.88
457.056	107.88
457.276	96.88
457.497	89.88
457.717	85.88
457.937	82.88
458.157	89.88
458.377	92.88
458.598	76.88
458.818	85.88
459.038	91.88
459.258	79.88
459.478	92.88
459.698	85.88
459.918	99.88
460.138	90.88
460.358	83.88
460.578	87.88
460.798	86.88
461.018	82.88
461.238	96.88
461.458	99.88
461.678	109.88
461.898	97.88
462.118	88.88
462.338	106.88
462.558	85.88
462.777	115.88
462.997	98.88
463.217	94.88
463.437	100.88
463.657	86.88
463.876	85.88
464.096	76.88
464.316	85.88
464.536	86.88
464.755	95.88
464.975	99.88
465.195	90.88
465.414	96.88
465.634	90.88
465.854	90.88
466.073	89.88
466.293	90.88
466.512	72.88
466.732	100.88
466.951	76.88
467.171	99.88
467.391	101.88
467.61	91.88
467.829	78.88
468.049	96.88
468.268	99.88
468.488	73.88
468.707	93.88
468.927	111.88
469.146	93.88
469.365	104.88
469.585	98.88
469.804	89.88
470.023	93.88
470.243	108.88
470.462	104.88
470.681	97.88
470.901	108.88
471.12	101.88
471.339	115.88
471.558	102.88
471.777	96.88
471.997	94.88
472.216	90.88
472.435	81.88
472.654	92.88
472.873	98.88
473.092	87.88
473.311	92.88
473.53	94.88
473.749	99.88
473.968	87.88
474.187	99.88
474.406	101.88
474.625	97.88
474.844	103.88
475.063	103.88
475.282	91.88
475.501	96.88
475.72	94.88
475.939	102.88
476.158	102.88
476.377	112.88
476.596	91.88
476.814	95.88
477.033	93.88
477.252	88.88
477.471	89.88
477.69	98.88
477.908	108.88
478.127	104.88
478.346	96.88
478.564	96.88
478.783	104.88
479.002	104.88
479.22	109.88
479.439	105.88
479.658	91.88
479.876	85.88
480.095	98.88
480.313	92.88
480.532	93.88
480.751	88.88
480.969	86.88
481.188	76.88
481.406	79.88
481.624	89.88
481.843	87.88
482.061	100.88
482.28	82.88
482.498	112.88
482.717	87.88
482.935	84.88
483.153	102.88
483.372	104.88
483.59	89.88
483.808	97.88
484.027	101.88
484.245	97.88
484.463	103.88
484.681	113.88
484.9	104.88
485.118	100.88
485.336	90.88
485.554	86.88
485.772	92.88
485.99	73.88
486.209	78.88
486.427	94.88
486.645	102.88
486.863	104.88
487.081	99.88
487.299	104.88
487.517	93.88
487.735	112.88
487.953	113.88
488.171	115.88
488.389	131.88
488.607	90.88
488.825	104.88
489.043	97.88
489.261	103.88
489.479	107.88
489.696	93.88
489.914	106.88
490.132	106.88
490.35	100.88
490.568	113.88
490.786	120.88
491.003	116.88
491.221	90.88
491.439	118.88
491.657	116.88
491.874	120.88
492.092	131.88
492.31	118.88
492.527	134.88
492.745	118.88
492.963	101.88
493.18	112.88
493.398	122.88
493.615	113.88
493.833	104.88
494.05	103.88
494.268	105.88
494.485	117.88
494.703	103.88
494.92	116.88
495.138	112.88
495.355	121.88
495.573	113.88
495.79	123.88
496.008	110.88
496.225	108.88
496.442	120.88
496.66	123.88
496.877	107.88
497.094	113.88
497.312	115.88
497.529	105.88
497.746	105.88
497.963	94.88
498.181	118.88
498.398	93.88
498.615	96.88
498.832	91.88
499.049	106.88
499.267	102.88
499.484	93.88
499.701	97.88
499.918	108.88
500.135	111.88
500.352	110.88
500.569	86.88
500.786	97.88
501.003	89.88
501.22	101.88
501.437	96.88
501.654	100.88
501.871	103.88
502.088	97.88
502.305	103.88
502.522	116.88
502.739	104.88
502.956	91.88
503.172	101.88
503.389	115.88
503.606	101.88
503.823	94.88
504.04	100.88
504.256	106.88
504.473	103.88
504.69	103.88
504.907	98.88
505.123	103.88
505.34	96.88
505.557	89.88
505.773	98.88
505.99	105.88
506.207	102.88
506.423	96.88
506.64	97.88
506.856	94.88
507.073	101.88
507.289	87.88
507.506	102.88
507.722	93.88
507.939	91.88
508.155	107.88
508.372	101.88
508.588	105.88
508.805	94.88
509.021	86.88
509.238	90.88
509.454	91.88
509.67	107.88
509.887	90.88
510.103	87.88
510.319	82.88
510.536	95.88
510.752	86.88
510.968	73.88
511.184	95.88
511.401	94.88
511.617	86.88
511.833	111.88
512.049	85.88
512.265	89.88
512.481	73.88
512.698	90.88
512.914	85.88
513.13	95.88
513.346	99.88
513.562	92.88
513.778	109.88
513.994	94.88
514.21	84.88
514.426	97.88
514.642	95.88
514.858	88.88
515.074	83.88
515.29	89.88
515.506	89.88
515.721	78.88
515.937	78.88
516.153	96.88
