Data from Location3.07152019.Energy5.Lamp.07192019.3%Agarose_HRD10591_15-19-33-270.txt Node
Date: Fri Jul 19 15:19:33 EDT 2019
User: cochatt
Spectrometer: HR+D1059
Trigger mode: 1
Integration Time (sec): 1.000000E-1
Scans to average: 1
Electric dark correction enabled: true
Nonlinearity correction enabled: false
Boxcar width: 0
XAxis mode: Wavelengths
Number of Pixels in Spectrum: 2048
>>>>>Begin Spectral Data<<<<<
223.165	-14.12
223.4	-14.12
223.635	-14.12
223.869	-24.12
224.104	-22.12
224.338	-25.12
224.573	-3.12
224.808	-8.12
225.042	-0.12
225.277	-7.12
225.511	8.88
225.746	2.88
225.98	6.88
226.215	17.88
226.449	14.88
226.683	9.88
226.918	6.88
227.152	35.88
227.387	39.88
227.621	38.88
227.856	26.88
228.09	25.88
228.324	50.88
228.559	53.88
228.793	41.88
229.027	56.88
229.262	64.88
229.496	66.88
229.73	66.88
229.964	70.88
230.199	65.88
230.433	80.88
230.667	69.88
230.901	74.88
231.136	70.88
231.37	62.88
231.604	70.88
231.838	74.88
232.072	81.88
232.306	86.88
232.541	81.88
232.775	77.88
233.009	89.88
233.243	88.88
233.477	78.88
233.711	66.88
233.945	78.88
234.179	82.88
234.413	67.88
234.647	70.88
234.881	71.88
235.115	70.88
235.349	87.88
235.583	67.88
235.817	82.88
236.051	73.88
236.285	68.88
236.519	67.88
236.753	72.88
236.987	77.88
237.221	83.88
237.455	78.88
237.689	72.88
237.922	76.88
238.156	73.88
238.39	82.88
238.624	64.88
238.858	70.88
239.091	76.88
239.325	73.88
239.559	77.88
239.793	86.88
240.027	74.88
240.26	80.88
240.494	69.88
240.728	69.88
240.961	76.88
241.195	79.88
241.429	68.88
241.662	73.88
241.896	75.88
242.13	67.88
242.363	63.88
242.597	71.88
242.83	64.88
243.064	80.88
243.298	63.88
243.531	72.88
243.765	68.88
243.998	65.88
244.232	76.88
244.465	85.88
244.699	73.88
244.932	73.88
245.166	86.88
245.399	85.88
245.633	83.88
245.866	75.88
246.099	94.88
246.333	80.88
246.566	76.88
246.8	60.88
247.033	66.88
247.266	76.88
247.5	81.88
247.733	78.88
247.966	83.88
248.2	85.88
248.433	65.88
248.666	76.88
248.899	70.88
249.133	78.88
249.366	74.88
249.599	83.88
249.832	76.88
250.066	86.88
250.299	71.88
250.532	70.88
250.765	86.88
250.998	69.88
251.231	82.88
251.465	77.88
251.698	80.88
251.931	86.88
252.164	73.88
252.397	65.88
252.63	80.88
252.863	73.88
253.096	86.88
253.329	69.88
253.562	65.88
253.795	83.88
254.028	72.88
254.261	91.88
254.494	65.88
254.727	76.88
254.96	78.88
255.193	90.88
255.426	90.88
255.659	92.88
255.892	83.88
256.124	75.88
256.357	73.88
256.59	73.88
256.823	84.88
257.056	77.88
257.289	89.88
257.521	74.88
257.754	77.88
257.987	82.88
258.22	86.88
258.452	82.88
258.685	81.88
258.918	67.88
259.151	75.88
259.383	80.88
259.616	77.88
259.849	89.88
260.081	73.88
260.314	85.88
260.547	71.88
260.779	77.88
261.012	71.88
261.244	78.88
261.477	62.88
261.71	79.88
261.942	88.88
262.175	86.88
262.407	79.88
262.64	69.88
262.872	74.88
263.105	82.88
263.337	78.88
263.57	80.88
263.802	82.88
264.035	87.88
264.267	72.88
264.499	82.88
264.732	89.88
264.964	78.88
265.197	87.88
265.429	78.88
265.661	83.88
265.894	94.88
266.126	73.88
266.358	70.88
266.591	79.88
266.823	84.88
267.055	83.88
267.287	87.88
267.52	72.88
267.752	71.88
267.984	85.88
268.216	70.88
268.448	86.88
268.681	79.88
268.913	88.88
269.145	98.88
269.377	84.88
269.609	75.88
269.841	88.88
270.073	73.88
270.306	82.88
270.538	81.88
270.77	65.88
271.002	70.88
271.234	92.88
271.466	85.88
271.698	81.88
271.93	74.88
272.162	64.88
272.394	82.88
272.626	84.88
272.858	73.88
273.09	94.88
273.322	84.88
273.553	89.88
273.785	75.88
274.017	72.88
274.249	92.88
274.481	82.88
274.713	87.88
274.945	81.88
275.176	85.88
275.408	82.88
275.64	80.88
275.872	79.88
276.104	80.88
276.335	63.88
276.567	83.88
276.799	77.88
277.031	87.88
277.262	102.88
277.494	69.88
277.726	68.88
277.957	72.88
278.189	92.88
278.421	76.88
278.652	87.88
278.884	71.88
279.115	88.88
279.347	79.88
279.579	72.88
279.81	76.88
280.042	83.88
280.273	88.88
280.505	85.88
280.736	84.88
280.968	92.88
281.199	78.88
281.431	78.88
281.662	82.88
281.894	92.88
282.125	70.88
282.356	82.88
282.588	95.88
282.819	80.88
283.051	85.88
283.282	82.88
283.513	87.88
283.745	78.88
283.976	78.88
284.207	75.88
284.439	86.88
284.67	70.88
284.901	88.88
285.132	76.88
285.364	68.88
285.595	85.88
285.826	82.88
286.057	82.88
286.288	91.88
286.52	84.88
286.751	87.88
286.982	87.88
287.213	88.88
287.444	94.88
287.675	77.88
287.906	78.88
288.138	82.88
288.369	99.88
288.6	94.88
288.831	87.88
289.062	84.88
289.293	84.88
289.524	77.88
289.755	77.88
289.986	97.88
290.217	90.88
290.448	82.88
290.679	82.88
290.91	73.88
291.141	85.88
291.371	85.88
291.602	81.88
291.833	72.88
292.064	85.88
292.295	83.88
292.526	76.88
292.757	85.88
292.987	92.88
293.218	86.88
293.449	77.88
293.68	76.88
293.91	91.88
294.141	74.88
294.372	81.88
294.603	80.88
294.833	77.88
295.064	82.88
295.295	83.88
295.525	90.88
295.756	81.88
295.987	81.88
296.217	94.88
296.448	87.88
296.679	97.88
296.909	82.88
297.14	82.88
297.37	76.88
297.601	78.88
297.831	63.88
298.062	83.88
298.292	85.88
298.523	88.88
298.753	74.88
298.984	84.88
299.214	86.88
299.445	94.88
299.675	88.88
299.905	99.88
300.136	74.88
300.366	60.88
300.597	78.88
300.827	90.88
301.057	81.88
301.288	71.88
301.518	92.88
301.748	82.88
301.979	80.88
302.209	78.88
302.439	92.88
302.669	87.88
302.9	92.88
303.13	82.88
303.36	86.88
303.59	77.88
303.82	73.88
304.051	77.88
304.281	87.88
304.511	102.88
304.741	76.88
304.971	81.88
305.201	80.88
305.431	85.88
305.661	93.88
305.891	79.88
306.121	89.88
306.352	82.88
306.582	78.88
306.812	92.88
307.042	73.88
307.272	98.88
307.502	85.88
307.731	74.88
307.961	77.88
308.191	89.88
308.421	93.88
308.651	80.88
308.881	85.88
309.111	88.88
309.341	72.88
309.571	93.88
309.8	84.88
310.03	77.88
310.26	88.88
310.49	85.88
310.72	81.88
310.949	84.88
311.179	99.88
311.409	92.88
311.639	100.88
311.868	72.88
312.098	89.88
312.328	81.88
312.557	93.88
312.787	92.88
313.017	77.88
313.246	80.88
313.476	89.88
313.706	82.88
313.935	63.88
314.165	76.88
314.394	87.88
314.624	79.88
314.853	90.88
315.083	81.88
315.312	74.88
315.542	97.88
315.771	102.88
316.001	87.88
316.23	98.88
316.46	66.88
316.689	83.88
316.919	80.88
317.148	79.88
317.377	87.88
317.607	81.88
317.836	81.88
318.065	82.88
318.295	98.88
318.524	82.88
318.753	70.88
318.983	79.88
319.212	102.88
319.441	86.88
319.67	87.88
319.9	91.88
320.129	72.88
320.358	84.88
320.587	63.88
320.816	76.88
321.046	86.88
321.275	81.88
321.504	74.88
321.733	79.88
321.962	99.88
322.191	87.88
322.42	74.88
322.649	87.88
322.878	70.88
323.108	79.88
323.337	89.88
323.566	87.88
323.795	92.88
324.024	76.88
324.253	82.88
324.482	83.88
324.71	78.88
324.939	95.88
325.168	87.88
325.397	88.88
325.626	79.88
325.855	81.88
326.084	82.88
326.313	81.88
326.542	73.88
326.77	77.88
326.999	78.88
327.228	79.88
327.457	72.88
327.686	86.88
327.914	82.88
328.143	72.88
328.372	83.88
328.6	87.88
328.829	79.88
329.058	89.88
329.287	85.88
329.515	89.88
329.744	72.88
329.972	75.88
330.201	69.88
330.43	82.88
330.658	88.88
330.887	92.88
331.115	77.88
331.344	81.88
331.572	82.88
331.801	82.88
332.03	85.88
332.258	86.88
332.486	79.88
332.715	83.88
332.943	86.88
333.172	69.88
333.4	81.88
333.629	91.88
333.857	92.88
334.085	83.88
334.314	87.88
334.542	82.88
334.771	87.88
334.999	80.88
335.227	84.88
335.455	88.88
335.684	84.88
335.912	95.88
336.14	91.88
336.369	88.88
336.597	74.88
336.825	88.88
337.053	80.88
337.281	90.88
337.51	92.88
337.738	85.88
337.966	92.88
338.194	72.88
338.422	79.88
338.65	81.88
338.878	81.88
339.106	79.88
339.334	79.88
339.562	77.88
339.79	71.88
340.018	88.88
340.246	84.88
340.474	76.88
340.702	81.88
340.93	92.88
341.158	91.88
341.386	75.88
341.614	80.88
341.842	91.88
342.07	77.88
342.298	81.88
342.526	86.88
342.754	90.88
342.981	76.88
343.209	79.88
343.437	88.88
343.665	76.88
343.893	75.88
344.12	85.88
344.348	76.88
344.576	80.88
344.804	82.88
345.031	91.88
345.259	78.88
345.487	87.88
345.714	85.88
345.942	91.88
346.17	81.88
346.397	90.88
346.625	70.88
346.853	80.88
347.08	85.88
347.308	90.88
347.535	71.88
347.763	86.88
347.99	84.88
348.218	85.88
348.445	77.88
348.673	78.88
348.9	71.88
349.128	73.88
349.355	67.88
349.583	101.88
349.81	92.88
350.037	77.88
350.265	89.88
350.492	72.88
350.72	77.88
350.947	73.88
351.174	82.88
351.402	72.88
351.629	88.88
351.856	100.88
352.083	88.88
352.311	88.88
352.538	83.88
352.765	79.88
352.992	76.88
353.22	84.88
353.447	68.88
353.674	82.88
353.901	72.88
354.128	90.88
354.355	76.88
354.583	80.88
354.81	90.88
355.037	87.88
355.264	85.88
355.491	87.88
355.718	80.88
355.945	82.88
356.172	85.88
356.399	88.88
356.626	79.88
356.853	83.88
357.08	90.88
357.307	96.88
357.534	82.88
357.761	86.88
357.988	81.88
358.215	95.88
358.441	88.88
358.668	79.88
358.895	87.88
359.122	78.88
359.349	86.88
359.576	79.88
359.802	74.88
360.029	78.88
360.256	89.88
360.483	80.88
360.709	80.88
360.936	85.88
361.163	80.88
361.39	72.88
361.616	87.88
361.843	72.88
362.07	80.88
362.296	84.88
362.523	74.88
362.749	95.88
362.976	94.88
363.203	78.88
363.429	82.88
363.656	79.88
363.882	88.88
364.109	84.88
364.335	77.88
364.562	79.88
364.788	93.88
365.015	87.88
365.241	84.88
365.468	85.88
365.694	71.88
365.92	69.88
366.147	63.88
366.373	79.88
366.599	79.88
366.826	84.88
367.052	80.88
367.278	87.88
367.505	73.88
367.731	86.88
367.957	93.88
368.184	72.88
368.41	75.88
368.636	90.88
368.862	86.88
369.089	86.88
369.315	81.88
369.541	78.88
369.767	69.88
369.993	90.88
370.219	87.88
370.445	81.88
370.672	88.88
370.898	83.88
371.124	83.88
371.35	73.88
371.576	84.88
371.802	82.88
372.028	78.88
372.254	91.88
372.48	88.88
372.706	84.88
372.932	87.88
373.158	81.88
373.384	92.88
373.61	72.88
373.835	84.88
374.061	73.88
374.287	92.88
374.513	81.88
374.739	74.88
374.965	83.88
375.191	86.88
375.416	75.88
375.642	101.88
375.868	72.88
376.094	77.88
376.319	80.88
376.545	82.88
376.771	93.88
376.997	74.88
377.222	86.88
377.448	96.88
377.674	91.88
377.899	74.88
378.125	87.88
378.35	94.88
378.576	74.88
378.802	83.88
379.027	63.88
379.253	86.88
379.478	74.88
379.704	91.88
379.929	71.88
380.155	85.88
380.38	78.88
380.606	83.88
380.831	86.88
381.057	93.88
381.282	83.88
381.507	98.88
381.733	84.88
381.958	96.88
382.184	83.88
382.409	92.88
382.634	85.88
382.86	78.88
383.085	100.88
383.31	95.88
383.535	97.88
383.761	89.88
383.986	83.88
384.211	85.88
384.436	79.88
384.662	87.88
384.887	81.88
385.112	89.88
385.337	75.88
385.562	75.88
385.787	70.88
386.013	89.88
386.238	86.88
386.463	88.88
386.688	87.88
386.913	80.88
387.138	87.88
387.363	84.88
387.588	98.88
387.813	84.88
388.038	80.88
388.263	101.88
388.488	81.88
388.713	80.88
388.938	88.88
389.163	87.88
389.387	84.88
389.612	83.88
389.837	74.88
390.062	80.88
390.287	76.88
390.512	91.88
390.736	82.88
390.961	85.88
391.186	92.88
391.411	84.88
391.636	88.88
391.86	93.88
392.085	94.88
392.31	76.88
392.534	91.88
392.759	89.88
392.984	79.88
393.208	101.88
393.433	84.88
393.658	72.88
393.882	68.88
394.107	72.88
394.331	77.88
394.556	102.88
394.78	88.88
395.005	87.88
395.229	90.88
395.454	96.88
395.678	58.88
395.903	88.88
396.127	85.88
396.352	88.88
396.576	89.88
396.801	85.88
397.025	81.88
397.249	72.88
397.474	88.88
397.698	93.88
397.922	82.88
398.147	85.88
398.371	85.88
398.595	89.88
398.82	83.88
399.044	92.88
399.268	76.88
399.492	80.88
399.717	89.88
399.941	78.88
400.165	98.88
400.389	86.88
400.613	79.88
400.837	84.88
401.062	88.88
401.286	88.88
401.51	82.88
401.734	96.88
401.958	82.88
402.182	95.88
402.406	94.88
402.63	87.88
402.854	74.88
403.078	87.88
403.302	104.88
403.526	92.88
403.75	90.88
403.974	93.88
404.198	88.88
404.422	85.88
404.645	95.88
404.869	95.88
405.093	94.88
405.317	68.88
405.541	92.88
405.765	78.88
405.988	99.88
406.212	92.88
406.436	86.88
406.66	76.88
406.883	86.88
407.107	96.88
407.331	91.88
407.555	94.88
407.778	91.88
408.002	94.88
408.226	92.88
408.449	84.88
408.673	90.88
408.896	85.88
409.12	69.88
409.344	80.88
409.567	82.88
409.791	88.88
410.014	89.88
410.238	88.88
410.461	78.88
410.685	97.88
410.908	80.88
411.132	84.88
411.355	88.88
411.578	78.88
411.802	97.88
412.025	97.88
412.249	83.88
412.472	89.88
412.695	69.88
412.919	86.88
413.142	93.88
413.365	93.88
413.589	85.88
413.812	100.88
414.035	87.88
414.258	86.88
414.482	81.88
414.705	86.88
414.928	94.88
415.151	109.88
415.374	87.88
415.597	93.88
415.821	92.88
416.044	81.88
416.267	78.88
416.49	92.88
416.713	100.88
416.936	99.88
417.159	92.88
417.382	86.88
417.605	97.88
417.828	98.88
418.051	85.88
418.274	92.88
418.497	90.88
418.72	101.88
418.943	90.88
419.166	87.88
419.389	89.88
419.611	92.88
419.834	85.88
420.057	98.88
420.28	94.88
420.503	92.88
420.726	79.88
420.948	91.88
421.171	95.88
421.394	114.88
421.617	88.88
421.839	104.88
422.062	101.88
422.285	91.88
422.507	98.88
422.73	100.88
422.953	88.88
423.175	89.88
423.398	91.88
423.621	93.88
423.843	108.88
424.066	95.88
424.288	90.88
424.511	92.88
424.733	102.88
424.956	90.88
425.178	107.88
425.401	96.88
425.623	95.88
425.846	105.88
426.068	94.88
426.291	93.88
426.513	96.88
426.735	98.88
426.958	89.88
427.18	102.88
427.402	102.88
427.625	90.88
427.847	86.88
428.069	89.88
428.292	97.88
428.514	111.88
428.736	87.88
428.958	93.88
429.181	106.88
429.403	88.88
429.625	87.88
429.847	97.88
430.069	89.88
430.292	78.88
430.514	94.88
430.736	105.88
430.958	90.88
431.18	99.88
431.402	98.88
431.624	94.88
431.846	82.88
432.068	94.88
432.29	87.88
432.512	86.88
432.734	90.88
432.956	102.88
433.178	97.88
433.4	111.88
433.622	97.88
433.844	92.88
434.066	89.88
434.287	85.88
434.509	87.88
434.731	84.88
434.953	103.88
435.175	78.88
435.397	89.88
435.618	94.88
435.84	85.88
436.062	89.88
436.284	101.88
436.505	85.88
436.727	87.88
436.949	90.88
437.17	88.88
437.392	90.88
437.614	100.88
437.835	72.88
438.057	91.88
438.278	80.88
438.5	83.88
438.721	90.88
438.943	101.88
439.165	78.88
439.386	84.88
439.608	95.88
439.829	106.88
440.05	97.88
440.272	89.88
440.493	93.88
440.715	93.88
440.936	86.88
441.158	94.88
441.379	98.88
441.6	83.88
441.822	108.88
442.043	105.88
442.264	88.88
442.486	104.88
442.707	96.88
442.928	98.88
443.149	96.88
443.371	93.88
443.592	96.88
443.813	92.88
444.034	88.88
444.255	99.88
444.476	111.88
444.698	98.88
444.919	92.88
445.14	226.88
445.361	152.88
445.582	96.88
445.803	89.88
446.024	96.88
446.245	95.88
446.466	89.88
446.687	97.88
446.908	101.88
447.129	103.88
447.35	98.88
447.571	89.88
447.792	78.88
448.013	90.88
448.234	101.88
448.455	97.88
448.675	88.88
448.896	92.88
449.117	86.88
449.338	104.88
449.559	99.88
449.779	108.88
450	99.88
450.221	93.88
450.442	100.88
450.662	93.88
450.883	88.88
451.104	87.88
451.324	83.88
451.545	95.88
451.766	87.88
451.986	88.88
452.207	93.88
452.428	95.88
452.648	98.88
452.869	90.88
453.089	100.88
453.31	77.88
453.53	93.88
453.751	79.88
453.971	73.88
454.192	85.88
454.412	69.88
454.633	91.88
454.853	98.88
455.073	98.88
455.294	115.88
455.514	89.88
455.734	95.88
455.955	90.88
456.175	71.88
456.395	69.88
456.616	71.88
456.836	89.88
457.056	91.88
457.276	94.88
457.497	80.88
457.717	81.88
457.937	81.88
458.157	82.88
458.377	71.88
458.598	84.88
458.818	86.88
459.038	89.88
459.258	73.88
459.478	78.88
459.698	78.88
459.918	96.88
460.138	91.88
460.358	82.88
460.578	86.88
460.798	113.88
461.018	90.88
461.238	84.88
461.458	89.88
461.678	86.88
461.898	88.88
462.118	81.88
462.338	76.88
462.558	82.88
462.777	90.88
462.997	102.88
463.217	82.88
463.437	67.88
463.657	87.88
463.876	75.88
464.096	84.88
464.316	86.88
464.536	76.88
464.755	98.88
464.975	81.88
465.195	78.88
465.414	86.88
465.634	89.88
465.854	96.88
466.073	86.88
466.293	81.88
466.512	82.88
466.732	76.88
466.951	100.88
467.171	95.88
467.391	101.88
467.61	101.88
467.829	105.88
468.049	103.88
468.268	86.88
468.488	101.88
468.707	81.88
468.927	97.88
469.146	111.88
469.365	82.88
469.585	109.88
469.804	97.88
470.023	100.88
470.243	100.88
470.462	106.88
470.681	105.88
470.901	108.88
471.12	86.88
471.339	99.88
471.558	106.88
471.777	91.88
471.997	90.88
472.216	106.88
472.435	87.88
472.654	100.88
472.873	91.88
473.092	87.88
473.311	87.88
473.53	96.88
473.749	92.88
473.968	97.88
474.187	87.88
474.406	64.88
474.625	92.88
474.844	92.88
475.063	82.88
475.282	89.88
475.501	74.88
475.72	90.88
475.939	105.88
476.158	81.88
476.377	97.88
476.596	82.88
476.814	78.88
477.033	82.88
477.252	91.88
477.471	95.88
477.69	94.88
477.908	88.88
478.127	97.88
478.346	107.88
478.564	116.88
478.783	103.88
479.002	92.88
479.22	93.88
479.439	112.88
479.658	85.88
479.876	99.88
480.095	93.88
480.313	87.88
480.532	89.88
480.751	100.88
480.969	85.88
481.188	85.88
481.406	87.88
481.624	94.88
481.843	93.88
482.061	84.88
482.28	84.88
482.498	91.88
482.717	110.88
482.935	85.88
483.153	104.88
483.372	96.88
483.59	109.88
483.808	92.88
484.027	90.88
484.245	110.88
484.463	100.88
484.681	100.88
484.9	103.88
485.118	100.88
485.336	86.88
485.554	76.88
485.772	84.88
485.99	89.88
486.209	88.88
486.427	89.88
486.645	99.88
486.863	85.88
487.081	92.88
487.299	74.88
487.517	95.88
487.735	103.88
487.953	124.88
488.171	105.88
488.389	116.88
488.607	98.88
488.825	96.88
489.043	102.88
489.261	97.88
489.479	111.88
489.696	94.88
489.914	102.88
490.132	99.88
490.35	98.88
490.568	104.88
490.786	103.88
491.003	100.88
491.221	105.88
491.439	119.88
491.657	106.88
491.874	111.88
492.092	117.88
492.31	120.88
492.527	127.88
492.745	108.88
492.963	125.88
493.18	112.88
493.398	100.88
493.615	111.88
493.833	103.88
494.05	98.88
494.268	103.88
494.485	89.88
494.703	92.88
494.92	120.88
495.138	106.88
495.355	108.88
495.573	101.88
495.79	101.88
496.008	117.88
496.225	109.88
496.442	105.88
496.66	101.88
496.877	114.88
497.094	116.88
497.312	112.88
497.529	98.88
497.746	105.88
497.963	92.88
498.181	89.88
498.398	83.88
498.615	89.88
498.832	83.88
499.049	90.88
499.267	93.88
499.484	89.88
499.701	100.88
499.918	92.88
500.135	98.88
500.352	99.88
500.569	90.88
500.786	116.88
501.003	90.88
501.22	98.88
501.437	86.88
501.654	94.88
501.871	97.88
502.088	99.88
502.305	99.88
502.522	89.88
502.739	83.88
502.956	99.88
503.172	96.88
503.389	98.88
503.606	101.88
503.823	83.88
504.04	100.88
504.256	97.88
504.473	104.88
504.69	76.88
504.907	100.88
505.123	94.88
505.34	102.88
505.557	87.88
505.773	91.88
505.99	86.88
506.207	86.88
506.423	103.88
506.64	90.88
506.856	83.88
507.073	101.88
507.289	88.88
507.506	91.88
507.722	84.88
507.939	95.88
508.155	85.88
508.372	91.88
508.588	93.88
508.805	100.88
509.021	93.88
509.238	83.88
509.454	81.88
509.67	81.88
509.887	90.88
510.103	89.88
510.319	89.88
510.536	83.88
510.752	81.88
510.968	75.88
511.184	84.88
511.401	69.88
511.617	84.88
511.833	78.88
512.049	86.88
512.265	76.88
512.481	77.88
512.698	77.88
512.914	95.88
513.13	93.88
513.346	94.88
513.562	81.88
513.778	98.88
513.994	87.88
514.21	86.88
514.426	69.88
514.642	78.88
514.858	83.88
515.074	93.88
515.29	83.88
515.506	81.88
515.721	81.88
515.937	94.88
516.153	83.88
516.369	76.88
516.585	73.88
516.801	77.88
517.016	78.88
517.232	85.88
517.448	88.88
517.664	81.88
