Data from Location3.07152019.Energy5.Lamp.07192019.3%Agarose_HRD10591_15-19-34-270.txt Node
Date: Fri Jul 19 15:19:34 EDT 2019
User: cochatt
Spectrometer: HR+D1059
Trigger mode: 1
Integration Time (sec): 1.000000E-1
Scans to average: 1
Electric dark correction enabled: true
Nonlinearity correction enabled: false
Boxcar width: 0
XAxis mode: Wavelengths
Number of Pixels in Spectrum: 2048
>>>>>Begin Spectral Data<<<<<
223.165	-12.88
223.4	-12.88
223.635	-12.88
223.869	-20.88
224.104	-13.88
224.338	-18.88
224.573	-4.88
224.808	-21.88
225.042	-16.88
225.277	-12.88
225.511	2.12
225.746	1.12
225.98	12.12
226.215	19.12
226.449	17.12
226.683	26.12
226.918	15.12
227.152	30.12
227.387	46.12
227.621	42.12
227.856	41.12
228.09	50.12
228.324	43.12
228.559	46.12
228.793	55.12
229.027	61.12
229.262	57.12
229.496	72.12
229.73	62.12
229.964	65.12
230.199	73.12
230.433	76.12
230.667	74.12
230.901	71.12
231.136	83.12
231.37	79.12
231.604	85.12
231.838	78.12
232.072	75.12
232.306	73.12
232.541	82.12
232.775	83.12
233.009	73.12
233.243	75.12
233.477	73.12
233.711	99.12
233.945	86.12
234.179	84.12
234.413	81.12
234.647	79.12
234.881	64.12
235.115	78.12
235.349	91.12
235.583	79.12
235.817	88.12
236.051	71.12
236.285	80.12
236.519	79.12
236.753	81.12
236.987	74.12
237.221	80.12
237.455	63.12
237.689	74.12
237.922	76.12
238.156	72.12
238.39	79.12
238.624	65.12
238.858	74.12
239.091	79.12
239.325	69.12
239.559	69.12
239.793	71.12
240.027	89.12
240.26	73.12
240.494	69.12
240.728	75.12
240.961	78.12
241.195	70.12
241.429	62.12
241.662	75.12
241.896	71.12
242.13	72.12
242.363	74.12
242.597	87.12
242.83	87.12
243.064	78.12
243.298	90.12
243.531	76.12
243.765	79.12
243.998	70.12
244.232	81.12
244.465	86.12
244.699	83.12
244.932	97.12
245.166	82.12
245.399	82.12
245.633	91.12
245.866	86.12
246.099	61.12
246.333	82.12
246.566	86.12
246.8	90.12
247.033	78.12
247.266	72.12
247.5	74.12
247.733	73.12
247.966	79.12
248.2	90.12
248.433	74.12
248.666	80.12
248.899	82.12
249.133	83.12
249.366	76.12
249.599	84.12
249.832	87.12
250.066	70.12
250.299	83.12
250.532	65.12
250.765	65.12
250.998	72.12
251.231	87.12
251.465	89.12
251.698	68.12
251.931	82.12
252.164	67.12
252.397	79.12
252.63	85.12
252.863	82.12
253.096	67.12
253.329	79.12
253.562	85.12
253.795	77.12
254.028	78.12
254.261	79.12
254.494	77.12
254.727	74.12
254.96	86.12
255.193	85.12
255.426	65.12
255.659	96.12
255.892	56.12
256.124	72.12
256.357	75.12
256.59	84.12
256.823	75.12
257.056	91.12
257.289	74.12
257.521	76.12
257.754	79.12
257.987	94.12
258.22	82.12
258.452	83.12
258.685	92.12
258.918	76.12
259.151	67.12
259.383	87.12
259.616	80.12
259.849	79.12
260.081	74.12
260.314	84.12
260.547	86.12
260.779	74.12
261.012	71.12
261.244	78.12
261.477	91.12
261.71	87.12
261.942	77.12
262.175	83.12
262.407	87.12
262.64	77.12
262.872	84.12
263.105	79.12
263.337	81.12
263.57	69.12
263.802	67.12
264.035	80.12
264.267	82.12
264.499	71.12
264.732	91.12
264.964	97.12
265.197	83.12
265.429	71.12
265.661	75.12
265.894	89.12
266.126	90.12
266.358	74.12
266.591	89.12
266.823	67.12
267.055	81.12
267.287	82.12
267.52	92.12
267.752	87.12
267.984	83.12
268.216	71.12
268.448	96.12
268.681	72.12
268.913	76.12
269.145	81.12
269.377	79.12
269.609	77.12
269.841	83.12
270.073	83.12
270.306	84.12
270.538	78.12
270.77	85.12
271.002	80.12
271.234	86.12
271.466	88.12
271.698	74.12
271.93	73.12
272.162	83.12
272.394	79.12
272.626	93.12
272.858	79.12
273.09	68.12
273.322	80.12
273.553	74.12
273.785	85.12
274.017	75.12
274.249	74.12
274.481	79.12
274.713	81.12
274.945	91.12
275.176	79.12
275.408	92.12
275.64	91.12
275.872	86.12
276.104	86.12
276.335	86.12
276.567	76.12
276.799	77.12
277.031	86.12
277.262	75.12
277.494	88.12
277.726	89.12
277.957	82.12
278.189	75.12
278.421	81.12
278.652	78.12
278.884	86.12
279.115	84.12
279.347	87.12
279.579	96.12
279.81	71.12
280.042	88.12
280.273	76.12
280.505	66.12
280.736	69.12
280.968	91.12
281.199	81.12
281.431	69.12
281.662	68.12
281.894	83.12
282.125	79.12
282.356	86.12
282.588	78.12
282.819	80.12
283.051	77.12
283.282	76.12
283.513	88.12
283.745	88.12
283.976	89.12
284.207	87.12
284.439	86.12
284.67	89.12
284.901	82.12
285.132	79.12
285.364	83.12
285.595	72.12
285.826	86.12
286.057	81.12
286.288	71.12
286.52	80.12
286.751	83.12
286.982	86.12
287.213	97.12
287.444	69.12
287.675	87.12
287.906	93.12
288.138	91.12
288.369	71.12
288.6	75.12
288.831	95.12
289.062	84.12
289.293	88.12
289.524	98.12
289.755	74.12
289.986	77.12
290.217	86.12
290.448	70.12
290.679	81.12
290.91	79.12
291.141	85.12
291.371	91.12
291.602	84.12
291.833	70.12
292.064	83.12
292.295	93.12
292.526	79.12
292.757	86.12
292.987	94.12
293.218	83.12
293.449	91.12
293.68	92.12
293.91	82.12
294.141	80.12
294.372	85.12
294.603	90.12
294.833	88.12
295.064	90.12
295.295	76.12
295.525	98.12
295.756	103.12
295.987	79.12
296.217	79.12
296.448	81.12
296.679	79.12
296.909	89.12
297.14	77.12
297.37	87.12
297.601	92.12
297.831	83.12
298.062	86.12
298.292	61.12
298.523	91.12
298.753	91.12
298.984	84.12
299.214	87.12
299.445	91.12
299.675	82.12
299.905	88.12
300.136	86.12
300.366	82.12
300.597	89.12
300.827	90.12
301.057	78.12
301.288	85.12
301.518	95.12
301.748	82.12
301.979	86.12
302.209	83.12
302.439	82.12
302.669	79.12
302.9	68.12
303.13	84.12
303.36	80.12
303.59	75.12
303.82	77.12
304.051	71.12
304.281	81.12
304.511	74.12
304.741	79.12
304.971	85.12
305.201	88.12
305.431	71.12
305.661	87.12
305.891	90.12
306.121	96.12
306.352	83.12
306.582	74.12
306.812	86.12
307.042	110.12
307.272	77.12
307.502	84.12
307.731	85.12
307.961	93.12
308.191	99.12
308.421	90.12
308.651	84.12
308.881	97.12
309.111	74.12
309.341	88.12
309.571	70.12
309.8	90.12
310.03	99.12
310.26	70.12
310.49	86.12
310.72	81.12
310.949	89.12
311.179	89.12
311.409	86.12
311.639	79.12
311.868	96.12
312.098	87.12
312.328	90.12
312.557	86.12
312.787	76.12
313.017	90.12
313.246	88.12
313.476	84.12
313.706	86.12
313.935	91.12
314.165	96.12
314.394	83.12
314.624	74.12
314.853	81.12
315.083	88.12
315.312	95.12
315.542	91.12
315.771	83.12
316.001	85.12
316.23	93.12
316.46	73.12
316.689	81.12
316.919	81.12
317.148	84.12
317.377	92.12
317.607	79.12
317.836	97.12
318.065	102.12
318.295	95.12
318.524	81.12
318.753	73.12
318.983	87.12
319.212	78.12
319.441	79.12
319.67	82.12
319.9	95.12
320.129	79.12
320.358	87.12
320.587	83.12
320.816	79.12
321.046	82.12
321.275	95.12
321.504	86.12
321.733	95.12
321.962	88.12
322.191	78.12
322.42	75.12
322.649	83.12
322.878	73.12
323.108	86.12
323.337	90.12
323.566	82.12
323.795	70.12
324.024	74.12
324.253	85.12
324.482	87.12
324.71	81.12
324.939	90.12
325.168	75.12
325.397	73.12
325.626	91.12
325.855	74.12
326.084	92.12
326.313	85.12
326.542	86.12
326.77	72.12
326.999	81.12
327.228	72.12
327.457	85.12
327.686	86.12
327.914	78.12
328.143	85.12
328.372	79.12
328.6	98.12
328.829	82.12
329.058	85.12
329.287	92.12
329.515	82.12
329.744	96.12
329.972	90.12
330.201	95.12
330.43	82.12
330.658	85.12
330.887	80.12
331.115	91.12
331.344	87.12
331.572	89.12
331.801	81.12
332.03	79.12
332.258	72.12
332.486	75.12
332.715	87.12
332.943	83.12
333.172	98.12
333.4	91.12
333.629	76.12
333.857	82.12
334.085	73.12
334.314	77.12
334.542	85.12
334.771	95.12
334.999	81.12
335.227	82.12
335.455	97.12
335.684	73.12
335.912	82.12
336.14	88.12
336.369	94.12
336.597	95.12
336.825	79.12
337.053	83.12
337.281	85.12
337.51	87.12
337.738	98.12
337.966	77.12
338.194	86.12
338.422	91.12
338.65	85.12
338.878	92.12
339.106	77.12
339.334	81.12
339.562	78.12
339.79	68.12
340.018	86.12
340.246	77.12
340.474	75.12
340.702	78.12
340.93	80.12
341.158	88.12
341.386	82.12
341.614	75.12
341.842	87.12
342.07	87.12
342.298	86.12
342.526	83.12
342.754	75.12
342.981	84.12
343.209	89.12
343.437	89.12
343.665	83.12
343.893	89.12
344.12	90.12
344.348	95.12
344.576	80.12
344.804	103.12
345.031	82.12
345.259	79.12
345.487	87.12
345.714	83.12
345.942	74.12
346.17	86.12
346.397	87.12
346.625	71.12
346.853	89.12
347.08	74.12
347.308	91.12
347.535	67.12
347.763	88.12
347.99	87.12
348.218	82.12
348.445	81.12
348.673	74.12
348.9	80.12
349.128	93.12
349.355	67.12
349.583	79.12
349.81	79.12
350.037	72.12
350.265	88.12
350.492	71.12
350.72	74.12
350.947	80.12
351.174	76.12
351.402	78.12
351.629	71.12
351.856	79.12
352.083	67.12
352.311	82.12
352.538	79.12
352.765	85.12
352.992	83.12
353.22	90.12
353.447	88.12
353.674	90.12
353.901	95.12
354.128	89.12
354.355	79.12
354.583	79.12
354.81	82.12
355.037	75.12
355.264	86.12
355.491	88.12
355.718	90.12
355.945	88.12
356.172	89.12
356.399	81.12
356.626	86.12
356.853	80.12
357.08	86.12
357.307	90.12
357.534	75.12
357.761	69.12
357.988	75.12
358.215	74.12
358.441	77.12
358.668	71.12
358.895	98.12
359.122	71.12
359.349	68.12
359.576	93.12
359.802	73.12
360.029	92.12
360.256	75.12
360.483	82.12
360.709	90.12
360.936	89.12
361.163	73.12
361.39	82.12
361.616	79.12
361.843	62.12
362.07	89.12
362.296	73.12
362.523	85.12
362.749	70.12
362.976	76.12
363.203	72.12
363.429	86.12
363.656	93.12
363.882	68.12
364.109	65.12
364.335	74.12
364.562	78.12
364.788	73.12
365.015	79.12
365.241	72.12
365.468	80.12
365.694	80.12
365.92	84.12
366.147	90.12
366.373	77.12
366.599	76.12
366.826	73.12
367.052	69.12
367.278	79.12
367.505	85.12
367.731	83.12
367.957	92.12
368.184	78.12
368.41	70.12
368.636	87.12
368.862	80.12
369.089	87.12
369.315	94.12
369.541	78.12
369.767	81.12
369.993	81.12
370.219	92.12
370.445	89.12
370.672	83.12
370.898	75.12
371.124	93.12
371.35	81.12
371.576	74.12
371.802	91.12
372.028	87.12
372.254	94.12
372.48	79.12
372.706	82.12
372.932	72.12
373.158	85.12
373.384	91.12
373.61	87.12
373.835	87.12
374.061	82.12
374.287	86.12
374.513	71.12
374.739	70.12
374.965	81.12
375.191	81.12
375.416	76.12
375.642	87.12
375.868	75.12
376.094	73.12
376.319	96.12
376.545	99.12
376.771	80.12
376.997	86.12
377.222	90.12
377.448	84.12
377.674	76.12
377.899	73.12
378.125	82.12
378.35	81.12
378.576	79.12
378.802	82.12
379.027	88.12
379.253	91.12
379.478	89.12
379.704	81.12
379.929	94.12
380.155	73.12
380.38	74.12
380.606	78.12
380.831	87.12
381.057	86.12
381.282	63.12
381.507	85.12
381.733	103.12
381.958	76.12
382.184	86.12
382.409	80.12
382.634	87.12
382.86	80.12
383.085	67.12
383.31	61.12
383.535	86.12
383.761	74.12
383.986	78.12
384.211	79.12
384.436	83.12
384.662	79.12
384.887	67.12
385.112	65.12
385.337	89.12
385.562	83.12
385.787	70.12
386.013	100.12
386.238	89.12
386.463	95.12
386.688	82.12
386.913	76.12
387.138	73.12
387.363	81.12
387.588	70.12
387.813	71.12
388.038	78.12
388.263	89.12
388.488	58.12
388.713	86.12
388.938	80.12
389.163	89.12
389.387	91.12
389.612	73.12
389.837	97.12
390.062	99.12
390.287	79.12
390.512	81.12
390.736	88.12
390.961	72.12
391.186	79.12
391.411	85.12
391.636	102.12
391.86	86.12
392.085	91.12
392.31	85.12
392.534	70.12
392.759	95.12
392.984	95.12
393.208	90.12
393.433	85.12
393.658	86.12
393.882	82.12
394.107	70.12
394.331	96.12
394.556	85.12
394.78	92.12
395.005	90.12
395.229	77.12
395.454	94.12
395.678	81.12
395.903	79.12
396.127	89.12
396.352	92.12
396.576	86.12
396.801	78.12
397.025	79.12
397.249	81.12
397.474	83.12
397.698	94.12
397.922	83.12
398.147	88.12
398.371	84.12
398.595	82.12
398.82	80.12
399.044	82.12
399.268	75.12
399.492	99.12
399.717	78.12
399.941	88.12
400.165	80.12
400.389	85.12
400.613	94.12
400.837	90.12
401.062	84.12
401.286	91.12
401.51	81.12
401.734	81.12
401.958	89.12
402.182	83.12
402.406	87.12
402.63	92.12
402.854	86.12
403.078	83.12
403.302	89.12
403.526	88.12
403.75	82.12
403.974	77.12
404.198	96.12
404.422	100.12
404.645	88.12
404.869	104.12
405.093	85.12
405.317	79.12
405.541	94.12
405.765	63.12
405.988	89.12
406.212	90.12
406.436	96.12
406.66	93.12
406.883	73.12
407.107	99.12
407.331	91.12
407.555	90.12
407.778	87.12
408.002	89.12
408.226	86.12
408.449	75.12
408.673	90.12
408.896	84.12
409.12	95.12
409.344	90.12
409.567	93.12
409.791	87.12
410.014	88.12
410.238	81.12
410.461	101.12
410.685	84.12
410.908	96.12
411.132	105.12
411.355	85.12
411.578	82.12
411.802	85.12
412.025	93.12
412.249	80.12
412.472	81.12
412.695	84.12
412.919	89.12
413.142	85.12
413.365	79.12
413.589	89.12
413.812	91.12
414.035	91.12
414.258	84.12
414.482	100.12
414.705	85.12
414.928	87.12
415.151	90.12
415.374	85.12
415.597	77.12
415.821	80.12
416.044	89.12
416.267	93.12
416.49	92.12
416.713	107.12
416.936	80.12
417.159	78.12
417.382	87.12
417.605	86.12
417.828	94.12
418.051	84.12
418.274	88.12
418.497	93.12
418.72	88.12
418.943	72.12
419.166	95.12
419.389	99.12
419.611	86.12
419.834	86.12
420.057	90.12
420.28	82.12
420.503	89.12
420.726	88.12
420.948	75.12
421.171	75.12
421.394	98.12
421.617	91.12
421.839	95.12
422.062	95.12
422.285	90.12
422.507	82.12
422.73	112.12
422.953	100.12
423.175	94.12
423.398	79.12
423.621	89.12
423.843	98.12
424.066	107.12
424.288	93.12
424.511	115.12
424.733	96.12
424.956	95.12
425.178	98.12
425.401	90.12
425.623	105.12
425.846	97.12
426.068	94.12
426.291	95.12
426.513	91.12
426.735	92.12
426.958	101.12
427.18	88.12
427.402	113.12
427.625	87.12
427.847	94.12
428.069	87.12
428.292	88.12
428.514	86.12
428.736	102.12
428.958	90.12
429.181	89.12
429.403	94.12
429.625	90.12
429.847	91.12
430.069	92.12
430.292	90.12
430.514	83.12
430.736	91.12
430.958	96.12
431.18	84.12
431.402	79.12
431.624	97.12
431.846	89.12
432.068	90.12
432.29	81.12
432.512	79.12
432.734	84.12
432.956	96.12
433.178	100.12
433.4	97.12
433.622	111.12
433.844	94.12
434.066	83.12
434.287	95.12
434.509	87.12
434.731	98.12
434.953	85.12
435.175	83.12
435.397	93.12
435.618	96.12
435.84	89.12
436.062	99.12
436.284	82.12
436.505	90.12
436.727	81.12
436.949	90.12
437.17	92.12
437.392	93.12
437.614	86.12
437.835	72.12
438.057	88.12
438.278	90.12
438.5	101.12
438.721	87.12
438.943	86.12
439.165	104.12
439.386	104.12
439.608	111.12
439.829	89.12
440.05	89.12
440.272	93.12
440.493	100.12
440.715	91.12
440.936	103.12
441.158	118.12
441.379	89.12
441.6	98.12
441.822	94.12
442.043	102.12
442.264	92.12
442.486	98.12
442.707	93.12
442.928	98.12
443.149	98.12
443.371	86.12
443.592	107.12
443.813	90.12
444.034	101.12
444.255	105.12
444.476	99.12
444.698	89.12
444.919	100.12
445.14	241.12
445.361	162.12
445.582	97.12
445.803	111.12
446.024	87.12
446.245	100.12
446.466	99.12
446.687	110.12
446.908	95.12
447.129	102.12
447.35	101.12
447.571	89.12
447.792	106.12
448.013	102.12
448.234	98.12
448.455	96.12
448.675	84.12
448.896	102.12
449.117	98.12
449.338	103.12
449.559	91.12
449.779	83.12
450	99.12
450.221	90.12
450.442	91.12
450.662	93.12
450.883	91.12
451.104	98.12
451.324	93.12
451.545	79.12
451.766	85.12
451.986	106.12
452.207	90.12
452.428	100.12
452.648	92.12
452.869	72.12
453.089	79.12
453.31	74.12
453.53	91.12
453.751	92.12
453.971	92.12
454.192	87.12
454.412	81.12
454.633	93.12
454.853	96.12
455.073	85.12
455.294	91.12
455.514	102.12
455.734	87.12
455.955	84.12
456.175	81.12
456.395	85.12
456.616	85.12
456.836	96.12
457.056	90.12
457.276	79.12
457.497	88.12
457.717	96.12
457.937	93.12
458.157	68.12
458.377	95.12
458.598	87.12
458.818	79.12
459.038	77.12
459.258	80.12
459.478	72.12
459.698	81.12
459.918	89.12
460.138	82.12
460.358	92.12
460.578	98.12
460.798	96.12
461.018	101.12
461.238	94.12
461.458	98.12
461.678	81.12
461.898	80.12
462.118	81.12
462.338	110.12
462.558	85.12
462.777	95.12
462.997	74.12
463.217	91.12
463.437	95.12
463.657	92.12
463.876	85.12
464.096	80.12
464.316	79.12
464.536	91.12
464.755	88.12
464.975	96.12
465.195	103.12
465.414	95.12
465.634	100.12
465.854	95.12
466.073	89.12
466.293	77.12
466.512	89.12
466.732	85.12
466.951	95.12
467.171	90.12
467.391	84.12
467.61	107.12
467.829	84.12
468.049	87.12
468.268	89.12
468.488	94.12
468.707	96.12
468.927	97.12
469.146	90.12
469.365	93.12
469.585	97.12
469.804	90.12
470.023	86.12
470.243	89.12
470.462	103.12
470.681	97.12
470.901	85.12
471.12	89.12
471.339	99.12
471.558	100.12
471.777	84.12
471.997	104.12
472.216	78.12
472.435	92.12
472.654	88.12
472.873	88.12
473.092	74.12
473.311	107.12
473.53	78.12
473.749	82.12
473.968	93.12
474.187	93.12
474.406	92.12
474.625	95.12
474.844	100.12
475.063	94.12
475.282	102.12
475.501	86.12
475.72	92.12
475.939	93.12
476.158	98.12
476.377	99.12
476.596	85.12
476.814	82.12
477.033	83.12
477.252	98.12
477.471	89.12
477.69	100.12
477.908	90.12
478.127	109.12
478.346	84.12
478.564	94.12
478.783	97.12
479.002	94.12
479.22	97.12
479.439	86.12
479.658	95.12
479.876	93.12
480.095	84.12
480.313	86.12
480.532	100.12
480.751	86.12
480.969	83.12
481.188	81.12
481.406	79.12
481.624	72.12
481.843	86.12
482.061	89.12
482.28	89.12
482.498	96.12
482.717	94.12
482.935	95.12
483.153	101.12
483.372	97.12
483.59	113.12
483.808	99.12
484.027	86.12
484.245	88.12
484.463	102.12
484.681	105.12
484.9	113.12
485.118	101.12
485.336	101.12
485.554	79.12
485.772	89.12
485.99	89.12
486.209	80.12
486.427	98.12
486.645	81.12
486.863	91.12
487.081	106.12
487.299	111.12
487.517	107.12
487.735	105.12
487.953	106.12
488.171	95.12
488.389	112.12
488.607	96.12
488.825	96.12
489.043	106.12
489.261	107.12
489.479	86.12
489.696	88.12
489.914	94.12
490.132	102.12
490.35	116.12
490.568	110.12
490.786	101.12
491.003	104.12
491.221	113.12
491.439	105.12
491.657	123.12
491.874	117.12
492.092	128.12
492.31	132.12
492.527	122.12
492.745	127.12
492.963	122.12
493.18	115.12
493.398	98.12
493.615	105.12
493.833	87.12
494.05	100.12
494.268	98.12
494.485	113.12
494.703	112.12
494.92	122.12
495.138	106.12
495.355	109.12
495.573	125.12
495.79	104.12
496.008	113.12
496.225	112.12
496.442	113.12
496.66	120.12
496.877	106.12
497.094	113.12
497.312	105.12
497.529	111.12
497.746	100.12
497.963	100.12
498.181	97.12
498.398	106.12
498.615	104.12
498.832	79.12
499.049	76.12
499.267	103.12
499.484	94.12
499.701	100.12
499.918	90.12
500.135	87.12
500.352	102.12
500.569	90.12
500.786	92.12
501.003	90.12
501.22	91.12
501.437	93.12
501.654	93.12
501.871	98.12
502.088	107.12
502.305	107.12
502.522	98.12
502.739	86.12
502.956	96.12
503.172	95.12
503.389	100.12
503.606	90.12
503.823	94.12
504.04	84.12
504.256	87.12
504.473	95.12
504.69	89.12
504.907	97.12
505.123	102.12
505.34	100.12
505.557	97.12
505.773	111.12
505.99	101.12
506.207	103.12
506.423	87.12
506.64	98.12
506.856	96.12
507.073	97.12
507.289	91.12
507.506	87.12
507.722	93.12
507.939	85.12
508.155	85.12
508.372	90.12
508.588	81.12
508.805	103.12
509.021	83.12
509.238	86.12
509.454	86.12
509.67	91.12
509.887	80.12
510.103	78.12
510.319	97.12
510.536	86.12
510.752	91.12
510.968	75.12
511.184	94.12
511.401	85.12
511.617	85.12
511.833	76.12
512.049	83.12
512.265	82.12
512.481	94.12
512.698	94.12
512.914	88.12
513.13	84.12
513.346	91.12
513.562	83.12
513.778	93.12
513.994	85.12
514.21	72.12
514.426	81.12
514.642	72.12
514.858	95.12
515.074	89.12
515.29	88.12
515.506	58.12
515.721	83.12
515.937	96.12
516.153	86.12
516.369	88.12
516.585	95.12
516.801	80.12
517.016	86.12
517.232	95.12
517.448	85.12
517.664	95.12
