Data from Location3.07152019.Energy5.Lamp.07192019.3%Agarose_HRD10591_15-18-50-269.txt Node
Date: Fri Jul 19 15:18:50 EDT 2019
User: cochatt
Spectrometer: HR+D1059
Trigger mode: 1
Integration Time (sec): 1.000000E-1
Scans to average: 1
Electric dark correction enabled: true
Nonlinearity correction enabled: false
Boxcar width: 0
XAxis mode: Wavelengths
Number of Pixels in Spectrum: 2048
>>>>>Begin Spectral Data<<<<<
223.165	-28.88
223.4	-28.88
223.635	-28.88
223.869	-18.88
224.104	-15.88
224.338	-14.88
224.573	-17.88
224.808	-25.88
225.042	-4.88
225.277	-1.88
225.511	1.12
225.746	1.12
225.98	14.12
226.215	21.12
226.449	8.12
226.683	34.12
226.918	23.12
227.152	26.12
227.387	31.12
227.621	46.12
227.856	38.12
228.09	40.12
228.324	47.12
228.559	55.12
228.793	69.12
229.027	64.12
229.262	81.12
229.496	57.12
229.73	71.12
229.964	73.12
230.199	68.12
230.433	60.12
230.667	71.12
230.901	68.12
231.136	77.12
231.37	90.12
231.604	75.12
231.838	84.12
232.072	84.12
232.306	73.12
232.541	96.12
232.775	87.12
233.009	108.12
233.243	103.12
233.477	97.12
233.711	64.12
233.945	81.12
234.179	82.12
234.413	78.12
234.647	83.12
234.881	84.12
235.115	72.12
235.349	77.12
235.583	92.12
235.817	72.12
236.051	86.12
236.285	91.12
236.519	86.12
236.753	79.12
236.987	84.12
237.221	89.12
237.455	73.12
237.689	75.12
237.922	73.12
238.156	86.12
238.39	71.12
238.624	64.12
238.858	69.12
239.091	77.12
239.325	81.12
239.559	79.12
239.793	84.12
240.027	84.12
240.26	71.12
240.494	79.12
240.728	75.12
240.961	81.12
241.195	80.12
241.429	62.12
241.662	84.12
241.896	70.12
242.13	86.12
242.363	80.12
242.597	57.12
242.83	79.12
243.064	65.12
243.298	76.12
243.531	78.12
243.765	71.12
243.998	69.12
244.232	88.12
244.465	73.12
244.699	78.12
244.932	69.12
245.166	70.12
245.399	85.12
245.633	79.12
245.866	75.12
246.099	75.12
246.333	84.12
246.566	92.12
246.8	75.12
247.033	92.12
247.266	84.12
247.5	84.12
247.733	81.12
247.966	80.12
248.2	79.12
248.433	81.12
248.666	76.12
248.899	86.12
249.133	89.12
249.366	85.12
249.599	92.12
249.832	63.12
250.066	83.12
250.299	72.12
250.532	80.12
250.765	80.12
250.998	75.12
251.231	70.12
251.465	73.12
251.698	86.12
251.931	81.12
252.164	93.12
252.397	88.12
252.63	84.12
252.863	81.12
253.096	79.12
253.329	92.12
253.562	85.12
253.795	80.12
254.028	93.12
254.261	92.12
254.494	89.12
254.727	81.12
254.96	77.12
255.193	83.12
255.426	86.12
255.659	76.12
255.892	74.12
256.124	94.12
256.357	84.12
256.59	78.12
256.823	79.12
257.056	86.12
257.289	83.12
257.521	79.12
257.754	85.12
257.987	71.12
258.22	76.12
258.452	84.12
258.685	92.12
258.918	87.12
259.151	83.12
259.383	94.12
259.616	88.12
259.849	74.12
260.081	73.12
260.314	81.12
260.547	72.12
260.779	77.12
261.012	84.12
261.244	86.12
261.477	81.12
261.71	86.12
261.942	75.12
262.175	89.12
262.407	84.12
262.64	85.12
262.872	86.12
263.105	75.12
263.337	77.12
263.57	85.12
263.802	60.12
264.035	82.12
264.267	81.12
264.499	71.12
264.732	92.12
264.964	80.12
265.197	74.12
265.429	91.12
265.661	88.12
265.894	85.12
266.126	90.12
266.358	78.12
266.591	78.12
266.823	81.12
267.055	77.12
267.287	93.12
267.52	88.12
267.752	91.12
267.984	80.12
268.216	78.12
268.448	80.12
268.681	74.12
268.913	92.12
269.145	76.12
269.377	79.12
269.609	83.12
269.841	94.12
270.073	92.12
270.306	87.12
270.538	81.12
270.77	72.12
271.002	73.12
271.234	81.12
271.466	78.12
271.698	82.12
271.93	95.12
272.162	83.12
272.394	77.12
272.626	97.12
272.858	77.12
273.09	80.12
273.322	87.12
273.553	90.12
273.785	80.12
274.017	90.12
274.249	92.12
274.481	80.12
274.713	86.12
274.945	83.12
275.176	95.12
275.408	89.12
275.64	78.12
275.872	82.12
276.104	83.12
276.335	74.12
276.567	71.12
276.799	78.12
277.031	81.12
277.262	87.12
277.494	87.12
277.726	78.12
277.957	93.12
278.189	80.12
278.421	76.12
278.652	77.12
278.884	75.12
279.115	75.12
279.347	85.12
279.579	102.12
279.81	89.12
280.042	100.12
280.273	68.12
280.505	77.12
280.736	72.12
280.968	89.12
281.199	84.12
281.431	83.12
281.662	94.12
281.894	89.12
282.125	74.12
282.356	74.12
282.588	85.12
282.819	90.12
283.051	74.12
283.282	88.12
283.513	85.12
283.745	86.12
283.976	85.12
284.207	89.12
284.439	88.12
284.67	90.12
284.901	97.12
285.132	90.12
285.364	86.12
285.595	85.12
285.826	90.12
286.057	80.12
286.288	70.12
286.52	81.12
286.751	81.12
286.982	58.12
287.213	80.12
287.444	84.12
287.675	75.12
287.906	82.12
288.138	81.12
288.369	84.12
288.6	82.12
288.831	77.12
289.062	89.12
289.293	97.12
289.524	71.12
289.755	75.12
289.986	78.12
290.217	79.12
290.448	90.12
290.679	72.12
290.91	95.12
291.141	84.12
291.371	78.12
291.602	88.12
291.833	89.12
292.064	85.12
292.295	73.12
292.526	92.12
292.757	84.12
292.987	91.12
293.218	77.12
293.449	77.12
293.68	83.12
293.91	81.12
294.141	89.12
294.372	77.12
294.603	83.12
294.833	78.12
295.064	83.12
295.295	86.12
295.525	85.12
295.756	86.12
295.987	85.12
296.217	71.12
296.448	78.12
296.679	92.12
296.909	74.12
297.14	98.12
297.37	82.12
297.601	77.12
297.831	82.12
298.062	80.12
298.292	82.12
298.523	80.12
298.753	78.12
298.984	96.12
299.214	97.12
299.445	99.12
299.675	97.12
299.905	85.12
300.136	81.12
300.366	86.12
300.597	72.12
300.827	80.12
301.057	91.12
301.288	94.12
301.518	85.12
301.748	88.12
301.979	86.12
302.209	79.12
302.439	73.12
302.669	84.12
302.9	91.12
303.13	90.12
303.36	100.12
303.59	85.12
303.82	85.12
304.051	81.12
304.281	72.12
304.511	83.12
304.741	93.12
304.971	80.12
305.201	85.12
305.431	81.12
305.661	82.12
305.891	68.12
306.121	74.12
306.352	77.12
306.582	95.12
306.812	86.12
307.042	88.12
307.272	87.12
307.502	86.12
307.731	92.12
307.961	70.12
308.191	80.12
308.421	89.12
308.651	76.12
308.881	74.12
309.111	85.12
309.341	88.12
309.571	95.12
309.8	88.12
310.03	94.12
310.26	88.12
310.49	92.12
310.72	72.12
310.949	73.12
311.179	89.12
311.409	85.12
311.639	86.12
311.868	97.12
312.098	84.12
312.328	100.12
312.557	74.12
312.787	85.12
313.017	76.12
313.246	76.12
313.476	66.12
313.706	91.12
313.935	97.12
314.165	78.12
314.394	111.12
314.624	92.12
314.853	73.12
315.083	101.12
315.312	86.12
315.542	67.12
315.771	86.12
316.001	90.12
316.23	89.12
316.46	82.12
316.689	85.12
316.919	82.12
317.148	85.12
317.377	86.12
317.607	86.12
317.836	83.12
318.065	77.12
318.295	85.12
318.524	85.12
318.753	88.12
318.983	93.12
319.212	98.12
319.441	79.12
319.67	86.12
319.9	86.12
320.129	79.12
320.358	99.12
320.587	81.12
320.816	79.12
321.046	75.12
321.275	80.12
321.504	73.12
321.733	82.12
321.962	73.12
322.191	77.12
322.42	84.12
322.649	85.12
322.878	90.12
323.108	75.12
323.337	68.12
323.566	88.12
323.795	83.12
324.024	77.12
324.253	95.12
324.482	92.12
324.71	96.12
324.939	89.12
325.168	95.12
325.397	85.12
325.626	78.12
325.855	74.12
326.084	65.12
326.313	86.12
326.542	82.12
326.77	80.12
326.999	95.12
327.228	91.12
327.457	71.12
327.686	89.12
327.914	86.12
328.143	93.12
328.372	71.12
328.6	96.12
328.829	86.12
329.058	85.12
329.287	89.12
329.515	96.12
329.744	82.12
329.972	75.12
330.201	78.12
330.43	74.12
330.658	93.12
330.887	85.12
331.115	71.12
331.344	88.12
331.572	87.12
331.801	78.12
332.03	95.12
332.258	89.12
332.486	92.12
332.715	88.12
332.943	95.12
333.172	88.12
333.4	93.12
333.629	82.12
333.857	74.12
334.085	83.12
334.314	89.12
334.542	86.12
334.771	82.12
334.999	88.12
335.227	90.12
335.455	96.12
335.684	89.12
335.912	82.12
336.14	78.12
336.369	74.12
336.597	80.12
336.825	80.12
337.053	93.12
337.281	89.12
337.51	95.12
337.738	94.12
337.966	90.12
338.194	78.12
338.422	68.12
338.65	90.12
338.878	84.12
339.106	79.12
339.334	79.12
339.562	71.12
339.79	74.12
340.018	93.12
340.246	82.12
340.474	90.12
340.702	96.12
340.93	74.12
341.158	85.12
341.386	77.12
341.614	76.12
341.842	81.12
342.07	88.12
342.298	68.12
342.526	83.12
342.754	65.12
342.981	82.12
343.209	89.12
343.437	70.12
343.665	76.12
343.893	83.12
344.12	74.12
344.348	89.12
344.576	90.12
344.804	72.12
345.031	69.12
345.259	94.12
345.487	77.12
345.714	96.12
345.942	88.12
346.17	70.12
346.397	95.12
346.625	91.12
346.853	77.12
347.08	101.12
347.308	80.12
347.535	87.12
347.763	88.12
347.99	84.12
348.218	73.12
348.445	89.12
348.673	81.12
348.9	74.12
349.128	87.12
349.355	93.12
349.583	83.12
349.81	91.12
350.037	76.12
350.265	93.12
350.492	71.12
350.72	81.12
350.947	74.12
351.174	69.12
351.402	74.12
351.629	89.12
351.856	94.12
352.083	83.12
352.311	80.12
352.538	80.12
352.765	68.12
352.992	72.12
353.22	87.12
353.447	70.12
353.674	84.12
353.901	94.12
354.128	86.12
354.355	93.12
354.583	80.12
354.81	82.12
355.037	80.12
355.264	88.12
355.491	81.12
355.718	85.12
355.945	91.12
356.172	79.12
356.399	87.12
356.626	80.12
356.853	66.12
357.08	77.12
357.307	67.12
357.534	73.12
357.761	77.12
357.988	71.12
358.215	88.12
358.441	85.12
358.668	91.12
358.895	86.12
359.122	78.12
359.349	83.12
359.576	92.12
359.802	79.12
360.029	90.12
360.256	90.12
360.483	79.12
360.709	76.12
360.936	94.12
361.163	77.12
361.39	91.12
361.616	86.12
361.843	73.12
362.07	86.12
362.296	86.12
362.523	77.12
362.749	82.12
362.976	81.12
363.203	90.12
363.429	82.12
363.656	88.12
363.882	73.12
364.109	98.12
364.335	85.12
364.562	85.12
364.788	77.12
365.015	88.12
365.241	98.12
365.468	92.12
365.694	83.12
365.92	73.12
366.147	78.12
366.373	84.12
366.599	77.12
366.826	68.12
367.052	74.12
367.278	89.12
367.505	84.12
367.731	93.12
367.957	83.12
368.184	89.12
368.41	77.12
368.636	79.12
368.862	74.12
369.089	83.12
369.315	93.12
369.541	82.12
369.767	81.12
369.993	75.12
370.219	87.12
370.445	81.12
370.672	87.12
370.898	72.12
371.124	81.12
371.35	82.12
371.576	90.12
371.802	87.12
372.028	91.12
372.254	84.12
372.48	76.12
372.706	81.12
372.932	86.12
373.158	87.12
373.384	80.12
373.61	73.12
373.835	86.12
374.061	74.12
374.287	74.12
374.513	88.12
374.739	77.12
374.965	83.12
375.191	78.12
375.416	87.12
375.642	85.12
375.868	84.12
376.094	98.12
376.319	97.12
376.545	83.12
376.771	82.12
376.997	73.12
377.222	74.12
377.448	82.12
377.674	81.12
377.899	83.12
378.125	79.12
378.35	81.12
378.576	86.12
378.802	81.12
379.027	70.12
379.253	74.12
379.478	93.12
379.704	71.12
379.929	82.12
380.155	86.12
380.38	76.12
380.606	77.12
380.831	100.12
381.057	102.12
381.282	82.12
381.507	95.12
381.733	82.12
381.958	93.12
382.184	95.12
382.409	94.12
382.634	90.12
382.86	84.12
383.085	78.12
383.31	91.12
383.535	78.12
383.761	82.12
383.986	78.12
384.211	83.12
384.436	70.12
384.662	86.12
384.887	89.12
385.112	67.12
385.337	85.12
385.562	81.12
385.787	77.12
386.013	84.12
386.238	80.12
386.463	81.12
386.688	80.12
386.913	91.12
387.138	69.12
387.363	76.12
387.588	84.12
387.813	86.12
388.038	101.12
388.263	78.12
388.488	85.12
388.713	75.12
388.938	85.12
389.163	83.12
389.387	100.12
389.612	82.12
389.837	83.12
390.062	106.12
390.287	74.12
390.512	98.12
390.736	84.12
390.961	82.12
391.186	74.12
391.411	79.12
391.636	81.12
391.86	103.12
392.085	93.12
392.31	98.12
392.534	76.12
392.759	73.12
392.984	78.12
393.208	77.12
393.433	87.12
393.658	79.12
393.882	89.12
394.107	90.12
394.331	81.12
394.556	85.12
394.78	86.12
395.005	94.12
395.229	93.12
395.454	82.12
395.678	82.12
395.903	90.12
396.127	87.12
396.352	94.12
396.576	88.12
396.801	81.12
397.025	82.12
397.249	85.12
397.474	92.12
397.698	78.12
397.922	87.12
398.147	72.12
398.371	86.12
398.595	78.12
398.82	78.12
399.044	98.12
399.268	86.12
399.492	83.12
399.717	84.12
399.941	87.12
400.165	97.12
400.389	95.12
400.613	95.12
400.837	75.12
401.062	85.12
401.286	80.12
401.51	83.12
401.734	77.12
401.958	71.12
402.182	90.12
402.406	96.12
402.63	96.12
402.854	75.12
403.078	87.12
403.302	86.12
403.526	76.12
403.75	89.12
403.974	99.12
404.198	96.12
404.422	88.12
404.645	101.12
404.869	89.12
405.093	85.12
405.317	76.12
405.541	92.12
405.765	88.12
405.988	81.12
406.212	84.12
406.436	83.12
406.66	90.12
406.883	90.12
407.107	93.12
407.331	102.12
407.555	85.12
407.778	82.12
408.002	96.12
408.226	95.12
408.449	99.12
408.673	84.12
408.896	94.12
409.12	78.12
409.344	92.12
409.567	96.12
409.791	82.12
410.014	96.12
410.238	83.12
410.461	94.12
410.685	108.12
410.908	85.12
411.132	94.12
411.355	90.12
411.578	74.12
411.802	91.12
412.025	86.12
412.249	75.12
412.472	100.12
412.695	87.12
412.919	89.12
413.142	98.12
413.365	89.12
413.589	74.12
413.812	89.12
414.035	105.12
414.258	95.12
414.482	88.12
414.705	83.12
414.928	88.12
415.151	100.12
415.374	100.12
415.597	94.12
415.821	114.12
416.044	84.12
416.267	87.12
416.49	86.12
416.713	86.12
416.936	88.12
417.159	93.12
417.382	94.12
417.605	98.12
417.828	81.12
418.051	96.12
418.274	86.12
418.497	92.12
418.72	80.12
418.943	105.12
419.166	89.12
419.389	91.12
419.611	92.12
419.834	90.12
420.057	103.12
420.28	82.12
420.503	94.12
420.726	93.12
420.948	103.12
421.171	92.12
421.394	97.12
421.617	98.12
421.839	105.12
422.062	92.12
422.285	94.12
422.507	79.12
422.73	86.12
422.953	84.12
423.175	90.12
423.398	86.12
423.621	98.12
423.843	90.12
424.066	83.12
424.288	97.12
424.511	111.12
424.733	96.12
424.956	93.12
425.178	97.12
425.401	96.12
425.623	103.12
425.846	87.12
426.068	85.12
426.291	94.12
426.513	93.12
426.735	97.12
426.958	101.12
427.18	85.12
427.402	75.12
427.625	85.12
427.847	87.12
428.069	98.12
428.292	95.12
428.514	103.12
428.736	99.12
428.958	101.12
429.181	89.12
429.403	97.12
429.625	95.12
429.847	84.12
430.069	96.12
430.292	101.12
430.514	81.12
430.736	86.12
430.958	95.12
431.18	84.12
431.402	93.12
431.624	94.12
431.846	92.12
432.068	86.12
432.29	89.12
432.512	75.12
432.734	80.12
432.956	86.12
433.178	96.12
433.4	95.12
433.622	91.12
433.844	101.12
434.066	83.12
434.287	88.12
434.509	80.12
434.731	81.12
434.953	79.12
435.175	91.12
435.397	89.12
435.618	84.12
435.84	86.12
436.062	113.12
436.284	91.12
436.505	94.12
436.727	89.12
436.949	95.12
437.17	93.12
437.392	103.12
437.614	84.12
437.835	80.12
438.057	88.12
438.278	90.12
438.5	97.12
438.721	108.12
438.943	92.12
439.165	97.12
439.386	90.12
439.608	86.12
439.829	92.12
440.05	108.12
440.272	84.12
440.493	92.12
440.715	109.12
440.936	98.12
441.158	109.12
441.379	88.12
441.6	88.12
441.822	101.12
442.043	97.12
442.264	88.12
442.486	96.12
442.707	93.12
442.928	106.12
443.149	88.12
443.371	102.12
443.592	108.12
443.813	99.12
444.034	89.12
444.255	111.12
444.476	99.12
444.698	91.12
444.919	95.12
445.14	222.12
445.361	161.12
445.582	99.12
445.803	92.12
446.024	92.12
446.245	77.12
446.466	88.12
446.687	87.12
446.908	116.12
447.129	90.12
447.35	92.12
447.571	100.12
447.792	93.12
448.013	93.12
448.234	93.12
448.455	100.12
448.675	94.12
448.896	101.12
449.117	84.12
449.338	108.12
449.559	101.12
449.779	100.12
450	81.12
450.221	102.12
450.442	82.12
450.662	96.12
450.883	109.12
451.104	89.12
451.324	94.12
451.545	89.12
451.766	94.12
451.986	94.12
452.207	101.12
452.428	88.12
452.648	104.12
452.869	100.12
453.089	88.12
453.31	78.12
453.53	84.12
453.751	86.12
453.971	86.12
454.192	85.12
454.412	79.12
454.633	86.12
454.853	88.12
455.073	97.12
455.294	97.12
455.514	90.12
455.734	89.12
455.955	112.12
456.175	98.12
456.395	74.12
456.616	93.12
456.836	76.12
457.056	83.12
457.276	92.12
457.497	85.12
457.717	93.12
457.937	95.12
458.157	81.12
458.377	103.12
458.598	74.12
458.818	84.12
459.038	96.12
459.258	53.12
459.478	89.12
459.698	85.12
459.918	85.12
460.138	80.12
460.358	78.12
460.578	94.12
460.798	100.12
461.018	92.12
461.238	84.12
461.458	79.12
461.678	94.12
461.898	95.12
462.118	93.12
462.338	87.12
462.558	89.12
462.777	83.12
462.997	78.12
463.217	84.12
463.437	80.12
463.657	100.12
463.876	79.12
464.096	101.12
464.316	84.12
464.536	85.12
464.755	95.12
464.975	91.12
465.195	101.12
465.414	97.12
465.634	91.12
465.854	79.12
466.073	89.12
466.293	85.12
466.512	87.12
466.732	84.12
466.951	107.12
467.171	97.12
467.391	96.12
467.61	112.12
467.829	85.12
468.049	83.12
468.268	99.12
468.488	103.12
468.707	94.12
468.927	100.12
469.146	81.12
469.365	85.12
469.585	85.12
469.804	102.12
470.023	101.12
470.243	93.12
470.462	86.12
470.681	104.12
470.901	106.12
471.12	106.12
471.339	115.12
471.558	104.12
471.777	92.12
471.997	77.12
472.216	88.12
472.435	74.12
472.654	97.12
472.873	112.12
473.092	108.12
473.311	87.12
473.53	99.12
473.749	101.12
473.968	103.12
474.187	87.12
474.406	80.12
474.625	93.12
474.844	96.12
475.063	92.12
475.282	97.12
475.501	82.12
475.72	83.12
475.939	93.12
476.158	96.12
476.377	94.12
476.596	96.12
476.814	99.12
477.033	95.12
477.252	101.12
477.471	100.12
477.69	83.12
477.908	100.12
478.127	98.12
478.346	103.12
478.564	102.12
478.783	100.12
479.002	103.12
479.22	103.12
479.439	109.12
479.658	93.12
479.876	86.12
480.095	87.12
480.313	84.12
480.532	87.12
480.751	80.12
480.969	75.12
481.188	91.12
481.406	83.12
481.624	74.12
481.843	85.12
482.061	95.12
482.28	83.12
482.498	83.12
482.717	73.12
482.935	88.12
483.153	73.12
483.372	101.12
483.59	96.12
483.808	111.12
484.027	94.12
484.245	85.12
484.463	111.12
484.681	108.12
484.9	108.12
485.118	97.12
485.336	87.12
485.554	83.12
485.772	96.12
485.99	79.12
486.209	93.12
486.427	82.12
486.645	90.12
486.863	96.12
487.081	105.12
487.299	93.12
487.517	80.12
487.735	101.12
487.953	108.12
488.171	91.12
488.389	95.12
488.607	106.12
488.825	98.12
489.043	86.12
489.261	88.12
489.479	85.12
489.696	100.12
489.914	84.12
490.132	92.12
490.35	93.12
490.568	88.12
490.786	106.12
491.003	120.12
491.221	97.12
491.439	118.12
491.657	118.12
491.874	113.12
492.092	116.12
492.31	133.12
492.527	126.12
492.745	118.12
492.963	105.12
493.18	114.12
493.398	110.12
493.615	114.12
493.833	110.12
494.05	99.12
494.268	111.12
494.485	117.12
494.703	112.12
494.92	105.12
495.138	109.12
495.355	111.12
495.573	109.12
495.79	105.12
496.008	117.12
496.225	114.12
496.442	112.12
496.66	116.12
496.877	106.12
497.094	103.12
497.312	114.12
497.529	92.12
497.746	104.12
497.963	88.12
498.181	92.12
498.398	92.12
498.615	81.12
498.832	94.12
499.049	87.12
499.267	90.12
499.484	85.12
499.701	87.12
499.918	83.12
500.135	93.12
500.352	97.12
500.569	108.12
500.786	103.12
501.003	119.12
501.22	81.12
501.437	101.12
501.654	99.12
501.871	90.12
502.088	100.12
502.305	102.12
502.522	97.12
502.739	76.12
502.956	94.12
503.172	91.12
503.389	98.12
503.606	94.12
503.823	104.12
504.04	110.12
504.256	104.12
504.473	78.12
504.69	95.12
504.907	100.12
505.123	84.12
505.34	96.12
505.557	97.12
505.773	82.12
505.99	95.12
506.207	101.12
506.423	102.12
506.64	102.12
506.856	94.12
507.073	90.12
507.289	109.12
507.506	90.12
507.722	97.12
507.939	86.12
508.155	87.12
508.372	82.12
508.588	97.12
508.805	88.12
509.021	94.12
509.238	89.12
509.454	85.12
509.67	84.12
509.887	86.12
510.103	80.12
510.319	77.12
510.536	84.12
510.752	85.12
510.968	76.12
511.184	71.12
511.401	99.12
511.617	86.12
511.833	92.12
512.049	84.12
512.265	87.12
512.481	83.12
512.698	92.12
512.914	83.12
513.13	72.12
513.346	83.12
513.562	90.12
513.778	56.12
513.994	79.12
514.21	94.12
514.426	79.12
514.642	90.12
514.858	83.12
515.074	76.12
515.29	80.12
515.506	86.12
515.721	73.12
515.937	86.12
516.153	88.12
516.369	76.12
516.585	73.12
516.801	77.12
517.016	92.12
517.232	94.12
517.448	77.12
