Data from Location3.07152019.Energy5.Lamp.07192019.3%Agarose_HRD10591_15-19-22-270.txt Node
Date: Fri Jul 19 15:19:22 EDT 2019
User: cochatt
Spectrometer: HR+D1059
Trigger mode: 1
Integration Time (sec): 1.000000E-1
Scans to average: 1
Electric dark correction enabled: true
Nonlinearity correction enabled: false
Boxcar width: 0
XAxis mode: Wavelengths
Number of Pixels in Spectrum: 2048
>>>>>Begin Spectral Data<<<<<
223.165	-18.75
223.4	-18.75
223.635	-18.75
223.869	-17.75
224.104	-35.75
224.338	-18.75
224.573	-2.75
224.808	-4.75
225.042	-25.75
225.277	-2.75
225.511	-2.75
225.746	11.25
225.98	-1.75
226.215	18.25
226.449	26.25
226.683	22.25
226.918	33.25
227.152	20.25
227.387	49.25
227.621	49.25
227.856	45.25
228.09	30.25
228.324	54.25
228.559	54.25
228.793	64.25
229.027	41.25
229.262	75.25
229.496	71.25
229.73	70.25
229.964	69.25
230.199	73.25
230.433	71.25
230.667	84.25
230.901	82.25
231.136	74.25
231.37	83.25
231.604	90.25
231.838	83.25
232.072	71.25
232.306	68.25
232.541	71.25
232.775	77.25
233.009	93.25
233.243	88.25
233.477	73.25
233.711	89.25
233.945	83.25
234.179	77.25
234.413	71.25
234.647	86.25
234.881	86.25
235.115	88.25
235.349	64.25
235.583	81.25
235.817	75.25
236.051	86.25
236.285	77.25
236.519	75.25
236.753	72.25
236.987	79.25
237.221	70.25
237.455	77.25
237.689	64.25
237.922	82.25
238.156	68.25
238.39	69.25
238.624	78.25
238.858	83.25
239.091	83.25
239.325	73.25
239.559	68.25
239.793	67.25
240.027	73.25
240.26	78.25
240.494	85.25
240.728	79.25
240.961	65.25
241.195	59.25
241.429	79.25
241.662	81.25
241.896	75.25
242.13	93.25
242.363	75.25
242.597	63.25
242.83	74.25
243.064	89.25
243.298	77.25
243.531	75.25
243.765	82.25
243.998	85.25
244.232	67.25
244.465	76.25
244.699	78.25
244.932	74.25
245.166	70.25
245.399	79.25
245.633	83.25
245.866	82.25
246.099	70.25
246.333	79.25
246.566	76.25
246.8	71.25
247.033	87.25
247.266	78.25
247.5	66.25
247.733	75.25
247.966	92.25
248.2	75.25
248.433	79.25
248.666	79.25
248.899	71.25
249.133	78.25
249.366	76.25
249.599	90.25
249.832	65.25
250.066	73.25
250.299	80.25
250.532	70.25
250.765	65.25
250.998	84.25
251.231	79.25
251.465	79.25
251.698	73.25
251.931	66.25
252.164	75.25
252.397	80.25
252.63	81.25
252.863	96.25
253.096	90.25
253.329	94.25
253.562	75.25
253.795	74.25
254.028	95.25
254.261	76.25
254.494	80.25
254.727	98.25
254.96	83.25
255.193	90.25
255.426	80.25
255.659	84.25
255.892	82.25
256.124	68.25
256.357	86.25
256.59	83.25
256.823	70.25
257.056	79.25
257.289	84.25
257.521	82.25
257.754	83.25
257.987	69.25
258.22	86.25
258.452	87.25
258.685	88.25
258.918	80.25
259.151	70.25
259.383	70.25
259.616	82.25
259.849	83.25
260.081	75.25
260.314	78.25
260.547	73.25
260.779	88.25
261.012	88.25
261.244	73.25
261.477	89.25
261.71	82.25
261.942	87.25
262.175	74.25
262.407	69.25
262.64	79.25
262.872	94.25
263.105	81.25
263.337	77.25
263.57	84.25
263.802	80.25
264.035	75.25
264.267	74.25
264.499	68.25
264.732	93.25
264.964	68.25
265.197	80.25
265.429	87.25
265.661	81.25
265.894	91.25
266.126	78.25
266.358	69.25
266.591	61.25
266.823	67.25
267.055	80.25
267.287	91.25
267.52	81.25
267.752	75.25
267.984	86.25
268.216	82.25
268.448	82.25
268.681	80.25
268.913	90.25
269.145	81.25
269.377	73.25
269.609	76.25
269.841	73.25
270.073	87.25
270.306	65.25
270.538	74.25
270.77	74.25
271.002	70.25
271.234	77.25
271.466	74.25
271.698	63.25
271.93	79.25
272.162	83.25
272.394	84.25
272.626	105.25
272.858	84.25
273.09	74.25
273.322	62.25
273.553	82.25
273.785	86.25
274.017	81.25
274.249	86.25
274.481	77.25
274.713	88.25
274.945	85.25
275.176	80.25
275.408	75.25
275.64	89.25
275.872	67.25
276.104	87.25
276.335	80.25
276.567	79.25
276.799	73.25
277.031	90.25
277.262	71.25
277.494	87.25
277.726	82.25
277.957	72.25
278.189	82.25
278.421	89.25
278.652	86.25
278.884	86.25
279.115	84.25
279.347	80.25
279.579	82.25
279.81	83.25
280.042	78.25
280.273	84.25
280.505	84.25
280.736	80.25
280.968	80.25
281.199	92.25
281.431	81.25
281.662	97.25
281.894	93.25
282.125	70.25
282.356	71.25
282.588	87.25
282.819	94.25
283.051	78.25
283.282	84.25
283.513	71.25
283.745	89.25
283.976	82.25
284.207	88.25
284.439	105.25
284.67	91.25
284.901	83.25
285.132	87.25
285.364	93.25
285.595	89.25
285.826	66.25
286.057	78.25
286.288	81.25
286.52	73.25
286.751	82.25
286.982	67.25
287.213	84.25
287.444	99.25
287.675	87.25
287.906	89.25
288.138	79.25
288.369	79.25
288.6	94.25
288.831	96.25
289.062	84.25
289.293	71.25
289.524	75.25
289.755	77.25
289.986	84.25
290.217	98.25
290.448	76.25
290.679	93.25
290.91	85.25
291.141	87.25
291.371	90.25
291.602	89.25
291.833	87.25
292.064	85.25
292.295	78.25
292.526	84.25
292.757	78.25
292.987	71.25
293.218	80.25
293.449	88.25
293.68	90.25
293.91	78.25
294.141	80.25
294.372	90.25
294.603	86.25
294.833	80.25
295.064	82.25
295.295	78.25
295.525	88.25
295.756	84.25
295.987	85.25
296.217	77.25
296.448	65.25
296.679	75.25
296.909	96.25
297.14	89.25
297.37	88.25
297.601	77.25
297.831	104.25
298.062	68.25
298.292	84.25
298.523	84.25
298.753	81.25
298.984	92.25
299.214	88.25
299.445	79.25
299.675	83.25
299.905	80.25
300.136	71.25
300.366	76.25
300.597	80.25
300.827	69.25
301.057	89.25
301.288	85.25
301.518	71.25
301.748	77.25
301.979	92.25
302.209	86.25
302.439	72.25
302.669	86.25
302.9	76.25
303.13	75.25
303.36	95.25
303.59	88.25
303.82	93.25
304.051	73.25
304.281	87.25
304.511	86.25
304.741	89.25
304.971	85.25
305.201	78.25
305.431	77.25
305.661	81.25
305.891	80.25
306.121	94.25
306.352	89.25
306.582	82.25
306.812	93.25
307.042	86.25
307.272	91.25
307.502	92.25
307.731	69.25
307.961	88.25
308.191	81.25
308.421	95.25
308.651	86.25
308.881	97.25
309.111	86.25
309.341	75.25
309.571	88.25
309.8	81.25
310.03	78.25
310.26	82.25
310.49	79.25
310.72	80.25
310.949	76.25
311.179	86.25
311.409	85.25
311.639	81.25
311.868	85.25
312.098	93.25
312.328	89.25
312.557	83.25
312.787	76.25
313.017	86.25
313.246	97.25
313.476	79.25
313.706	75.25
313.935	90.25
314.165	85.25
314.394	87.25
314.624	76.25
314.853	73.25
315.083	76.25
315.312	65.25
315.542	79.25
315.771	83.25
316.001	84.25
316.23	75.25
316.46	88.25
316.689	91.25
316.919	90.25
317.148	97.25
317.377	77.25
317.607	101.25
317.836	94.25
318.065	86.25
318.295	97.25
318.524	87.25
318.753	85.25
318.983	75.25
319.212	78.25
319.441	88.25
319.67	88.25
319.9	79.25
320.129	76.25
320.358	76.25
320.587	75.25
320.816	77.25
321.046	92.25
321.275	85.25
321.504	81.25
321.733	83.25
321.962	76.25
322.191	86.25
322.42	73.25
322.649	79.25
322.878	86.25
323.108	86.25
323.337	87.25
323.566	72.25
323.795	74.25
324.024	83.25
324.253	82.25
324.482	87.25
324.71	71.25
324.939	89.25
325.168	89.25
325.397	78.25
325.626	74.25
325.855	98.25
326.084	85.25
326.313	82.25
326.542	71.25
326.77	81.25
326.999	84.25
327.228	81.25
327.457	92.25
327.686	92.25
327.914	92.25
328.143	71.25
328.372	94.25
328.6	74.25
328.829	82.25
329.058	76.25
329.287	83.25
329.515	86.25
329.744	89.25
329.972	76.25
330.201	87.25
330.43	76.25
330.658	78.25
330.887	106.25
331.115	75.25
331.344	81.25
331.572	76.25
331.801	96.25
332.03	82.25
332.258	82.25
332.486	82.25
332.715	61.25
332.943	75.25
333.172	81.25
333.4	71.25
333.629	89.25
333.857	85.25
334.085	87.25
334.314	81.25
334.542	91.25
334.771	74.25
334.999	88.25
335.227	76.25
335.455	99.25
335.684	84.25
335.912	84.25
336.14	85.25
336.369	73.25
336.597	80.25
336.825	81.25
337.053	86.25
337.281	97.25
337.51	88.25
337.738	95.25
337.966	70.25
338.194	97.25
338.422	100.25
338.65	89.25
338.878	82.25
339.106	84.25
339.334	80.25
339.562	73.25
339.79	79.25
340.018	72.25
340.246	81.25
340.474	73.25
340.702	94.25
340.93	90.25
341.158	78.25
341.386	77.25
341.614	79.25
341.842	72.25
342.07	81.25
342.298	79.25
342.526	79.25
342.754	68.25
342.981	75.25
343.209	63.25
343.437	93.25
343.665	81.25
343.893	75.25
344.12	88.25
344.348	81.25
344.576	81.25
344.804	71.25
345.031	86.25
345.259	86.25
345.487	90.25
345.714	91.25
345.942	82.25
346.17	86.25
346.397	81.25
346.625	85.25
346.853	89.25
347.08	98.25
347.308	96.25
347.535	105.25
347.763	81.25
347.99	85.25
348.218	80.25
348.445	89.25
348.673	71.25
348.9	73.25
349.128	84.25
349.355	92.25
349.583	96.25
349.81	78.25
350.037	95.25
350.265	83.25
350.492	91.25
350.72	80.25
350.947	74.25
351.174	80.25
351.402	80.25
351.629	88.25
351.856	89.25
352.083	96.25
352.311	87.25
352.538	72.25
352.765	71.25
352.992	80.25
353.22	72.25
353.447	76.25
353.674	88.25
353.901	87.25
354.128	73.25
354.355	92.25
354.583	77.25
354.81	80.25
355.037	89.25
355.264	84.25
355.491	78.25
355.718	98.25
355.945	83.25
356.172	91.25
356.399	81.25
356.626	82.25
356.853	88.25
357.08	89.25
357.307	86.25
357.534	89.25
357.761	75.25
357.988	88.25
358.215	79.25
358.441	83.25
358.668	92.25
358.895	69.25
359.122	90.25
359.349	83.25
359.576	86.25
359.802	91.25
360.029	78.25
360.256	75.25
360.483	79.25
360.709	77.25
360.936	94.25
361.163	94.25
361.39	87.25
361.616	84.25
361.843	76.25
362.07	88.25
362.296	97.25
362.523	86.25
362.749	85.25
362.976	73.25
363.203	86.25
363.429	80.25
363.656	93.25
363.882	79.25
364.109	77.25
364.335	89.25
364.562	73.25
364.788	90.25
365.015	83.25
365.241	78.25
365.468	79.25
365.694	81.25
365.92	78.25
366.147	95.25
366.373	74.25
366.599	85.25
366.826	85.25
367.052	76.25
367.278	75.25
367.505	75.25
367.731	91.25
367.957	74.25
368.184	81.25
368.41	87.25
368.636	70.25
368.862	79.25
369.089	83.25
369.315	86.25
369.541	95.25
369.767	81.25
369.993	89.25
370.219	95.25
370.445	78.25
370.672	76.25
370.898	77.25
371.124	76.25
371.35	84.25
371.576	95.25
371.802	79.25
372.028	81.25
372.254	88.25
372.48	78.25
372.706	74.25
372.932	83.25
373.158	81.25
373.384	74.25
373.61	74.25
373.835	85.25
374.061	84.25
374.287	83.25
374.513	75.25
374.739	72.25
374.965	85.25
375.191	83.25
375.416	78.25
375.642	91.25
375.868	74.25
376.094	89.25
376.319	86.25
376.545	95.25
376.771	90.25
376.997	86.25
377.222	83.25
377.448	77.25
377.674	83.25
377.899	81.25
378.125	85.25
378.35	80.25
378.576	97.25
378.802	77.25
379.027	89.25
379.253	74.25
379.478	89.25
379.704	79.25
379.929	90.25
380.155	83.25
380.38	77.25
380.606	76.25
380.831	88.25
381.057	92.25
381.282	83.25
381.507	94.25
381.733	85.25
381.958	71.25
382.184	78.25
382.409	86.25
382.634	73.25
382.86	82.25
383.085	90.25
383.31	90.25
383.535	87.25
383.761	93.25
383.986	71.25
384.211	74.25
384.436	86.25
384.662	89.25
384.887	93.25
385.112	85.25
385.337	85.25
385.562	91.25
385.787	89.25
386.013	82.25
386.238	82.25
386.463	80.25
386.688	79.25
386.913	78.25
387.138	90.25
387.363	87.25
387.588	84.25
387.813	88.25
388.038	78.25
388.263	78.25
388.488	78.25
388.713	80.25
388.938	81.25
389.163	101.25
389.387	98.25
389.612	82.25
389.837	79.25
390.062	91.25
390.287	86.25
390.512	91.25
390.736	87.25
390.961	91.25
391.186	80.25
391.411	85.25
391.636	83.25
391.86	102.25
392.085	89.25
392.31	94.25
392.534	90.25
392.759	89.25
392.984	100.25
393.208	85.25
393.433	82.25
393.658	93.25
393.882	85.25
394.107	82.25
394.331	92.25
394.556	94.25
394.78	91.25
395.005	83.25
395.229	84.25
395.454	94.25
395.678	101.25
395.903	88.25
396.127	101.25
396.352	80.25
396.576	74.25
396.801	94.25
397.025	98.25
397.249	94.25
397.474	87.25
397.698	82.25
397.922	85.25
398.147	78.25
398.371	82.25
398.595	97.25
398.82	81.25
399.044	81.25
399.268	83.25
399.492	88.25
399.717	96.25
399.941	85.25
400.165	76.25
400.389	83.25
400.613	85.25
400.837	85.25
401.062	96.25
401.286	103.25
401.51	85.25
401.734	95.25
401.958	92.25
402.182	80.25
402.406	102.25
402.63	87.25
402.854	81.25
403.078	93.25
403.302	76.25
403.526	84.25
403.75	92.25
403.974	84.25
404.198	103.25
404.422	92.25
404.645	88.25
404.869	94.25
405.093	87.25
405.317	89.25
405.541	88.25
405.765	87.25
405.988	90.25
406.212	98.25
406.436	98.25
406.66	82.25
406.883	86.25
407.107	82.25
407.331	87.25
407.555	89.25
407.778	95.25
408.002	91.25
408.226	89.25
408.449	96.25
408.673	89.25
408.896	73.25
409.12	93.25
409.344	86.25
409.567	90.25
409.791	89.25
410.014	88.25
410.238	79.25
410.461	94.25
410.685	94.25
410.908	100.25
411.132	98.25
411.355	92.25
411.578	98.25
411.802	91.25
412.025	83.25
412.249	94.25
412.472	90.25
412.695	80.25
412.919	87.25
413.142	89.25
413.365	91.25
413.589	95.25
413.812	82.25
414.035	95.25
414.258	99.25
414.482	101.25
414.705	88.25
414.928	79.25
415.151	97.25
415.374	94.25
415.597	97.25
415.821	96.25
416.044	93.25
416.267	95.25
416.49	90.25
416.713	81.25
416.936	93.25
417.159	84.25
417.382	87.25
417.605	101.25
417.828	94.25
418.051	82.25
418.274	91.25
418.497	90.25
418.72	93.25
418.943	94.25
419.166	102.25
419.389	96.25
419.611	95.25
419.834	86.25
420.057	83.25
420.28	92.25
420.503	94.25
420.726	98.25
420.948	91.25
421.171	95.25
421.394	99.25
421.617	112.25
421.839	87.25
422.062	91.25
422.285	91.25
422.507	83.25
422.73	97.25
422.953	97.25
423.175	98.25
423.398	91.25
423.621	87.25
423.843	99.25
424.066	92.25
424.288	104.25
424.511	87.25
424.733	100.25
424.956	89.25
425.178	88.25
425.401	91.25
425.623	94.25
425.846	91.25
426.068	83.25
426.291	97.25
426.513	88.25
426.735	109.25
426.958	105.25
427.18	84.25
427.402	93.25
427.625	104.25
427.847	89.25
428.069	104.25
428.292	98.25
428.514	92.25
428.736	93.25
428.958	79.25
429.181	86.25
429.403	84.25
429.625	85.25
429.847	92.25
430.069	93.25
430.292	90.25
430.514	104.25
430.736	91.25
430.958	75.25
431.18	97.25
431.402	100.25
431.624	100.25
431.846	90.25
432.068	83.25
432.29	79.25
432.512	81.25
432.734	84.25
432.956	78.25
433.178	98.25
433.4	85.25
433.622	110.25
433.844	99.25
434.066	98.25
434.287	87.25
434.509	82.25
434.731	90.25
434.953	102.25
435.175	90.25
435.397	84.25
435.618	87.25
435.84	91.25
436.062	82.25
436.284	96.25
436.505	91.25
436.727	91.25
436.949	89.25
437.17	89.25
437.392	100.25
437.614	90.25
437.835	83.25
438.057	94.25
438.278	89.25
438.5	87.25
438.721	99.25
438.943	107.25
439.165	98.25
439.386	89.25
439.608	96.25
439.829	90.25
440.05	88.25
440.272	102.25
440.493	91.25
440.715	100.25
440.936	90.25
441.158	97.25
441.379	106.25
441.6	96.25
441.822	98.25
442.043	101.25
442.264	100.25
442.486	107.25
442.707	92.25
442.928	99.25
443.149	95.25
443.371	99.25
443.592	101.25
443.813	84.25
444.034	102.25
444.255	97.25
444.476	102.25
444.698	102.25
444.919	90.25
445.14	216.25
445.361	154.25
445.582	105.25
445.803	90.25
446.024	95.25
446.245	104.25
446.466	98.25
446.687	102.25
446.908	99.25
447.129	102.25
447.35	100.25
447.571	98.25
447.792	103.25
448.013	110.25
448.234	84.25
448.455	101.25
448.675	90.25
448.896	85.25
449.117	92.25
449.338	104.25
449.559	94.25
449.779	94.25
450	87.25
450.221	109.25
450.442	99.25
450.662	95.25
450.883	100.25
451.104	98.25
451.324	100.25
451.545	94.25
451.766	92.25
451.986	89.25
452.207	96.25
452.428	86.25
452.648	79.25
452.869	98.25
453.089	97.25
453.31	93.25
453.53	97.25
453.751	81.25
453.971	89.25
454.192	98.25
454.412	97.25
454.633	82.25
454.853	90.25
455.073	81.25
455.294	81.25
455.514	82.25
455.734	89.25
455.955	89.25
456.175	93.25
456.395	102.25
456.616	92.25
456.836	82.25
457.056	83.25
457.276	109.25
457.497	79.25
457.717	81.25
457.937	84.25
458.157	85.25
458.377	90.25
458.598	109.25
458.818	73.25
459.038	87.25
459.258	92.25
459.478	92.25
459.698	91.25
459.918	74.25
460.138	83.25
460.358	90.25
460.578	98.25
460.798	93.25
461.018	84.25
461.238	104.25
461.458	81.25
461.678	90.25
461.898	92.25
462.118	94.25
462.338	91.25
462.558	88.25
462.777	83.25
462.997	98.25
463.217	77.25
463.437	90.25
463.657	89.25
463.876	98.25
464.096	95.25
464.316	85.25
464.536	93.25
464.755	114.25
464.975	90.25
465.195	97.25
465.414	89.25
465.634	95.25
465.854	94.25
466.073	98.25
466.293	90.25
466.512	99.25
466.732	91.25
466.951	109.25
467.171	101.25
467.391	95.25
467.61	85.25
467.829	87.25
468.049	108.25
468.268	107.25
468.488	105.25
468.707	95.25
468.927	93.25
469.146	93.25
469.365	109.25
469.585	98.25
469.804	103.25
470.023	100.25
470.243	85.25
470.462	91.25
470.681	103.25
470.901	92.25
471.12	94.25
471.339	88.25
471.558	101.25
471.777	103.25
471.997	104.25
472.216	91.25
472.435	88.25
472.654	90.25
472.873	85.25
473.092	78.25
473.311	99.25
473.53	101.25
473.749	93.25
473.968	91.25
474.187	111.25
474.406	101.25
474.625	86.25
474.844	106.25
475.063	91.25
475.282	90.25
475.501	93.25
475.72	98.25
475.939	91.25
476.158	80.25
476.377	89.25
476.596	107.25
476.814	91.25
477.033	81.25
477.252	92.25
477.471	97.25
477.69	104.25
477.908	82.25
478.127	96.25
478.346	95.25
478.564	86.25
478.783	95.25
479.002	94.25
479.22	85.25
479.439	101.25
479.658	111.25
479.876	84.25
480.095	111.25
480.313	96.25
480.532	96.25
480.751	103.25
480.969	88.25
481.188	88.25
481.406	89.25
481.624	94.25
481.843	78.25
482.061	99.25
482.28	79.25
482.498	98.25
482.717	78.25
482.935	81.25
483.153	98.25
483.372	99.25
483.59	109.25
483.808	89.25
484.027	95.25
484.245	115.25
484.463	116.25
484.681	99.25
484.9	101.25
485.118	101.25
485.336	94.25
485.554	97.25
485.772	82.25
485.99	96.25
486.209	92.25
486.427	84.25
486.645	85.25
486.863	103.25
487.081	116.25
487.299	105.25
487.517	94.25
487.735	93.25
487.953	118.25
488.171	111.25
488.389	104.25
488.607	105.25
488.825	90.25
489.043	86.25
489.261	98.25
489.479	98.25
489.696	84.25
489.914	118.25
490.132	113.25
490.35	110.25
490.568	110.25
490.786	89.25
491.003	98.25
491.221	106.25
491.439	114.25
491.657	100.25
491.874	129.25
492.092	125.25
492.31	133.25
492.527	116.25
492.745	111.25
492.963	117.25
493.18	106.25
493.398	112.25
493.615	111.25
493.833	107.25
494.05	88.25
494.268	95.25
494.485	103.25
494.703	113.25
494.92	111.25
495.138	96.25
495.355	97.25
495.573	118.25
495.79	103.25
496.008	111.25
496.225	113.25
496.442	123.25
496.66	109.25
496.877	98.25
497.094	114.25
497.312	102.25
497.529	92.25
497.746	104.25
497.963	100.25
498.181	97.25
498.398	85.25
498.615	105.25
498.832	96.25
499.049	96.25
499.267	101.25
499.484	88.25
499.701	96.25
499.918	97.25
500.135	97.25
500.352	91.25
500.569	100.25
500.786	101.25
501.003	102.25
501.22	89.25
501.437	89.25
501.654	101.25
501.871	92.25
502.088	76.25
502.305	102.25
502.522	106.25
502.739	91.25
502.956	90.25
503.172	80.25
503.389	80.25
503.606	109.25
503.823	102.25
504.04	85.25
504.256	77.25
504.473	92.25
504.69	101.25
504.907	109.25
505.123	87.25
505.34	89.25
505.557	91.25
505.773	100.25
505.99	94.25
506.207	91.25
506.423	105.25
506.64	82.25
506.856	95.25
507.073	107.25
507.289	97.25
507.506	99.25
507.722	90.25
507.939	87.25
508.155	96.25
508.372	83.25
508.588	90.25
508.805	97.25
509.021	80.25
509.238	84.25
509.454	78.25
509.67	81.25
509.887	83.25
510.103	86.25
510.319	89.25
510.536	93.25
510.752	82.25
510.968	104.25
511.184	86.25
511.401	93.25
511.617	87.25
511.833	75.25
512.049	86.25
512.265	86.25
512.481	95.25
512.698	75.25
512.914	82.25
513.13	81.25
513.346	91.25
513.562	91.25
513.778	86.25
513.994	79.25
514.21	81.25
514.426	94.25
514.642	87.25
514.858	84.25
515.074	80.25
515.29	79.25
515.506	87.25
515.721	82.25
515.937	91.25
516.153	92.25
516.369	93.25
516.585	68.25
516.801	81.25
517.016	80.25
517.232	78.25
517.448	78.25
