Data from Location3.07152019.Energy5.Lamp.07192019.3%Agarose_HRD10591_15-17-35-269.txt Node
Date: Fri Jul 19 15:17:35 EDT 2019
User: cochatt
Spectrometer: HR+D1059
Trigger mode: 1
Integration Time (sec): 1.000000E-1
Scans to average: 1
Electric dark correction enabled: true
Nonlinearity correction enabled: false
Boxcar width: 0
XAxis mode: Wavelengths
Number of Pixels in Spectrum: 2048
>>>>>Begin Spectral Data<<<<<
223.165	-13.88
223.4	-13.88
223.635	-13.88
223.869	-9.88
224.104	-18.88
224.338	1.12
224.573	-6.88
224.808	-21.88
225.042	-16.88
225.277	-7.88
225.511	-18.88
225.746	3.12
225.98	-0.88
226.215	8.12
226.449	8.12
226.683	36.12
226.918	34.12
227.152	25.12
227.387	24.12
227.621	36.12
227.856	52.12
228.09	23.12
228.324	54.12
228.559	56.12
228.793	49.12
229.027	54.12
229.262	71.12
229.496	54.12
229.73	74.12
229.964	78.12
230.199	75.12
230.433	72.12
230.667	69.12
230.901	71.12
231.136	85.12
231.37	83.12
231.604	71.12
231.838	74.12
232.072	84.12
232.306	68.12
232.541	82.12
232.775	72.12
233.009	83.12
233.243	89.12
233.477	87.12
233.711	76.12
233.945	103.12
234.179	72.12
234.413	78.12
234.647	76.12
234.881	91.12
235.115	89.12
235.349	84.12
235.583	74.12
235.817	74.12
236.051	90.12
236.285	79.12
236.519	79.12
236.753	88.12
236.987	65.12
237.221	84.12
237.455	74.12
237.689	73.12
237.922	64.12
238.156	70.12
238.39	64.12
238.624	79.12
238.858	68.12
239.091	73.12
239.325	83.12
239.559	72.12
239.793	82.12
240.027	83.12
240.26	76.12
240.494	75.12
240.728	74.12
240.961	75.12
241.195	64.12
241.429	66.12
241.662	80.12
241.896	88.12
242.13	92.12
242.363	73.12
242.597	68.12
242.83	71.12
243.064	76.12
243.298	83.12
243.531	69.12
243.765	75.12
243.998	73.12
244.232	78.12
244.465	80.12
244.699	65.12
244.932	54.12
245.166	68.12
245.399	75.12
245.633	72.12
245.866	81.12
246.099	82.12
246.333	75.12
246.566	88.12
246.8	70.12
247.033	83.12
247.266	70.12
247.5	69.12
247.733	76.12
247.966	79.12
248.2	76.12
248.433	75.12
248.666	85.12
248.899	91.12
249.133	82.12
249.366	73.12
249.599	70.12
249.832	64.12
250.066	74.12
250.299	72.12
250.532	62.12
250.765	77.12
250.998	70.12
251.231	84.12
251.465	83.12
251.698	82.12
251.931	81.12
252.164	88.12
252.397	82.12
252.63	80.12
252.863	77.12
253.096	70.12
253.329	85.12
253.562	68.12
253.795	83.12
254.028	75.12
254.261	73.12
254.494	74.12
254.727	86.12
254.96	69.12
255.193	77.12
255.426	72.12
255.659	70.12
255.892	80.12
256.124	89.12
256.357	90.12
256.59	78.12
256.823	74.12
257.056	78.12
257.289	79.12
257.521	79.12
257.754	78.12
257.987	78.12
258.22	86.12
258.452	89.12
258.685	86.12
258.918	90.12
259.151	77.12
259.383	76.12
259.616	74.12
259.849	82.12
260.081	81.12
260.314	74.12
260.547	67.12
260.779	78.12
261.012	75.12
261.244	77.12
261.477	87.12
261.71	82.12
261.942	76.12
262.175	82.12
262.407	67.12
262.64	72.12
262.872	82.12
263.105	100.12
263.337	80.12
263.57	74.12
263.802	86.12
264.035	81.12
264.267	81.12
264.499	79.12
264.732	87.12
264.964	93.12
265.197	85.12
265.429	77.12
265.661	70.12
265.894	81.12
266.126	99.12
266.358	89.12
266.591	82.12
266.823	78.12
267.055	88.12
267.287	84.12
267.52	92.12
267.752	74.12
267.984	86.12
268.216	98.12
268.448	78.12
268.681	66.12
268.913	78.12
269.145	73.12
269.377	97.12
269.609	74.12
269.841	72.12
270.073	83.12
270.306	79.12
270.538	85.12
270.77	82.12
271.002	92.12
271.234	75.12
271.466	78.12
271.698	84.12
271.93	81.12
272.162	81.12
272.394	72.12
272.626	85.12
272.858	78.12
273.09	70.12
273.322	76.12
273.553	82.12
273.785	88.12
274.017	81.12
274.249	79.12
274.481	78.12
274.713	98.12
274.945	82.12
275.176	81.12
275.408	99.12
275.64	88.12
275.872	87.12
276.104	86.12
276.335	90.12
276.567	72.12
276.799	74.12
277.031	74.12
277.262	79.12
277.494	98.12
277.726	85.12
277.957	72.12
278.189	67.12
278.421	74.12
278.652	92.12
278.884	80.12
279.115	69.12
279.347	87.12
279.579	77.12
279.81	85.12
280.042	94.12
280.273	74.12
280.505	76.12
280.736	91.12
280.968	78.12
281.199	78.12
281.431	73.12
281.662	82.12
281.894	81.12
282.125	83.12
282.356	87.12
282.588	91.12
282.819	89.12
283.051	71.12
283.282	82.12
283.513	81.12
283.745	90.12
283.976	94.12
284.207	86.12
284.439	82.12
284.67	79.12
284.901	76.12
285.132	86.12
285.364	87.12
285.595	74.12
285.826	88.12
286.057	88.12
286.288	87.12
286.52	73.12
286.751	87.12
286.982	80.12
287.213	70.12
287.444	94.12
287.675	85.12
287.906	72.12
288.138	69.12
288.369	98.12
288.6	85.12
288.831	85.12
289.062	92.12
289.293	91.12
289.524	85.12
289.755	77.12
289.986	91.12
290.217	72.12
290.448	77.12
290.679	90.12
290.91	79.12
291.141	99.12
291.371	95.12
291.602	87.12
291.833	82.12
292.064	81.12
292.295	87.12
292.526	70.12
292.757	90.12
292.987	93.12
293.218	80.12
293.449	87.12
293.68	76.12
293.91	84.12
294.141	96.12
294.372	79.12
294.603	85.12
294.833	61.12
295.064	77.12
295.295	77.12
295.525	83.12
295.756	78.12
295.987	80.12
296.217	83.12
296.448	91.12
296.679	87.12
296.909	82.12
297.14	86.12
297.37	85.12
297.601	85.12
297.831	77.12
298.062	91.12
298.292	75.12
298.523	87.12
298.753	90.12
298.984	71.12
299.214	85.12
299.445	89.12
299.675	96.12
299.905	83.12
300.136	81.12
300.366	86.12
300.597	79.12
300.827	85.12
301.057	83.12
301.288	89.12
301.518	82.12
301.748	73.12
301.979	81.12
302.209	75.12
302.439	75.12
302.669	88.12
302.9	82.12
303.13	83.12
303.36	93.12
303.59	78.12
303.82	86.12
304.051	75.12
304.281	79.12
304.511	81.12
304.741	77.12
304.971	65.12
305.201	90.12
305.431	73.12
305.661	75.12
305.891	82.12
306.121	93.12
306.352	91.12
306.582	95.12
306.812	85.12
307.042	87.12
307.272	73.12
307.502	71.12
307.731	83.12
307.961	80.12
308.191	80.12
308.421	82.12
308.651	94.12
308.881	83.12
309.111	85.12
309.341	78.12
309.571	72.12
309.8	74.12
310.03	76.12
310.26	81.12
310.49	86.12
310.72	76.12
310.949	85.12
311.179	83.12
311.409	73.12
311.639	86.12
311.868	90.12
312.098	82.12
312.328	95.12
312.557	82.12
312.787	88.12
313.017	82.12
313.246	84.12
313.476	74.12
313.706	75.12
313.935	87.12
314.165	73.12
314.394	85.12
314.624	80.12
314.853	85.12
315.083	89.12
315.312	71.12
315.542	78.12
315.771	73.12
316.001	81.12
316.23	89.12
316.46	79.12
316.689	87.12
316.919	74.12
317.148	95.12
317.377	75.12
317.607	89.12
317.836	89.12
318.065	88.12
318.295	94.12
318.524	72.12
318.753	77.12
318.983	85.12
319.212	81.12
319.441	87.12
319.67	77.12
319.9	81.12
320.129	85.12
320.358	98.12
320.587	94.12
320.816	73.12
321.046	86.12
321.275	75.12
321.504	81.12
321.733	74.12
321.962	81.12
322.191	81.12
322.42	97.12
322.649	84.12
322.878	88.12
323.108	88.12
323.337	86.12
323.566	99.12
323.795	78.12
324.024	67.12
324.253	85.12
324.482	82.12
324.71	94.12
324.939	85.12
325.168	86.12
325.397	90.12
325.626	88.12
325.855	79.12
326.084	74.12
326.313	83.12
326.542	84.12
326.77	97.12
326.999	76.12
327.228	82.12
327.457	69.12
327.686	81.12
327.914	91.12
328.143	88.12
328.372	84.12
328.6	74.12
328.829	75.12
329.058	96.12
329.287	77.12
329.515	81.12
329.744	83.12
329.972	97.12
330.201	80.12
330.43	80.12
330.658	87.12
330.887	88.12
331.115	88.12
331.344	91.12
331.572	92.12
331.801	81.12
332.03	82.12
332.258	83.12
332.486	82.12
332.715	73.12
332.943	78.12
333.172	88.12
333.4	81.12
333.629	69.12
333.857	69.12
334.085	76.12
334.314	78.12
334.542	94.12
334.771	82.12
334.999	78.12
335.227	75.12
335.455	85.12
335.684	97.12
335.912	95.12
336.14	75.12
336.369	90.12
336.597	94.12
336.825	81.12
337.053	86.12
337.281	90.12
337.51	85.12
337.738	77.12
337.966	75.12
338.194	83.12
338.422	86.12
338.65	89.12
338.878	82.12
339.106	85.12
339.334	81.12
339.562	92.12
339.79	90.12
340.018	89.12
340.246	90.12
340.474	80.12
340.702	76.12
340.93	89.12
341.158	82.12
341.386	87.12
341.614	86.12
341.842	87.12
342.07	93.12
342.298	88.12
342.526	77.12
342.754	87.12
342.981	80.12
343.209	90.12
343.437	91.12
343.665	91.12
343.893	81.12
344.12	91.12
344.348	84.12
344.576	67.12
344.804	81.12
345.031	79.12
345.259	73.12
345.487	77.12
345.714	77.12
345.942	77.12
346.17	80.12
346.397	82.12
346.625	72.12
346.853	82.12
347.08	75.12
347.308	89.12
347.535	89.12
347.763	85.12
347.99	98.12
348.218	84.12
348.445	67.12
348.673	89.12
348.9	91.12
349.128	79.12
349.355	81.12
349.583	83.12
349.81	71.12
350.037	80.12
350.265	87.12
350.492	89.12
350.72	77.12
350.947	71.12
351.174	70.12
351.402	92.12
351.629	80.12
351.856	82.12
352.083	90.12
352.311	73.12
352.538	79.12
352.765	100.12
352.992	84.12
353.22	86.12
353.447	89.12
353.674	87.12
353.901	80.12
354.128	87.12
354.355	74.12
354.583	82.12
354.81	79.12
355.037	80.12
355.264	94.12
355.491	83.12
355.718	85.12
355.945	79.12
356.172	81.12
356.399	86.12
356.626	79.12
356.853	83.12
357.08	87.12
357.307	83.12
357.534	91.12
357.761	73.12
357.988	86.12
358.215	77.12
358.441	78.12
358.668	98.12
358.895	90.12
359.122	71.12
359.349	77.12
359.576	91.12
359.802	87.12
360.029	79.12
360.256	92.12
360.483	83.12
360.709	88.12
360.936	78.12
361.163	83.12
361.39	86.12
361.616	91.12
361.843	83.12
362.07	93.12
362.296	75.12
362.523	78.12
362.749	81.12
362.976	83.12
363.203	85.12
363.429	72.12
363.656	78.12
363.882	92.12
364.109	82.12
364.335	83.12
364.562	71.12
364.788	77.12
365.015	93.12
365.241	79.12
365.468	86.12
365.694	75.12
365.92	79.12
366.147	79.12
366.373	76.12
366.599	71.12
366.826	79.12
367.052	85.12
367.278	102.12
367.505	81.12
367.731	81.12
367.957	58.12
368.184	91.12
368.41	80.12
368.636	74.12
368.862	86.12
369.089	66.12
369.315	88.12
369.541	70.12
369.767	79.12
369.993	84.12
370.219	76.12
370.445	85.12
370.672	87.12
370.898	87.12
371.124	84.12
371.35	79.12
371.576	80.12
371.802	88.12
372.028	84.12
372.254	89.12
372.48	85.12
372.706	87.12
372.932	76.12
373.158	87.12
373.384	84.12
373.61	84.12
373.835	81.12
374.061	87.12
374.287	90.12
374.513	69.12
374.739	70.12
374.965	79.12
375.191	80.12
375.416	79.12
375.642	71.12
375.868	88.12
376.094	88.12
376.319	102.12
376.545	79.12
376.771	85.12
376.997	75.12
377.222	82.12
377.448	91.12
377.674	85.12
377.899	81.12
378.125	78.12
378.35	83.12
378.576	74.12
378.802	82.12
379.027	92.12
379.253	78.12
379.478	88.12
379.704	86.12
379.929	94.12
380.155	91.12
380.38	98.12
380.606	92.12
380.831	80.12
381.057	89.12
381.282	78.12
381.507	73.12
381.733	74.12
381.958	97.12
382.184	95.12
382.409	86.12
382.634	90.12
382.86	68.12
383.085	93.12
383.31	67.12
383.535	84.12
383.761	89.12
383.986	71.12
384.211	89.12
384.436	83.12
384.662	81.12
384.887	87.12
385.112	79.12
385.337	101.12
385.562	86.12
385.787	69.12
386.013	95.12
386.238	88.12
386.463	85.12
386.688	86.12
386.913	79.12
387.138	79.12
387.363	77.12
387.588	85.12
387.813	83.12
388.038	86.12
388.263	94.12
388.488	98.12
388.713	92.12
388.938	79.12
389.163	83.12
389.387	83.12
389.612	86.12
389.837	84.12
390.062	97.12
390.287	85.12
390.512	98.12
390.736	83.12
390.961	91.12
391.186	75.12
391.411	81.12
391.636	97.12
391.86	97.12
392.085	78.12
392.31	84.12
392.534	82.12
392.759	101.12
392.984	89.12
393.208	74.12
393.433	81.12
393.658	81.12
393.882	84.12
394.107	93.12
394.331	82.12
394.556	79.12
394.78	90.12
395.005	86.12
395.229	86.12
395.454	102.12
395.678	83.12
395.903	96.12
396.127	90.12
396.352	95.12
396.576	79.12
396.801	100.12
397.025	89.12
397.249	102.12
397.474	98.12
397.698	81.12
397.922	101.12
398.147	89.12
398.371	82.12
398.595	83.12
398.82	74.12
399.044	81.12
399.268	97.12
399.492	88.12
399.717	93.12
399.941	92.12
400.165	77.12
400.389	94.12
400.613	99.12
400.837	103.12
401.062	81.12
401.286	75.12
401.51	83.12
401.734	81.12
401.958	86.12
402.182	87.12
402.406	95.12
402.63	92.12
402.854	73.12
403.078	81.12
403.302	81.12
403.526	87.12
403.75	95.12
403.974	77.12
404.198	85.12
404.422	97.12
404.645	99.12
404.869	97.12
405.093	86.12
405.317	85.12
405.541	84.12
405.765	71.12
405.988	87.12
406.212	86.12
406.436	87.12
406.66	96.12
406.883	88.12
407.107	80.12
407.331	87.12
407.555	101.12
407.778	95.12
408.002	87.12
408.226	91.12
408.449	88.12
408.673	92.12
408.896	88.12
409.12	97.12
409.344	96.12
409.567	84.12
409.791	91.12
410.014	89.12
410.238	96.12
410.461	93.12
410.685	89.12
410.908	88.12
411.132	99.12
411.355	95.12
411.578	100.12
411.802	93.12
412.025	89.12
412.249	86.12
412.472	82.12
412.695	93.12
412.919	91.12
413.142	91.12
413.365	96.12
413.589	80.12
413.812	86.12
414.035	78.12
414.258	86.12
414.482	84.12
414.705	83.12
414.928	91.12
415.151	72.12
415.374	76.12
415.597	87.12
415.821	87.12
416.044	81.12
416.267	85.12
416.49	96.12
416.713	95.12
416.936	88.12
417.159	86.12
417.382	99.12
417.605	91.12
417.828	83.12
418.051	84.12
418.274	83.12
418.497	89.12
418.72	89.12
418.943	97.12
419.166	101.12
419.389	93.12
419.611	82.12
419.834	89.12
420.057	103.12
420.28	91.12
420.503	98.12
420.726	101.12
420.948	101.12
421.171	100.12
421.394	79.12
421.617	92.12
421.839	90.12
422.062	83.12
422.285	89.12
422.507	91.12
422.73	97.12
422.953	95.12
423.175	89.12
423.398	85.12
423.621	94.12
423.843	88.12
424.066	98.12
424.288	106.12
424.511	95.12
424.733	85.12
424.956	96.12
425.178	95.12
425.401	97.12
425.623	103.12
425.846	94.12
426.068	86.12
426.291	90.12
426.513	89.12
426.735	99.12
426.958	97.12
427.18	80.12
427.402	92.12
427.625	85.12
427.847	99.12
428.069	94.12
428.292	94.12
428.514	96.12
428.736	86.12
428.958	94.12
429.181	89.12
429.403	99.12
429.625	98.12
429.847	104.12
430.069	95.12
430.292	94.12
430.514	86.12
430.736	92.12
430.958	93.12
431.18	101.12
431.402	89.12
431.624	90.12
431.846	91.12
432.068	89.12
432.29	85.12
432.512	91.12
432.734	105.12
432.956	100.12
433.178	88.12
433.4	96.12
433.622	93.12
433.844	90.12
434.066	109.12
434.287	91.12
434.509	82.12
434.731	83.12
434.953	92.12
435.175	88.12
435.397	86.12
435.618	91.12
435.84	90.12
436.062	75.12
436.284	83.12
436.505	98.12
436.727	76.12
436.949	107.12
437.17	87.12
437.392	83.12
437.614	90.12
437.835	102.12
438.057	82.12
438.278	95.12
438.5	88.12
438.721	91.12
438.943	103.12
439.165	94.12
439.386	100.12
439.608	88.12
439.829	105.12
440.05	105.12
440.272	96.12
440.493	100.12
440.715	102.12
440.936	95.12
441.158	98.12
441.379	106.12
441.6	88.12
441.822	95.12
442.043	110.12
442.264	97.12
442.486	91.12
442.707	91.12
442.928	102.12
443.149	99.12
443.371	101.12
443.592	88.12
443.813	90.12
444.034	94.12
444.255	101.12
444.476	101.12
444.698	77.12
444.919	91.12
445.14	200.12
445.361	157.12
445.582	100.12
445.803	102.12
446.024	100.12
446.245	94.12
446.466	94.12
446.687	99.12
446.908	96.12
447.129	92.12
447.35	93.12
447.571	112.12
447.792	90.12
448.013	83.12
448.234	111.12
448.455	106.12
448.675	88.12
448.896	95.12
449.117	101.12
449.338	90.12
449.559	106.12
449.779	112.12
450	90.12
450.221	96.12
450.442	96.12
450.662	85.12
450.883	88.12
451.104	112.12
451.324	91.12
451.545	78.12
451.766	98.12
451.986	92.12
452.207	86.12
452.428	83.12
452.648	98.12
452.869	94.12
453.089	92.12
453.31	83.12
453.53	83.12
453.751	81.12
453.971	79.12
454.192	89.12
454.412	94.12
454.633	102.12
454.853	80.12
455.073	78.12
455.294	84.12
455.514	95.12
455.734	98.12
455.955	90.12
456.175	65.12
456.395	91.12
456.616	93.12
456.836	92.12
457.056	92.12
457.276	105.12
457.497	81.12
457.717	93.12
457.937	83.12
458.157	89.12
458.377	79.12
458.598	82.12
458.818	78.12
459.038	80.12
459.258	75.12
459.478	73.12
459.698	85.12
459.918	86.12
460.138	83.12
460.358	79.12
460.578	92.12
460.798	92.12
461.018	97.12
461.238	82.12
461.458	86.12
461.678	95.12
461.898	89.12
462.118	90.12
462.338	88.12
462.558	90.12
462.777	87.12
462.997	89.12
463.217	75.12
463.437	95.12
463.657	90.12
463.876	96.12
464.096	86.12
464.316	87.12
464.536	90.12
464.755	90.12
464.975	91.12
465.195	94.12
465.414	95.12
465.634	93.12
465.854	82.12
466.073	97.12
466.293	86.12
466.512	88.12
466.732	103.12
466.951	104.12
467.171	88.12
467.391	91.12
467.61	84.12
467.829	97.12
468.049	90.12
468.268	99.12
468.488	82.12
468.707	96.12
468.927	93.12
469.146	114.12
469.365	92.12
469.585	93.12
469.804	81.12
470.023	78.12
470.243	84.12
470.462	105.12
470.681	87.12
470.901	98.12
471.12	101.12
471.339	99.12
471.558	90.12
471.777	104.12
471.997	107.12
472.216	92.12
472.435	99.12
472.654	101.12
472.873	73.12
473.092	77.12
473.311	90.12
473.53	95.12
473.749	102.12
473.968	105.12
474.187	83.12
474.406	107.12
474.625	93.12
474.844	98.12
475.063	97.12
475.282	100.12
475.501	97.12
475.72	109.12
475.939	93.12
476.158	98.12
476.377	90.12
476.596	81.12
476.814	85.12
477.033	87.12
477.252	86.12
477.471	90.12
477.69	97.12
477.908	101.12
478.127	89.12
478.346	93.12
478.564	87.12
478.783	94.12
479.002	86.12
479.22	89.12
479.439	104.12
479.658	83.12
479.876	98.12
480.095	93.12
480.313	87.12
480.532	90.12
480.751	70.12
480.969	86.12
481.188	81.12
481.406	85.12
481.624	84.12
481.843	96.12
482.061	82.12
482.28	87.12
482.498	86.12
482.717	75.12
482.935	103.12
483.153	91.12
483.372	96.12
483.59	107.12
483.808	109.12
484.027	93.12
484.245	101.12
484.463	96.12
484.681	112.12
484.9	92.12
485.118	99.12
485.336	97.12
485.554	93.12
485.772	85.12
485.99	95.12
486.209	99.12
486.427	92.12
486.645	91.12
486.863	95.12
487.081	94.12
487.299	94.12
487.517	95.12
487.735	91.12
487.953	111.12
488.171	113.12
488.389	115.12
488.607	104.12
488.825	111.12
489.043	106.12
489.261	87.12
489.479	105.12
489.696	116.12
489.914	103.12
490.132	85.12
490.35	99.12
490.568	96.12
490.786	115.12
491.003	115.12
491.221	125.12
491.439	122.12
491.657	119.12
491.874	122.12
492.092	121.12
492.31	133.12
492.527	119.12
492.745	120.12
492.963	113.12
493.18	110.12
493.398	115.12
493.615	112.12
493.833	105.12
494.05	94.12
494.268	97.12
494.485	109.12
494.703	96.12
494.92	120.12
495.138	117.12
495.355	112.12
495.573	113.12
495.79	101.12
496.008	101.12
496.225	109.12
496.442	112.12
496.66	113.12
496.877	113.12
497.094	120.12
497.312	102.12
497.529	102.12
497.746	91.12
497.963	111.12
498.181	97.12
498.398	102.12
498.615	100.12
498.832	98.12
499.049	101.12
499.267	84.12
499.484	88.12
499.701	94.12
499.918	94.12
500.135	104.12
500.352	102.12
500.569	102.12
500.786	97.12
501.003	98.12
501.22	103.12
501.437	105.12
501.654	74.12
501.871	95.12
502.088	107.12
502.305	113.12
502.522	91.12
502.739	101.12
502.956	106.12
503.172	105.12
503.389	95.12
503.606	102.12
503.823	92.12
504.04	97.12
504.256	84.12
504.473	102.12
504.69	103.12
504.907	109.12
505.123	109.12
505.34	95.12
505.557	109.12
505.773	93.12
505.99	78.12
506.207	97.12
506.423	95.12
506.64	101.12
506.856	95.12
507.073	88.12
507.289	97.12
507.506	96.12
507.722	88.12
507.939	87.12
508.155	105.12
508.372	88.12
508.588	97.12
508.805	100.12
509.021	76.12
509.238	89.12
509.454	78.12
509.67	95.12
509.887	88.12
510.103	89.12
510.319	89.12
510.536	101.12
510.752	86.12
510.968	87.12
511.184	85.12
511.401	93.12
511.617	80.12
511.833	72.12
512.049	69.12
512.265	81.12
512.481	82.12
512.698	94.12
512.914	84.12
513.13	74.12
513.346	84.12
513.562	84.12
513.778	77.12
513.994	78.12
514.21	79.12
514.426	101.12
514.642	80.12
514.858	86.12
515.074	85.12
515.29	84.12
515.506	76.12
515.721	87.12
515.937	88.12
516.153	86.12
516.369	89.12
516.585	72.12
516.801	87.12
517.016	89.12
517.232	91.12
517.448	92.12
517.664	83.12
