Data from Location3.07152019.Energy5.Lamp.07192019.3%Agarose_HRD10591_15-18-40-269.txt Node
Date: Fri Jul 19 15:18:40 EDT 2019
User: cochatt
Spectrometer: HR+D1059
Trigger mode: 1
Integration Time (sec): 1.000000E-1
Scans to average: 1
Electric dark correction enabled: true
Nonlinearity correction enabled: false
Boxcar width: 0
XAxis mode: Wavelengths
Number of Pixels in Spectrum: 2048
>>>>>Begin Spectral Data<<<<<
223.165	-17.44
223.4	-17.44
223.635	-17.44
223.869	-3.44
224.104	-25.44
224.338	-19.44
224.573	-21.44
224.808	-11.44
225.042	-19.44
225.277	-17.44
225.511	-17.44
225.746	3.56
225.98	-0.44
226.215	18.56
226.449	36.56
226.683	19.56
226.918	31.56
227.152	43.56
227.387	36.56
227.621	36.56
227.856	51.56
228.09	37.56
228.324	58.56
228.559	57.56
228.793	62.56
229.027	68.56
229.262	63.56
229.496	72.56
229.73	76.56
229.964	76.56
230.199	72.56
230.433	73.56
230.667	82.56
230.901	69.56
231.136	76.56
231.37	92.56
231.604	74.56
231.838	82.56
232.072	74.56
232.306	82.56
232.541	94.56
232.775	85.56
233.009	86.56
233.243	72.56
233.477	72.56
233.711	84.56
233.945	82.56
234.179	86.56
234.413	91.56
234.647	69.56
234.881	78.56
235.115	83.56
235.349	73.56
235.583	90.56
235.817	79.56
236.051	94.56
236.285	76.56
236.519	81.56
236.753	86.56
236.987	81.56
237.221	80.56
237.455	89.56
237.689	77.56
237.922	74.56
238.156	76.56
238.39	77.56
238.624	81.56
238.858	71.56
239.091	82.56
239.325	79.56
239.559	77.56
239.793	66.56
240.027	77.56
240.26	82.56
240.494	84.56
240.728	76.56
240.961	83.56
241.195	66.56
241.429	76.56
241.662	76.56
241.896	79.56
242.13	71.56
242.363	85.56
242.597	89.56
242.83	84.56
243.064	76.56
243.298	80.56
243.531	75.56
243.765	91.56
243.998	83.56
244.232	79.56
244.465	92.56
244.699	72.56
244.932	79.56
245.166	72.56
245.399	66.56
245.633	85.56
245.866	82.56
246.099	81.56
246.333	76.56
246.566	70.56
246.8	82.56
247.033	77.56
247.266	86.56
247.5	71.56
247.733	88.56
247.966	86.56
248.2	63.56
248.433	86.56
248.666	84.56
248.899	84.56
249.133	80.56
249.366	80.56
249.599	81.56
249.832	78.56
250.066	89.56
250.299	80.56
250.532	80.56
250.765	81.56
250.998	84.56
251.231	100.56
251.465	77.56
251.698	93.56
251.931	83.56
252.164	84.56
252.397	77.56
252.63	74.56
252.863	85.56
253.096	80.56
253.329	79.56
253.562	90.56
253.795	79.56
254.028	88.56
254.261	81.56
254.494	93.56
254.727	93.56
254.96	74.56
255.193	84.56
255.426	76.56
255.659	81.56
255.892	80.56
256.124	79.56
256.357	84.56
256.59	73.56
256.823	75.56
257.056	82.56
257.289	80.56
257.521	73.56
257.754	69.56
257.987	85.56
258.22	106.56
258.452	86.56
258.685	89.56
258.918	72.56
259.151	80.56
259.383	89.56
259.616	80.56
259.849	83.56
260.081	93.56
260.314	98.56
260.547	100.56
260.779	82.56
261.012	75.56
261.244	90.56
261.477	86.56
261.71	82.56
261.942	94.56
262.175	78.56
262.407	80.56
262.64	84.56
262.872	90.56
263.105	87.56
263.337	81.56
263.57	82.56
263.802	78.56
264.035	80.56
264.267	73.56
264.499	79.56
264.732	85.56
264.964	88.56
265.197	77.56
265.429	105.56
265.661	79.56
265.894	90.56
266.126	71.56
266.358	82.56
266.591	95.56
266.823	78.56
267.055	80.56
267.287	80.56
267.52	93.56
267.752	86.56
267.984	84.56
268.216	76.56
268.448	74.56
268.681	93.56
268.913	78.56
269.145	84.56
269.377	96.56
269.609	73.56
269.841	82.56
270.073	89.56
270.306	90.56
270.538	90.56
270.77	72.56
271.002	91.56
271.234	76.56
271.466	78.56
271.698	81.56
271.93	78.56
272.162	90.56
272.394	76.56
272.626	88.56
272.858	96.56
273.09	93.56
273.322	101.56
273.553	67.56
273.785	90.56
274.017	77.56
274.249	71.56
274.481	80.56
274.713	82.56
274.945	88.56
275.176	82.56
275.408	97.56
275.64	85.56
275.872	86.56
276.104	72.56
276.335	76.56
276.567	85.56
276.799	91.56
277.031	92.56
277.262	78.56
277.494	77.56
277.726	94.56
277.957	84.56
278.189	85.56
278.421	78.56
278.652	93.56
278.884	87.56
279.115	86.56
279.347	102.56
279.579	86.56
279.81	87.56
280.042	79.56
280.273	86.56
280.505	85.56
280.736	90.56
280.968	86.56
281.199	86.56
281.431	82.56
281.662	82.56
281.894	85.56
282.125	88.56
282.356	90.56
282.588	78.56
282.819	84.56
283.051	88.56
283.282	80.56
283.513	90.56
283.745	88.56
283.976	91.56
284.207	81.56
284.439	76.56
284.67	98.56
284.901	84.56
285.132	74.56
285.364	106.56
285.595	78.56
285.826	92.56
286.057	92.56
286.288	88.56
286.52	77.56
286.751	77.56
286.982	75.56
287.213	83.56
287.444	93.56
287.675	80.56
287.906	82.56
288.138	74.56
288.369	78.56
288.6	89.56
288.831	84.56
289.062	87.56
289.293	87.56
289.524	81.56
289.755	83.56
289.986	82.56
290.217	69.56
290.448	76.56
290.679	87.56
290.91	87.56
291.141	82.56
291.371	87.56
291.602	91.56
291.833	72.56
292.064	98.56
292.295	83.56
292.526	84.56
292.757	93.56
292.987	82.56
293.218	84.56
293.449	89.56
293.68	72.56
293.91	79.56
294.141	83.56
294.372	95.56
294.603	87.56
294.833	87.56
295.064	93.56
295.295	77.56
295.525	89.56
295.756	105.56
295.987	84.56
296.217	74.56
296.448	94.56
296.679	92.56
296.909	97.56
297.14	90.56
297.37	88.56
297.601	87.56
297.831	81.56
298.062	90.56
298.292	96.56
298.523	79.56
298.753	81.56
298.984	82.56
299.214	82.56
299.445	96.56
299.675	89.56
299.905	95.56
300.136	85.56
300.366	89.56
300.597	92.56
300.827	90.56
301.057	94.56
301.288	84.56
301.518	84.56
301.748	89.56
301.979	82.56
302.209	92.56
302.439	88.56
302.669	88.56
302.9	98.56
303.13	79.56
303.36	74.56
303.59	90.56
303.82	88.56
304.051	73.56
304.281	81.56
304.511	89.56
304.741	98.56
304.971	95.56
305.201	89.56
305.431	102.56
305.661	70.56
305.891	89.56
306.121	86.56
306.352	82.56
306.582	89.56
306.812	84.56
307.042	89.56
307.272	86.56
307.502	92.56
307.731	86.56
307.961	88.56
308.191	76.56
308.421	97.56
308.651	84.56
308.881	82.56
309.111	85.56
309.341	92.56
309.571	91.56
309.8	97.56
310.03	85.56
310.26	76.56
310.49	89.56
310.72	92.56
310.949	86.56
311.179	97.56
311.409	84.56
311.639	80.56
311.868	88.56
312.098	84.56
312.328	89.56
312.557	84.56
312.787	91.56
313.017	88.56
313.246	70.56
313.476	75.56
313.706	93.56
313.935	106.56
314.165	81.56
314.394	79.56
314.624	76.56
314.853	89.56
315.083	85.56
315.312	81.56
315.542	90.56
315.771	75.56
316.001	96.56
316.23	87.56
316.46	82.56
316.689	76.56
316.919	94.56
317.148	93.56
317.377	86.56
317.607	94.56
317.836	79.56
318.065	80.56
318.295	84.56
318.524	83.56
318.753	83.56
318.983	101.56
319.212	81.56
319.441	78.56
319.67	85.56
319.9	96.56
320.129	85.56
320.358	106.56
320.587	89.56
320.816	92.56
321.046	97.56
321.275	81.56
321.504	83.56
321.733	89.56
321.962	82.56
322.191	97.56
322.42	103.56
322.649	85.56
322.878	97.56
323.108	93.56
323.337	89.56
323.566	94.56
323.795	84.56
324.024	98.56
324.253	100.56
324.482	85.56
324.71	101.56
324.939	92.56
325.168	85.56
325.397	83.56
325.626	76.56
325.855	88.56
326.084	79.56
326.313	85.56
326.542	86.56
326.77	81.56
326.999	96.56
327.228	78.56
327.457	80.56
327.686	74.56
327.914	90.56
328.143	83.56
328.372	86.56
328.6	90.56
328.829	93.56
329.058	96.56
329.287	83.56
329.515	94.56
329.744	101.56
329.972	98.56
330.201	89.56
330.43	94.56
330.658	101.56
330.887	92.56
331.115	101.56
331.344	85.56
331.572	99.56
331.801	90.56
332.03	91.56
332.258	88.56
332.486	81.56
332.715	92.56
332.943	94.56
333.172	80.56
333.4	68.56
333.629	93.56
333.857	81.56
334.085	89.56
334.314	97.56
334.542	76.56
334.771	98.56
334.999	74.56
335.227	81.56
335.455	92.56
335.684	88.56
335.912	84.56
336.14	92.56
336.369	89.56
336.597	90.56
336.825	90.56
337.053	81.56
337.281	82.56
337.51	86.56
337.738	87.56
337.966	72.56
338.194	86.56
338.422	70.56
338.65	99.56
338.878	81.56
339.106	99.56
339.334	73.56
339.562	81.56
339.79	77.56
340.018	84.56
340.246	94.56
340.474	84.56
340.702	88.56
340.93	85.56
341.158	96.56
341.386	88.56
341.614	85.56
341.842	84.56
342.07	91.56
342.298	80.56
342.526	96.56
342.754	88.56
342.981	82.56
343.209	84.56
343.437	82.56
343.665	97.56
343.893	92.56
344.12	100.56
344.348	87.56
344.576	93.56
344.804	89.56
345.031	106.56
345.259	87.56
345.487	79.56
345.714	89.56
345.942	78.56
346.17	82.56
346.397	78.56
346.625	70.56
346.853	81.56
347.08	94.56
347.308	87.56
347.535	69.56
347.763	89.56
347.99	82.56
348.218	77.56
348.445	87.56
348.673	85.56
348.9	82.56
349.128	79.56
349.355	91.56
349.583	96.56
349.81	88.56
350.037	95.56
350.265	91.56
350.492	92.56
350.72	102.56
350.947	93.56
351.174	97.56
351.402	73.56
351.629	106.56
351.856	99.56
352.083	89.56
352.311	93.56
352.538	72.56
352.765	93.56
352.992	97.56
353.22	86.56
353.447	89.56
353.674	83.56
353.901	84.56
354.128	91.56
354.355	89.56
354.583	80.56
354.81	90.56
355.037	88.56
355.264	81.56
355.491	78.56
355.718	85.56
355.945	99.56
356.172	93.56
356.399	89.56
356.626	92.56
356.853	95.56
357.08	92.56
357.307	84.56
357.534	93.56
357.761	75.56
357.988	84.56
358.215	97.56
358.441	79.56
358.668	83.56
358.895	80.56
359.122	66.56
359.349	78.56
359.576	87.56
359.802	86.56
360.029	91.56
360.256	92.56
360.483	88.56
360.709	85.56
360.936	98.56
361.163	90.56
361.39	96.56
361.616	99.56
361.843	83.56
362.07	98.56
362.296	77.56
362.523	87.56
362.749	92.56
362.976	70.56
363.203	97.56
363.429	80.56
363.656	98.56
363.882	81.56
364.109	86.56
364.335	70.56
364.562	95.56
364.788	86.56
365.015	85.56
365.241	75.56
365.468	88.56
365.694	86.56
365.92	100.56
366.147	87.56
366.373	78.56
366.599	90.56
366.826	94.56
367.052	93.56
367.278	78.56
367.505	88.56
367.731	92.56
367.957	91.56
368.184	90.56
368.41	88.56
368.636	88.56
368.862	93.56
369.089	89.56
369.315	102.56
369.541	93.56
369.767	88.56
369.993	93.56
370.219	76.56
370.445	90.56
370.672	82.56
370.898	100.56
371.124	90.56
371.35	82.56
371.576	84.56
371.802	88.56
372.028	81.56
372.254	91.56
372.48	94.56
372.706	77.56
372.932	82.56
373.158	99.56
373.384	78.56
373.61	83.56
373.835	90.56
374.061	77.56
374.287	92.56
374.513	99.56
374.739	69.56
374.965	93.56
375.191	87.56
375.416	92.56
375.642	82.56
375.868	81.56
376.094	77.56
376.319	109.56
376.545	98.56
376.771	89.56
376.997	93.56
377.222	91.56
377.448	82.56
377.674	92.56
377.899	84.56
378.125	86.56
378.35	77.56
378.576	79.56
378.802	84.56
379.027	92.56
379.253	99.56
379.478	93.56
379.704	84.56
379.929	79.56
380.155	89.56
380.38	93.56
380.606	89.56
380.831	98.56
381.057	106.56
381.282	82.56
381.507	83.56
381.733	92.56
381.958	100.56
382.184	93.56
382.409	98.56
382.634	97.56
382.86	94.56
383.085	100.56
383.31	93.56
383.535	97.56
383.761	105.56
383.986	83.56
384.211	92.56
384.436	93.56
384.662	87.56
384.887	94.56
385.112	85.56
385.337	95.56
385.562	90.56
385.787	97.56
386.013	98.56
386.238	90.56
386.463	82.56
386.688	90.56
386.913	97.56
387.138	94.56
387.363	81.56
387.588	92.56
387.813	87.56
388.038	84.56
388.263	88.56
388.488	96.56
388.713	81.56
388.938	84.56
389.163	96.56
389.387	96.56
389.612	77.56
389.837	90.56
390.062	91.56
390.287	84.56
390.512	92.56
390.736	89.56
390.961	92.56
391.186	82.56
391.411	84.56
391.636	86.56
391.86	84.56
392.085	89.56
392.31	97.56
392.534	102.56
392.759	93.56
392.984	93.56
393.208	89.56
393.433	79.56
393.658	95.56
393.882	92.56
394.107	84.56
394.331	82.56
394.556	91.56
394.78	86.56
395.005	81.56
395.229	104.56
395.454	91.56
395.678	94.56
395.903	93.56
396.127	95.56
396.352	92.56
396.576	100.56
396.801	88.56
397.025	88.56
397.249	95.56
397.474	92.56
397.698	78.56
397.922	87.56
398.147	95.56
398.371	98.56
398.595	104.56
398.82	91.56
399.044	106.56
399.268	88.56
399.492	91.56
399.717	89.56
399.941	93.56
400.165	100.56
400.389	81.56
400.613	88.56
400.837	96.56
401.062	99.56
401.286	100.56
401.51	81.56
401.734	87.56
401.958	89.56
402.182	89.56
402.406	93.56
402.63	85.56
402.854	83.56
403.078	76.56
403.302	84.56
403.526	83.56
403.75	107.56
403.974	105.56
404.198	87.56
404.422	89.56
404.645	95.56
404.869	93.56
405.093	86.56
405.317	90.56
405.541	80.56
405.765	89.56
405.988	101.56
406.212	89.56
406.436	88.56
406.66	106.56
406.883	97.56
407.107	90.56
407.331	87.56
407.555	90.56
407.778	102.56
408.002	99.56
408.226	92.56
408.449	98.56
408.673	85.56
408.896	110.56
409.12	102.56
409.344	96.56
409.567	86.56
409.791	90.56
410.014	95.56
410.238	95.56
410.461	94.56
410.685	98.56
410.908	88.56
411.132	81.56
411.355	103.56
411.578	85.56
411.802	102.56
412.025	89.56
412.249	78.56
412.472	92.56
412.695	84.56
412.919	83.56
413.142	87.56
413.365	85.56
413.589	85.56
413.812	89.56
414.035	98.56
414.258	92.56
414.482	88.56
414.705	94.56
414.928	106.56
415.151	113.56
415.374	102.56
415.597	98.56
415.821	105.56
416.044	106.56
416.267	84.56
416.49	96.56
416.713	105.56
416.936	97.56
417.159	89.56
417.382	99.56
417.605	97.56
417.828	89.56
418.051	97.56
418.274	97.56
418.497	84.56
418.72	96.56
418.943	93.56
419.166	101.56
419.389	96.56
419.611	89.56
419.834	106.56
420.057	88.56
420.28	100.56
420.503	94.56
420.726	104.56
420.948	98.56
421.171	96.56
421.394	105.56
421.617	83.56
421.839	98.56
422.062	101.56
422.285	105.56
422.507	115.56
422.73	100.56
422.953	96.56
423.175	85.56
423.398	100.56
423.621	99.56
423.843	96.56
424.066	87.56
424.288	105.56
424.511	97.56
424.733	96.56
424.956	99.56
425.178	109.56
425.401	101.56
425.623	107.56
425.846	107.56
426.068	99.56
426.291	101.56
426.513	107.56
426.735	95.56
426.958	81.56
427.18	97.56
427.402	97.56
427.625	110.56
427.847	96.56
428.069	106.56
428.292	90.56
428.514	91.56
428.736	84.56
428.958	86.56
429.181	89.56
429.403	91.56
429.625	96.56
429.847	109.56
430.069	85.56
430.292	110.56
430.514	91.56
430.736	91.56
430.958	99.56
431.18	89.56
431.402	97.56
431.624	105.56
431.846	92.56
432.068	79.56
432.29	79.56
432.512	87.56
432.734	94.56
432.956	99.56
433.178	98.56
433.4	95.56
433.622	87.56
433.844	89.56
434.066	94.56
434.287	96.56
434.509	93.56
434.731	88.56
434.953	90.56
435.175	88.56
435.397	100.56
435.618	80.56
435.84	104.56
436.062	102.56
436.284	100.56
436.505	95.56
436.727	96.56
436.949	100.56
437.17	78.56
437.392	75.56
437.614	94.56
437.835	92.56
438.057	98.56
438.278	96.56
438.5	102.56
438.721	94.56
438.943	106.56
439.165	92.56
439.386	117.56
439.608	96.56
439.829	100.56
440.05	104.56
440.272	99.56
440.493	103.56
440.715	97.56
440.936	90.56
441.158	90.56
441.379	94.56
441.6	89.56
441.822	103.56
442.043	90.56
442.264	105.56
442.486	98.56
442.707	101.56
442.928	92.56
443.149	98.56
443.371	90.56
443.592	107.56
443.813	93.56
444.034	97.56
444.255	93.56
444.476	101.56
444.698	101.56
444.919	91.56
445.14	216.56
445.361	149.56
445.582	99.56
445.803	107.56
446.024	93.56
446.245	93.56
446.466	106.56
446.687	108.56
446.908	120.56
447.129	115.56
447.35	116.56
447.571	103.56
447.792	101.56
448.013	101.56
448.234	105.56
448.455	104.56
448.675	115.56
448.896	106.56
449.117	107.56
449.338	88.56
449.559	103.56
449.779	86.56
450	105.56
450.221	99.56
450.442	95.56
450.662	101.56
450.883	97.56
451.104	97.56
451.324	89.56
451.545	97.56
451.766	85.56
451.986	89.56
452.207	96.56
452.428	89.56
452.648	103.56
452.869	83.56
453.089	99.56
453.31	91.56
453.53	107.56
453.751	99.56
453.971	100.56
454.192	85.56
454.412	96.56
454.633	89.56
454.853	98.56
455.073	102.56
455.294	88.56
455.514	90.56
455.734	97.56
455.955	97.56
456.175	81.56
456.395	96.56
456.616	97.56
456.836	90.56
457.056	79.56
457.276	88.56
457.497	89.56
457.717	82.56
457.937	95.56
458.157	96.56
458.377	97.56
458.598	84.56
458.818	81.56
459.038	89.56
459.258	82.56
459.478	80.56
459.698	76.56
459.918	97.56
460.138	101.56
460.358	86.56
460.578	79.56
460.798	98.56
461.018	105.56
461.238	92.56
461.458	72.56
461.678	112.56
461.898	90.56
462.118	94.56
462.338	98.56
462.558	104.56
462.777	91.56
462.997	84.56
463.217	86.56
463.437	81.56
463.657	91.56
463.876	90.56
464.096	91.56
464.316	81.56
464.536	96.56
464.755	105.56
464.975	99.56
465.195	114.56
465.414	89.56
465.634	99.56
465.854	93.56
466.073	90.56
466.293	81.56
466.512	87.56
466.732	96.56
466.951	98.56
467.171	99.56
467.391	88.56
467.61	99.56
467.829	88.56
468.049	89.56
468.268	86.56
468.488	96.56
468.707	103.56
468.927	100.56
469.146	106.56
469.365	105.56
469.585	98.56
469.804	105.56
470.023	92.56
470.243	103.56
470.462	97.56
470.681	107.56
470.901	107.56
471.12	116.56
471.339	94.56
471.558	102.56
471.777	105.56
471.997	103.56
472.216	89.56
472.435	74.56
472.654	85.56
472.873	94.56
473.092	92.56
473.311	92.56
473.53	101.56
473.749	92.56
473.968	92.56
474.187	93.56
474.406	94.56
474.625	96.56
474.844	113.56
475.063	103.56
475.282	102.56
475.501	94.56
475.72	89.56
475.939	97.56
476.158	89.56
476.377	102.56
476.596	86.56
476.814	84.56
477.033	101.56
477.252	94.56
477.471	107.56
477.69	102.56
477.908	107.56
478.127	98.56
478.346	101.56
478.564	107.56
478.783	101.56
479.002	99.56
479.22	101.56
479.439	92.56
479.658	108.56
479.876	85.56
480.095	94.56
480.313	89.56
480.532	103.56
480.751	84.56
480.969	85.56
481.188	85.56
481.406	74.56
481.624	78.56
481.843	85.56
482.061	84.56
482.28	86.56
482.498	88.56
482.717	91.56
482.935	106.56
483.153	92.56
483.372	104.56
483.59	110.56
483.808	106.56
484.027	95.56
484.245	95.56
484.463	96.56
484.681	121.56
484.9	111.56
485.118	100.56
485.336	95.56
485.554	81.56
485.772	98.56
485.99	91.56
486.209	85.56
486.427	87.56
486.645	98.56
486.863	115.56
487.081	94.56
487.299	104.56
487.517	103.56
487.735	106.56
487.953	99.56
488.171	129.56
488.389	119.56
488.607	107.56
488.825	114.56
489.043	110.56
489.261	102.56
489.479	97.56
489.696	95.56
489.914	100.56
490.132	103.56
490.35	102.56
490.568	115.56
490.786	112.56
491.003	114.56
491.221	114.56
491.439	118.56
491.657	121.56
491.874	99.56
492.092	132.56
492.31	130.56
492.527	114.56
492.745	127.56
492.963	99.56
493.18	109.56
493.398	122.56
493.615	122.56
493.833	113.56
494.05	122.56
494.268	119.56
494.485	98.56
494.703	105.56
494.92	113.56
495.138	112.56
495.355	99.56
495.573	119.56
495.79	110.56
496.008	108.56
496.225	108.56
496.442	119.56
496.66	101.56
496.877	98.56
497.094	118.56
497.312	102.56
497.529	106.56
497.746	122.56
497.963	88.56
498.181	90.56
498.398	95.56
498.615	86.56
498.832	82.56
499.049	96.56
499.267	90.56
499.484	97.56
499.701	103.56
499.918	102.56
500.135	107.56
500.352	108.56
500.569	101.56
500.786	107.56
501.003	114.56
501.22	105.56
501.437	116.56
501.654	104.56
501.871	88.56
502.088	109.56
502.305	101.56
502.522	105.56
502.739	102.56
502.956	101.56
503.172	88.56
503.389	93.56
503.606	99.56
503.823	86.56
504.04	116.56
504.256	106.56
504.473	93.56
504.69	88.56
504.907	92.56
505.123	93.56
505.34	94.56
505.557	102.56
505.773	90.56
505.99	93.56
506.207	94.56
506.423	91.56
506.64	92.56
506.856	95.56
507.073	101.56
507.289	99.56
507.506	104.56
507.722	90.56
507.939	106.56
508.155	101.56
508.372	84.56
508.588	90.56
508.805	98.56
509.021	82.56
509.238	91.56
509.454	93.56
509.67	80.56
509.887	92.56
510.103	86.56
510.319	98.56
510.536	85.56
510.752	85.56
510.968	89.56
511.184	92.56
511.401	89.56
511.617	88.56
511.833	86.56
512.049	110.56
512.265	91.56
512.481	85.56
512.698	84.56
512.914	85.56
513.13	80.56
513.346	77.56
513.562	82.56
513.778	103.56
513.994	90.56
514.21	70.56
514.426	93.56
514.642	97.56
514.858	97.56
515.074	91.56
515.29	81.56
515.506	69.56
515.721	91.56
515.937	88.56
516.153	79.56
516.369	88.56
