Data from Location3.07152019.Energy5.Lamp.07192019.3%Agarose_HRD10591_15-19-26-270.txt Node
Date: Fri Jul 19 15:19:26 EDT 2019
User: cochatt
Spectrometer: HR+D1059
Trigger mode: 1
Integration Time (sec): 1.000000E-1
Scans to average: 1
Electric dark correction enabled: true
Nonlinearity correction enabled: false
Boxcar width: 0
XAxis mode: Wavelengths
Number of Pixels in Spectrum: 2048
>>>>>Begin Spectral Data<<<<<
223.165	-13.19
223.4	-13.19
223.635	-13.19
223.869	-22.19
224.104	-7.19
224.338	-3.19
224.573	-14.19
224.808	-3.19
225.042	-11.19
225.277	-1.19
225.511	-2.19
225.746	8.81
225.98	-5.19
226.215	9.81
226.449	7.81
226.683	9.81
226.918	10.81
227.152	35.81
227.387	28.81
227.621	31.81
227.856	31.81
228.09	40.81
228.324	57.81
228.559	59.81
228.793	64.81
229.027	63.81
229.262	67.81
229.496	70.81
229.73	62.81
229.964	57.81
230.199	74.81
230.433	81.81
230.667	80.81
230.901	90.81
231.136	83.81
231.37	74.81
231.604	70.81
231.838	79.81
232.072	74.81
232.306	95.81
232.541	76.81
232.775	81.81
233.009	84.81
233.243	85.81
233.477	81.81
233.711	77.81
233.945	74.81
234.179	77.81
234.413	85.81
234.647	78.81
234.881	79.81
235.115	91.81
235.349	102.81
235.583	69.81
235.817	82.81
236.051	80.81
236.285	79.81
236.519	76.81
236.753	76.81
236.987	83.81
237.221	72.81
237.455	67.81
237.689	73.81
237.922	81.81
238.156	77.81
238.39	67.81
238.624	73.81
238.858	76.81
239.091	82.81
239.325	72.81
239.559	80.81
239.793	75.81
240.027	75.81
240.26	87.81
240.494	72.81
240.728	79.81
240.961	79.81
241.195	77.81
241.429	63.81
241.662	85.81
241.896	85.81
242.13	88.81
242.363	79.81
242.597	90.81
242.83	75.81
243.064	71.81
243.298	81.81
243.531	72.81
243.765	81.81
243.998	78.81
244.232	70.81
244.465	72.81
244.699	87.81
244.932	77.81
245.166	73.81
245.399	81.81
245.633	71.81
245.866	71.81
246.099	82.81
246.333	71.81
246.566	80.81
246.8	69.81
247.033	66.81
247.266	67.81
247.5	73.81
247.733	85.81
247.966	87.81
248.2	93.81
248.433	81.81
248.666	73.81
248.899	72.81
249.133	73.81
249.366	76.81
249.599	75.81
249.832	83.81
250.066	73.81
250.299	80.81
250.532	83.81
250.765	61.81
250.998	76.81
251.231	76.81
251.465	79.81
251.698	81.81
251.931	73.81
252.164	64.81
252.397	84.81
252.63	95.81
252.863	78.81
253.096	78.81
253.329	64.81
253.562	84.81
253.795	74.81
254.028	71.81
254.261	71.81
254.494	78.81
254.727	64.81
254.96	70.81
255.193	76.81
255.426	76.81
255.659	85.81
255.892	86.81
256.124	81.81
256.357	82.81
256.59	70.81
256.823	65.81
257.056	80.81
257.289	88.81
257.521	95.81
257.754	88.81
257.987	72.81
258.22	88.81
258.452	86.81
258.685	79.81
258.918	67.81
259.151	85.81
259.383	83.81
259.616	74.81
259.849	102.81
260.081	83.81
260.314	78.81
260.547	84.81
260.779	82.81
261.012	73.81
261.244	82.81
261.477	82.81
261.71	75.81
261.942	77.81
262.175	86.81
262.407	79.81
262.64	68.81
262.872	76.81
263.105	93.81
263.337	89.81
263.57	70.81
263.802	75.81
264.035	79.81
264.267	86.81
264.499	82.81
264.732	76.81
264.964	90.81
265.197	83.81
265.429	77.81
265.661	88.81
265.894	88.81
266.126	87.81
266.358	90.81
266.591	88.81
266.823	56.81
267.055	78.81
267.287	68.81
267.52	93.81
267.752	96.81
267.984	79.81
268.216	78.81
268.448	85.81
268.681	82.81
268.913	94.81
269.145	90.81
269.377	96.81
269.609	82.81
269.841	77.81
270.073	86.81
270.306	77.81
270.538	78.81
270.77	76.81
271.002	81.81
271.234	73.81
271.466	85.81
271.698	84.81
271.93	71.81
272.162	80.81
272.394	81.81
272.626	85.81
272.858	66.81
273.09	85.81
273.322	90.81
273.553	81.81
273.785	84.81
274.017	74.81
274.249	82.81
274.481	90.81
274.713	87.81
274.945	74.81
275.176	83.81
275.408	69.81
275.64	96.81
275.872	88.81
276.104	76.81
276.335	76.81
276.567	79.81
276.799	70.81
277.031	96.81
277.262	101.81
277.494	93.81
277.726	86.81
277.957	91.81
278.189	69.81
278.421	78.81
278.652	87.81
278.884	92.81
279.115	90.81
279.347	93.81
279.579	70.81
279.81	70.81
280.042	87.81
280.273	75.81
280.505	77.81
280.736	90.81
280.968	87.81
281.199	72.81
281.431	87.81
281.662	76.81
281.894	97.81
282.125	77.81
282.356	82.81
282.588	83.81
282.819	82.81
283.051	86.81
283.282	85.81
283.513	87.81
283.745	80.81
283.976	80.81
284.207	83.81
284.439	88.81
284.67	90.81
284.901	87.81
285.132	80.81
285.364	85.81
285.595	78.81
285.826	77.81
286.057	71.81
286.288	80.81
286.52	86.81
286.751	82.81
286.982	87.81
287.213	85.81
287.444	84.81
287.675	97.81
287.906	88.81
288.138	81.81
288.369	85.81
288.6	102.81
288.831	95.81
289.062	85.81
289.293	67.81
289.524	91.81
289.755	82.81
289.986	88.81
290.217	83.81
290.448	76.81
290.679	85.81
290.91	87.81
291.141	98.81
291.371	91.81
291.602	85.81
291.833	65.81
292.064	95.81
292.295	84.81
292.526	70.81
292.757	86.81
292.987	81.81
293.218	57.81
293.449	69.81
293.68	77.81
293.91	93.81
294.141	90.81
294.372	73.81
294.603	81.81
294.833	87.81
295.064	89.81
295.295	89.81
295.525	84.81
295.756	77.81
295.987	82.81
296.217	79.81
296.448	80.81
296.679	76.81
296.909	85.81
297.14	79.81
297.37	68.81
297.601	70.81
297.831	88.81
298.062	76.81
298.292	93.81
298.523	100.81
298.753	87.81
298.984	94.81
299.214	80.81
299.445	71.81
299.675	92.81
299.905	86.81
300.136	74.81
300.366	75.81
300.597	80.81
300.827	78.81
301.057	84.81
301.288	92.81
301.518	81.81
301.748	87.81
301.979	85.81
302.209	86.81
302.439	95.81
302.669	73.81
302.9	88.81
303.13	70.81
303.36	81.81
303.59	78.81
303.82	100.81
304.051	64.81
304.281	82.81
304.511	81.81
304.741	79.81
304.971	75.81
305.201	93.81
305.431	88.81
305.661	80.81
305.891	91.81
306.121	91.81
306.352	78.81
306.582	82.81
306.812	89.81
307.042	85.81
307.272	79.81
307.502	93.81
307.731	74.81
307.961	82.81
308.191	77.81
308.421	88.81
308.651	84.81
308.881	82.81
309.111	96.81
309.341	88.81
309.571	83.81
309.8	85.81
310.03	80.81
310.26	77.81
310.49	69.81
310.72	74.81
310.949	84.81
311.179	85.81
311.409	83.81
311.639	90.81
311.868	65.81
312.098	73.81
312.328	88.81
312.557	75.81
312.787	83.81
313.017	82.81
313.246	89.81
313.476	94.81
313.706	74.81
313.935	86.81
314.165	84.81
314.394	86.81
314.624	78.81
314.853	88.81
315.083	87.81
315.312	84.81
315.542	72.81
315.771	84.81
316.001	87.81
316.23	100.81
316.46	83.81
316.689	92.81
316.919	81.81
317.148	87.81
317.377	93.81
317.607	80.81
317.836	81.81
318.065	80.81
318.295	91.81
318.524	69.81
318.753	70.81
318.983	81.81
319.212	92.81
319.441	73.81
319.67	69.81
319.9	87.81
320.129	79.81
320.358	84.81
320.587	89.81
320.816	84.81
321.046	66.81
321.275	85.81
321.504	72.81
321.733	77.81
321.962	78.81
322.191	77.81
322.42	76.81
322.649	89.81
322.878	84.81
323.108	78.81
323.337	78.81
323.566	81.81
323.795	94.81
324.024	90.81
324.253	85.81
324.482	75.81
324.71	87.81
324.939	95.81
325.168	94.81
325.397	84.81
325.626	84.81
325.855	85.81
326.084	88.81
326.313	74.81
326.542	83.81
326.77	70.81
326.999	80.81
327.228	84.81
327.457	82.81
327.686	74.81
327.914	84.81
328.143	85.81
328.372	71.81
328.6	77.81
328.829	65.81
329.058	75.81
329.287	64.81
329.515	77.81
329.744	71.81
329.972	88.81
330.201	80.81
330.43	79.81
330.658	79.81
330.887	85.81
331.115	93.81
331.344	88.81
331.572	95.81
331.801	79.81
332.03	87.81
332.258	73.81
332.486	79.81
332.715	89.81
332.943	79.81
333.172	83.81
333.4	86.81
333.629	81.81
333.857	75.81
334.085	90.81
334.314	82.81
334.542	73.81
334.771	79.81
334.999	76.81
335.227	86.81
335.455	75.81
335.684	80.81
335.912	79.81
336.14	88.81
336.369	79.81
336.597	70.81
336.825	84.81
337.053	83.81
337.281	104.81
337.51	92.81
337.738	73.81
337.966	102.81
338.194	87.81
338.422	80.81
338.65	86.81
338.878	77.81
339.106	98.81
339.334	94.81
339.562	88.81
339.79	85.81
340.018	76.81
340.246	80.81
340.474	84.81
340.702	71.81
340.93	90.81
341.158	88.81
341.386	80.81
341.614	86.81
341.842	80.81
342.07	86.81
342.298	83.81
342.526	84.81
342.754	93.81
342.981	80.81
343.209	62.81
343.437	77.81
343.665	90.81
343.893	75.81
344.12	74.81
344.348	87.81
344.576	84.81
344.804	83.81
345.031	85.81
345.259	82.81
345.487	74.81
345.714	85.81
345.942	71.81
346.17	82.81
346.397	64.81
346.625	72.81
346.853	72.81
347.08	81.81
347.308	73.81
347.535	85.81
347.763	87.81
347.99	92.81
348.218	93.81
348.445	73.81
348.673	98.81
348.9	76.81
349.128	89.81
349.355	90.81
349.583	77.81
349.81	78.81
350.037	77.81
350.265	84.81
350.492	71.81
350.72	84.81
350.947	90.81
351.174	78.81
351.402	74.81
351.629	90.81
351.856	87.81
352.083	88.81
352.311	94.81
352.538	89.81
352.765	86.81
352.992	81.81
353.22	67.81
353.447	81.81
353.674	93.81
353.901	88.81
354.128	89.81
354.355	90.81
354.583	92.81
354.81	79.81
355.037	80.81
355.264	95.81
355.491	85.81
355.718	90.81
355.945	77.81
356.172	82.81
356.399	83.81
356.626	88.81
356.853	79.81
357.08	88.81
357.307	81.81
357.534	86.81
357.761	94.81
357.988	103.81
358.215	90.81
358.441	73.81
358.668	83.81
358.895	73.81
359.122	84.81
359.349	68.81
359.576	76.81
359.802	76.81
360.029	89.81
360.256	80.81
360.483	88.81
360.709	82.81
360.936	94.81
361.163	93.81
361.39	81.81
361.616	80.81
361.843	86.81
362.07	86.81
362.296	82.81
362.523	83.81
362.749	72.81
362.976	76.81
363.203	86.81
363.429	76.81
363.656	89.81
363.882	102.81
364.109	88.81
364.335	97.81
364.562	79.81
364.788	82.81
365.015	95.81
365.241	78.81
365.468	79.81
365.694	72.81
365.92	74.81
366.147	76.81
366.373	91.81
366.599	90.81
366.826	68.81
367.052	75.81
367.278	86.81
367.505	84.81
367.731	92.81
367.957	86.81
368.184	66.81
368.41	97.81
368.636	88.81
368.862	64.81
369.089	80.81
369.315	83.81
369.541	75.81
369.767	84.81
369.993	79.81
370.219	81.81
370.445	92.81
370.672	74.81
370.898	91.81
371.124	80.81
371.35	78.81
371.576	92.81
371.802	90.81
372.028	84.81
372.254	100.81
372.48	86.81
372.706	72.81
372.932	79.81
373.158	77.81
373.384	95.81
373.61	81.81
373.835	76.81
374.061	77.81
374.287	89.81
374.513	76.81
374.739	72.81
374.965	84.81
375.191	84.81
375.416	86.81
375.642	93.81
375.868	65.81
376.094	86.81
376.319	85.81
376.545	91.81
376.771	82.81
376.997	89.81
377.222	77.81
377.448	82.81
377.674	77.81
377.899	73.81
378.125	92.81
378.35	87.81
378.576	89.81
378.802	70.81
379.027	82.81
379.253	82.81
379.478	89.81
379.704	92.81
379.929	81.81
380.155	97.81
380.38	74.81
380.606	84.81
380.831	80.81
381.057	82.81
381.282	67.81
381.507	92.81
381.733	100.81
381.958	91.81
382.184	72.81
382.409	78.81
382.634	88.81
382.86	92.81
383.085	82.81
383.31	88.81
383.535	77.81
383.761	71.81
383.986	86.81
384.211	83.81
384.436	81.81
384.662	83.81
384.887	65.81
385.112	74.81
385.337	80.81
385.562	91.81
385.787	84.81
386.013	70.81
386.238	87.81
386.463	82.81
386.688	73.81
386.913	97.81
387.138	88.81
387.363	93.81
387.588	92.81
387.813	83.81
388.038	85.81
388.263	96.81
388.488	98.81
388.713	90.81
388.938	88.81
389.163	86.81
389.387	79.81
389.612	74.81
389.837	72.81
390.062	88.81
390.287	85.81
390.512	74.81
390.736	74.81
390.961	80.81
391.186	91.81
391.411	87.81
391.636	76.81
391.86	84.81
392.085	86.81
392.31	86.81
392.534	90.81
392.759	81.81
392.984	79.81
393.208	90.81
393.433	80.81
393.658	82.81
393.882	100.81
394.107	90.81
394.331	94.81
394.556	78.81
394.78	89.81
395.005	80.81
395.229	85.81
395.454	104.81
395.678	93.81
395.903	93.81
396.127	97.81
396.352	89.81
396.576	101.81
396.801	88.81
397.025	88.81
397.249	89.81
397.474	89.81
397.698	101.81
397.922	71.81
398.147	68.81
398.371	94.81
398.595	95.81
398.82	72.81
399.044	80.81
399.268	82.81
399.492	86.81
399.717	92.81
399.941	102.81
400.165	84.81
400.389	74.81
400.613	81.81
400.837	77.81
401.062	93.81
401.286	87.81
401.51	78.81
401.734	84.81
401.958	88.81
402.182	90.81
402.406	87.81
402.63	81.81
402.854	90.81
403.078	83.81
403.302	84.81
403.526	85.81
403.75	83.81
403.974	87.81
404.198	84.81
404.422	80.81
404.645	97.81
404.869	79.81
405.093	99.81
405.317	88.81
405.541	90.81
405.765	86.81
405.988	98.81
406.212	86.81
406.436	89.81
406.66	105.81
406.883	74.81
407.107	86.81
407.331	100.81
407.555	88.81
407.778	108.81
408.002	92.81
408.226	78.81
408.449	80.81
408.673	80.81
408.896	96.81
409.12	84.81
409.344	95.81
409.567	89.81
409.791	86.81
410.014	90.81
410.238	88.81
410.461	97.81
410.685	81.81
410.908	87.81
411.132	89.81
411.355	75.81
411.578	103.81
411.802	79.81
412.025	90.81
412.249	92.81
412.472	97.81
412.695	96.81
412.919	98.81
413.142	79.81
413.365	83.81
413.589	83.81
413.812	95.81
414.035	90.81
414.258	86.81
414.482	86.81
414.705	86.81
414.928	93.81
415.151	86.81
415.374	92.81
415.597	80.81
415.821	84.81
416.044	94.81
416.267	85.81
416.49	90.81
416.713	89.81
416.936	85.81
417.159	99.81
417.382	91.81
417.605	75.81
417.828	84.81
418.051	92.81
418.274	102.81
418.497	98.81
418.72	83.81
418.943	86.81
419.166	80.81
419.389	99.81
419.611	93.81
419.834	100.81
420.057	98.81
420.28	91.81
420.503	109.81
420.726	98.81
420.948	82.81
421.171	104.81
421.394	86.81
421.617	89.81
421.839	85.81
422.062	86.81
422.285	89.81
422.507	86.81
422.73	92.81
422.953	94.81
423.175	98.81
423.398	87.81
423.621	74.81
423.843	68.81
424.066	93.81
424.288	84.81
424.511	111.81
424.733	89.81
424.956	87.81
425.178	94.81
425.401	87.81
425.623	92.81
425.846	93.81
426.068	104.81
426.291	85.81
426.513	98.81
426.735	105.81
426.958	89.81
427.18	87.81
427.402	89.81
427.625	88.81
427.847	94.81
428.069	106.81
428.292	89.81
428.514	93.81
428.736	79.81
428.958	79.81
429.181	85.81
429.403	83.81
429.625	96.81
429.847	92.81
430.069	76.81
430.292	95.81
430.514	82.81
430.736	99.81
430.958	90.81
431.18	83.81
431.402	72.81
431.624	79.81
431.846	85.81
432.068	75.81
432.29	86.81
432.512	90.81
432.734	85.81
432.956	106.81
433.178	85.81
433.4	79.81
433.622	90.81
433.844	88.81
434.066	94.81
434.287	87.81
434.509	80.81
434.731	77.81
434.953	86.81
435.175	95.81
435.397	98.81
435.618	85.81
435.84	93.81
436.062	87.81
436.284	93.81
436.505	100.81
436.727	97.81
436.949	83.81
437.17	104.81
437.392	82.81
437.614	83.81
437.835	86.81
438.057	73.81
438.278	79.81
438.5	90.81
438.721	74.81
438.943	94.81
439.165	90.81
439.386	90.81
439.608	103.81
439.829	112.81
440.05	87.81
440.272	101.81
440.493	99.81
440.715	110.81
440.936	114.81
441.158	101.81
441.379	116.81
441.6	104.81
441.822	98.81
442.043	105.81
442.264	103.81
442.486	95.81
442.707	108.81
442.928	94.81
443.149	103.81
443.371	88.81
443.592	97.81
443.813	87.81
444.034	89.81
444.255	90.81
444.476	88.81
444.698	89.81
444.919	88.81
445.14	216.81
445.361	169.81
445.582	90.81
445.803	101.81
446.024	112.81
446.245	98.81
446.466	90.81
446.687	102.81
446.908	94.81
447.129	102.81
447.35	83.81
447.571	110.81
447.792	91.81
448.013	103.81
448.234	101.81
448.455	100.81
448.675	108.81
448.896	88.81
449.117	82.81
449.338	88.81
449.559	108.81
449.779	114.81
450	94.81
450.221	96.81
450.442	92.81
450.662	98.81
450.883	92.81
451.104	93.81
451.324	85.81
451.545	74.81
451.766	94.81
451.986	110.81
452.207	96.81
452.428	87.81
452.648	103.81
452.869	77.81
453.089	82.81
453.31	81.81
453.53	95.81
453.751	77.81
453.971	81.81
454.192	85.81
454.412	100.81
454.633	85.81
454.853	96.81
455.073	85.81
455.294	77.81
455.514	112.81
455.734	81.81
455.955	84.81
456.175	80.81
456.395	77.81
456.616	76.81
456.836	85.81
457.056	100.81
457.276	100.81
457.497	88.81
457.717	80.81
457.937	84.81
458.157	89.81
458.377	94.81
458.598	91.81
458.818	97.81
459.038	85.81
459.258	80.81
459.478	68.81
459.698	73.81
459.918	93.81
460.138	91.81
460.358	95.81
460.578	101.81
460.798	98.81
461.018	85.81
461.238	104.81
461.458	93.81
461.678	69.81
461.898	86.81
462.118	99.81
462.338	100.81
462.558	74.81
462.777	77.81
462.997	66.81
463.217	80.81
463.437	79.81
463.657	91.81
463.876	93.81
464.096	71.81
464.316	81.81
464.536	82.81
464.755	94.81
464.975	102.81
465.195	82.81
465.414	91.81
465.634	102.81
465.854	92.81
466.073	85.81
466.293	101.81
466.512	80.81
466.732	94.81
466.951	96.81
467.171	92.81
467.391	92.81
467.61	97.81
467.829	82.81
468.049	91.81
468.268	88.81
468.488	105.81
468.707	92.81
468.927	95.81
469.146	94.81
469.365	99.81
469.585	104.81
469.804	95.81
470.023	111.81
470.243	102.81
470.462	97.81
470.681	95.81
470.901	86.81
471.12	96.81
471.339	100.81
471.558	98.81
471.777	99.81
471.997	108.81
472.216	97.81
472.435	100.81
472.654	93.81
472.873	98.81
473.092	97.81
473.311	102.81
473.53	89.81
473.749	86.81
473.968	106.81
474.187	89.81
474.406	78.81
474.625	83.81
474.844	105.81
475.063	97.81
475.282	79.81
475.501	89.81
475.72	99.81
475.939	86.81
476.158	96.81
476.377	93.81
476.596	91.81
476.814	84.81
477.033	89.81
477.252	76.81
477.471	78.81
477.69	95.81
477.908	97.81
478.127	103.81
478.346	100.81
478.564	94.81
478.783	84.81
479.002	94.81
479.22	90.81
479.439	87.81
479.658	95.81
479.876	81.81
480.095	81.81
480.313	85.81
480.532	78.81
480.751	88.81
480.969	86.81
481.188	90.81
481.406	87.81
481.624	94.81
481.843	80.81
482.061	78.81
482.28	85.81
482.498	83.81
482.717	103.81
482.935	83.81
483.153	101.81
483.372	105.81
483.59	106.81
483.808	97.81
484.027	100.81
484.245	95.81
484.463	88.81
484.681	100.81
484.9	89.81
485.118	95.81
485.336	92.81
485.554	78.81
485.772	67.81
485.99	78.81
486.209	91.81
486.427	92.81
486.645	94.81
486.863	110.81
487.081	100.81
487.299	96.81
487.517	91.81
487.735	112.81
487.953	97.81
488.171	119.81
488.389	97.81
488.607	97.81
488.825	100.81
489.043	95.81
489.261	98.81
489.479	98.81
489.696	102.81
489.914	99.81
490.132	95.81
490.35	111.81
490.568	104.81
490.786	102.81
491.003	118.81
491.221	119.81
491.439	120.81
491.657	109.81
491.874	115.81
492.092	129.81
492.31	101.81
492.527	117.81
492.745	125.81
492.963	128.81
493.18	109.81
493.398	100.81
493.615	124.81
493.833	125.81
494.05	99.81
494.268	102.81
494.485	114.81
494.703	103.81
494.92	110.81
495.138	97.81
495.355	101.81
495.573	102.81
495.79	104.81
496.008	99.81
496.225	97.81
496.442	114.81
496.66	109.81
496.877	104.81
497.094	113.81
497.312	103.81
497.529	104.81
497.746	97.81
497.963	99.81
498.181	91.81
498.398	102.81
498.615	92.81
498.832	89.81
499.049	92.81
499.267	95.81
499.484	87.81
499.701	98.81
499.918	101.81
500.135	100.81
500.352	99.81
500.569	101.81
500.786	89.81
501.003	101.81
501.22	114.81
501.437	90.81
501.654	84.81
501.871	90.81
502.088	96.81
502.305	103.81
502.522	92.81
502.739	99.81
502.956	70.81
503.172	80.81
503.389	88.81
503.606	103.81
503.823	102.81
504.04	110.81
504.256	98.81
504.473	89.81
504.69	102.81
504.907	98.81
505.123	83.81
505.34	92.81
505.557	90.81
505.773	98.81
505.99	81.81
506.207	98.81
506.423	94.81
506.64	93.81
506.856	97.81
507.073	90.81
507.289	88.81
507.506	111.81
507.722	88.81
507.939	80.81
508.155	94.81
508.372	92.81
508.588	74.81
508.805	91.81
509.021	86.81
509.238	93.81
509.454	95.81
509.67	92.81
509.887	85.81
510.103	84.81
510.319	78.81
510.536	89.81
510.752	84.81
510.968	85.81
511.184	79.81
511.401	74.81
511.617	69.81
511.833	89.81
512.049	86.81
512.265	75.81
512.481	82.81
512.698	87.81
512.914	82.81
513.13	78.81
513.346	80.81
513.562	71.81
513.778	77.81
513.994	82.81
514.21	96.81
514.426	99.81
514.642	93.81
514.858	95.81
515.074	94.81
515.29	95.81
515.506	80.81
515.721	93.81
515.937	75.81
516.153	87.81
516.369	78.81
516.585	96.81
516.801	78.81
517.016	80.81
517.232	80.81
517.448	95.81
517.664	102.81
