Data from Location3.07152019.Energy5.Lamp.07192019.3%Agarose_HRD10591_15-18-58-271.txt Node
Date: Fri Jul 19 15:18:58 EDT 2019
User: cochatt
Spectrometer: HR+D1059
Trigger mode: 1
Integration Time (sec): 1.000000E-1
Scans to average: 1
Electric dark correction enabled: true
Nonlinearity correction enabled: false
Boxcar width: 0
XAxis mode: Wavelengths
Number of Pixels in Spectrum: 2048
>>>>>Begin Spectral Data<<<<<
223.165	-17.19
223.4	-17.19
223.635	-17.19
223.869	-14.19
224.104	-20.19
224.338	-16.19
224.573	-1.19
224.808	-6.19
225.042	8.81
225.277	-7.19
225.511	-4.19
225.746	-10.19
225.98	9.81
226.215	8.81
226.449	3.81
226.683	18.81
226.918	17.81
227.152	28.81
227.387	23.81
227.621	38.81
227.856	36.81
228.09	60.81
228.324	63.81
228.559	53.81
228.793	64.81
229.027	71.81
229.262	56.81
229.496	65.81
229.73	65.81
229.964	59.81
230.199	61.81
230.433	86.81
230.667	71.81
230.901	75.81
231.136	71.81
231.37	89.81
231.604	89.81
231.838	85.81
232.072	73.81
232.306	76.81
232.541	75.81
232.775	80.81
233.009	84.81
233.243	81.81
233.477	91.81
233.711	86.81
233.945	91.81
234.179	77.81
234.413	76.81
234.647	87.81
234.881	75.81
235.115	82.81
235.349	100.81
235.583	84.81
235.817	76.81
236.051	89.81
236.285	79.81
236.519	67.81
236.753	79.81
236.987	82.81
237.221	69.81
237.455	91.81
237.689	73.81
237.922	79.81
238.156	84.81
238.39	78.81
238.624	71.81
238.858	91.81
239.091	88.81
239.325	81.81
239.559	77.81
239.793	72.81
240.027	74.81
240.26	76.81
240.494	74.81
240.728	75.81
240.961	82.81
241.195	70.81
241.429	84.81
241.662	72.81
241.896	75.81
242.13	85.81
242.363	65.81
242.597	88.81
242.83	72.81
243.064	72.81
243.298	66.81
243.531	76.81
243.765	70.81
243.998	90.81
244.232	88.81
244.465	79.81
244.699	73.81
244.932	74.81
245.166	76.81
245.399	72.81
245.633	87.81
245.866	69.81
246.099	84.81
246.333	65.81
246.566	84.81
246.8	78.81
247.033	69.81
247.266	75.81
247.5	79.81
247.733	72.81
247.966	86.81
248.2	89.81
248.433	78.81
248.666	83.81
248.899	63.81
249.133	85.81
249.366	83.81
249.599	75.81
249.832	62.81
250.066	79.81
250.299	77.81
250.532	81.81
250.765	82.81
250.998	90.81
251.231	80.81
251.465	80.81
251.698	74.81
251.931	79.81
252.164	76.81
252.397	91.81
252.63	67.81
252.863	95.81
253.096	80.81
253.329	77.81
253.562	86.81
253.795	85.81
254.028	79.81
254.261	77.81
254.494	63.81
254.727	87.81
254.96	82.81
255.193	80.81
255.426	84.81
255.659	91.81
255.892	79.81
256.124	95.81
256.357	75.81
256.59	76.81
256.823	85.81
257.056	77.81
257.289	96.81
257.521	102.81
257.754	82.81
257.987	88.81
258.22	79.81
258.452	83.81
258.685	82.81
258.918	76.81
259.151	88.81
259.383	96.81
259.616	79.81
259.849	83.81
260.081	77.81
260.314	85.81
260.547	79.81
260.779	83.81
261.012	81.81
261.244	84.81
261.477	92.81
261.71	82.81
261.942	95.81
262.175	69.81
262.407	71.81
262.64	87.81
262.872	67.81
263.105	84.81
263.337	82.81
263.57	75.81
263.802	88.81
264.035	75.81
264.267	82.81
264.499	85.81
264.732	83.81
264.964	87.81
265.197	90.81
265.429	85.81
265.661	73.81
265.894	77.81
266.126	87.81
266.358	87.81
266.591	78.81
266.823	81.81
267.055	77.81
267.287	77.81
267.52	80.81
267.752	75.81
267.984	89.81
268.216	88.81
268.448	86.81
268.681	70.81
268.913	77.81
269.145	82.81
269.377	84.81
269.609	83.81
269.841	100.81
270.073	78.81
270.306	78.81
270.538	78.81
270.77	86.81
271.002	95.81
271.234	75.81
271.466	92.81
271.698	90.81
271.93	86.81
272.162	97.81
272.394	89.81
272.626	79.81
272.858	81.81
273.09	76.81
273.322	76.81
273.553	80.81
273.785	87.81
274.017	89.81
274.249	84.81
274.481	86.81
274.713	96.81
274.945	100.81
275.176	74.81
275.408	83.81
275.64	79.81
275.872	87.81
276.104	86.81
276.335	89.81
276.567	77.81
276.799	79.81
277.031	83.81
277.262	76.81
277.494	88.81
277.726	82.81
277.957	93.81
278.189	80.81
278.421	70.81
278.652	84.81
278.884	82.81
279.115	74.81
279.347	83.81
279.579	84.81
279.81	83.81
280.042	84.81
280.273	91.81
280.505	75.81
280.736	88.81
280.968	73.81
281.199	87.81
281.431	82.81
281.662	88.81
281.894	74.81
282.125	87.81
282.356	83.81
282.588	84.81
282.819	82.81
283.051	84.81
283.282	75.81
283.513	79.81
283.745	83.81
283.976	88.81
284.207	97.81
284.439	85.81
284.67	83.81
284.901	72.81
285.132	85.81
285.364	87.81
285.595	89.81
285.826	83.81
286.057	86.81
286.288	77.81
286.52	92.81
286.751	70.81
286.982	78.81
287.213	78.81
287.444	87.81
287.675	91.81
287.906	90.81
288.138	75.81
288.369	78.81
288.6	68.81
288.831	93.81
289.062	74.81
289.293	87.81
289.524	95.81
289.755	84.81
289.986	75.81
290.217	81.81
290.448	86.81
290.679	85.81
290.91	95.81
291.141	66.81
291.371	100.81
291.602	82.81
291.833	88.81
292.064	92.81
292.295	85.81
292.526	69.81
292.757	84.81
292.987	96.81
293.218	90.81
293.449	85.81
293.68	87.81
293.91	84.81
294.141	89.81
294.372	88.81
294.603	88.81
294.833	97.81
295.064	97.81
295.295	78.81
295.525	91.81
295.756	89.81
295.987	81.81
296.217	83.81
296.448	77.81
296.679	85.81
296.909	80.81
297.14	79.81
297.37	93.81
297.601	88.81
297.831	79.81
298.062	88.81
298.292	79.81
298.523	69.81
298.753	80.81
298.984	83.81
299.214	83.81
299.445	80.81
299.675	76.81
299.905	83.81
300.136	81.81
300.366	82.81
300.597	77.81
300.827	84.81
301.057	81.81
301.288	73.81
301.518	86.81
301.748	90.81
301.979	93.81
302.209	90.81
302.439	81.81
302.669	91.81
302.9	81.81
303.13	82.81
303.36	84.81
303.59	95.81
303.82	87.81
304.051	68.81
304.281	90.81
304.511	84.81
304.741	77.81
304.971	74.81
305.201	86.81
305.431	88.81
305.661	100.81
305.891	89.81
306.121	87.81
306.352	96.81
306.582	96.81
306.812	75.81
307.042	82.81
307.272	86.81
307.502	79.81
307.731	87.81
307.961	96.81
308.191	96.81
308.421	77.81
308.651	91.81
308.881	100.81
309.111	87.81
309.341	89.81
309.571	87.81
309.8	77.81
310.03	86.81
310.26	77.81
310.49	89.81
310.72	86.81
310.949	97.81
311.179	91.81
311.409	82.81
311.639	87.81
311.868	80.81
312.098	69.81
312.328	89.81
312.557	87.81
312.787	75.81
313.017	84.81
313.246	85.81
313.476	82.81
313.706	93.81
313.935	82.81
314.165	99.81
314.394	93.81
314.624	84.81
314.853	74.81
315.083	84.81
315.312	83.81
315.542	91.81
315.771	84.81
316.001	83.81
316.23	83.81
316.46	81.81
316.689	85.81
316.919	86.81
317.148	90.81
317.377	93.81
317.607	91.81
317.836	87.81
318.065	80.81
318.295	88.81
318.524	87.81
318.753	92.81
318.983	85.81
319.212	68.81
319.441	71.81
319.67	99.81
319.9	88.81
320.129	77.81
320.358	89.81
320.587	82.81
320.816	73.81
321.046	93.81
321.275	82.81
321.504	81.81
321.733	97.81
321.962	86.81
322.191	86.81
322.42	80.81
322.649	87.81
322.878	89.81
323.108	83.81
323.337	79.81
323.566	72.81
323.795	76.81
324.024	92.81
324.253	84.81
324.482	87.81
324.71	86.81
324.939	81.81
325.168	90.81
325.397	85.81
325.626	92.81
325.855	97.81
326.084	81.81
326.313	74.81
326.542	70.81
326.77	83.81
326.999	88.81
327.228	79.81
327.457	79.81
327.686	88.81
327.914	85.81
328.143	100.81
328.372	83.81
328.6	71.81
328.829	90.81
329.058	80.81
329.287	93.81
329.515	92.81
329.744	92.81
329.972	102.81
330.201	89.81
330.43	86.81
330.658	85.81
330.887	82.81
331.115	87.81
331.344	98.81
331.572	101.81
331.801	91.81
332.03	82.81
332.258	82.81
332.486	88.81
332.715	73.81
332.943	92.81
333.172	74.81
333.4	80.81
333.629	93.81
333.857	77.81
334.085	78.81
334.314	79.81
334.542	88.81
334.771	84.81
334.999	77.81
335.227	85.81
335.455	95.81
335.684	90.81
335.912	93.81
336.14	98.81
336.369	91.81
336.597	72.81
336.825	84.81
337.053	84.81
337.281	61.81
337.51	82.81
337.738	69.81
337.966	84.81
338.194	76.81
338.422	81.81
338.65	81.81
338.878	91.81
339.106	88.81
339.334	82.81
339.562	88.81
339.79	75.81
340.018	82.81
340.246	82.81
340.474	96.81
340.702	97.81
340.93	77.81
341.158	84.81
341.386	83.81
341.614	89.81
341.842	78.81
342.07	84.81
342.298	86.81
342.526	76.81
342.754	68.81
342.981	83.81
343.209	75.81
343.437	84.81
343.665	79.81
343.893	81.81
344.12	83.81
344.348	84.81
344.576	99.81
344.804	85.81
345.031	94.81
345.259	76.81
345.487	80.81
345.714	84.81
345.942	96.81
346.17	74.81
346.397	88.81
346.625	79.81
346.853	86.81
347.08	93.81
347.308	80.81
347.535	89.81
347.763	87.81
347.99	80.81
348.218	74.81
348.445	79.81
348.673	77.81
348.9	81.81
349.128	84.81
349.355	76.81
349.583	89.81
349.81	76.81
350.037	77.81
350.265	80.81
350.492	75.81
350.72	75.81
350.947	73.81
351.174	91.81
351.402	88.81
351.629	84.81
351.856	81.81
352.083	86.81
352.311	80.81
352.538	76.81
352.765	83.81
352.992	70.81
353.22	82.81
353.447	86.81
353.674	82.81
353.901	81.81
354.128	90.81
354.355	83.81
354.583	87.81
354.81	74.81
355.037	95.81
355.264	94.81
355.491	79.81
355.718	79.81
355.945	80.81
356.172	94.81
356.399	77.81
356.626	80.81
356.853	79.81
357.08	85.81
357.307	87.81
357.534	87.81
357.761	81.81
357.988	80.81
358.215	79.81
358.441	94.81
358.668	80.81
358.895	94.81
359.122	98.81
359.349	86.81
359.576	82.81
359.802	73.81
360.029	91.81
360.256	80.81
360.483	84.81
360.709	72.81
360.936	82.81
361.163	85.81
361.39	75.81
361.616	80.81
361.843	79.81
362.07	78.81
362.296	82.81
362.523	92.81
362.749	77.81
362.976	82.81
363.203	87.81
363.429	84.81
363.656	83.81
363.882	67.81
364.109	90.81
364.335	102.81
364.562	85.81
364.788	76.81
365.015	69.81
365.241	88.81
365.468	86.81
365.694	85.81
365.92	91.81
366.147	84.81
366.373	84.81
366.599	86.81
366.826	79.81
367.052	82.81
367.278	83.81
367.505	85.81
367.731	88.81
367.957	92.81
368.184	87.81
368.41	89.81
368.636	88.81
368.862	92.81
369.089	73.81
369.315	66.81
369.541	86.81
369.767	88.81
369.993	95.81
370.219	77.81
370.445	84.81
370.672	79.81
370.898	69.81
371.124	87.81
371.35	79.81
371.576	83.81
371.802	84.81
372.028	85.81
372.254	81.81
372.48	85.81
372.706	79.81
372.932	95.81
373.158	92.81
373.384	93.81
373.61	87.81
373.835	93.81
374.061	83.81
374.287	84.81
374.513	95.81
374.739	80.81
374.965	86.81
375.191	86.81
375.416	96.81
375.642	80.81
375.868	92.81
376.094	80.81
376.319	77.81
376.545	78.81
376.771	89.81
376.997	90.81
377.222	73.81
377.448	97.81
377.674	82.81
377.899	81.81
378.125	85.81
378.35	85.81
378.576	81.81
378.802	86.81
379.027	88.81
379.253	80.81
379.478	81.81
379.704	61.81
379.929	80.81
380.155	79.81
380.38	87.81
380.606	92.81
380.831	81.81
381.057	96.81
381.282	84.81
381.507	89.81
381.733	100.81
381.958	86.81
382.184	86.81
382.409	85.81
382.634	84.81
382.86	96.81
383.085	103.81
383.31	90.81
383.535	82.81
383.761	88.81
383.986	88.81
384.211	90.81
384.436	89.81
384.662	87.81
384.887	96.81
385.112	75.81
385.337	99.81
385.562	85.81
385.787	83.81
386.013	94.81
386.238	84.81
386.463	85.81
386.688	82.81
386.913	89.81
387.138	96.81
387.363	75.81
387.588	77.81
387.813	90.81
388.038	96.81
388.263	72.81
388.488	75.81
388.713	81.81
388.938	83.81
389.163	93.81
389.387	94.81
389.612	104.81
389.837	95.81
390.062	81.81
390.287	84.81
390.512	99.81
390.736	81.81
390.961	86.81
391.186	84.81
391.411	80.81
391.636	81.81
391.86	76.81
392.085	83.81
392.31	76.81
392.534	83.81
392.759	90.81
392.984	94.81
393.208	79.81
393.433	100.81
393.658	88.81
393.882	77.81
394.107	92.81
394.331	91.81
394.556	90.81
394.78	78.81
395.005	96.81
395.229	95.81
395.454	90.81
395.678	79.81
395.903	84.81
396.127	86.81
396.352	96.81
396.576	91.81
396.801	87.81
397.025	94.81
397.249	89.81
397.474	88.81
397.698	90.81
397.922	80.81
398.147	85.81
398.371	91.81
398.595	90.81
398.82	84.81
399.044	104.81
399.268	91.81
399.492	95.81
399.717	92.81
399.941	94.81
400.165	74.81
400.389	93.81
400.613	101.81
400.837	97.81
401.062	85.81
401.286	86.81
401.51	89.81
401.734	83.81
401.958	83.81
402.182	75.81
402.406	87.81
402.63	95.81
402.854	95.81
403.078	100.81
403.302	87.81
403.526	76.81
403.75	89.81
403.974	97.81
404.198	95.81
404.422	92.81
404.645	89.81
404.869	83.81
405.093	85.81
405.317	99.81
405.541	105.81
405.765	85.81
405.988	94.81
406.212	87.81
406.436	105.81
406.66	91.81
406.883	80.81
407.107	80.81
407.331	84.81
407.555	83.81
407.778	93.81
408.002	79.81
408.226	86.81
408.449	100.81
408.673	80.81
408.896	98.81
409.12	98.81
409.344	81.81
409.567	89.81
409.791	104.81
410.014	90.81
410.238	90.81
410.461	98.81
410.685	100.81
410.908	95.81
411.132	98.81
411.355	85.81
411.578	108.81
411.802	95.81
412.025	88.81
412.249	93.81
412.472	94.81
412.695	97.81
412.919	106.81
413.142	87.81
413.365	92.81
413.589	100.81
413.812	92.81
414.035	100.81
414.258	105.81
414.482	101.81
414.705	98.81
414.928	77.81
415.151	95.81
415.374	91.81
415.597	107.81
415.821	98.81
416.044	91.81
416.267	89.81
416.49	92.81
416.713	90.81
416.936	100.81
417.159	106.81
417.382	93.81
417.605	72.81
417.828	108.81
418.051	100.81
418.274	89.81
418.497	107.81
418.72	101.81
418.943	100.81
419.166	97.81
419.389	84.81
419.611	104.81
419.834	102.81
420.057	100.81
420.28	98.81
420.503	84.81
420.726	82.81
420.948	97.81
421.171	106.81
421.394	86.81
421.617	94.81
421.839	97.81
422.062	86.81
422.285	103.81
422.507	103.81
422.73	87.81
422.953	88.81
423.175	89.81
423.398	102.81
423.621	105.81
423.843	87.81
424.066	102.81
424.288	110.81
424.511	91.81
424.733	96.81
424.956	97.81
425.178	105.81
425.401	104.81
425.623	99.81
425.846	96.81
426.068	92.81
426.291	95.81
426.513	85.81
426.735	81.81
426.958	91.81
427.18	99.81
427.402	84.81
427.625	92.81
427.847	99.81
428.069	104.81
428.292	80.81
428.514	98.81
428.736	102.81
428.958	94.81
429.181	98.81
429.403	91.81
429.625	102.81
429.847	96.81
430.069	105.81
430.292	104.81
430.514	93.81
430.736	104.81
430.958	98.81
431.18	84.81
431.402	81.81
431.624	91.81
431.846	91.81
432.068	94.81
432.29	89.81
432.512	86.81
432.734	83.81
432.956	97.81
433.178	90.81
433.4	89.81
433.622	103.81
433.844	97.81
434.066	90.81
434.287	88.81
434.509	88.81
434.731	88.81
434.953	104.81
435.175	70.81
435.397	92.81
435.618	88.81
435.84	100.81
436.062	93.81
436.284	95.81
436.505	89.81
436.727	100.81
436.949	93.81
437.17	97.81
437.392	84.81
437.614	80.81
437.835	96.81
438.057	94.81
438.278	87.81
438.5	75.81
438.721	91.81
438.943	103.81
439.165	89.81
439.386	101.81
439.608	101.81
439.829	87.81
440.05	99.81
440.272	85.81
440.493	115.81
440.715	89.81
440.936	105.81
441.158	96.81
441.379	93.81
441.6	97.81
441.822	88.81
442.043	105.81
442.264	91.81
442.486	98.81
442.707	83.81
442.928	90.81
443.149	95.81
443.371	98.81
443.592	108.81
443.813	98.81
444.034	101.81
444.255	87.81
444.476	109.81
444.698	92.81
444.919	108.81
445.14	205.81
445.361	170.81
445.582	106.81
445.803	111.81
446.024	108.81
446.245	109.81
446.466	102.81
446.687	100.81
446.908	92.81
447.129	111.81
447.35	95.81
447.571	120.81
447.792	92.81
448.013	98.81
448.234	98.81
448.455	102.81
448.675	100.81
448.896	97.81
449.117	85.81
449.338	111.81
449.559	86.81
449.779	89.81
450	89.81
450.221	89.81
450.442	102.81
450.662	86.81
450.883	101.81
451.104	97.81
451.324	103.81
451.545	86.81
451.766	91.81
451.986	95.81
452.207	103.81
452.428	98.81
452.648	99.81
452.869	100.81
453.089	89.81
453.31	83.81
453.53	83.81
453.751	92.81
453.971	88.81
454.192	77.81
454.412	90.81
454.633	89.81
454.853	91.81
455.073	92.81
455.294	90.81
455.514	111.81
455.734	99.81
455.955	85.81
456.175	98.81
456.395	88.81
456.616	104.81
456.836	92.81
457.056	85.81
457.276	87.81
457.497	89.81
457.717	83.81
457.937	84.81
458.157	92.81
458.377	87.81
458.598	81.81
458.818	83.81
459.038	89.81
459.258	83.81
459.478	80.81
459.698	87.81
459.918	103.81
460.138	96.81
460.358	98.81
460.578	97.81
460.798	102.81
461.018	94.81
461.238	96.81
461.458	91.81
461.678	79.81
461.898	97.81
462.118	89.81
462.338	95.81
462.558	99.81
462.777	102.81
462.997	90.81
463.217	81.81
463.437	104.81
463.657	98.81
463.876	71.81
464.096	86.81
464.316	97.81
464.536	107.81
464.755	98.81
464.975	85.81
465.195	101.81
465.414	82.81
465.634	91.81
465.854	99.81
466.073	106.81
466.293	100.81
466.512	88.81
466.732	99.81
466.951	104.81
467.171	104.81
467.391	104.81
467.61	100.81
467.829	101.81
468.049	111.81
468.268	88.81
468.488	93.81
468.707	102.81
468.927	99.81
469.146	101.81
469.365	90.81
469.585	101.81
469.804	111.81
470.023	100.81
470.243	112.81
470.462	98.81
470.681	88.81
470.901	91.81
471.12	105.81
471.339	92.81
471.558	112.81
471.777	98.81
471.997	92.81
472.216	99.81
472.435	102.81
472.654	100.81
472.873	104.81
473.092	90.81
473.311	101.81
473.53	96.81
473.749	99.81
473.968	112.81
474.187	93.81
474.406	94.81
474.625	92.81
474.844	96.81
475.063	110.81
475.282	91.81
475.501	100.81
475.72	100.81
475.939	98.81
476.158	104.81
476.377	98.81
476.596	91.81
476.814	100.81
477.033	83.81
477.252	92.81
477.471	81.81
477.69	92.81
477.908	108.81
478.127	104.81
478.346	84.81
478.564	100.81
478.783	106.81
479.002	88.81
479.22	85.81
479.439	121.81
479.658	98.81
479.876	93.81
480.095	96.81
480.313	94.81
480.532	83.81
480.751	98.81
480.969	87.81
481.188	95.81
481.406	87.81
481.624	77.81
481.843	108.81
482.061	84.81
482.28	86.81
482.498	92.81
482.717	90.81
482.935	103.81
483.153	94.81
483.372	112.81
483.59	112.81
483.808	108.81
484.027	91.81
484.245	107.81
484.463	106.81
484.681	104.81
484.9	112.81
485.118	118.81
485.336	95.81
485.554	89.81
485.772	81.81
485.99	78.81
486.209	100.81
486.427	95.81
486.645	91.81
486.863	98.81
487.081	94.81
487.299	116.81
487.517	80.81
487.735	104.81
487.953	119.81
488.171	113.81
488.389	104.81
488.607	121.81
488.825	99.81
489.043	87.81
489.261	99.81
489.479	89.81
489.696	90.81
489.914	100.81
490.132	99.81
490.35	102.81
490.568	96.81
490.786	105.81
491.003	100.81
491.221	112.81
491.439	107.81
491.657	113.81
491.874	122.81
492.092	120.81
492.31	130.81
492.527	111.81
492.745	127.81
492.963	118.81
493.18	125.81
493.398	121.81
493.615	115.81
493.833	112.81
494.05	113.81
494.268	114.81
494.485	125.81
494.703	113.81
494.92	106.81
495.138	112.81
495.355	109.81
495.573	111.81
495.79	100.81
496.008	108.81
496.225	98.81
496.442	115.81
496.66	118.81
496.877	105.81
497.094	120.81
497.312	113.81
497.529	113.81
497.746	97.81
497.963	98.81
498.181	92.81
498.398	90.81
498.615	104.81
498.832	92.81
499.049	96.81
499.267	100.81
499.484	83.81
499.701	104.81
499.918	98.81
500.135	101.81
500.352	102.81
500.569	115.81
500.786	103.81
501.003	111.81
501.22	97.81
501.437	87.81
501.654	111.81
501.871	96.81
502.088	90.81
502.305	94.81
502.522	116.81
502.739	117.81
502.956	99.81
503.172	97.81
503.389	99.81
503.606	96.81
503.823	91.81
504.04	105.81
504.256	97.81
504.473	91.81
504.69	98.81
504.907	104.81
505.123	108.81
505.34	95.81
505.557	105.81
505.773	99.81
505.99	100.81
506.207	113.81
506.423	89.81
506.64	97.81
506.856	90.81
507.073	101.81
507.289	92.81
507.506	101.81
507.722	87.81
507.939	87.81
508.155	90.81
508.372	97.81
508.588	98.81
508.805	89.81
509.021	96.81
509.238	95.81
509.454	88.81
509.67	78.81
509.887	103.81
510.103	83.81
510.319	95.81
510.536	79.81
510.752	86.81
510.968	76.81
511.184	90.81
511.401	91.81
511.617	85.81
511.833	74.81
512.049	85.81
512.265	97.81
512.481	99.81
512.698	85.81
512.914	84.81
513.13	71.81
513.346	71.81
513.562	99.81
513.778	87.81
513.994	90.81
514.21	80.81
514.426	80.81
514.642	85.81
514.858	91.81
515.074	86.81
515.29	101.81
515.506	91.81
515.721	77.81
515.937	95.81
516.153	89.81
516.369	91.81
516.585	90.81
516.801	73.81
