Data from Location3.07152019.Energy5.Lamp.07192019.3%Agarose_HRD10591_15-18-08-269.txt Node
Date: Fri Jul 19 15:18:08 EDT 2019
User: cochatt
Spectrometer: HR+D1059
Trigger mode: 1
Integration Time (sec): 1.000000E-1
Scans to average: 1
Electric dark correction enabled: true
Nonlinearity correction enabled: false
Boxcar width: 0
XAxis mode: Wavelengths
Number of Pixels in Spectrum: 2048
>>>>>Begin Spectral Data<<<<<
223.165	-12.81
223.4	-12.81
223.635	-12.81
223.869	-22.81
224.104	-7.81
224.338	-6.81
224.573	-17.81
224.808	-2.81
225.042	-6.81
225.277	-10.81
225.511	-7.81
225.746	6.19
225.98	17.19
226.215	9.19
226.449	12.19
226.683	11.19
226.918	11.19
227.152	29.19
227.387	28.19
227.621	27.19
227.856	53.19
228.09	54.19
228.324	59.19
228.559	63.19
228.793	55.19
229.027	56.19
229.262	62.19
229.496	62.19
229.73	73.19
229.964	78.19
230.199	76.19
230.433	67.19
230.667	71.19
230.901	80.19
231.136	89.19
231.37	83.19
231.604	81.19
231.838	79.19
232.072	73.19
232.306	85.19
232.541	91.19
232.775	86.19
233.009	75.19
233.243	78.19
233.477	72.19
233.711	94.19
233.945	84.19
234.179	77.19
234.413	73.19
234.647	85.19
234.881	73.19
235.115	80.19
235.349	80.19
235.583	87.19
235.817	79.19
236.051	78.19
236.285	82.19
236.519	69.19
236.753	72.19
236.987	65.19
237.221	78.19
237.455	78.19
237.689	81.19
237.922	85.19
238.156	89.19
238.39	79.19
238.624	64.19
238.858	80.19
239.091	84.19
239.325	79.19
239.559	76.19
239.793	71.19
240.027	80.19
240.26	77.19
240.494	85.19
240.728	66.19
240.961	77.19
241.195	66.19
241.429	72.19
241.662	74.19
241.896	76.19
242.13	64.19
242.363	84.19
242.597	70.19
242.83	80.19
243.064	82.19
243.298	72.19
243.531	80.19
243.765	68.19
243.998	62.19
244.232	65.19
244.465	78.19
244.699	75.19
244.932	84.19
245.166	64.19
245.399	85.19
245.633	87.19
245.866	71.19
246.099	89.19
246.333	72.19
246.566	73.19
246.8	70.19
247.033	84.19
247.266	74.19
247.5	76.19
247.733	71.19
247.966	73.19
248.2	78.19
248.433	76.19
248.666	82.19
248.899	65.19
249.133	78.19
249.366	75.19
249.599	74.19
249.832	76.19
250.066	82.19
250.299	74.19
250.532	71.19
250.765	67.19
250.998	83.19
251.231	76.19
251.465	94.19
251.698	68.19
251.931	85.19
252.164	74.19
252.397	78.19
252.63	79.19
252.863	76.19
253.096	71.19
253.329	78.19
253.562	82.19
253.795	83.19
254.028	78.19
254.261	84.19
254.494	73.19
254.727	80.19
254.96	88.19
255.193	77.19
255.426	87.19
255.659	84.19
255.892	86.19
256.124	74.19
256.357	84.19
256.59	88.19
256.823	79.19
257.056	75.19
257.289	92.19
257.521	80.19
257.754	89.19
257.987	96.19
258.22	91.19
258.452	81.19
258.685	75.19
258.918	94.19
259.151	72.19
259.383	82.19
259.616	90.19
259.849	77.19
260.081	73.19
260.314	59.19
260.547	76.19
260.779	76.19
261.012	91.19
261.244	71.19
261.477	87.19
261.71	85.19
261.942	79.19
262.175	76.19
262.407	84.19
262.64	77.19
262.872	73.19
263.105	73.19
263.337	89.19
263.57	83.19
263.802	66.19
264.035	66.19
264.267	81.19
264.499	89.19
264.732	80.19
264.964	84.19
265.197	88.19
265.429	80.19
265.661	74.19
265.894	72.19
266.126	71.19
266.358	84.19
266.591	95.19
266.823	94.19
267.055	73.19
267.287	83.19
267.52	79.19
267.752	83.19
267.984	86.19
268.216	74.19
268.448	88.19
268.681	88.19
268.913	81.19
269.145	70.19
269.377	71.19
269.609	70.19
269.841	83.19
270.073	91.19
270.306	90.19
270.538	72.19
270.77	86.19
271.002	82.19
271.234	86.19
271.466	77.19
271.698	83.19
271.93	84.19
272.162	88.19
272.394	70.19
272.626	81.19
272.858	68.19
273.09	72.19
273.322	78.19
273.553	81.19
273.785	78.19
274.017	76.19
274.249	83.19
274.481	71.19
274.713	83.19
274.945	85.19
275.176	77.19
275.408	80.19
275.64	79.19
275.872	99.19
276.104	86.19
276.335	83.19
276.567	78.19
276.799	82.19
277.031	73.19
277.262	63.19
277.494	83.19
277.726	81.19
277.957	78.19
278.189	95.19
278.421	79.19
278.652	89.19
278.884	79.19
279.115	89.19
279.347	73.19
279.579	81.19
279.81	78.19
280.042	92.19
280.273	72.19
280.505	85.19
280.736	97.19
280.968	78.19
281.199	69.19
281.431	74.19
281.662	84.19
281.894	95.19
282.125	78.19
282.356	94.19
282.588	85.19
282.819	80.19
283.051	89.19
283.282	70.19
283.513	96.19
283.745	87.19
283.976	97.19
284.207	82.19
284.439	84.19
284.67	88.19
284.901	99.19
285.132	82.19
285.364	76.19
285.595	74.19
285.826	71.19
286.057	80.19
286.288	81.19
286.52	81.19
286.751	73.19
286.982	97.19
287.213	84.19
287.444	78.19
287.675	76.19
287.906	75.19
288.138	79.19
288.369	86.19
288.6	88.19
288.831	69.19
289.062	78.19
289.293	93.19
289.524	77.19
289.755	59.19
289.986	77.19
290.217	91.19
290.448	73.19
290.679	87.19
290.91	85.19
291.141	72.19
291.371	82.19
291.602	86.19
291.833	77.19
292.064	74.19
292.295	75.19
292.526	88.19
292.757	82.19
292.987	89.19
293.218	81.19
293.449	89.19
293.68	81.19
293.91	83.19
294.141	74.19
294.372	84.19
294.603	80.19
294.833	80.19
295.064	91.19
295.295	75.19
295.525	83.19
295.756	73.19
295.987	81.19
296.217	85.19
296.448	73.19
296.679	86.19
296.909	85.19
297.14	80.19
297.37	86.19
297.601	77.19
297.831	83.19
298.062	82.19
298.292	87.19
298.523	77.19
298.753	78.19
298.984	67.19
299.214	70.19
299.445	84.19
299.675	93.19
299.905	94.19
300.136	92.19
300.366	82.19
300.597	94.19
300.827	88.19
301.057	72.19
301.288	75.19
301.518	71.19
301.748	87.19
301.979	83.19
302.209	63.19
302.439	85.19
302.669	91.19
302.9	92.19
303.13	77.19
303.36	73.19
303.59	76.19
303.82	90.19
304.051	82.19
304.281	78.19
304.511	81.19
304.741	93.19
304.971	69.19
305.201	87.19
305.431	74.19
305.661	79.19
305.891	97.19
306.121	70.19
306.352	76.19
306.582	80.19
306.812	82.19
307.042	84.19
307.272	88.19
307.502	77.19
307.731	84.19
307.961	87.19
308.191	66.19
308.421	93.19
308.651	86.19
308.881	85.19
309.111	86.19
309.341	72.19
309.571	83.19
309.8	96.19
310.03	82.19
310.26	78.19
310.49	69.19
310.72	71.19
310.949	60.19
311.179	81.19
311.409	74.19
311.639	87.19
311.868	85.19
312.098	86.19
312.328	82.19
312.557	79.19
312.787	79.19
313.017	91.19
313.246	84.19
313.476	75.19
313.706	79.19
313.935	77.19
314.165	73.19
314.394	86.19
314.624	89.19
314.853	82.19
315.083	97.19
315.312	79.19
315.542	75.19
315.771	72.19
316.001	71.19
316.23	84.19
316.46	88.19
316.689	71.19
316.919	73.19
317.148	91.19
317.377	81.19
317.607	83.19
317.836	94.19
318.065	72.19
318.295	85.19
318.524	81.19
318.753	71.19
318.983	78.19
319.212	99.19
319.441	77.19
319.67	83.19
319.9	81.19
320.129	74.19
320.358	92.19
320.587	76.19
320.816	81.19
321.046	72.19
321.275	92.19
321.504	95.19
321.733	91.19
321.962	81.19
322.191	80.19
322.42	70.19
322.649	76.19
322.878	83.19
323.108	85.19
323.337	78.19
323.566	95.19
323.795	79.19
324.024	91.19
324.253	85.19
324.482	82.19
324.71	79.19
324.939	75.19
325.168	77.19
325.397	93.19
325.626	84.19
325.855	84.19
326.084	71.19
326.313	78.19
326.542	75.19
326.77	75.19
326.999	79.19
327.228	83.19
327.457	97.19
327.686	84.19
327.914	75.19
328.143	75.19
328.372	94.19
328.6	70.19
328.829	78.19
329.058	84.19
329.287	82.19
329.515	85.19
329.744	80.19
329.972	84.19
330.201	88.19
330.43	77.19
330.658	80.19
330.887	88.19
331.115	79.19
331.344	67.19
331.572	73.19
331.801	74.19
332.03	86.19
332.258	94.19
332.486	101.19
332.715	87.19
332.943	79.19
333.172	88.19
333.4	83.19
333.629	85.19
333.857	92.19
334.085	76.19
334.314	93.19
334.542	80.19
334.771	97.19
334.999	80.19
335.227	77.19
335.455	73.19
335.684	88.19
335.912	77.19
336.14	63.19
336.369	78.19
336.597	81.19
336.825	73.19
337.053	76.19
337.281	84.19
337.51	73.19
337.738	80.19
337.966	94.19
338.194	77.19
338.422	84.19
338.65	81.19
338.878	77.19
339.106	74.19
339.334	86.19
339.562	76.19
339.79	77.19
340.018	96.19
340.246	94.19
340.474	79.19
340.702	92.19
340.93	81.19
341.158	77.19
341.386	79.19
341.614	76.19
341.842	82.19
342.07	82.19
342.298	76.19
342.526	72.19
342.754	80.19
342.981	78.19
343.209	85.19
343.437	95.19
343.665	78.19
343.893	91.19
344.12	93.19
344.348	56.19
344.576	70.19
344.804	80.19
345.031	89.19
345.259	89.19
345.487	86.19
345.714	73.19
345.942	76.19
346.17	101.19
346.397	67.19
346.625	62.19
346.853	79.19
347.08	83.19
347.308	71.19
347.535	85.19
347.763	84.19
347.99	69.19
348.218	77.19
348.445	99.19
348.673	71.19
348.9	77.19
349.128	89.19
349.355	73.19
349.583	87.19
349.81	82.19
350.037	84.19
350.265	84.19
350.492	76.19
350.72	73.19
350.947	88.19
351.174	77.19
351.402	87.19
351.629	78.19
351.856	88.19
352.083	82.19
352.311	77.19
352.538	84.19
352.765	93.19
352.992	83.19
353.22	82.19
353.447	82.19
353.674	82.19
353.901	78.19
354.128	74.19
354.355	89.19
354.583	92.19
354.81	103.19
355.037	81.19
355.264	88.19
355.491	81.19
355.718	82.19
355.945	81.19
356.172	58.19
356.399	89.19
356.626	82.19
356.853	78.19
357.08	81.19
357.307	85.19
357.534	86.19
357.761	86.19
357.988	85.19
358.215	82.19
358.441	87.19
358.668	78.19
358.895	95.19
359.122	80.19
359.349	83.19
359.576	86.19
359.802	80.19
360.029	69.19
360.256	83.19
360.483	94.19
360.709	84.19
360.936	86.19
361.163	77.19
361.39	94.19
361.616	91.19
361.843	73.19
362.07	86.19
362.296	85.19
362.523	91.19
362.749	77.19
362.976	82.19
363.203	67.19
363.429	81.19
363.656	89.19
363.882	84.19
364.109	82.19
364.335	89.19
364.562	69.19
364.788	72.19
365.015	71.19
365.241	86.19
365.468	71.19
365.694	82.19
365.92	88.19
366.147	89.19
366.373	85.19
366.599	76.19
366.826	76.19
367.052	72.19
367.278	91.19
367.505	86.19
367.731	90.19
367.957	77.19
368.184	85.19
368.41	80.19
368.636	75.19
368.862	78.19
369.089	65.19
369.315	83.19
369.541	91.19
369.767	83.19
369.993	84.19
370.219	82.19
370.445	79.19
370.672	87.19
370.898	71.19
371.124	77.19
371.35	80.19
371.576	83.19
371.802	76.19
372.028	74.19
372.254	74.19
372.48	86.19
372.706	96.19
372.932	80.19
373.158	88.19
373.384	94.19
373.61	91.19
373.835	94.19
374.061	79.19
374.287	93.19
374.513	85.19
374.739	84.19
374.965	91.19
375.191	87.19
375.416	75.19
375.642	71.19
375.868	89.19
376.094	86.19
376.319	81.19
376.545	71.19
376.771	85.19
376.997	108.19
377.222	75.19
377.448	70.19
377.674	76.19
377.899	80.19
378.125	88.19
378.35	76.19
378.576	82.19
378.802	86.19
379.027	85.19
379.253	90.19
379.478	82.19
379.704	80.19
379.929	88.19
380.155	81.19
380.38	83.19
380.606	79.19
380.831	69.19
381.057	105.19
381.282	86.19
381.507	82.19
381.733	89.19
381.958	77.19
382.184	70.19
382.409	67.19
382.634	73.19
382.86	85.19
383.085	89.19
383.31	93.19
383.535	83.19
383.761	68.19
383.986	71.19
384.211	84.19
384.436	97.19
384.662	80.19
384.887	81.19
385.112	92.19
385.337	91.19
385.562	76.19
385.787	80.19
386.013	87.19
386.238	90.19
386.463	80.19
386.688	94.19
386.913	85.19
387.138	73.19
387.363	78.19
387.588	83.19
387.813	88.19
388.038	75.19
388.263	83.19
388.488	77.19
388.713	83.19
388.938	85.19
389.163	79.19
389.387	79.19
389.612	80.19
389.837	87.19
390.062	67.19
390.287	83.19
390.512	83.19
390.736	82.19
390.961	89.19
391.186	80.19
391.411	89.19
391.636	84.19
391.86	93.19
392.085	89.19
392.31	79.19
392.534	70.19
392.759	89.19
392.984	89.19
393.208	85.19
393.433	94.19
393.658	86.19
393.882	81.19
394.107	93.19
394.331	93.19
394.556	94.19
394.78	85.19
395.005	83.19
395.229	75.19
395.454	80.19
395.678	84.19
395.903	100.19
396.127	78.19
396.352	85.19
396.576	90.19
396.801	77.19
397.025	95.19
397.249	95.19
397.474	80.19
397.698	81.19
397.922	92.19
398.147	91.19
398.371	96.19
398.595	100.19
398.82	78.19
399.044	73.19
399.268	88.19
399.492	88.19
399.717	80.19
399.941	88.19
400.165	92.19
400.389	91.19
400.613	79.19
400.837	84.19
401.062	86.19
401.286	78.19
401.51	97.19
401.734	79.19
401.958	92.19
402.182	93.19
402.406	82.19
402.63	86.19
402.854	76.19
403.078	90.19
403.302	92.19
403.526	92.19
403.75	89.19
403.974	85.19
404.198	96.19
404.422	78.19
404.645	78.19
404.869	98.19
405.093	83.19
405.317	102.19
405.541	103.19
405.765	102.19
405.988	100.19
406.212	83.19
406.436	81.19
406.66	73.19
406.883	100.19
407.107	91.19
407.331	91.19
407.555	95.19
407.778	80.19
408.002	87.19
408.226	79.19
408.449	82.19
408.673	83.19
408.896	99.19
409.12	86.19
409.344	76.19
409.567	79.19
409.791	91.19
410.014	98.19
410.238	98.19
410.461	91.19
410.685	93.19
410.908	96.19
411.132	95.19
411.355	88.19
411.578	90.19
411.802	92.19
412.025	98.19
412.249	84.19
412.472	93.19
412.695	85.19
412.919	102.19
413.142	94.19
413.365	87.19
413.589	84.19
413.812	94.19
414.035	107.19
414.258	102.19
414.482	75.19
414.705	86.19
414.928	88.19
415.151	87.19
415.374	91.19
415.597	89.19
415.821	99.19
416.044	89.19
416.267	93.19
416.49	100.19
416.713	100.19
416.936	102.19
417.159	107.19
417.382	83.19
417.605	92.19
417.828	95.19
418.051	92.19
418.274	91.19
418.497	94.19
418.72	93.19
418.943	75.19
419.166	104.19
419.389	92.19
419.611	85.19
419.834	84.19
420.057	99.19
420.28	100.19
420.503	98.19
420.726	104.19
420.948	109.19
421.171	86.19
421.394	91.19
421.617	83.19
421.839	94.19
422.062	95.19
422.285	86.19
422.507	76.19
422.73	102.19
422.953	80.19
423.175	109.19
423.398	86.19
423.621	91.19
423.843	93.19
424.066	97.19
424.288	101.19
424.511	72.19
424.733	101.19
424.956	97.19
425.178	92.19
425.401	103.19
425.623	87.19
425.846	86.19
426.068	88.19
426.291	90.19
426.513	103.19
426.735	109.19
426.958	86.19
427.18	84.19
427.402	103.19
427.625	101.19
427.847	87.19
428.069	100.19
428.292	84.19
428.514	93.19
428.736	103.19
428.958	78.19
429.181	97.19
429.403	96.19
429.625	89.19
429.847	87.19
430.069	109.19
430.292	97.19
430.514	101.19
430.736	98.19
430.958	93.19
431.18	90.19
431.402	88.19
431.624	87.19
431.846	88.19
432.068	89.19
432.29	74.19
432.512	102.19
432.734	100.19
432.956	88.19
433.178	87.19
433.4	91.19
433.622	103.19
433.844	94.19
434.066	83.19
434.287	87.19
434.509	90.19
434.731	75.19
434.953	89.19
435.175	95.19
435.397	98.19
435.618	85.19
435.84	71.19
436.062	96.19
436.284	94.19
436.505	100.19
436.727	93.19
436.949	95.19
437.17	102.19
437.392	95.19
437.614	96.19
437.835	84.19
438.057	88.19
438.278	91.19
438.5	75.19
438.721	96.19
438.943	102.19
439.165	98.19
439.386	87.19
439.608	91.19
439.829	107.19
440.05	88.19
440.272	93.19
440.493	93.19
440.715	88.19
440.936	95.19
441.158	105.19
441.379	93.19
441.6	101.19
441.822	81.19
442.043	96.19
442.264	87.19
442.486	91.19
442.707	99.19
442.928	98.19
443.149	98.19
443.371	95.19
443.592	89.19
443.813	104.19
444.034	117.19
444.255	96.19
444.476	103.19
444.698	102.19
444.919	91.19
445.14	169.19
445.361	149.19
445.582	109.19
445.803	93.19
446.024	87.19
446.245	95.19
446.466	104.19
446.687	103.19
446.908	103.19
447.129	100.19
447.35	100.19
447.571	95.19
447.792	98.19
448.013	95.19
448.234	110.19
448.455	111.19
448.675	88.19
448.896	96.19
449.117	98.19
449.338	85.19
449.559	112.19
449.779	98.19
450	101.19
450.221	97.19
450.442	104.19
450.662	90.19
450.883	88.19
451.104	97.19
451.324	77.19
451.545	88.19
451.766	91.19
451.986	85.19
452.207	89.19
452.428	100.19
452.648	95.19
452.869	109.19
453.089	84.19
453.31	101.19
453.53	86.19
453.751	77.19
453.971	79.19
454.192	89.19
454.412	96.19
454.633	86.19
454.853	88.19
455.073	94.19
455.294	88.19
455.514	88.19
455.734	89.19
455.955	99.19
456.175	84.19
456.395	91.19
456.616	93.19
456.836	89.19
457.056	85.19
457.276	84.19
457.497	85.19
457.717	76.19
457.937	74.19
458.157	72.19
458.377	100.19
458.598	88.19
458.818	78.19
459.038	74.19
459.258	87.19
459.478	83.19
459.698	71.19
459.918	84.19
460.138	83.19
460.358	83.19
460.578	94.19
460.798	95.19
461.018	92.19
461.238	97.19
461.458	76.19
461.678	93.19
461.898	91.19
462.118	81.19
462.338	97.19
462.558	100.19
462.777	91.19
462.997	98.19
463.217	93.19
463.437	92.19
463.657	76.19
463.876	81.19
464.096	83.19
464.316	80.19
464.536	85.19
464.755	95.19
464.975	95.19
465.195	90.19
465.414	91.19
465.634	86.19
465.854	87.19
466.073	90.19
466.293	88.19
466.512	90.19
466.732	87.19
466.951	97.19
467.171	112.19
467.391	104.19
467.61	91.19
467.829	103.19
468.049	93.19
468.268	97.19
468.488	103.19
468.707	92.19
468.927	103.19
469.146	106.19
469.365	90.19
469.585	104.19
469.804	89.19
470.023	89.19
470.243	93.19
470.462	88.19
470.681	97.19
470.901	105.19
471.12	95.19
471.339	95.19
471.558	100.19
471.777	83.19
471.997	101.19
472.216	91.19
472.435	82.19
472.654	81.19
472.873	83.19
473.092	75.19
473.311	104.19
473.53	87.19
473.749	84.19
473.968	99.19
474.187	78.19
474.406	83.19
474.625	92.19
474.844	98.19
475.063	100.19
475.282	98.19
475.501	94.19
475.72	91.19
475.939	85.19
476.158	83.19
476.377	78.19
476.596	84.19
476.814	91.19
477.033	92.19
477.252	92.19
477.471	82.19
477.69	83.19
477.908	84.19
478.127	103.19
478.346	106.19
478.564	100.19
478.783	86.19
479.002	98.19
479.22	97.19
479.439	93.19
479.658	102.19
479.876	83.19
480.095	87.19
480.313	85.19
480.532	88.19
480.751	83.19
480.969	88.19
481.188	85.19
481.406	81.19
481.624	83.19
481.843	76.19
482.061	85.19
482.28	92.19
482.498	93.19
482.717	96.19
482.935	105.19
483.153	108.19
483.372	86.19
483.59	94.19
483.808	94.19
484.027	83.19
484.245	97.19
484.463	104.19
484.681	103.19
484.9	98.19
485.118	98.19
485.336	91.19
485.554	90.19
485.772	83.19
485.99	104.19
486.209	86.19
486.427	91.19
486.645	92.19
486.863	84.19
487.081	111.19
487.299	96.19
487.517	93.19
487.735	89.19
487.953	116.19
488.171	118.19
488.389	111.19
488.607	101.19
488.825	95.19
489.043	99.19
489.261	96.19
489.479	102.19
489.696	104.19
489.914	92.19
490.132	97.19
490.35	108.19
490.568	91.19
490.786	108.19
491.003	111.19
491.221	119.19
491.439	115.19
491.657	101.19
491.874	126.19
492.092	121.19
492.31	136.19
492.527	131.19
492.745	111.19
492.963	116.19
493.18	115.19
493.398	123.19
493.615	125.19
493.833	128.19
494.05	122.19
494.268	101.19
494.485	97.19
494.703	101.19
494.92	97.19
495.138	100.19
495.355	109.19
495.573	115.19
495.79	100.19
496.008	92.19
496.225	110.19
496.442	117.19
496.66	97.19
496.877	109.19
497.094	111.19
497.312	101.19
497.529	109.19
497.746	97.19
497.963	104.19
498.181	77.19
498.398	86.19
498.615	93.19
498.832	77.19
499.049	96.19
499.267	92.19
499.484	97.19
499.701	82.19
499.918	99.19
500.135	96.19
500.352	115.19
500.569	101.19
500.786	102.19
501.003	102.19
501.22	99.19
501.437	89.19
501.654	104.19
501.871	89.19
502.088	104.19
502.305	103.19
502.522	102.19
502.739	91.19
502.956	91.19
503.172	89.19
503.389	99.19
503.606	99.19
503.823	89.19
504.04	92.19
504.256	92.19
504.473	96.19
504.69	94.19
504.907	93.19
505.123	80.19
505.34	92.19
505.557	99.19
505.773	95.19
505.99	82.19
506.207	101.19
506.423	100.19
506.64	100.19
506.856	86.19
507.073	96.19
507.289	92.19
507.506	88.19
507.722	89.19
507.939	95.19
508.155	97.19
508.372	91.19
508.588	93.19
508.805	88.19
509.021	94.19
509.238	91.19
509.454	72.19
509.67	91.19
509.887	87.19
510.103	86.19
510.319	91.19
510.536	74.19
510.752	91.19
510.968	77.19
511.184	82.19
511.401	71.19
511.617	93.19
511.833	93.19
512.049	81.19
512.265	90.19
512.481	81.19
512.698	80.19
512.914	80.19
513.13	89.19
513.346	92.19
513.562	83.19
513.778	77.19
513.994	83.19
514.21	80.19
514.426	89.19
514.642	97.19
514.858	85.19
515.074	81.19
515.29	68.19
515.506	67.19
515.721	88.19
515.937	78.19
516.153	76.19
516.369	85.19
516.585	83.19
516.801	95.19
517.016	86.19
517.232	77.19
517.448	96.19
517.664	82.19
