Data from Location3.07152019.Energy5.Lamp.07192019.3%Agarose_HRD10591_15-19-21-269.txt Node
Date: Fri Jul 19 15:19:21 EDT 2019
User: cochatt
Spectrometer: HR+D1059
Trigger mode: 1
Integration Time (sec): 1.000000E-1
Scans to average: 1
Electric dark correction enabled: true
Nonlinearity correction enabled: false
Boxcar width: 0
XAxis mode: Wavelengths
Number of Pixels in Spectrum: 2048
>>>>>Begin Spectral Data<<<<<
223.165	-9.12
223.4	-9.12
223.635	-9.12
223.869	-18.12
224.104	-11.12
224.338	-7.12
224.573	-20.12
224.808	-8.12
225.042	-7.12
225.277	-25.12
225.511	4.88
225.746	-13.12
225.98	2.88
226.215	0.88
226.449	16.88
226.683	18.88
226.918	34.88
227.152	39.88
227.387	22.88
227.621	31.88
227.856	45.88
228.09	41.88
228.324	43.88
228.559	67.88
228.793	68.88
229.027	55.88
229.262	71.88
229.496	69.88
229.73	71.88
229.964	73.88
230.199	72.88
230.433	74.88
230.667	72.88
230.901	76.88
231.136	75.88
231.37	73.88
231.604	77.88
231.838	84.88
232.072	82.88
232.306	85.88
232.541	57.88
232.775	69.88
233.009	78.88
233.243	88.88
233.477	78.88
233.711	79.88
233.945	67.88
234.179	78.88
234.413	96.88
234.647	73.88
234.881	84.88
235.115	74.88
235.349	73.88
235.583	86.88
235.817	73.88
236.051	79.88
236.285	85.88
236.519	60.88
236.753	78.88
236.987	76.88
237.221	79.88
237.455	66.88
237.689	73.88
237.922	81.88
238.156	82.88
238.39	78.88
238.624	84.88
238.858	72.88
239.091	70.88
239.325	88.88
239.559	90.88
239.793	72.88
240.027	76.88
240.26	73.88
240.494	68.88
240.728	67.88
240.961	79.88
241.195	72.88
241.429	79.88
241.662	73.88
241.896	68.88
242.13	72.88
242.363	74.88
242.597	86.88
242.83	72.88
243.064	79.88
243.298	80.88
243.531	85.88
243.765	84.88
243.998	84.88
244.232	82.88
244.465	70.88
244.699	78.88
244.932	85.88
245.166	89.88
245.399	81.88
245.633	93.88
245.866	65.88
246.099	78.88
246.333	77.88
246.566	82.88
246.8	72.88
247.033	72.88
247.266	72.88
247.5	78.88
247.733	89.88
247.966	76.88
248.2	81.88
248.433	79.88
248.666	54.88
248.899	82.88
249.133	72.88
249.366	66.88
249.599	83.88
249.832	78.88
250.066	87.88
250.299	84.88
250.532	58.88
250.765	81.88
250.998	72.88
251.231	70.88
251.465	92.88
251.698	71.88
251.931	74.88
252.164	74.88
252.397	68.88
252.63	77.88
252.863	86.88
253.096	71.88
253.329	95.88
253.562	78.88
253.795	80.88
254.028	82.88
254.261	81.88
254.494	89.88
254.727	80.88
254.96	81.88
255.193	83.88
255.426	79.88
255.659	88.88
255.892	87.88
256.124	85.88
256.357	90.88
256.59	94.88
256.823	79.88
257.056	68.88
257.289	74.88
257.521	76.88
257.754	77.88
257.987	70.88
258.22	77.88
258.452	82.88
258.685	83.88
258.918	72.88
259.151	79.88
259.383	84.88
259.616	79.88
259.849	79.88
260.081	76.88
260.314	93.88
260.547	92.88
260.779	91.88
261.012	74.88
261.244	90.88
261.477	85.88
261.71	85.88
261.942	83.88
262.175	89.88
262.407	81.88
262.64	98.88
262.872	71.88
263.105	72.88
263.337	82.88
263.57	81.88
263.802	82.88
264.035	76.88
264.267	70.88
264.499	88.88
264.732	78.88
264.964	75.88
265.197	70.88
265.429	77.88
265.661	82.88
265.894	85.88
266.126	80.88
266.358	67.88
266.591	92.88
266.823	78.88
267.055	72.88
267.287	88.88
267.52	73.88
267.752	78.88
267.984	84.88
268.216	100.88
268.448	90.88
268.681	73.88
268.913	93.88
269.145	84.88
269.377	79.88
269.609	85.88
269.841	90.88
270.073	86.88
270.306	74.88
270.538	76.88
270.77	78.88
271.002	90.88
271.234	78.88
271.466	81.88
271.698	70.88
271.93	72.88
272.162	79.88
272.394	81.88
272.626	79.88
272.858	84.88
273.09	78.88
273.322	86.88
273.553	79.88
273.785	84.88
274.017	82.88
274.249	68.88
274.481	83.88
274.713	78.88
274.945	80.88
275.176	88.88
275.408	79.88
275.64	64.88
275.872	84.88
276.104	89.88
276.335	73.88
276.567	89.88
276.799	74.88
277.031	77.88
277.262	78.88
277.494	89.88
277.726	88.88
277.957	82.88
278.189	80.88
278.421	95.88
278.652	77.88
278.884	65.88
279.115	82.88
279.347	81.88
279.579	85.88
279.81	82.88
280.042	66.88
280.273	95.88
280.505	87.88
280.736	72.88
280.968	83.88
281.199	83.88
281.431	88.88
281.662	69.88
281.894	83.88
282.125	98.88
282.356	96.88
282.588	71.88
282.819	80.88
283.051	84.88
283.282	87.88
283.513	78.88
283.745	77.88
283.976	84.88
284.207	81.88
284.439	77.88
284.67	80.88
284.901	86.88
285.132	89.88
285.364	75.88
285.595	89.88
285.826	71.88
286.057	88.88
286.288	89.88
286.52	79.88
286.751	71.88
286.982	87.88
287.213	68.88
287.444	74.88
287.675	90.88
287.906	89.88
288.138	90.88
288.369	89.88
288.6	81.88
288.831	85.88
289.062	75.88
289.293	85.88
289.524	86.88
289.755	92.88
289.986	78.88
290.217	84.88
290.448	79.88
290.679	84.88
290.91	100.88
291.141	85.88
291.371	84.88
291.602	96.88
291.833	86.88
292.064	89.88
292.295	87.88
292.526	78.88
292.757	87.88
292.987	83.88
293.218	79.88
293.449	99.88
293.68	90.88
293.91	90.88
294.141	97.88
294.372	92.88
294.603	80.88
294.833	77.88
295.064	84.88
295.295	92.88
295.525	80.88
295.756	89.88
295.987	90.88
296.217	92.88
296.448	85.88
296.679	78.88
296.909	86.88
297.14	85.88
297.37	94.88
297.601	86.88
297.831	87.88
298.062	84.88
298.292	83.88
298.523	74.88
298.753	84.88
298.984	84.88
299.214	74.88
299.445	80.88
299.675	86.88
299.905	87.88
300.136	93.88
300.366	82.88
300.597	85.88
300.827	95.88
301.057	77.88
301.288	69.88
301.518	96.88
301.748	92.88
301.979	87.88
302.209	71.88
302.439	88.88
302.669	88.88
302.9	69.88
303.13	75.88
303.36	89.88
303.59	81.88
303.82	84.88
304.051	73.88
304.281	84.88
304.511	90.88
304.741	90.88
304.971	99.88
305.201	102.88
305.431	84.88
305.661	80.88
305.891	85.88
306.121	75.88
306.352	80.88
306.582	68.88
306.812	74.88
307.042	86.88
307.272	90.88
307.502	90.88
307.731	91.88
307.961	73.88
308.191	84.88
308.421	88.88
308.651	79.88
308.881	80.88
309.111	95.88
309.341	90.88
309.571	88.88
309.8	89.88
310.03	80.88
310.26	82.88
310.49	95.88
310.72	75.88
310.949	91.88
311.179	74.88
311.409	84.88
311.639	87.88
311.868	76.88
312.098	83.88
312.328	90.88
312.557	76.88
312.787	71.88
313.017	97.88
313.246	80.88
313.476	82.88
313.706	82.88
313.935	94.88
314.165	93.88
314.394	89.88
314.624	82.88
314.853	92.88
315.083	88.88
315.312	90.88
315.542	77.88
315.771	86.88
316.001	93.88
316.23	73.88
316.46	77.88
316.689	90.88
316.919	83.88
317.148	90.88
317.377	88.88
317.607	94.88
317.836	77.88
318.065	82.88
318.295	81.88
318.524	83.88
318.753	79.88
318.983	82.88
319.212	84.88
319.441	103.88
319.67	78.88
319.9	88.88
320.129	86.88
320.358	91.88
320.587	88.88
320.816	82.88
321.046	83.88
321.275	84.88
321.504	77.88
321.733	67.88
321.962	76.88
322.191	97.88
322.42	84.88
322.649	93.88
322.878	90.88
323.108	72.88
323.337	80.88
323.566	78.88
323.795	74.88
324.024	79.88
324.253	66.88
324.482	78.88
324.71	70.88
324.939	88.88
325.168	81.88
325.397	90.88
325.626	83.88
325.855	83.88
326.084	88.88
326.313	83.88
326.542	77.88
326.77	98.88
326.999	96.88
327.228	74.88
327.457	94.88
327.686	88.88
327.914	82.88
328.143	89.88
328.372	89.88
328.6	78.88
328.829	89.88
329.058	89.88
329.287	76.88
329.515	82.88
329.744	76.88
329.972	105.88
330.201	90.88
330.43	83.88
330.658	73.88
330.887	65.88
331.115	81.88
331.344	81.88
331.572	96.88
331.801	84.88
332.03	67.88
332.258	71.88
332.486	80.88
332.715	82.88
332.943	88.88
333.172	85.88
333.4	80.88
333.629	88.88
333.857	84.88
334.085	90.88
334.314	96.88
334.542	72.88
334.771	88.88
334.999	82.88
335.227	90.88
335.455	92.88
335.684	90.88
335.912	98.88
336.14	83.88
336.369	70.88
336.597	80.88
336.825	83.88
337.053	88.88
337.281	90.88
337.51	69.88
337.738	92.88
337.966	67.88
338.194	82.88
338.422	89.88
338.65	91.88
338.878	96.88
339.106	89.88
339.334	91.88
339.562	96.88
339.79	85.88
340.018	81.88
340.246	87.88
340.474	69.88
340.702	99.88
340.93	99.88
341.158	83.88
341.386	80.88
341.614	88.88
341.842	79.88
342.07	73.88
342.298	91.88
342.526	73.88
342.754	78.88
342.981	75.88
343.209	82.88
343.437	85.88
343.665	91.88
343.893	87.88
344.12	85.88
344.348	68.88
344.576	77.88
344.804	75.88
345.031	77.88
345.259	81.88
345.487	81.88
345.714	76.88
345.942	71.88
346.17	84.88
346.397	80.88
346.625	63.88
346.853	81.88
347.08	81.88
347.308	94.88
347.535	85.88
347.763	79.88
347.99	84.88
348.218	86.88
348.445	99.88
348.673	100.88
348.9	91.88
349.128	70.88
349.355	92.88
349.583	83.88
349.81	72.88
350.037	92.88
350.265	72.88
350.492	82.88
350.72	76.88
350.947	97.88
351.174	85.88
351.402	77.88
351.629	96.88
351.856	79.88
352.083	81.88
352.311	84.88
352.538	94.88
352.765	71.88
352.992	86.88
353.22	78.88
353.447	88.88
353.674	79.88
353.901	83.88
354.128	80.88
354.355	82.88
354.583	72.88
354.81	85.88
355.037	82.88
355.264	77.88
355.491	96.88
355.718	70.88
355.945	81.88
356.172	84.88
356.399	93.88
356.626	68.88
356.853	85.88
357.08	89.88
357.307	82.88
357.534	80.88
357.761	78.88
357.988	85.88
358.215	81.88
358.441	99.88
358.668	78.88
358.895	79.88
359.122	83.88
359.349	93.88
359.576	74.88
359.802	88.88
360.029	71.88
360.256	69.88
360.483	93.88
360.709	80.88
360.936	82.88
361.163	81.88
361.39	89.88
361.616	81.88
361.843	95.88
362.07	77.88
362.296	90.88
362.523	65.88
362.749	84.88
362.976	82.88
363.203	82.88
363.429	87.88
363.656	88.88
363.882	74.88
364.109	87.88
364.335	103.88
364.562	77.88
364.788	66.88
365.015	85.88
365.241	74.88
365.468	93.88
365.694	66.88
365.92	95.88
366.147	85.88
366.373	91.88
366.599	85.88
366.826	76.88
367.052	83.88
367.278	88.88
367.505	86.88
367.731	88.88
367.957	82.88
368.184	84.88
368.41	87.88
368.636	70.88
368.862	79.88
369.089	70.88
369.315	79.88
369.541	82.88
369.767	78.88
369.993	87.88
370.219	71.88
370.445	72.88
370.672	73.88
370.898	94.88
371.124	77.88
371.35	82.88
371.576	86.88
371.802	77.88
372.028	85.88
372.254	83.88
372.48	69.88
372.706	92.88
372.932	80.88
373.158	89.88
373.384	84.88
373.61	91.88
373.835	81.88
374.061	91.88
374.287	99.88
374.513	73.88
374.739	81.88
374.965	74.88
375.191	84.88
375.416	81.88
375.642	65.88
375.868	94.88
376.094	83.88
376.319	95.88
376.545	87.88
376.771	84.88
376.997	81.88
377.222	82.88
377.448	87.88
377.674	73.88
377.899	76.88
378.125	84.88
378.35	77.88
378.576	70.88
378.802	69.88
379.027	81.88
379.253	84.88
379.478	82.88
379.704	89.88
379.929	95.88
380.155	84.88
380.38	78.88
380.606	70.88
380.831	78.88
381.057	88.88
381.282	74.88
381.507	70.88
381.733	69.88
381.958	86.88
382.184	89.88
382.409	85.88
382.634	77.88
382.86	78.88
383.085	81.88
383.31	88.88
383.535	98.88
383.761	93.88
383.986	92.88
384.211	72.88
384.436	88.88
384.662	86.88
384.887	100.88
385.112	92.88
385.337	80.88
385.562	79.88
385.787	81.88
386.013	94.88
386.238	95.88
386.463	98.88
386.688	70.88
386.913	81.88
387.138	84.88
387.363	86.88
387.588	82.88
387.813	84.88
388.038	69.88
388.263	74.88
388.488	85.88
388.713	88.88
388.938	69.88
389.163	97.88
389.387	79.88
389.612	86.88
389.837	79.88
390.062	82.88
390.287	82.88
390.512	81.88
390.736	101.88
390.961	73.88
391.186	78.88
391.411	70.88
391.636	96.88
391.86	78.88
392.085	86.88
392.31	88.88
392.534	98.88
392.759	90.88
392.984	92.88
393.208	67.88
393.433	94.88
393.658	85.88
393.882	76.88
394.107	72.88
394.331	80.88
394.556	72.88
394.78	91.88
395.005	79.88
395.229	84.88
395.454	82.88
395.678	80.88
395.903	82.88
396.127	82.88
396.352	72.88
396.576	95.88
396.801	78.88
397.025	82.88
397.249	83.88
397.474	89.88
397.698	74.88
397.922	84.88
398.147	93.88
398.371	104.88
398.595	83.88
398.82	80.88
399.044	78.88
399.268	94.88
399.492	85.88
399.717	97.88
399.941	85.88
400.165	88.88
400.389	97.88
400.613	86.88
400.837	81.88
401.062	96.88
401.286	65.88
401.51	91.88
401.734	109.88
401.958	91.88
402.182	96.88
402.406	103.88
402.63	94.88
402.854	83.88
403.078	91.88
403.302	85.88
403.526	87.88
403.75	83.88
403.974	96.88
404.198	86.88
404.422	97.88
404.645	72.88
404.869	74.88
405.093	90.88
405.317	88.88
405.541	78.88
405.765	82.88
405.988	92.88
406.212	92.88
406.436	94.88
406.66	108.88
406.883	85.88
407.107	76.88
407.331	98.88
407.555	90.88
407.778	80.88
408.002	97.88
408.226	104.88
408.449	83.88
408.673	93.88
408.896	90.88
409.12	82.88
409.344	85.88
409.567	68.88
409.791	92.88
410.014	86.88
410.238	99.88
410.461	91.88
410.685	71.88
410.908	86.88
411.132	106.88
411.355	85.88
411.578	101.88
411.802	98.88
412.025	84.88
412.249	80.88
412.472	88.88
412.695	80.88
412.919	93.88
413.142	102.88
413.365	79.88
413.589	89.88
413.812	88.88
414.035	73.88
414.258	91.88
414.482	98.88
414.705	88.88
414.928	97.88
415.151	84.88
415.374	85.88
415.597	91.88
415.821	88.88
416.044	95.88
416.267	84.88
416.49	79.88
416.713	105.88
416.936	89.88
417.159	93.88
417.382	81.88
417.605	86.88
417.828	86.88
418.051	88.88
418.274	95.88
418.497	91.88
418.72	96.88
418.943	84.88
419.166	91.88
419.389	101.88
419.611	93.88
419.834	83.88
420.057	92.88
420.28	87.88
420.503	99.88
420.726	88.88
420.948	100.88
421.171	87.88
421.394	100.88
421.617	100.88
421.839	95.88
422.062	87.88
422.285	93.88
422.507	103.88
422.73	97.88
422.953	108.88
423.175	80.88
423.398	99.88
423.621	89.88
423.843	85.88
424.066	93.88
424.288	88.88
424.511	105.88
424.733	93.88
424.956	100.88
425.178	93.88
425.401	84.88
425.623	100.88
425.846	99.88
426.068	77.88
426.291	82.88
426.513	74.88
426.735	89.88
426.958	93.88
427.18	99.88
427.402	84.88
427.625	86.88
427.847	87.88
428.069	101.88
428.292	91.88
428.514	82.88
428.736	102.88
428.958	87.88
429.181	84.88
429.403	89.88
429.625	85.88
429.847	93.88
430.069	89.88
430.292	86.88
430.514	99.88
430.736	97.88
430.958	86.88
431.18	95.88
431.402	81.88
431.624	88.88
431.846	96.88
432.068	83.88
432.29	85.88
432.512	90.88
432.734	78.88
432.956	98.88
433.178	98.88
433.4	97.88
433.622	83.88
433.844	81.88
434.066	93.88
434.287	88.88
434.509	85.88
434.731	82.88
434.953	111.88
435.175	100.88
435.397	98.88
435.618	87.88
435.84	83.88
436.062	81.88
436.284	102.88
436.505	92.88
436.727	93.88
436.949	93.88
437.17	103.88
437.392	91.88
437.614	77.88
437.835	81.88
438.057	82.88
438.278	83.88
438.5	78.88
438.721	86.88
438.943	81.88
439.165	92.88
439.386	98.88
439.608	97.88
439.829	91.88
440.05	102.88
440.272	103.88
440.493	83.88
440.715	102.88
440.936	89.88
441.158	85.88
441.379	97.88
441.6	111.88
441.822	102.88
442.043	82.88
442.264	93.88
442.486	98.88
442.707	97.88
442.928	97.88
443.149	93.88
443.371	105.88
443.592	94.88
443.813	96.88
444.034	99.88
444.255	88.88
444.476	86.88
444.698	98.88
444.919	91.88
445.14	223.88
445.361	153.88
445.582	85.88
445.803	85.88
446.024	83.88
446.245	92.88
446.466	105.88
446.687	92.88
446.908	102.88
447.129	97.88
447.35	100.88
447.571	82.88
447.792	95.88
448.013	87.88
448.234	88.88
448.455	108.88
448.675	101.88
448.896	94.88
449.117	101.88
449.338	91.88
449.559	111.88
449.779	97.88
450	87.88
450.221	94.88
450.442	81.88
450.662	87.88
450.883	82.88
451.104	103.88
451.324	90.88
451.545	102.88
451.766	93.88
451.986	100.88
452.207	86.88
452.428	93.88
452.648	95.88
452.869	82.88
453.089	88.88
453.31	80.88
453.53	89.88
453.751	98.88
453.971	90.88
454.192	76.88
454.412	84.88
454.633	95.88
454.853	99.88
455.073	92.88
455.294	78.88
455.514	90.88
455.734	97.88
455.955	88.88
456.175	93.88
456.395	92.88
456.616	95.88
456.836	104.88
457.056	84.88
457.276	90.88
457.497	81.88
457.717	90.88
457.937	94.88
458.157	86.88
458.377	99.88
458.598	93.88
458.818	74.88
459.038	80.88
459.258	87.88
459.478	81.88
459.698	72.88
459.918	79.88
460.138	96.88
460.358	89.88
460.578	82.88
460.798	78.88
461.018	84.88
461.238	83.88
461.458	84.88
461.678	97.88
461.898	92.88
462.118	87.88
462.338	82.88
462.558	80.88
462.777	98.88
462.997	90.88
463.217	104.88
463.437	89.88
463.657	95.88
463.876	93.88
464.096	87.88
464.316	83.88
464.536	85.88
464.755	86.88
464.975	75.88
465.195	84.88
465.414	88.88
465.634	82.88
465.854	87.88
466.073	106.88
466.293	98.88
466.512	93.88
466.732	88.88
466.951	105.88
467.171	93.88
467.391	98.88
467.61	89.88
467.829	94.88
468.049	79.88
468.268	95.88
468.488	98.88
468.707	87.88
468.927	89.88
469.146	88.88
469.365	100.88
469.585	86.88
469.804	98.88
470.023	92.88
470.243	76.88
470.462	106.88
470.681	106.88
470.901	93.88
471.12	97.88
471.339	93.88
471.558	94.88
471.777	95.88
471.997	109.88
472.216	92.88
472.435	95.88
472.654	87.88
472.873	88.88
473.092	69.88
473.311	72.88
473.53	100.88
473.749	91.88
473.968	98.88
474.187	115.88
474.406	84.88
474.625	81.88
474.844	86.88
475.063	94.88
475.282	103.88
475.501	101.88
475.72	92.88
475.939	86.88
476.158	82.88
476.377	86.88
476.596	83.88
476.814	84.88
477.033	78.88
477.252	80.88
477.471	95.88
477.69	105.88
477.908	94.88
478.127	99.88
478.346	92.88
478.564	93.88
478.783	96.88
479.002	103.88
479.22	96.88
479.439	88.88
479.658	92.88
479.876	76.88
480.095	78.88
480.313	99.88
480.532	80.88
480.751	96.88
480.969	75.88
481.188	85.88
481.406	75.88
481.624	73.88
481.843	81.88
482.061	83.88
482.28	79.88
482.498	95.88
482.717	90.88
482.935	93.88
483.153	99.88
483.372	88.88
483.59	95.88
483.808	95.88
484.027	100.88
484.245	99.88
484.463	85.88
484.681	93.88
484.9	88.88
485.118	100.88
485.336	99.88
485.554	90.88
485.772	91.88
485.99	82.88
486.209	92.88
486.427	85.88
486.645	85.88
486.863	83.88
487.081	87.88
487.299	89.88
487.517	112.88
487.735	96.88
487.953	110.88
488.171	104.88
488.389	94.88
488.607	100.88
488.825	103.88
489.043	90.88
489.261	95.88
489.479	97.88
489.696	93.88
489.914	90.88
490.132	103.88
490.35	83.88
490.568	92.88
490.786	103.88
491.003	111.88
491.221	101.88
491.439	102.88
491.657	96.88
491.874	120.88
492.092	131.88
492.31	136.88
492.527	125.88
492.745	125.88
492.963	121.88
493.18	110.88
493.398	99.88
493.615	113.88
493.833	96.88
494.05	99.88
494.268	108.88
494.485	120.88
494.703	94.88
494.92	110.88
495.138	105.88
495.355	101.88
495.573	106.88
495.79	90.88
496.008	108.88
496.225	100.88
496.442	103.88
496.66	103.88
496.877	104.88
497.094	115.88
497.312	91.88
497.529	118.88
497.746	104.88
497.963	93.88
498.181	102.88
498.398	93.88
498.615	90.88
498.832	90.88
499.049	95.88
499.267	105.88
499.484	85.88
499.701	83.88
499.918	100.88
500.135	83.88
500.352	87.88
500.569	92.88
500.786	101.88
501.003	96.88
501.22	100.88
501.437	92.88
501.654	97.88
501.871	76.88
502.088	99.88
502.305	90.88
502.522	97.88
502.739	101.88
502.956	94.88
503.172	93.88
503.389	89.88
503.606	95.88
503.823	89.88
504.04	93.88
504.256	99.88
504.473	89.88
504.69	97.88
504.907	99.88
505.123	96.88
505.34	87.88
505.557	110.88
505.773	108.88
505.99	88.88
506.207	94.88
506.423	94.88
506.64	93.88
506.856	110.88
507.073	103.88
507.289	93.88
507.506	85.88
507.722	93.88
507.939	81.88
508.155	83.88
508.372	81.88
508.588	77.88
508.805	96.88
509.021	81.88
509.238	88.88
509.454	92.88
509.67	72.88
509.887	92.88
510.103	70.88
510.319	81.88
510.536	76.88
510.752	90.88
510.968	79.88
511.184	80.88
511.401	73.88
511.617	84.88
511.833	62.88
512.049	68.88
512.265	91.88
512.481	87.88
512.698	88.88
512.914	85.88
513.13	80.88
513.346	99.88
513.562	90.88
513.778	86.88
513.994	73.88
514.21	81.88
514.426	78.88
514.642	86.88
514.858	96.88
515.074	91.88
515.29	87.88
515.506	94.88
515.721	64.88
515.937	80.88
516.153	84.88
516.369	70.88
516.585	81.88
516.801	87.88
517.016	79.88
517.232	87.88
517.448	89.88
517.664	90.88
517.879	82.88
518.095	80.88
