Data from Location3.07152019.Energy5.Lamp.07192019.3%Agarose_HRD10591_15-17-41-268.txt Node
Date: Fri Jul 19 15:17:41 EDT 2019
User: cochatt
Spectrometer: HR+D1059
Trigger mode: 1
Integration Time (sec): 1.000000E-1
Scans to average: 1
Electric dark correction enabled: true
Nonlinearity correction enabled: false
Boxcar width: 0
XAxis mode: Wavelengths
Number of Pixels in Spectrum: 2048
>>>>>Begin Spectral Data<<<<<
223.165	-22.06
223.4	-22.06
223.635	-22.06
223.869	-15.06
224.104	-18.06
224.338	-13.06
224.573	-21.06
224.808	-6.06
225.042	-2.06
225.277	-26.06
225.511	3.94
225.746	-5.06
225.98	12.94
226.215	11.94
226.449	17.94
226.683	32.94
226.918	23.94
227.152	24.94
227.387	17.94
227.621	37.94
227.856	46.94
228.09	45.94
228.324	45.94
228.559	58.94
228.793	71.94
229.027	58.94
229.262	71.94
229.496	65.94
229.73	72.94
229.964	73.94
230.199	79.94
230.433	72.94
230.667	74.94
230.901	93.94
231.136	81.94
231.37	62.94
231.604	72.94
231.838	77.94
232.072	92.94
232.306	75.94
232.541	57.94
232.775	86.94
233.009	83.94
233.243	79.94
233.477	88.94
233.711	79.94
233.945	80.94
234.179	82.94
234.413	89.94
234.647	76.94
234.881	86.94
235.115	80.94
235.349	83.94
235.583	86.94
235.817	73.94
236.051	78.94
236.285	84.94
236.519	88.94
236.753	62.94
236.987	68.94
237.221	77.94
237.455	80.94
237.689	72.94
237.922	74.94
238.156	80.94
238.39	75.94
238.624	74.94
238.858	85.94
239.091	90.94
239.325	79.94
239.559	74.94
239.793	65.94
240.027	79.94
240.26	85.94
240.494	73.94
240.728	72.94
240.961	77.94
241.195	86.94
241.429	81.94
241.662	69.94
241.896	74.94
242.13	92.94
242.363	69.94
242.597	77.94
242.83	82.94
243.064	85.94
243.298	73.94
243.531	89.94
243.765	77.94
243.998	91.94
244.232	68.94
244.465	84.94
244.699	74.94
244.932	69.94
245.166	83.94
245.399	86.94
245.633	87.94
245.866	68.94
246.099	79.94
246.333	89.94
246.566	77.94
246.8	79.94
247.033	66.94
247.266	87.94
247.5	74.94
247.733	80.94
247.966	91.94
248.2	74.94
248.433	68.94
248.666	78.94
248.899	79.94
249.133	64.94
249.366	77.94
249.599	82.94
249.832	87.94
250.066	87.94
250.299	94.94
250.532	82.94
250.765	78.94
250.998	81.94
251.231	68.94
251.465	69.94
251.698	65.94
251.931	69.94
252.164	86.94
252.397	75.94
252.63	78.94
252.863	88.94
253.096	87.94
253.329	75.94
253.562	86.94
253.795	80.94
254.028	77.94
254.261	63.94
254.494	95.94
254.727	91.94
254.96	71.94
255.193	75.94
255.426	77.94
255.659	85.94
255.892	87.94
256.124	72.94
256.357	78.94
256.59	80.94
256.823	82.94
257.056	82.94
257.289	89.94
257.521	77.94
257.754	81.94
257.987	78.94
258.22	67.94
258.452	77.94
258.685	85.94
258.918	73.94
259.151	86.94
259.383	87.94
259.616	93.94
259.849	83.94
260.081	87.94
260.314	83.94
260.547	69.94
260.779	74.94
261.012	84.94
261.244	76.94
261.477	86.94
261.71	83.94
261.942	74.94
262.175	84.94
262.407	69.94
262.64	80.94
262.872	78.94
263.105	93.94
263.337	83.94
263.57	70.94
263.802	76.94
264.035	77.94
264.267	82.94
264.499	69.94
264.732	85.94
264.964	80.94
265.197	79.94
265.429	76.94
265.661	70.94
265.894	93.94
266.126	95.94
266.358	95.94
266.591	97.94
266.823	81.94
267.055	77.94
267.287	85.94
267.52	90.94
267.752	85.94
267.984	77.94
268.216	82.94
268.448	91.94
268.681	89.94
268.913	70.94
269.145	88.94
269.377	72.94
269.609	75.94
269.841	81.94
270.073	79.94
270.306	83.94
270.538	84.94
270.77	83.94
271.002	71.94
271.234	58.94
271.466	69.94
271.698	81.94
271.93	72.94
272.162	89.94
272.394	98.94
272.626	93.94
272.858	93.94
273.09	98.94
273.322	89.94
273.553	83.94
273.785	82.94
274.017	67.94
274.249	81.94
274.481	89.94
274.713	71.94
274.945	94.94
275.176	80.94
275.408	79.94
275.64	83.94
275.872	75.94
276.104	86.94
276.335	87.94
276.567	70.94
276.799	79.94
277.031	86.94
277.262	71.94
277.494	81.94
277.726	79.94
277.957	65.94
278.189	80.94
278.421	89.94
278.652	72.94
278.884	81.94
279.115	79.94
279.347	78.94
279.579	89.94
279.81	74.94
280.042	81.94
280.273	77.94
280.505	81.94
280.736	95.94
280.968	81.94
281.199	82.94
281.431	81.94
281.662	85.94
281.894	91.94
282.125	81.94
282.356	74.94
282.588	78.94
282.819	81.94
283.051	93.94
283.282	80.94
283.513	97.94
283.745	77.94
283.976	77.94
284.207	84.94
284.439	86.94
284.67	76.94
284.901	85.94
285.132	70.94
285.364	87.94
285.595	80.94
285.826	75.94
286.057	77.94
286.288	87.94
286.52	86.94
286.751	81.94
286.982	88.94
287.213	86.94
287.444	79.94
287.675	90.94
287.906	81.94
288.138	85.94
288.369	79.94
288.6	85.94
288.831	85.94
289.062	94.94
289.293	83.94
289.524	81.94
289.755	93.94
289.986	82.94
290.217	86.94
290.448	77.94
290.679	90.94
290.91	76.94
291.141	81.94
291.371	93.94
291.602	84.94
291.833	88.94
292.064	77.94
292.295	86.94
292.526	89.94
292.757	81.94
292.987	89.94
293.218	93.94
293.449	81.94
293.68	77.94
293.91	97.94
294.141	79.94
294.372	84.94
294.603	84.94
294.833	85.94
295.064	92.94
295.295	86.94
295.525	80.94
295.756	93.94
295.987	80.94
296.217	79.94
296.448	87.94
296.679	72.94
296.909	77.94
297.14	77.94
297.37	90.94
297.601	75.94
297.831	71.94
298.062	87.94
298.292	82.94
298.523	89.94
298.753	89.94
298.984	88.94
299.214	69.94
299.445	91.94
299.675	81.94
299.905	82.94
300.136	80.94
300.366	76.94
300.597	83.94
300.827	91.94
301.057	88.94
301.288	94.94
301.518	82.94
301.748	87.94
301.979	95.94
302.209	75.94
302.439	82.94
302.669	96.94
302.9	80.94
303.13	77.94
303.36	77.94
303.59	81.94
303.82	89.94
304.051	77.94
304.281	89.94
304.511	82.94
304.741	84.94
304.971	89.94
305.201	95.94
305.431	108.94
305.661	87.94
305.891	78.94
306.121	88.94
306.352	72.94
306.582	90.94
306.812	82.94
307.042	86.94
307.272	85.94
307.502	81.94
307.731	75.94
307.961	72.94
308.191	81.94
308.421	88.94
308.651	73.94
308.881	86.94
309.111	87.94
309.341	82.94
309.571	74.94
309.8	81.94
310.03	77.94
310.26	72.94
310.49	77.94
310.72	94.94
310.949	86.94
311.179	96.94
311.409	92.94
311.639	97.94
311.868	84.94
312.098	75.94
312.328	91.94
312.557	86.94
312.787	77.94
313.017	67.94
313.246	90.94
313.476	75.94
313.706	77.94
313.935	99.94
314.165	94.94
314.394	79.94
314.624	75.94
314.853	83.94
315.083	71.94
315.312	79.94
315.542	87.94
315.771	85.94
316.001	84.94
316.23	86.94
316.46	60.94
316.689	64.94
316.919	78.94
317.148	96.94
317.377	78.94
317.607	77.94
317.836	81.94
318.065	87.94
318.295	87.94
318.524	83.94
318.753	86.94
318.983	78.94
319.212	83.94
319.441	79.94
319.67	81.94
319.9	89.94
320.129	86.94
320.358	91.94
320.587	75.94
320.816	74.94
321.046	81.94
321.275	90.94
321.504	74.94
321.733	83.94
321.962	75.94
322.191	89.94
322.42	80.94
322.649	98.94
322.878	90.94
323.108	86.94
323.337	78.94
323.566	66.94
323.795	78.94
324.024	87.94
324.253	89.94
324.482	71.94
324.71	85.94
324.939	85.94
325.168	82.94
325.397	95.94
325.626	95.94
325.855	86.94
326.084	80.94
326.313	104.94
326.542	85.94
326.77	88.94
326.999	72.94
327.228	93.94
327.457	84.94
327.686	88.94
327.914	84.94
328.143	88.94
328.372	84.94
328.6	80.94
328.829	77.94
329.058	86.94
329.287	79.94
329.515	91.94
329.744	79.94
329.972	99.94
330.201	83.94
330.43	86.94
330.658	84.94
330.887	77.94
331.115	94.94
331.344	90.94
331.572	90.94
331.801	74.94
332.03	92.94
332.258	94.94
332.486	87.94
332.715	88.94
332.943	90.94
333.172	92.94
333.4	96.94
333.629	92.94
333.857	97.94
334.085	85.94
334.314	83.94
334.542	87.94
334.771	85.94
334.999	88.94
335.227	89.94
335.455	90.94
335.684	85.94
335.912	93.94
336.14	80.94
336.369	97.94
336.597	82.94
336.825	79.94
337.053	80.94
337.281	88.94
337.51	87.94
337.738	75.94
337.966	79.94
338.194	79.94
338.422	77.94
338.65	79.94
338.878	82.94
339.106	93.94
339.334	93.94
339.562	79.94
339.79	66.94
340.018	89.94
340.246	70.94
340.474	83.94
340.702	83.94
340.93	81.94
341.158	98.94
341.386	87.94
341.614	81.94
341.842	88.94
342.07	79.94
342.298	81.94
342.526	87.94
342.754	78.94
342.981	88.94
343.209	90.94
343.437	95.94
343.665	91.94
343.893	83.94
344.12	104.94
344.348	79.94
344.576	72.94
344.804	87.94
345.031	93.94
345.259	84.94
345.487	88.94
345.714	85.94
345.942	78.94
346.17	80.94
346.397	79.94
346.625	80.94
346.853	86.94
347.08	78.94
347.308	74.94
347.535	81.94
347.763	87.94
347.99	75.94
348.218	82.94
348.445	87.94
348.673	58.94
348.9	80.94
349.128	69.94
349.355	91.94
349.583	81.94
349.81	80.94
350.037	94.94
350.265	83.94
350.492	86.94
350.72	82.94
350.947	79.94
351.174	71.94
351.402	72.94
351.629	87.94
351.856	80.94
352.083	76.94
352.311	83.94
352.538	82.94
352.765	90.94
352.992	90.94
353.22	86.94
353.447	92.94
353.674	78.94
353.901	88.94
354.128	88.94
354.355	77.94
354.583	84.94
354.81	74.94
355.037	76.94
355.264	81.94
355.491	87.94
355.718	79.94
355.945	64.94
356.172	89.94
356.399	75.94
356.626	75.94
356.853	93.94
357.08	80.94
357.307	73.94
357.534	81.94
357.761	69.94
357.988	88.94
358.215	81.94
358.441	84.94
358.668	90.94
358.895	90.94
359.122	83.94
359.349	92.94
359.576	73.94
359.802	74.94
360.029	78.94
360.256	66.94
360.483	90.94
360.709	96.94
360.936	78.94
361.163	88.94
361.39	76.94
361.616	73.94
361.843	83.94
362.07	88.94
362.296	67.94
362.523	84.94
362.749	74.94
362.976	75.94
363.203	91.94
363.429	74.94
363.656	81.94
363.882	81.94
364.109	94.94
364.335	87.94
364.562	74.94
364.788	74.94
365.015	75.94
365.241	76.94
365.468	87.94
365.694	81.94
365.92	74.94
366.147	87.94
366.373	80.94
366.599	85.94
366.826	97.94
367.052	78.94
367.278	80.94
367.505	78.94
367.731	83.94
367.957	84.94
368.184	83.94
368.41	82.94
368.636	81.94
368.862	81.94
369.089	78.94
369.315	74.94
369.541	99.94
369.767	87.94
369.993	79.94
370.219	88.94
370.445	71.94
370.672	91.94
370.898	86.94
371.124	82.94
371.35	86.94
371.576	79.94
371.802	90.94
372.028	87.94
372.254	94.94
372.48	77.94
372.706	85.94
372.932	73.94
373.158	81.94
373.384	78.94
373.61	83.94
373.835	82.94
374.061	89.94
374.287	90.94
374.513	88.94
374.739	89.94
374.965	78.94
375.191	85.94
375.416	71.94
375.642	87.94
375.868	78.94
376.094	81.94
376.319	78.94
376.545	87.94
376.771	94.94
376.997	76.94
377.222	88.94
377.448	78.94
377.674	98.94
377.899	74.94
378.125	100.94
378.35	73.94
378.576	80.94
378.802	76.94
379.027	84.94
379.253	91.94
379.478	88.94
379.704	82.94
379.929	84.94
380.155	90.94
380.38	87.94
380.606	86.94
380.831	90.94
381.057	89.94
381.282	93.94
381.507	81.94
381.733	93.94
381.958	85.94
382.184	85.94
382.409	89.94
382.634	80.94
382.86	80.94
383.085	80.94
383.31	88.94
383.535	80.94
383.761	94.94
383.986	86.94
384.211	75.94
384.436	87.94
384.662	73.94
384.887	78.94
385.112	79.94
385.337	94.94
385.562	81.94
385.787	86.94
386.013	81.94
386.238	96.94
386.463	88.94
386.688	81.94
386.913	74.94
387.138	89.94
387.363	86.94
387.588	78.94
387.813	74.94
388.038	74.94
388.263	94.94
388.488	86.94
388.713	72.94
388.938	93.94
389.163	87.94
389.387	90.94
389.612	89.94
389.837	76.94
390.062	90.94
390.287	78.94
390.512	95.94
390.736	79.94
390.961	101.94
391.186	81.94
391.411	82.94
391.636	87.94
391.86	90.94
392.085	85.94
392.31	68.94
392.534	86.94
392.759	78.94
392.984	82.94
393.208	87.94
393.433	70.94
393.658	82.94
393.882	82.94
394.107	78.94
394.331	80.94
394.556	91.94
394.78	88.94
395.005	91.94
395.229	82.94
395.454	74.94
395.678	86.94
395.903	82.94
396.127	99.94
396.352	97.94
396.576	80.94
396.801	92.94
397.025	71.94
397.249	90.94
397.474	90.94
397.698	90.94
397.922	81.94
398.147	86.94
398.371	87.94
398.595	80.94
398.82	71.94
399.044	91.94
399.268	89.94
399.492	90.94
399.717	91.94
399.941	78.94
400.165	91.94
400.389	87.94
400.613	90.94
400.837	78.94
401.062	90.94
401.286	92.94
401.51	82.94
401.734	82.94
401.958	77.94
402.182	73.94
402.406	80.94
402.63	72.94
402.854	92.94
403.078	91.94
403.302	94.94
403.526	90.94
403.75	82.94
403.974	85.94
404.198	91.94
404.422	82.94
404.645	90.94
404.869	77.94
405.093	73.94
405.317	80.94
405.541	87.94
405.765	99.94
405.988	100.94
406.212	90.94
406.436	87.94
406.66	90.94
406.883	90.94
407.107	87.94
407.331	89.94
407.555	78.94
407.778	90.94
408.002	85.94
408.226	88.94
408.449	88.94
408.673	83.94
408.896	90.94
409.12	97.94
409.344	78.94
409.567	76.94
409.791	86.94
410.014	94.94
410.238	91.94
410.461	94.94
410.685	87.94
410.908	89.94
411.132	86.94
411.355	92.94
411.578	108.94
411.802	89.94
412.025	93.94
412.249	83.94
412.472	98.94
412.695	86.94
412.919	85.94
413.142	90.94
413.365	102.94
413.589	91.94
413.812	93.94
414.035	82.94
414.258	100.94
414.482	101.94
414.705	92.94
414.928	93.94
415.151	79.94
415.374	85.94
415.597	77.94
415.821	80.94
416.044	89.94
416.267	98.94
416.49	95.94
416.713	100.94
416.936	99.94
417.159	95.94
417.382	87.94
417.605	90.94
417.828	86.94
418.051	75.94
418.274	107.94
418.497	85.94
418.72	81.94
418.943	97.94
419.166	84.94
419.389	97.94
419.611	99.94
419.834	94.94
420.057	93.94
420.28	83.94
420.503	88.94
420.726	95.94
420.948	75.94
421.171	85.94
421.394	91.94
421.617	96.94
421.839	81.94
422.062	102.94
422.285	110.94
422.507	89.94
422.73	96.94
422.953	87.94
423.175	91.94
423.398	96.94
423.621	95.94
423.843	85.94
424.066	100.94
424.288	70.94
424.511	97.94
424.733	95.94
424.956	83.94
425.178	86.94
425.401	75.94
425.623	74.94
425.846	87.94
426.068	107.94
426.291	81.94
426.513	97.94
426.735	78.94
426.958	86.94
427.18	104.94
427.402	92.94
427.625	94.94
427.847	87.94
428.069	86.94
428.292	99.94
428.514	90.94
428.736	92.94
428.958	86.94
429.181	98.94
429.403	91.94
429.625	92.94
429.847	81.94
430.069	80.94
430.292	95.94
430.514	89.94
430.736	89.94
430.958	87.94
431.18	91.94
431.402	82.94
431.624	94.94
431.846	74.94
432.068	94.94
432.29	81.94
432.512	85.94
432.734	78.94
432.956	91.94
433.178	79.94
433.4	88.94
433.622	110.94
433.844	88.94
434.066	93.94
434.287	81.94
434.509	87.94
434.731	90.94
434.953	87.94
435.175	77.94
435.397	87.94
435.618	85.94
435.84	93.94
436.062	96.94
436.284	70.94
436.505	85.94
436.727	96.94
436.949	96.94
437.17	86.94
437.392	83.94
437.614	101.94
437.835	86.94
438.057	88.94
438.278	83.94
438.5	83.94
438.721	80.94
438.943	90.94
439.165	84.94
439.386	95.94
439.608	105.94
439.829	98.94
440.05	103.94
440.272	105.94
440.493	88.94
440.715	88.94
440.936	94.94
441.158	104.94
441.379	105.94
441.6	88.94
441.822	109.94
442.043	96.94
442.264	88.94
442.486	87.94
442.707	90.94
442.928	94.94
443.149	83.94
443.371	88.94
443.592	91.94
443.813	89.94
444.034	86.94
444.255	86.94
444.476	93.94
444.698	94.94
444.919	102.94
445.14	185.94
445.361	144.94
445.582	93.94
445.803	100.94
446.024	101.94
446.245	111.94
446.466	99.94
446.687	97.94
446.908	100.94
447.129	91.94
447.35	95.94
447.571	93.94
447.792	102.94
448.013	104.94
448.234	92.94
448.455	95.94
448.675	112.94
448.896	92.94
449.117	102.94
449.338	108.94
449.559	99.94
449.779	99.94
450	88.94
450.221	104.94
450.442	105.94
450.662	89.94
450.883	100.94
451.104	81.94
451.324	81.94
451.545	81.94
451.766	118.94
451.986	96.94
452.207	106.94
452.428	94.94
452.648	89.94
452.869	85.94
453.089	100.94
453.31	96.94
453.53	89.94
453.751	82.94
453.971	87.94
454.192	88.94
454.412	86.94
454.633	91.94
454.853	86.94
455.073	93.94
455.294	94.94
455.514	81.94
455.734	82.94
455.955	96.94
456.175	74.94
456.395	80.94
456.616	88.94
456.836	83.94
457.056	80.94
457.276	99.94
457.497	83.94
457.717	90.94
457.937	82.94
458.157	85.94
458.377	100.94
458.598	83.94
458.818	87.94
459.038	87.94
459.258	85.94
459.478	77.94
459.698	79.94
459.918	75.94
460.138	73.94
460.358	81.94
460.578	98.94
460.798	96.94
461.018	81.94
461.238	87.94
461.458	88.94
461.678	85.94
461.898	88.94
462.118	89.94
462.338	110.94
462.558	86.94
462.777	85.94
462.997	85.94
463.217	94.94
463.437	85.94
463.657	74.94
463.876	85.94
464.096	85.94
464.316	82.94
464.536	88.94
464.755	87.94
464.975	81.94
465.195	85.94
465.414	93.94
465.634	83.94
465.854	86.94
466.073	82.94
466.293	83.94
466.512	105.94
466.732	100.94
466.951	92.94
467.171	91.94
467.391	113.94
467.61	92.94
467.829	93.94
468.049	99.94
468.268	103.94
468.488	104.94
468.707	83.94
468.927	84.94
469.146	79.94
469.365	107.94
469.585	98.94
469.804	108.94
470.023	103.94
470.243	96.94
470.462	100.94
470.681	110.94
470.901	104.94
471.12	102.94
471.339	88.94
471.558	81.94
471.777	90.94
471.997	100.94
472.216	94.94
472.435	93.94
472.654	87.94
472.873	83.94
473.092	79.94
473.311	82.94
473.53	93.94
473.749	89.94
473.968	105.94
474.187	96.94
474.406	78.94
474.625	89.94
474.844	93.94
475.063	91.94
475.282	104.94
475.501	95.94
475.72	82.94
475.939	96.94
476.158	98.94
476.377	98.94
476.596	94.94
476.814	87.94
477.033	99.94
477.252	104.94
477.471	93.94
477.69	83.94
477.908	88.94
478.127	93.94
478.346	95.94
478.564	100.94
478.783	87.94
479.002	87.94
479.22	90.94
479.439	75.94
479.658	81.94
479.876	99.94
480.095	88.94
480.313	84.94
480.532	87.94
480.751	99.94
480.969	83.94
481.188	86.94
481.406	84.94
481.624	73.94
481.843	87.94
482.061	90.94
482.28	102.94
482.498	86.94
482.717	85.94
482.935	83.94
483.153	96.94
483.372	87.94
483.59	104.94
483.808	97.94
484.027	102.94
484.245	105.94
484.463	85.94
484.681	97.94
484.9	103.94
485.118	94.94
485.336	85.94
485.554	77.94
485.772	92.94
485.99	92.94
486.209	93.94
486.427	95.94
486.645	87.94
486.863	86.94
487.081	97.94
487.299	91.94
487.517	97.94
487.735	99.94
487.953	110.94
488.171	115.94
488.389	114.94
488.607	99.94
488.825	90.94
489.043	84.94
489.261	117.94
489.479	100.94
489.696	98.94
489.914	85.94
490.132	91.94
490.35	99.94
490.568	104.94
490.786	113.94
491.003	102.94
491.221	115.94
491.439	113.94
491.657	118.94
491.874	127.94
492.092	118.94
492.31	119.94
492.527	124.94
492.745	107.94
492.963	115.94
493.18	113.94
493.398	100.94
493.615	113.94
493.833	112.94
494.05	104.94
494.268	122.94
494.485	105.94
494.703	119.94
494.92	112.94
495.138	85.94
495.355	119.94
495.573	111.94
495.79	111.94
496.008	103.94
496.225	111.94
496.442	102.94
496.66	111.94
496.877	101.94
497.094	103.94
497.312	112.94
497.529	106.94
497.746	91.94
497.963	103.94
498.181	91.94
498.398	89.94
498.615	76.94
498.832	90.94
499.049	96.94
499.267	99.94
499.484	96.94
499.701	91.94
499.918	105.94
500.135	105.94
500.352	93.94
500.569	108.94
500.786	103.94
501.003	88.94
501.22	94.94
501.437	82.94
501.654	94.94
501.871	95.94
502.088	86.94
502.305	102.94
502.522	87.94
502.739	91.94
502.956	88.94
503.172	98.94
503.389	105.94
503.606	98.94
503.823	105.94
504.04	90.94
504.256	94.94
504.473	90.94
504.69	94.94
504.907	85.94
505.123	95.94
505.34	94.94
505.557	84.94
505.773	93.94
505.99	98.94
506.207	103.94
506.423	87.94
506.64	81.94
506.856	100.94
507.073	81.94
507.289	87.94
507.506	97.94
507.722	86.94
507.939	78.94
508.155	95.94
508.372	86.94
508.588	89.94
508.805	85.94
509.021	74.94
509.238	93.94
509.454	79.94
509.67	91.94
509.887	85.94
510.103	75.94
510.319	97.94
510.536	93.94
510.752	82.94
510.968	78.94
511.184	81.94
511.401	88.94
511.617	82.94
511.833	73.94
512.049	73.94
512.265	86.94
512.481	96.94
512.698	77.94
512.914	78.94
513.13	98.94
513.346	97.94
513.562	81.94
513.778	86.94
513.994	93.94
514.21	93.94
514.426	85.94
514.642	82.94
514.858	75.94
515.074	89.94
515.29	96.94
515.506	81.94
515.721	83.94
515.937	83.94
516.153	97.94
516.369	74.94
516.585	81.94
516.801	79.94
517.016	90.94
517.232	78.94
517.448	79.94
517.664	68.94
517.879	76.94
