Data from Location3.07152019.Energy5.Lamp.07192019.3%Agarose_HRD10591_15-16-44-268.txt Node
Date: Fri Jul 19 15:16:44 EDT 2019
User: cochatt
Spectrometer: HR+D1059
Trigger mode: 1
Integration Time (sec): 1.000000E-1
Scans to average: 1
Electric dark correction enabled: true
Nonlinearity correction enabled: false
Boxcar width: 0
XAxis mode: Wavelengths
Number of Pixels in Spectrum: 2048
>>>>>Begin Spectral Data<<<<<
223.165	-8.31
223.4	-8.31
223.635	-8.31
223.869	-11.31
224.104	-15.31
224.338	-14.31
224.573	-7.31
224.808	-12.31
225.042	-12.31
225.277	-7.31
225.511	-3.31
225.746	-6.31
225.98	-4.31
226.215	4.69
226.449	11.69
226.683	27.69
226.918	24.69
227.152	33.69
227.387	39.69
227.621	51.69
227.856	37.69
228.09	47.69
228.324	48.69
228.559	58.69
228.793	60.69
229.027	62.69
229.262	72.69
229.496	70.69
229.73	86.69
229.964	79.69
230.199	72.69
230.433	81.69
230.667	72.69
230.901	85.69
231.136	92.69
231.37	80.69
231.604	72.69
231.838	88.69
232.072	87.69
232.306	78.69
232.541	77.69
232.775	93.69
233.009	79.69
233.243	87.69
233.477	97.69
233.711	72.69
233.945	87.69
234.179	81.69
234.413	81.69
234.647	87.69
234.881	84.69
235.115	73.69
235.349	95.69
235.583	79.69
235.817	83.69
236.051	92.69
236.285	70.69
236.519	85.69
236.753	92.69
236.987	78.69
237.221	100.69
237.455	77.69
237.689	87.69
237.922	88.69
238.156	80.69
238.39	92.69
238.624	81.69
238.858	80.69
239.091	84.69
239.325	77.69
239.559	88.69
239.793	96.69
240.027	86.69
240.26	80.69
240.494	76.69
240.728	69.69
240.961	81.69
241.195	79.69
241.429	83.69
241.662	89.69
241.896	89.69
242.13	76.69
242.363	93.69
242.597	86.69
242.83	83.69
243.064	77.69
243.298	77.69
243.531	65.69
243.765	83.69
243.998	73.69
244.232	81.69
244.465	76.69
244.699	64.69
244.932	70.69
245.166	91.69
245.399	85.69
245.633	94.69
245.866	85.69
246.099	75.69
246.333	75.69
246.566	97.69
246.8	80.69
247.033	88.69
247.266	81.69
247.5	86.69
247.733	82.69
247.966	83.69
248.2	73.69
248.433	84.69
248.666	87.69
248.899	77.69
249.133	88.69
249.366	89.69
249.599	97.69
249.832	79.69
250.066	97.69
250.299	75.69
250.532	88.69
250.765	94.69
250.998	96.69
251.231	88.69
251.465	77.69
251.698	88.69
251.931	88.69
252.164	75.69
252.397	86.69
252.63	89.69
252.863	88.69
253.096	84.69
253.329	87.69
253.562	81.69
253.795	87.69
254.028	81.69
254.261	79.69
254.494	71.69
254.727	92.69
254.96	95.69
255.193	73.69
255.426	82.69
255.659	82.69
255.892	88.69
256.124	70.69
256.357	86.69
256.59	98.69
256.823	97.69
257.056	89.69
257.289	85.69
257.521	76.69
257.754	88.69
257.987	98.69
258.22	79.69
258.452	84.69
258.685	86.69
258.918	85.69
259.151	82.69
259.383	74.69
259.616	66.69
259.849	91.69
260.081	80.69
260.314	95.69
260.547	90.69
260.779	78.69
261.012	100.69
261.244	79.69
261.477	79.69
261.71	86.69
261.942	80.69
262.175	67.69
262.407	99.69
262.64	93.69
262.872	93.69
263.105	85.69
263.337	92.69
263.57	96.69
263.802	86.69
264.035	81.69
264.267	80.69
264.499	84.69
264.732	93.69
264.964	97.69
265.197	90.69
265.429	84.69
265.661	87.69
265.894	80.69
266.126	88.69
266.358	93.69
266.591	87.69
266.823	87.69
267.055	92.69
267.287	81.69
267.52	80.69
267.752	89.69
267.984	95.69
268.216	92.69
268.448	80.69
268.681	74.69
268.913	76.69
269.145	78.69
269.377	78.69
269.609	85.69
269.841	99.69
270.073	69.69
270.306	74.69
270.538	81.69
270.77	73.69
271.002	99.69
271.234	94.69
271.466	80.69
271.698	87.69
271.93	95.69
272.162	89.69
272.394	95.69
272.626	75.69
272.858	88.69
273.09	85.69
273.322	96.69
273.553	98.69
273.785	85.69
274.017	90.69
274.249	85.69
274.481	76.69
274.713	80.69
274.945	97.69
275.176	92.69
275.408	87.69
275.64	105.69
275.872	90.69
276.104	93.69
276.335	93.69
276.567	77.69
276.799	99.69
277.031	94.69
277.262	91.69
277.494	98.69
277.726	92.69
277.957	89.69
278.189	94.69
278.421	75.69
278.652	100.69
278.884	75.69
279.115	86.69
279.347	87.69
279.579	91.69
279.81	86.69
280.042	88.69
280.273	85.69
280.505	103.69
280.736	90.69
280.968	96.69
281.199	86.69
281.431	86.69
281.662	84.69
281.894	81.69
282.125	91.69
282.356	86.69
282.588	101.69
282.819	97.69
283.051	80.69
283.282	81.69
283.513	63.69
283.745	103.69
283.976	88.69
284.207	93.69
284.439	86.69
284.67	96.69
284.901	78.69
285.132	105.69
285.364	86.69
285.595	95.69
285.826	91.69
286.057	102.69
286.288	96.69
286.52	91.69
286.751	89.69
286.982	92.69
287.213	86.69
287.444	76.69
287.675	78.69
287.906	94.69
288.138	88.69
288.369	99.69
288.6	98.69
288.831	81.69
289.062	93.69
289.293	102.69
289.524	92.69
289.755	102.69
289.986	89.69
290.217	97.69
290.448	97.69
290.679	82.69
290.91	101.69
291.141	89.69
291.371	104.69
291.602	83.69
291.833	86.69
292.064	93.69
292.295	89.69
292.526	88.69
292.757	100.69
292.987	84.69
293.218	97.69
293.449	90.69
293.68	95.69
293.91	80.69
294.141	75.69
294.372	98.69
294.603	74.69
294.833	78.69
295.064	82.69
295.295	67.69
295.525	83.69
295.756	86.69
295.987	82.69
296.217	99.69
296.448	87.69
296.679	88.69
296.909	81.69
297.14	90.69
297.37	87.69
297.601	99.69
297.831	104.69
298.062	78.69
298.292	97.69
298.523	82.69
298.753	95.69
298.984	105.69
299.214	93.69
299.445	99.69
299.675	88.69
299.905	86.69
300.136	93.69
300.366	91.69
300.597	90.69
300.827	85.69
301.057	94.69
301.288	80.69
301.518	72.69
301.748	87.69
301.979	74.69
302.209	96.69
302.439	86.69
302.669	112.69
302.9	104.69
303.13	92.69
303.36	89.69
303.59	87.69
303.82	85.69
304.051	90.69
304.281	96.69
304.511	105.69
304.741	80.69
304.971	75.69
305.201	88.69
305.431	90.69
305.661	98.69
305.891	82.69
306.121	77.69
306.352	87.69
306.582	85.69
306.812	88.69
307.042	84.69
307.272	98.69
307.502	88.69
307.731	101.69
307.961	90.69
308.191	82.69
308.421	88.69
308.651	92.69
308.881	94.69
309.111	100.69
309.341	84.69
309.571	99.69
309.8	96.69
310.03	83.69
310.26	99.69
310.49	95.69
310.72	81.69
310.949	95.69
311.179	97.69
311.409	89.69
311.639	102.69
311.868	91.69
312.098	100.69
312.328	94.69
312.557	89.69
312.787	90.69
313.017	100.69
313.246	94.69
313.476	103.69
313.706	102.69
313.935	97.69
314.165	97.69
314.394	95.69
314.624	101.69
314.853	92.69
315.083	98.69
315.312	98.69
315.542	88.69
315.771	86.69
316.001	94.69
316.23	91.69
316.46	105.69
316.689	83.69
316.919	88.69
317.148	107.69
317.377	92.69
317.607	80.69
317.836	91.69
318.065	83.69
318.295	92.69
318.524	73.69
318.753	87.69
318.983	88.69
319.212	92.69
319.441	102.69
319.67	100.69
319.9	87.69
320.129	81.69
320.358	95.69
320.587	93.69
320.816	93.69
321.046	102.69
321.275	101.69
321.504	100.69
321.733	87.69
321.962	84.69
322.191	89.69
322.42	89.69
322.649	98.69
322.878	98.69
323.108	95.69
323.337	98.69
323.566	93.69
323.795	89.69
324.024	101.69
324.253	88.69
324.482	97.69
324.71	104.69
324.939	87.69
325.168	103.69
325.397	88.69
325.626	91.69
325.855	91.69
326.084	79.69
326.313	100.69
326.542	95.69
326.77	104.69
326.999	89.69
327.228	100.69
327.457	95.69
327.686	100.69
327.914	82.69
328.143	102.69
328.372	87.69
328.6	94.69
328.829	81.69
329.058	92.69
329.287	99.69
329.515	100.69
329.744	79.69
329.972	91.69
330.201	85.69
330.43	87.69
330.658	92.69
330.887	105.69
331.115	84.69
331.344	99.69
331.572	95.69
331.801	92.69
332.03	83.69
332.258	99.69
332.486	104.69
332.715	88.69
332.943	103.69
333.172	86.69
333.4	101.69
333.629	92.69
333.857	111.69
334.085	97.69
334.314	87.69
334.542	92.69
334.771	103.69
334.999	87.69
335.227	85.69
335.455	95.69
335.684	92.69
335.912	87.69
336.14	89.69
336.369	94.69
336.597	94.69
336.825	99.69
337.053	85.69
337.281	82.69
337.51	94.69
337.738	91.69
337.966	88.69
338.194	87.69
338.422	86.69
338.65	102.69
338.878	94.69
339.106	90.69
339.334	79.69
339.562	85.69
339.79	88.69
340.018	84.69
340.246	94.69
340.474	85.69
340.702	86.69
340.93	110.69
341.158	92.69
341.386	92.69
341.614	79.69
341.842	95.69
342.07	94.69
342.298	85.69
342.526	88.69
342.754	79.69
342.981	82.69
343.209	82.69
343.437	96.69
343.665	87.69
343.893	87.69
344.12	103.69
344.348	94.69
344.576	76.69
344.804	79.69
345.031	97.69
345.259	102.69
345.487	97.69
345.714	85.69
345.942	80.69
346.17	83.69
346.397	79.69
346.625	95.69
346.853	99.69
347.08	82.69
347.308	88.69
347.535	97.69
347.763	88.69
347.99	93.69
348.218	88.69
348.445	91.69
348.673	83.69
348.9	92.69
349.128	97.69
349.355	81.69
349.583	87.69
349.81	83.69
350.037	85.69
350.265	90.69
350.492	96.69
350.72	98.69
350.947	93.69
351.174	102.69
351.402	90.69
351.629	106.69
351.856	82.69
352.083	79.69
352.311	86.69
352.538	82.69
352.765	96.69
352.992	93.69
353.22	83.69
353.447	72.69
353.674	81.69
353.901	85.69
354.128	89.69
354.355	81.69
354.583	88.69
354.81	96.69
355.037	87.69
355.264	87.69
355.491	81.69
355.718	87.69
355.945	85.69
356.172	89.69
356.399	92.69
356.626	86.69
356.853	80.69
357.08	80.69
357.307	78.69
357.534	91.69
357.761	87.69
357.988	96.69
358.215	82.69
358.441	80.69
358.668	90.69
358.895	82.69
359.122	90.69
359.349	89.69
359.576	92.69
359.802	89.69
360.029	90.69
360.256	98.69
360.483	81.69
360.709	93.69
360.936	96.69
361.163	102.69
361.39	84.69
361.616	95.69
361.843	101.69
362.07	112.69
362.296	97.69
362.523	86.69
362.749	92.69
362.976	104.69
363.203	90.69
363.429	87.69
363.656	89.69
363.882	86.69
364.109	81.69
364.335	86.69
364.562	96.69
364.788	97.69
365.015	91.69
365.241	92.69
365.468	79.69
365.694	93.69
365.92	95.69
366.147	92.69
366.373	90.69
366.599	96.69
366.826	90.69
367.052	81.69
367.278	95.69
367.505	75.69
367.731	81.69
367.957	98.69
368.184	75.69
368.41	87.69
368.636	86.69
368.862	92.69
369.089	106.69
369.315	88.69
369.541	91.69
369.767	95.69
369.993	88.69
370.219	97.69
370.445	90.69
370.672	98.69
370.898	93.69
371.124	78.69
371.35	85.69
371.576	92.69
371.802	94.69
372.028	79.69
372.254	84.69
372.48	88.69
372.706	103.69
372.932	90.69
373.158	109.69
373.384	91.69
373.61	92.69
373.835	79.69
374.061	79.69
374.287	101.69
374.513	104.69
374.739	92.69
374.965	87.69
375.191	80.69
375.416	88.69
375.642	99.69
375.868	99.69
376.094	96.69
376.319	89.69
376.545	92.69
376.771	86.69
376.997	89.69
377.222	88.69
377.448	88.69
377.674	81.69
377.899	96.69
378.125	91.69
378.35	89.69
378.576	85.69
378.802	93.69
379.027	89.69
379.253	93.69
379.478	78.69
379.704	93.69
379.929	94.69
380.155	74.69
380.38	92.69
380.606	88.69
380.831	92.69
381.057	101.69
381.282	101.69
381.507	88.69
381.733	80.69
381.958	85.69
382.184	80.69
382.409	72.69
382.634	101.69
382.86	90.69
383.085	81.69
383.31	92.69
383.535	101.69
383.761	78.69
383.986	99.69
384.211	82.69
384.436	82.69
384.662	97.69
384.887	76.69
385.112	87.69
385.337	96.69
385.562	91.69
385.787	92.69
386.013	101.69
386.238	83.69
386.463	89.69
386.688	103.69
386.913	89.69
387.138	90.69
387.363	86.69
387.588	79.69
387.813	89.69
388.038	96.69
388.263	86.69
388.488	94.69
388.713	84.69
388.938	84.69
389.163	84.69
389.387	92.69
389.612	83.69
389.837	108.69
390.062	93.69
390.287	94.69
390.512	88.69
390.736	86.69
390.961	105.69
391.186	91.69
391.411	96.69
391.636	95.69
391.86	101.69
392.085	78.69
392.31	97.69
392.534	96.69
392.759	92.69
392.984	92.69
393.208	105.69
393.433	83.69
393.658	79.69
393.882	94.69
394.107	99.69
394.331	107.69
394.556	108.69
394.78	95.69
395.005	104.69
395.229	91.69
395.454	89.69
395.678	98.69
395.903	82.69
396.127	85.69
396.352	99.69
396.576	88.69
396.801	102.69
397.025	95.69
397.249	91.69
397.474	95.69
397.698	83.69
397.922	83.69
398.147	99.69
398.371	93.69
398.595	98.69
398.82	94.69
399.044	101.69
399.268	105.69
399.492	96.69
399.717	99.69
399.941	95.69
400.165	93.69
400.389	90.69
400.613	99.69
400.837	96.69
401.062	79.69
401.286	84.69
401.51	87.69
401.734	91.69
401.958	95.69
402.182	100.69
402.406	103.69
402.63	85.69
402.854	99.69
403.078	96.69
403.302	86.69
403.526	118.69
403.75	99.69
403.974	96.69
404.198	105.69
404.422	99.69
404.645	94.69
404.869	71.69
405.093	86.69
405.317	96.69
405.541	87.69
405.765	102.69
405.988	102.69
406.212	103.69
406.436	77.69
406.66	102.69
406.883	95.69
407.107	94.69
407.331	86.69
407.555	92.69
407.778	91.69
408.002	86.69
408.226	81.69
408.449	96.69
408.673	88.69
408.896	90.69
409.12	90.69
409.344	92.69
409.567	89.69
409.791	89.69
410.014	92.69
410.238	94.69
410.461	98.69
410.685	101.69
410.908	91.69
411.132	98.69
411.355	95.69
411.578	112.69
411.802	96.69
412.025	109.69
412.249	93.69
412.472	95.69
412.695	112.69
412.919	99.69
413.142	94.69
413.365	104.69
413.589	91.69
413.812	95.69
414.035	80.69
414.258	101.69
414.482	72.69
414.705	94.69
414.928	91.69
415.151	107.69
415.374	101.69
415.597	90.69
415.821	92.69
416.044	87.69
416.267	90.69
416.49	91.69
416.713	96.69
416.936	95.69
417.159	101.69
417.382	100.69
417.605	86.69
417.828	96.69
418.051	98.69
418.274	103.69
418.497	109.69
418.72	109.69
418.943	108.69
419.166	100.69
419.389	89.69
419.611	96.69
419.834	84.69
420.057	95.69
420.28	113.69
420.503	96.69
420.726	102.69
420.948	94.69
421.171	101.69
421.394	107.69
421.617	110.69
421.839	94.69
422.062	93.69
422.285	109.69
422.507	92.69
422.73	87.69
422.953	91.69
423.175	92.69
423.398	101.69
423.621	97.69
423.843	104.69
424.066	100.69
424.288	97.69
424.511	112.69
424.733	106.69
424.956	107.69
425.178	107.69
425.401	96.69
425.623	104.69
425.846	114.69
426.068	99.69
426.291	97.69
426.513	90.69
426.735	95.69
426.958	97.69
427.18	97.69
427.402	103.69
427.625	105.69
427.847	100.69
428.069	95.69
428.292	104.69
428.514	113.69
428.736	97.69
428.958	99.69
429.181	103.69
429.403	68.69
429.625	94.69
429.847	100.69
430.069	107.69
430.292	94.69
430.514	101.69
430.736	96.69
430.958	101.69
431.18	96.69
431.402	104.69
431.624	95.69
431.846	95.69
432.068	96.69
432.29	86.69
432.512	90.69
432.734	95.69
432.956	107.69
433.178	91.69
433.4	102.69
433.622	87.69
433.844	90.69
434.066	89.69
434.287	91.69
434.509	97.69
434.731	106.69
434.953	96.69
435.175	88.69
435.397	97.69
435.618	103.69
435.84	100.69
436.062	111.69
436.284	110.69
436.505	97.69
436.727	100.69
436.949	105.69
437.17	88.69
437.392	91.69
437.614	101.69
437.835	76.69
438.057	92.69
438.278	80.69
438.5	94.69
438.721	103.69
438.943	97.69
439.165	97.69
439.386	85.69
439.608	95.69
439.829	104.69
440.05	109.69
440.272	97.69
440.493	107.69
440.715	109.69
440.936	104.69
441.158	115.69
441.379	91.69
441.6	100.69
441.822	105.69
442.043	118.69
442.264	94.69
442.486	105.69
442.707	107.69
442.928	100.69
443.149	98.69
443.371	94.69
443.592	97.69
443.813	93.69
444.034	96.69
444.255	108.69
444.476	105.69
444.698	86.69
444.919	100.69
445.14	181.69
445.361	137.69
445.582	108.69
445.803	103.69
446.024	90.69
446.245	109.69
446.466	114.69
446.687	95.69
446.908	115.69
447.129	106.69
447.35	97.69
447.571	125.69
447.792	103.69
448.013	105.69
448.234	95.69
448.455	97.69
448.675	110.69
448.896	93.69
449.117	95.69
449.338	100.69
449.559	107.69
449.779	95.69
450	83.69
450.221	90.69
450.442	93.69
450.662	107.69
450.883	121.69
451.104	85.69
451.324	100.69
451.545	94.69
451.766	94.69
451.986	113.69
452.207	109.69
452.428	101.69
452.648	99.69
452.869	90.69
453.089	88.69
453.31	94.69
453.53	84.69
453.751	99.69
453.971	105.69
454.192	98.69
454.412	92.69
454.633	100.69
454.853	89.69
455.073	112.69
455.294	95.69
455.514	107.69
455.734	116.69
455.955	89.69
456.175	84.69
456.395	102.69
456.616	80.69
456.836	89.69
457.056	82.69
457.276	80.69
457.497	96.69
457.717	94.69
457.937	90.69
458.157	91.69
458.377	95.69
458.598	85.69
458.818	85.69
459.038	72.69
459.258	89.69
459.478	89.69
459.698	100.69
459.918	81.69
460.138	94.69
460.358	94.69
460.578	108.69
460.798	96.69
461.018	91.69
461.238	101.69
461.458	101.69
461.678	88.69
461.898	72.69
462.118	82.69
462.338	83.69
462.558	99.69
462.777	92.69
462.997	87.69
463.217	81.69
463.437	86.69
463.657	98.69
463.876	96.69
464.096	94.69
464.316	90.69
464.536	88.69
464.755	93.69
464.975	100.69
465.195	91.69
465.414	96.69
465.634	93.69
465.854	92.69
466.073	97.69
466.293	93.69
466.512	92.69
466.732	97.69
466.951	95.69
467.171	91.69
467.391	92.69
467.61	99.69
467.829	100.69
468.049	93.69
468.268	94.69
468.488	93.69
468.707	103.69
468.927	84.69
469.146	99.69
469.365	95.69
469.585	105.69
469.804	109.69
470.023	98.69
470.243	95.69
470.462	100.69
470.681	109.69
470.901	111.69
471.12	107.69
471.339	105.69
471.558	106.69
471.777	103.69
471.997	110.69
472.216	90.69
472.435	103.69
472.654	93.69
472.873	105.69
473.092	96.69
473.311	91.69
473.53	92.69
473.749	96.69
473.968	88.69
474.187	100.69
474.406	107.69
474.625	93.69
474.844	111.69
475.063	95.69
475.282	108.69
475.501	94.69
475.72	96.69
475.939	93.69
476.158	93.69
476.377	93.69
476.596	100.69
476.814	104.69
477.033	92.69
477.252	82.69
477.471	101.69
477.69	92.69
477.908	110.69
478.127	104.69
478.346	118.69
478.564	106.69
478.783	90.69
479.002	87.69
479.22	101.69
479.439	105.69
479.658	106.69
479.876	104.69
480.095	91.69
480.313	102.69
480.532	83.69
480.751	94.69
480.969	90.69
481.188	86.69
481.406	85.69
481.624	105.69
481.843	69.69
482.061	91.69
482.28	97.69
482.498	96.69
482.717	93.69
482.935	100.69
483.153	109.69
483.372	110.69
483.59	100.69
483.808	92.69
484.027	103.69
484.245	106.69
484.463	93.69
484.681	105.69
484.9	103.69
485.118	103.69
485.336	96.69
485.554	88.69
485.772	91.69
485.99	97.69
486.209	95.69
486.427	98.69
486.645	82.69
486.863	115.69
487.081	112.69
487.299	97.69
487.517	111.69
487.735	109.69
487.953	113.69
488.171	115.69
488.389	117.69
488.607	115.69
488.825	99.69
489.043	90.69
489.261	110.69
489.479	99.69
489.696	118.69
489.914	89.69
490.132	104.69
490.35	116.69
490.568	111.69
490.786	110.69
491.003	120.69
491.221	124.69
491.439	112.69
491.657	108.69
491.874	130.69
492.092	129.69
492.31	142.69
492.527	119.69
492.745	113.69
492.963	112.69
493.18	124.69
493.398	128.69
493.615	127.69
493.833	123.69
494.05	110.69
494.268	112.69
494.485	113.69
494.703	120.69
494.92	115.69
495.138	110.69
495.355	122.69
495.573	107.69
495.79	110.69
496.008	113.69
496.225	113.69
496.442	104.69
496.66	111.69
496.877	117.69
497.094	118.69
497.312	115.69
497.529	104.69
497.746	108.69
497.963	126.69
498.181	99.69
498.398	100.69
498.615	83.69
498.832	89.69
499.049	123.69
499.267	104.69
499.484	99.69
499.701	95.69
499.918	96.69
500.135	100.69
500.352	112.69
500.569	97.69
500.786	110.69
501.003	106.69
501.22	93.69
501.437	106.69
501.654	98.69
501.871	102.69
502.088	107.69
502.305	102.69
502.522	87.69
502.739	101.69
502.956	88.69
503.172	107.69
503.389	103.69
503.606	93.69
503.823	98.69
504.04	100.69
504.256	125.69
504.473	92.69
504.69	93.69
504.907	84.69
505.123	108.69
505.34	93.69
505.557	99.69
505.773	110.69
505.99	107.69
506.207	99.69
506.423	105.69
506.64	106.69
506.856	96.69
507.073	102.69
507.289	93.69
507.506	103.69
507.722	99.69
507.939	101.69
508.155	104.69
508.372	112.69
508.588	92.69
508.805	87.69
509.021	99.69
509.238	100.69
509.454	82.69
509.67	89.69
509.887	101.69
510.103	99.69
510.319	82.69
510.536	96.69
510.752	79.69
510.968	91.69
511.184	80.69
511.401	91.69
511.617	86.69
511.833	93.69
512.049	99.69
512.265	88.69
512.481	91.69
512.698	90.69
512.914	84.69
513.13	87.69
513.346	84.69
513.562	94.69
513.778	87.69
513.994	87.69
514.21	78.69
514.426	94.69
514.642	102.69
514.858	97.69
515.074	95.69
515.29	110.69
