Data from Location3.07152019.Energy5.Lamp.07192019.3%Agarose_HRD10591_15-18-00-269.txt Node
Date: Fri Jul 19 15:18:00 EDT 2019
User: cochatt
Spectrometer: HR+D1059
Trigger mode: 1
Integration Time (sec): 1.000000E-1
Scans to average: 1
Electric dark correction enabled: true
Nonlinearity correction enabled: false
Boxcar width: 0
XAxis mode: Wavelengths
Number of Pixels in Spectrum: 2048
>>>>>Begin Spectral Data<<<<<
223.165	-22.19
223.4	-22.19
223.635	-22.19
223.869	-2.19
224.104	-22.19
224.338	4.81
224.573	-3.19
224.808	-13.19
225.042	-15.19
225.277	-2.19
225.511	-15.19
225.746	1.81
225.98	2.81
226.215	8.81
226.449	11.81
226.683	17.81
226.918	13.81
227.152	33.81
227.387	22.81
227.621	34.81
227.856	54.81
228.09	51.81
228.324	59.81
228.559	63.81
228.793	50.81
229.027	67.81
229.262	56.81
229.496	56.81
229.73	66.81
229.964	61.81
230.199	56.81
230.433	71.81
230.667	82.81
230.901	81.81
231.136	82.81
231.37	89.81
231.604	80.81
231.838	90.81
232.072	69.81
232.306	101.81
232.541	77.81
232.775	81.81
233.009	83.81
233.243	79.81
233.477	87.81
233.711	68.81
233.945	82.81
234.179	80.81
234.413	78.81
234.647	83.81
234.881	74.81
235.115	75.81
235.349	85.81
235.583	83.81
235.817	78.81
236.051	79.81
236.285	74.81
236.519	78.81
236.753	77.81
236.987	88.81
237.221	82.81
237.455	80.81
237.689	66.81
237.922	80.81
238.156	76.81
238.39	82.81
238.624	74.81
238.858	77.81
239.091	91.81
239.325	55.81
239.559	69.81
239.793	80.81
240.027	76.81
240.26	74.81
240.494	80.81
240.728	82.81
240.961	84.81
241.195	72.81
241.429	87.81
241.662	78.81
241.896	92.81
242.13	68.81
242.363	70.81
242.597	96.81
242.83	68.81
243.064	77.81
243.298	75.81
243.531	73.81
243.765	64.81
243.998	69.81
244.232	79.81
244.465	75.81
244.699	81.81
244.932	56.81
245.166	80.81
245.399	88.81
245.633	68.81
245.866	77.81
246.099	84.81
246.333	82.81
246.566	67.81
246.8	84.81
247.033	77.81
247.266	83.81
247.5	82.81
247.733	78.81
247.966	70.81
248.2	86.81
248.433	82.81
248.666	60.81
248.899	92.81
249.133	78.81
249.366	78.81
249.599	82.81
249.832	78.81
250.066	82.81
250.299	75.81
250.532	82.81
250.765	82.81
250.998	85.81
251.231	84.81
251.465	86.81
251.698	72.81
251.931	86.81
252.164	84.81
252.397	81.81
252.63	75.81
252.863	81.81
253.096	86.81
253.329	63.81
253.562	78.81
253.795	85.81
254.028	72.81
254.261	82.81
254.494	99.81
254.727	90.81
254.96	77.81
255.193	92.81
255.426	78.81
255.659	80.81
255.892	80.81
256.124	77.81
256.357	85.81
256.59	86.81
256.823	78.81
257.056	81.81
257.289	86.81
257.521	84.81
257.754	79.81
257.987	68.81
258.22	92.81
258.452	85.81
258.685	77.81
258.918	71.81
259.151	76.81
259.383	76.81
259.616	89.81
259.849	84.81
260.081	71.81
260.314	76.81
260.547	81.81
260.779	74.81
261.012	86.81
261.244	85.81
261.477	83.81
261.71	74.81
261.942	83.81
262.175	83.81
262.407	84.81
262.64	78.81
262.872	74.81
263.105	92.81
263.337	82.81
263.57	77.81
263.802	84.81
264.035	79.81
264.267	81.81
264.499	84.81
264.732	64.81
264.964	86.81
265.197	83.81
265.429	75.81
265.661	100.81
265.894	78.81
266.126	68.81
266.358	72.81
266.591	87.81
266.823	72.81
267.055	84.81
267.287	78.81
267.52	79.81
267.752	71.81
267.984	81.81
268.216	76.81
268.448	86.81
268.681	85.81
268.913	69.81
269.145	76.81
269.377	88.81
269.609	82.81
269.841	96.81
270.073	87.81
270.306	88.81
270.538	71.81
270.77	63.81
271.002	79.81
271.234	99.81
271.466	97.81
271.698	91.81
271.93	78.81
272.162	89.81
272.394	98.81
272.626	91.81
272.858	78.81
273.09	71.81
273.322	69.81
273.553	71.81
273.785	95.81
274.017	81.81
274.249	78.81
274.481	76.81
274.713	84.81
274.945	92.81
275.176	100.81
275.408	86.81
275.64	100.81
275.872	82.81
276.104	88.81
276.335	90.81
276.567	89.81
276.799	73.81
277.031	93.81
277.262	82.81
277.494	88.81
277.726	84.81
277.957	86.81
278.189	80.81
278.421	75.81
278.652	86.81
278.884	78.81
279.115	75.81
279.347	77.81
279.579	84.81
279.81	87.81
280.042	100.81
280.273	86.81
280.505	90.81
280.736	91.81
280.968	89.81
281.199	89.81
281.431	92.81
281.662	94.81
281.894	88.81
282.125	82.81
282.356	79.81
282.588	98.81
282.819	75.81
283.051	93.81
283.282	79.81
283.513	68.81
283.745	92.81
283.976	84.81
284.207	77.81
284.439	101.81
284.67	100.81
284.901	88.81
285.132	90.81
285.364	83.81
285.595	86.81
285.826	93.81
286.057	99.81
286.288	86.81
286.52	73.81
286.751	93.81
286.982	88.81
287.213	92.81
287.444	76.81
287.675	99.81
287.906	82.81
288.138	65.81
288.369	99.81
288.6	79.81
288.831	84.81
289.062	92.81
289.293	86.81
289.524	88.81
289.755	91.81
289.986	83.81
290.217	85.81
290.448	86.81
290.679	81.81
290.91	95.81
291.141	78.81
291.371	94.81
291.602	93.81
291.833	85.81
292.064	102.81
292.295	88.81
292.526	81.81
292.757	87.81
292.987	86.81
293.218	82.81
293.449	90.81
293.68	96.81
293.91	90.81
294.141	79.81
294.372	70.81
294.603	76.81
294.833	83.81
295.064	88.81
295.295	87.81
295.525	87.81
295.756	95.81
295.987	90.81
296.217	88.81
296.448	85.81
296.679	82.81
296.909	83.81
297.14	99.81
297.37	81.81
297.601	88.81
297.831	89.81
298.062	89.81
298.292	90.81
298.523	91.81
298.753	80.81
298.984	90.81
299.214	79.81
299.445	77.81
299.675	97.81
299.905	82.81
300.136	84.81
300.366	90.81
300.597	93.81
300.827	86.81
301.057	99.81
301.288	82.81
301.518	79.81
301.748	89.81
301.979	74.81
302.209	99.81
302.439	87.81
302.669	86.81
302.9	80.81
303.13	76.81
303.36	77.81
303.59	84.81
303.82	84.81
304.051	91.81
304.281	87.81
304.511	88.81
304.741	79.81
304.971	73.81
305.201	86.81
305.431	90.81
305.661	89.81
305.891	79.81
306.121	85.81
306.352	78.81
306.582	82.81
306.812	88.81
307.042	90.81
307.272	74.81
307.502	74.81
307.731	86.81
307.961	78.81
308.191	90.81
308.421	96.81
308.651	65.81
308.881	78.81
309.111	77.81
309.341	98.81
309.571	86.81
309.8	83.81
310.03	71.81
310.26	83.81
310.49	77.81
310.72	79.81
310.949	87.81
311.179	85.81
311.409	78.81
311.639	85.81
311.868	86.81
312.098	102.81
312.328	93.81
312.557	90.81
312.787	95.81
313.017	78.81
313.246	92.81
313.476	69.81
313.706	86.81
313.935	64.81
314.165	96.81
314.394	90.81
314.624	96.81
314.853	76.81
315.083	85.81
315.312	82.81
315.542	71.81
315.771	79.81
316.001	90.81
316.23	90.81
316.46	107.81
316.689	82.81
316.919	90.81
317.148	108.81
317.377	77.81
317.607	94.81
317.836	88.81
318.065	79.81
318.295	81.81
318.524	102.81
318.753	84.81
318.983	81.81
319.212	99.81
319.441	95.81
319.67	82.81
319.9	89.81
320.129	94.81
320.358	77.81
320.587	82.81
320.816	98.81
321.046	89.81
321.275	93.81
321.504	99.81
321.733	92.81
321.962	86.81
322.191	91.81
322.42	92.81
322.649	88.81
322.878	91.81
323.108	89.81
323.337	77.81
323.566	89.81
323.795	89.81
324.024	91.81
324.253	76.81
324.482	63.81
324.71	86.81
324.939	87.81
325.168	79.81
325.397	87.81
325.626	82.81
325.855	95.81
326.084	91.81
326.313	77.81
326.542	88.81
326.77	98.81
326.999	76.81
327.228	87.81
327.457	81.81
327.686	93.81
327.914	100.81
328.143	92.81
328.372	80.81
328.6	96.81
328.829	82.81
329.058	89.81
329.287	85.81
329.515	92.81
329.744	85.81
329.972	79.81
330.201	89.81
330.43	89.81
330.658	75.81
330.887	82.81
331.115	90.81
331.344	78.81
331.572	71.81
331.801	82.81
332.03	90.81
332.258	76.81
332.486	92.81
332.715	87.81
332.943	96.81
333.172	78.81
333.4	96.81
333.629	72.81
333.857	84.81
334.085	92.81
334.314	86.81
334.542	76.81
334.771	82.81
334.999	89.81
335.227	87.81
335.455	104.81
335.684	97.81
335.912	97.81
336.14	81.81
336.369	73.81
336.597	84.81
336.825	84.81
337.053	96.81
337.281	82.81
337.51	81.81
337.738	70.81
337.966	81.81
338.194	75.81
338.422	84.81
338.65	78.81
338.878	95.81
339.106	85.81
339.334	88.81
339.562	87.81
339.79	99.81
340.018	70.81
340.246	82.81
340.474	82.81
340.702	67.81
340.93	86.81
341.158	83.81
341.386	91.81
341.614	80.81
341.842	92.81
342.07	83.81
342.298	91.81
342.526	75.81
342.754	78.81
342.981	86.81
343.209	94.81
343.437	75.81
343.665	98.81
343.893	87.81
344.12	83.81
344.348	79.81
344.576	73.81
344.804	101.81
345.031	84.81
345.259	93.81
345.487	75.81
345.714	90.81
345.942	96.81
346.17	90.81
346.397	84.81
346.625	80.81
346.853	83.81
347.08	81.81
347.308	89.81
347.535	78.81
347.763	86.81
347.99	75.81
348.218	90.81
348.445	85.81
348.673	105.81
348.9	77.81
349.128	89.81
349.355	78.81
349.583	85.81
349.81	106.81
350.037	86.81
350.265	90.81
350.492	86.81
350.72	96.81
350.947	90.81
351.174	78.81
351.402	97.81
351.629	69.81
351.856	90.81
352.083	78.81
352.311	99.81
352.538	92.81
352.765	87.81
352.992	82.81
353.22	83.81
353.447	80.81
353.674	91.81
353.901	98.81
354.128	99.81
354.355	97.81
354.583	84.81
354.81	83.81
355.037	93.81
355.264	101.81
355.491	86.81
355.718	73.81
355.945	96.81
356.172	68.81
356.399	80.81
356.626	95.81
356.853	82.81
357.08	83.81
357.307	67.81
357.534	83.81
357.761	89.81
357.988	90.81
358.215	84.81
358.441	78.81
358.668	86.81
358.895	81.81
359.122	79.81
359.349	88.81
359.576	86.81
359.802	83.81
360.029	82.81
360.256	81.81
360.483	93.81
360.709	87.81
360.936	85.81
361.163	94.81
361.39	96.81
361.616	95.81
361.843	70.81
362.07	86.81
362.296	72.81
362.523	73.81
362.749	88.81
362.976	76.81
363.203	81.81
363.429	84.81
363.656	79.81
363.882	78.81
364.109	91.81
364.335	89.81
364.562	85.81
364.788	82.81
365.015	90.81
365.241	86.81
365.468	97.81
365.694	87.81
365.92	81.81
366.147	77.81
366.373	90.81
366.599	91.81
366.826	88.81
367.052	69.81
367.278	90.81
367.505	82.81
367.731	97.81
367.957	89.81
368.184	94.81
368.41	92.81
368.636	94.81
368.862	78.81
369.089	78.81
369.315	74.81
369.541	71.81
369.767	74.81
369.993	85.81
370.219	82.81
370.445	105.81
370.672	86.81
370.898	79.81
371.124	83.81
371.35	89.81
371.576	87.81
371.802	81.81
372.028	91.81
372.254	93.81
372.48	80.81
372.706	80.81
372.932	88.81
373.158	82.81
373.384	83.81
373.61	85.81
373.835	79.81
374.061	63.81
374.287	104.81
374.513	87.81
374.739	90.81
374.965	92.81
375.191	97.81
375.416	98.81
375.642	83.81
375.868	96.81
376.094	93.81
376.319	87.81
376.545	85.81
376.771	78.81
376.997	80.81
377.222	75.81
377.448	89.81
377.674	92.81
377.899	77.81
378.125	80.81
378.35	80.81
378.576	85.81
378.802	98.81
379.027	90.81
379.253	83.81
379.478	84.81
379.704	76.81
379.929	87.81
380.155	82.81
380.38	80.81
380.606	71.81
380.831	81.81
381.057	95.81
381.282	77.81
381.507	100.81
381.733	82.81
381.958	83.81
382.184	86.81
382.409	86.81
382.634	82.81
382.86	88.81
383.085	79.81
383.31	77.81
383.535	84.81
383.761	92.81
383.986	100.81
384.211	84.81
384.436	99.81
384.662	84.81
384.887	91.81
385.112	84.81
385.337	89.81
385.562	93.81
385.787	91.81
386.013	94.81
386.238	95.81
386.463	77.81
386.688	82.81
386.913	90.81
387.138	86.81
387.363	97.81
387.588	89.81
387.813	101.81
388.038	84.81
388.263	93.81
388.488	99.81
388.713	91.81
388.938	96.81
389.163	93.81
389.387	89.81
389.612	90.81
389.837	84.81
390.062	94.81
390.287	90.81
390.512	83.81
390.736	83.81
390.961	80.81
391.186	99.81
391.411	76.81
391.636	90.81
391.86	96.81
392.085	84.81
392.31	73.81
392.534	74.81
392.759	90.81
392.984	87.81
393.208	92.81
393.433	89.81
393.658	82.81
393.882	76.81
394.107	80.81
394.331	91.81
394.556	89.81
394.78	90.81
395.005	92.81
395.229	96.81
395.454	90.81
395.678	78.81
395.903	83.81
396.127	75.81
396.352	83.81
396.576	90.81
396.801	85.81
397.025	84.81
397.249	84.81
397.474	81.81
397.698	88.81
397.922	81.81
398.147	93.81
398.371	90.81
398.595	84.81
398.82	98.81
399.044	82.81
399.268	90.81
399.492	96.81
399.717	92.81
399.941	85.81
400.165	90.81
400.389	82.81
400.613	87.81
400.837	103.81
401.062	94.81
401.286	80.81
401.51	94.81
401.734	98.81
401.958	79.81
402.182	88.81
402.406	85.81
402.63	99.81
402.854	106.81
403.078	92.81
403.302	86.81
403.526	93.81
403.75	90.81
403.974	77.81
404.198	83.81
404.422	89.81
404.645	87.81
404.869	89.81
405.093	78.81
405.317	100.81
405.541	94.81
405.765	82.81
405.988	98.81
406.212	97.81
406.436	80.81
406.66	96.81
406.883	85.81
407.107	80.81
407.331	97.81
407.555	103.81
407.778	86.81
408.002	96.81
408.226	100.81
408.449	88.81
408.673	90.81
408.896	100.81
409.12	72.81
409.344	100.81
409.567	83.81
409.791	84.81
410.014	93.81
410.238	97.81
410.461	103.81
410.685	99.81
410.908	85.81
411.132	102.81
411.355	97.81
411.578	85.81
411.802	81.81
412.025	99.81
412.249	108.81
412.472	93.81
412.695	98.81
412.919	88.81
413.142	90.81
413.365	86.81
413.589	93.81
413.812	92.81
414.035	75.81
414.258	103.81
414.482	94.81
414.705	84.81
414.928	91.81
415.151	100.81
415.374	105.81
415.597	100.81
415.821	91.81
416.044	83.81
416.267	107.81
416.49	97.81
416.713	85.81
416.936	94.81
417.159	98.81
417.382	83.81
417.605	101.81
417.828	94.81
418.051	99.81
418.274	99.81
418.497	100.81
418.72	95.81
418.943	99.81
419.166	93.81
419.389	85.81
419.611	102.81
419.834	110.81
420.057	88.81
420.28	85.81
420.503	82.81
420.726	93.81
420.948	97.81
421.171	84.81
421.394	90.81
421.617	98.81
421.839	90.81
422.062	88.81
422.285	99.81
422.507	103.81
422.73	97.81
422.953	100.81
423.175	87.81
423.398	107.81
423.621	94.81
423.843	100.81
424.066	102.81
424.288	97.81
424.511	93.81
424.733	94.81
424.956	108.81
425.178	92.81
425.401	113.81
425.623	100.81
425.846	110.81
426.068	91.81
426.291	92.81
426.513	90.81
426.735	85.81
426.958	101.81
427.18	99.81
427.402	94.81
427.625	96.81
427.847	105.81
428.069	100.81
428.292	83.81
428.514	96.81
428.736	96.81
428.958	90.81
429.181	93.81
429.403	99.81
429.625	99.81
429.847	100.81
430.069	101.81
430.292	102.81
430.514	92.81
430.736	81.81
430.958	72.81
431.18	100.81
431.402	97.81
431.624	105.81
431.846	91.81
432.068	90.81
432.29	85.81
432.512	94.81
432.734	74.81
432.956	104.81
433.178	102.81
433.4	97.81
433.622	108.81
433.844	81.81
434.066	83.81
434.287	91.81
434.509	82.81
434.731	80.81
434.953	105.81
435.175	92.81
435.397	97.81
435.618	84.81
435.84	87.81
436.062	89.81
436.284	82.81
436.505	91.81
436.727	90.81
436.949	91.81
437.17	102.81
437.392	102.81
437.614	95.81
437.835	94.81
438.057	88.81
438.278	86.81
438.5	96.81
438.721	99.81
438.943	99.81
439.165	104.81
439.386	98.81
439.608	88.81
439.829	87.81
440.05	103.81
440.272	110.81
440.493	101.81
440.715	101.81
440.936	95.81
441.158	106.81
441.379	102.81
441.6	104.81
441.822	96.81
442.043	88.81
442.264	104.81
442.486	101.81
442.707	96.81
442.928	114.81
443.149	99.81
443.371	101.81
443.592	107.81
443.813	99.81
444.034	98.81
444.255	105.81
444.476	102.81
444.698	100.81
444.919	109.81
445.14	221.81
445.361	143.81
445.582	103.81
445.803	103.81
446.024	94.81
446.245	87.81
446.466	109.81
446.687	101.81
446.908	92.81
447.129	88.81
447.35	106.81
447.571	108.81
447.792	74.81
448.013	108.81
448.234	111.81
448.455	91.81
448.675	93.81
448.896	101.81
449.117	95.81
449.338	105.81
449.559	108.81
449.779	100.81
450	117.81
450.221	90.81
450.442	95.81
450.662	84.81
450.883	89.81
451.104	102.81
451.324	89.81
451.545	83.81
451.766	106.81
451.986	85.81
452.207	96.81
452.428	107.81
452.648	98.81
452.869	91.81
453.089	91.81
453.31	90.81
453.53	82.81
453.751	92.81
453.971	99.81
454.192	98.81
454.412	87.81
454.633	86.81
454.853	92.81
455.073	88.81
455.294	91.81
455.514	94.81
455.734	104.81
455.955	88.81
456.175	99.81
456.395	92.81
456.616	89.81
456.836	79.81
457.056	93.81
457.276	94.81
457.497	89.81
457.717	84.81
457.937	106.81
458.157	88.81
458.377	88.81
458.598	91.81
458.818	86.81
459.038	75.81
459.258	84.81
459.478	84.81
459.698	78.81
459.918	95.81
460.138	103.81
460.358	89.81
460.578	98.81
460.798	103.81
461.018	95.81
461.238	95.81
461.458	95.81
461.678	74.81
461.898	101.81
462.118	87.81
462.338	94.81
462.558	75.81
462.777	89.81
462.997	85.81
463.217	94.81
463.437	88.81
463.657	93.81
463.876	85.81
464.096	97.81
464.316	90.81
464.536	90.81
464.755	99.81
464.975	104.81
465.195	108.81
465.414	98.81
465.634	89.81
465.854	93.81
466.073	88.81
466.293	96.81
466.512	92.81
466.732	79.81
466.951	106.81
467.171	99.81
467.391	91.81
467.61	95.81
467.829	100.81
468.049	101.81
468.268	97.81
468.488	84.81
468.707	101.81
468.927	88.81
469.146	104.81
469.365	109.81
469.585	107.81
469.804	107.81
470.023	100.81
470.243	118.81
470.462	118.81
470.681	100.81
470.901	91.81
471.12	93.81
471.339	100.81
471.558	102.81
471.777	107.81
471.997	113.81
472.216	98.81
472.435	90.81
472.654	86.81
472.873	79.81
473.092	96.81
473.311	102.81
473.53	86.81
473.749	106.81
473.968	90.81
474.187	90.81
474.406	78.81
474.625	100.81
474.844	90.81
475.063	81.81
475.282	93.81
475.501	96.81
475.72	109.81
475.939	96.81
476.158	82.81
476.377	91.81
476.596	104.81
476.814	97.81
477.033	97.81
477.252	98.81
477.471	102.81
477.69	91.81
477.908	84.81
478.127	97.81
478.346	115.81
478.564	109.81
478.783	96.81
479.002	104.81
479.22	109.81
479.439	92.81
479.658	94.81
479.876	100.81
480.095	86.81
480.313	99.81
480.532	84.81
480.751	90.81
480.969	92.81
481.188	73.81
481.406	78.81
481.624	98.81
481.843	81.81
482.061	89.81
482.28	105.81
482.498	86.81
482.717	94.81
482.935	99.81
483.153	91.81
483.372	116.81
483.59	104.81
483.808	86.81
484.027	96.81
484.245	96.81
484.463	99.81
484.681	98.81
484.9	92.81
485.118	105.81
485.336	110.81
485.554	92.81
485.772	100.81
485.99	80.81
486.209	103.81
486.427	91.81
486.645	90.81
486.863	107.81
487.081	110.81
487.299	104.81
487.517	104.81
487.735	99.81
487.953	105.81
488.171	115.81
488.389	112.81
488.607	107.81
488.825	96.81
489.043	105.81
489.261	103.81
489.479	97.81
489.696	92.81
489.914	108.81
490.132	105.81
490.35	108.81
490.568	102.81
490.786	106.81
491.003	108.81
491.221	103.81
491.439	125.81
491.657	121.81
491.874	128.81
492.092	125.81
492.31	129.81
492.527	124.81
492.745	124.81
492.963	118.81
493.18	116.81
493.398	120.81
493.615	108.81
493.833	110.81
494.05	108.81
494.268	116.81
494.485	107.81
494.703	124.81
494.92	104.81
495.138	106.81
495.355	116.81
495.573	118.81
495.79	112.81
496.008	104.81
496.225	106.81
496.442	118.81
496.66	106.81
496.877	114.81
497.094	109.81
497.312	111.81
497.529	108.81
497.746	94.81
497.963	116.81
498.181	107.81
498.398	90.81
498.615	105.81
498.832	94.81
499.049	99.81
499.267	92.81
499.484	89.81
499.701	99.81
499.918	90.81
500.135	93.81
500.352	96.81
500.569	86.81
500.786	101.81
501.003	102.81
501.22	91.81
501.437	93.81
501.654	93.81
501.871	86.81
502.088	103.81
502.305	108.81
502.522	100.81
502.739	95.81
502.956	98.81
503.172	91.81
503.389	112.81
503.606	91.81
503.823	86.81
504.04	96.81
504.256	117.81
504.473	91.81
504.69	89.81
504.907	96.81
505.123	86.81
505.34	99.81
505.557	90.81
505.773	76.81
505.99	103.81
506.207	96.81
506.423	90.81
506.64	99.81
506.856	109.81
507.073	94.81
507.289	96.81
507.506	104.81
507.722	90.81
507.939	94.81
508.155	97.81
508.372	89.81
508.588	87.81
508.805	93.81
509.021	88.81
509.238	96.81
509.454	88.81
509.67	82.81
509.887	92.81
510.103	93.81
510.319	80.81
510.536	94.81
510.752	83.81
510.968	88.81
511.184	84.81
511.401	83.81
511.617	90.81
511.833	91.81
512.049	94.81
512.265	86.81
512.481	78.81
512.698	85.81
512.914	84.81
513.13	85.81
513.346	84.81
513.562	89.81
513.778	94.81
513.994	83.81
514.21	96.81
514.426	84.81
514.642	88.81
514.858	78.81
515.074	92.81
515.29	87.81
515.506	76.81
515.721	74.81
515.937	81.81
516.153	94.81
516.369	86.81
516.585	81.81
516.801	82.81
