Data from Location3.07152019.Energy5.Lamp.07192019.3%Agarose_HRD10591_15-18-45-269.txt Node
Date: Fri Jul 19 15:18:45 EDT 2019
User: cochatt
Spectrometer: HR+D1059
Trigger mode: 1
Integration Time (sec): 1.000000E-1
Scans to average: 1
Electric dark correction enabled: true
Nonlinearity correction enabled: false
Boxcar width: 0
XAxis mode: Wavelengths
Number of Pixels in Spectrum: 2048
>>>>>Begin Spectral Data<<<<<
223.165	-14.38
223.4	-14.38
223.635	-14.38
223.869	-22.38
224.104	2.62
224.338	-10.38
224.573	-20.38
224.808	-23.38
225.042	-2.38
225.277	7.62
225.511	5.62
225.746	-3.38
225.98	-0.38
226.215	2.62
226.449	20.62
226.683	18.62
226.918	17.62
227.152	21.62
227.387	31.62
227.621	31.62
227.856	56.62
228.09	50.62
228.324	46.62
228.559	56.62
228.793	58.62
229.027	62.62
229.262	55.62
229.496	63.62
229.73	62.62
229.964	72.62
230.199	80.62
230.433	72.62
230.667	65.62
230.901	82.62
231.136	85.62
231.37	84.62
231.604	80.62
231.838	93.62
232.072	84.62
232.306	79.62
232.541	71.62
232.775	69.62
233.009	94.62
233.243	83.62
233.477	80.62
233.711	92.62
233.945	86.62
234.179	73.62
234.413	72.62
234.647	86.62
234.881	66.62
235.115	74.62
235.349	95.62
235.583	82.62
235.817	78.62
236.051	83.62
236.285	77.62
236.519	91.62
236.753	72.62
236.987	89.62
237.221	77.62
237.455	82.62
237.689	89.62
237.922	71.62
238.156	69.62
238.39	75.62
238.624	51.62
238.858	71.62
239.091	72.62
239.325	82.62
239.559	74.62
239.793	79.62
240.027	86.62
240.26	75.62
240.494	75.62
240.728	70.62
240.961	74.62
241.195	74.62
241.429	82.62
241.662	71.62
241.896	86.62
242.13	74.62
242.363	86.62
242.597	72.62
242.83	65.62
243.064	80.62
243.298	79.62
243.531	65.62
243.765	85.62
243.998	91.62
244.232	81.62
244.465	69.62
244.699	89.62
244.932	67.62
245.166	70.62
245.399	83.62
245.633	83.62
245.866	84.62
246.099	86.62
246.333	67.62
246.566	78.62
246.8	80.62
247.033	95.62
247.266	77.62
247.5	84.62
247.733	81.62
247.966	73.62
248.2	76.62
248.433	74.62
248.666	73.62
248.899	88.62
249.133	79.62
249.366	77.62
249.599	88.62
249.832	99.62
250.066	71.62
250.299	82.62
250.532	79.62
250.765	71.62
250.998	94.62
251.231	70.62
251.465	82.62
251.698	71.62
251.931	76.62
252.164	75.62
252.397	76.62
252.63	77.62
252.863	77.62
253.096	77.62
253.329	74.62
253.562	76.62
253.795	67.62
254.028	85.62
254.261	89.62
254.494	82.62
254.727	79.62
254.96	87.62
255.193	78.62
255.426	97.62
255.659	81.62
255.892	100.62
256.124	75.62
256.357	89.62
256.59	72.62
256.823	69.62
257.056	87.62
257.289	89.62
257.521	70.62
257.754	81.62
257.987	74.62
258.22	80.62
258.452	71.62
258.685	73.62
258.918	88.62
259.151	80.62
259.383	75.62
259.616	88.62
259.849	65.62
260.081	90.62
260.314	92.62
260.547	83.62
260.779	76.62
261.012	75.62
261.244	89.62
261.477	75.62
261.71	88.62
261.942	76.62
262.175	83.62
262.407	81.62
262.64	80.62
262.872	82.62
263.105	80.62
263.337	85.62
263.57	81.62
263.802	90.62
264.035	80.62
264.267	75.62
264.499	84.62
264.732	86.62
264.964	90.62
265.197	82.62
265.429	88.62
265.661	85.62
265.894	77.62
266.126	84.62
266.358	83.62
266.591	81.62
266.823	78.62
267.055	83.62
267.287	82.62
267.52	87.62
267.752	80.62
267.984	74.62
268.216	92.62
268.448	81.62
268.681	83.62
268.913	74.62
269.145	72.62
269.377	75.62
269.609	70.62
269.841	84.62
270.073	93.62
270.306	73.62
270.538	72.62
270.77	70.62
271.002	86.62
271.234	92.62
271.466	82.62
271.698	74.62
271.93	82.62
272.162	86.62
272.394	87.62
272.626	84.62
272.858	77.62
273.09	78.62
273.322	81.62
273.553	82.62
273.785	81.62
274.017	74.62
274.249	70.62
274.481	91.62
274.713	89.62
274.945	89.62
275.176	75.62
275.408	91.62
275.64	96.62
275.872	90.62
276.104	80.62
276.335	86.62
276.567	82.62
276.799	90.62
277.031	97.62
277.262	91.62
277.494	87.62
277.726	74.62
277.957	89.62
278.189	71.62
278.421	83.62
278.652	89.62
278.884	92.62
279.115	95.62
279.347	99.62
279.579	85.62
279.81	71.62
280.042	71.62
280.273	95.62
280.505	83.62
280.736	89.62
280.968	80.62
281.199	85.62
281.431	82.62
281.662	90.62
281.894	84.62
282.125	70.62
282.356	86.62
282.588	81.62
282.819	81.62
283.051	75.62
283.282	85.62
283.513	87.62
283.745	93.62
283.976	82.62
284.207	82.62
284.439	75.62
284.67	70.62
284.901	79.62
285.132	83.62
285.364	82.62
285.595	88.62
285.826	89.62
286.057	70.62
286.288	85.62
286.52	70.62
286.751	74.62
286.982	92.62
287.213	91.62
287.444	87.62
287.675	83.62
287.906	84.62
288.138	75.62
288.369	80.62
288.6	82.62
288.831	75.62
289.062	102.62
289.293	98.62
289.524	82.62
289.755	78.62
289.986	83.62
290.217	74.62
290.448	71.62
290.679	85.62
290.91	87.62
291.141	86.62
291.371	76.62
291.602	70.62
291.833	83.62
292.064	83.62
292.295	103.62
292.526	92.62
292.757	84.62
292.987	78.62
293.218	85.62
293.449	87.62
293.68	96.62
293.91	81.62
294.141	81.62
294.372	91.62
294.603	95.62
294.833	84.62
295.064	73.62
295.295	76.62
295.525	74.62
295.756	87.62
295.987	84.62
296.217	79.62
296.448	85.62
296.679	83.62
296.909	86.62
297.14	87.62
297.37	89.62
297.601	87.62
297.831	95.62
298.062	85.62
298.292	89.62
298.523	84.62
298.753	78.62
298.984	87.62
299.214	85.62
299.445	70.62
299.675	97.62
299.905	99.62
300.136	94.62
300.366	89.62
300.597	81.62
300.827	95.62
301.057	94.62
301.288	81.62
301.518	93.62
301.748	81.62
301.979	86.62
302.209	95.62
302.439	86.62
302.669	87.62
302.9	89.62
303.13	92.62
303.36	91.62
303.59	87.62
303.82	89.62
304.051	88.62
304.281	87.62
304.511	87.62
304.741	86.62
304.971	86.62
305.201	95.62
305.431	90.62
305.661	95.62
305.891	94.62
306.121	90.62
306.352	87.62
306.582	71.62
306.812	79.62
307.042	81.62
307.272	85.62
307.502	84.62
307.731	76.62
307.961	88.62
308.191	95.62
308.421	96.62
308.651	93.62
308.881	60.62
309.111	85.62
309.341	90.62
309.571	81.62
309.8	93.62
310.03	93.62
310.26	87.62
310.49	74.62
310.72	97.62
310.949	87.62
311.179	76.62
311.409	65.62
311.639	82.62
311.868	84.62
312.098	96.62
312.328	87.62
312.557	85.62
312.787	87.62
313.017	91.62
313.246	85.62
313.476	81.62
313.706	79.62
313.935	80.62
314.165	73.62
314.394	74.62
314.624	83.62
314.853	89.62
315.083	87.62
315.312	97.62
315.542	86.62
315.771	85.62
316.001	80.62
316.23	105.62
316.46	90.62
316.689	89.62
316.919	83.62
317.148	97.62
317.377	90.62
317.607	96.62
317.836	75.62
318.065	82.62
318.295	82.62
318.524	78.62
318.753	75.62
318.983	80.62
319.212	78.62
319.441	96.62
319.67	92.62
319.9	92.62
320.129	79.62
320.358	85.62
320.587	89.62
320.816	84.62
321.046	93.62
321.275	93.62
321.504	82.62
321.733	90.62
321.962	88.62
322.191	89.62
322.42	76.62
322.649	78.62
322.878	86.62
323.108	94.62
323.337	81.62
323.566	80.62
323.795	79.62
324.024	89.62
324.253	77.62
324.482	85.62
324.71	83.62
324.939	80.62
325.168	87.62
325.397	86.62
325.626	77.62
325.855	74.62
326.084	81.62
326.313	83.62
326.542	75.62
326.77	85.62
326.999	80.62
327.228	80.62
327.457	82.62
327.686	84.62
327.914	90.62
328.143	81.62
328.372	82.62
328.6	86.62
328.829	92.62
329.058	79.62
329.287	79.62
329.515	87.62
329.744	71.62
329.972	75.62
330.201	94.62
330.43	94.62
330.658	89.62
330.887	86.62
331.115	71.62
331.344	91.62
331.572	77.62
331.801	97.62
332.03	68.62
332.258	71.62
332.486	82.62
332.715	74.62
332.943	86.62
333.172	73.62
333.4	93.62
333.629	82.62
333.857	83.62
334.085	76.62
334.314	96.62
334.542	87.62
334.771	74.62
334.999	88.62
335.227	75.62
335.455	90.62
335.684	91.62
335.912	82.62
336.14	87.62
336.369	85.62
336.597	76.62
336.825	87.62
337.053	90.62
337.281	75.62
337.51	81.62
337.738	82.62
337.966	77.62
338.194	94.62
338.422	95.62
338.65	78.62
338.878	71.62
339.106	80.62
339.334	69.62
339.562	71.62
339.79	91.62
340.018	90.62
340.246	86.62
340.474	78.62
340.702	82.62
340.93	90.62
341.158	87.62
341.386	78.62
341.614	86.62
341.842	92.62
342.07	89.62
342.298	90.62
342.526	98.62
342.754	80.62
342.981	82.62
343.209	84.62
343.437	90.62
343.665	90.62
343.893	82.62
344.12	78.62
344.348	84.62
344.576	86.62
344.804	90.62
345.031	88.62
345.259	83.62
345.487	90.62
345.714	80.62
345.942	77.62
346.17	82.62
346.397	77.62
346.625	87.62
346.853	80.62
347.08	75.62
347.308	86.62
347.535	93.62
347.763	89.62
347.99	80.62
348.218	85.62
348.445	79.62
348.673	72.62
348.9	79.62
349.128	86.62
349.355	66.62
349.583	87.62
349.81	80.62
350.037	83.62
350.265	77.62
350.492	84.62
350.72	77.62
350.947	85.62
351.174	70.62
351.402	71.62
351.629	93.62
351.856	85.62
352.083	87.62
352.311	78.62
352.538	72.62
352.765	79.62
352.992	98.62
353.22	79.62
353.447	75.62
353.674	83.62
353.901	89.62
354.128	81.62
354.355	82.62
354.583	82.62
354.81	85.62
355.037	87.62
355.264	83.62
355.491	72.62
355.718	71.62
355.945	76.62
356.172	87.62
356.399	96.62
356.626	95.62
356.853	83.62
357.08	87.62
357.307	97.62
357.534	66.62
357.761	89.62
357.988	89.62
358.215	86.62
358.441	91.62
358.668	73.62
358.895	86.62
359.122	74.62
359.349	88.62
359.576	83.62
359.802	82.62
360.029	87.62
360.256	80.62
360.483	85.62
360.709	84.62
360.936	91.62
361.163	89.62
361.39	93.62
361.616	78.62
361.843	88.62
362.07	90.62
362.296	91.62
362.523	79.62
362.749	89.62
362.976	81.62
363.203	86.62
363.429	79.62
363.656	70.62
363.882	80.62
364.109	76.62
364.335	94.62
364.562	78.62
364.788	73.62
365.015	74.62
365.241	91.62
365.468	78.62
365.694	86.62
365.92	106.62
366.147	71.62
366.373	74.62
366.599	77.62
366.826	91.62
367.052	102.62
367.278	88.62
367.505	92.62
367.731	94.62
367.957	82.62
368.184	84.62
368.41	89.62
368.636	84.62
368.862	74.62
369.089	96.62
369.315	90.62
369.541	89.62
369.767	104.62
369.993	82.62
370.219	79.62
370.445	88.62
370.672	95.62
370.898	77.62
371.124	102.62
371.35	100.62
371.576	81.62
371.802	82.62
372.028	90.62
372.254	76.62
372.48	86.62
372.706	72.62
372.932	86.62
373.158	95.62
373.384	89.62
373.61	81.62
373.835	79.62
374.061	74.62
374.287	98.62
374.513	85.62
374.739	89.62
374.965	86.62
375.191	71.62
375.416	94.62
375.642	83.62
375.868	87.62
376.094	87.62
376.319	89.62
376.545	86.62
376.771	79.62
376.997	88.62
377.222	85.62
377.448	88.62
377.674	90.62
377.899	75.62
378.125	80.62
378.35	90.62
378.576	91.62
378.802	98.62
379.027	81.62
379.253	84.62
379.478	94.62
379.704	78.62
379.929	78.62
380.155	79.62
380.38	66.62
380.606	83.62
380.831	98.62
381.057	90.62
381.282	81.62
381.507	55.62
381.733	87.62
381.958	79.62
382.184	87.62
382.409	85.62
382.634	97.62
382.86	89.62
383.085	82.62
383.31	78.62
383.535	90.62
383.761	85.62
383.986	85.62
384.211	87.62
384.436	95.62
384.662	90.62
384.887	86.62
385.112	73.62
385.337	88.62
385.562	83.62
385.787	82.62
386.013	89.62
386.238	95.62
386.463	75.62
386.688	85.62
386.913	93.62
387.138	87.62
387.363	74.62
387.588	81.62
387.813	93.62
388.038	86.62
388.263	90.62
388.488	97.62
388.713	77.62
388.938	83.62
389.163	82.62
389.387	78.62
389.612	95.62
389.837	93.62
390.062	100.62
390.287	90.62
390.512	93.62
390.736	93.62
390.961	82.62
391.186	71.62
391.411	87.62
391.636	95.62
391.86	100.62
392.085	86.62
392.31	80.62
392.534	81.62
392.759	84.62
392.984	98.62
393.208	81.62
393.433	75.62
393.658	81.62
393.882	90.62
394.107	79.62
394.331	86.62
394.556	84.62
394.78	102.62
395.005	85.62
395.229	86.62
395.454	85.62
395.678	94.62
395.903	85.62
396.127	71.62
396.352	90.62
396.576	90.62
396.801	84.62
397.025	88.62
397.249	73.62
397.474	87.62
397.698	91.62
397.922	95.62
398.147	86.62
398.371	79.62
398.595	88.62
398.82	98.62
399.044	93.62
399.268	81.62
399.492	93.62
399.717	101.62
399.941	94.62
400.165	81.62
400.389	72.62
400.613	78.62
400.837	93.62
401.062	85.62
401.286	89.62
401.51	90.62
401.734	70.62
401.958	86.62
402.182	99.62
402.406	86.62
402.63	93.62
402.854	84.62
403.078	99.62
403.302	84.62
403.526	88.62
403.75	93.62
403.974	85.62
404.198	88.62
404.422	83.62
404.645	95.62
404.869	86.62
405.093	90.62
405.317	87.62
405.541	86.62
405.765	86.62
405.988	85.62
406.212	112.62
406.436	91.62
406.66	95.62
406.883	84.62
407.107	87.62
407.331	104.62
407.555	91.62
407.778	95.62
408.002	84.62
408.226	96.62
408.449	99.62
408.673	91.62
408.896	95.62
409.12	90.62
409.344	96.62
409.567	88.62
409.791	97.62
410.014	98.62
410.238	99.62
410.461	90.62
410.685	85.62
410.908	96.62
411.132	80.62
411.355	94.62
411.578	78.62
411.802	80.62
412.025	83.62
412.249	91.62
412.472	91.62
412.695	85.62
412.919	81.62
413.142	86.62
413.365	72.62
413.589	93.62
413.812	91.62
414.035	93.62
414.258	108.62
414.482	83.62
414.705	83.62
414.928	105.62
415.151	96.62
415.374	95.62
415.597	93.62
415.821	86.62
416.044	97.62
416.267	96.62
416.49	84.62
416.713	88.62
416.936	84.62
417.159	93.62
417.382	87.62
417.605	94.62
417.828	83.62
418.051	90.62
418.274	102.62
418.497	84.62
418.72	88.62
418.943	99.62
419.166	96.62
419.389	96.62
419.611	89.62
419.834	85.62
420.057	113.62
420.28	95.62
420.503	96.62
420.726	90.62
420.948	104.62
421.171	96.62
421.394	94.62
421.617	75.62
421.839	103.62
422.062	89.62
422.285	73.62
422.507	102.62
422.73	79.62
422.953	87.62
423.175	94.62
423.398	87.62
423.621	90.62
423.843	92.62
424.066	98.62
424.288	90.62
424.511	101.62
424.733	104.62
424.956	102.62
425.178	103.62
425.401	97.62
425.623	97.62
425.846	97.62
426.068	101.62
426.291	98.62
426.513	99.62
426.735	102.62
426.958	79.62
427.18	95.62
427.402	98.62
427.625	109.62
427.847	89.62
428.069	92.62
428.292	97.62
428.514	79.62
428.736	91.62
428.958	87.62
429.181	96.62
429.403	83.62
429.625	84.62
429.847	90.62
430.069	80.62
430.292	96.62
430.514	97.62
430.736	98.62
430.958	85.62
431.18	92.62
431.402	85.62
431.624	87.62
431.846	81.62
432.068	79.62
432.29	86.62
432.512	87.62
432.734	85.62
432.956	84.62
433.178	85.62
433.4	98.62
433.622	101.62
433.844	94.62
434.066	100.62
434.287	86.62
434.509	79.62
434.731	89.62
434.953	94.62
435.175	75.62
435.397	95.62
435.618	89.62
435.84	88.62
436.062	92.62
436.284	91.62
436.505	102.62
436.727	102.62
436.949	75.62
437.17	96.62
437.392	98.62
437.614	92.62
437.835	92.62
438.057	83.62
438.278	82.62
438.5	103.62
438.721	89.62
438.943	91.62
439.165	89.62
439.386	94.62
439.608	107.62
439.829	100.62
440.05	91.62
440.272	96.62
440.493	92.62
440.715	91.62
440.936	111.62
441.158	100.62
441.379	94.62
441.6	101.62
441.822	108.62
442.043	93.62
442.264	92.62
442.486	103.62
442.707	115.62
442.928	99.62
443.149	94.62
443.371	92.62
443.592	81.62
443.813	96.62
444.034	105.62
444.255	119.62
444.476	96.62
444.698	86.62
444.919	83.62
445.14	237.62
445.361	152.62
445.582	100.62
445.803	97.62
446.024	105.62
446.245	88.62
446.466	89.62
446.687	102.62
446.908	88.62
447.129	101.62
447.35	96.62
447.571	112.62
447.792	107.62
448.013	105.62
448.234	113.62
448.455	91.62
448.675	91.62
448.896	95.62
449.117	109.62
449.338	88.62
449.559	86.62
449.779	83.62
450	95.62
450.221	88.62
450.442	82.62
450.662	103.62
450.883	105.62
451.104	83.62
451.324	95.62
451.545	93.62
451.766	102.62
451.986	99.62
452.207	90.62
452.428	94.62
452.648	83.62
452.869	81.62
453.089	97.62
453.31	88.62
453.53	80.62
453.751	88.62
453.971	83.62
454.192	105.62
454.412	88.62
454.633	81.62
454.853	87.62
455.073	103.62
455.294	96.62
455.514	93.62
455.734	91.62
455.955	78.62
456.175	91.62
456.395	87.62
456.616	76.62
456.836	96.62
457.056	85.62
457.276	84.62
457.497	79.62
457.717	98.62
457.937	92.62
458.157	90.62
458.377	80.62
458.598	102.62
458.818	83.62
459.038	84.62
459.258	95.62
459.478	89.62
459.698	76.62
459.918	89.62
460.138	83.62
460.358	72.62
460.578	90.62
460.798	88.62
461.018	78.62
461.238	86.62
461.458	79.62
461.678	80.62
461.898	103.62
462.118	102.62
462.338	87.62
462.558	97.62
462.777	77.62
462.997	76.62
463.217	89.62
463.437	102.62
463.657	89.62
463.876	89.62
464.096	91.62
464.316	69.62
464.536	97.62
464.755	93.62
464.975	97.62
465.195	97.62
465.414	82.62
465.634	93.62
465.854	83.62
466.073	81.62
466.293	92.62
466.512	88.62
466.732	90.62
466.951	100.62
467.171	103.62
467.391	102.62
467.61	94.62
467.829	75.62
468.049	89.62
468.268	95.62
468.488	100.62
468.707	90.62
468.927	105.62
469.146	91.62
469.365	104.62
469.585	87.62
469.804	82.62
470.023	78.62
470.243	97.62
470.462	100.62
470.681	84.62
470.901	101.62
471.12	91.62
471.339	96.62
471.558	95.62
471.777	105.62
471.997	98.62
472.216	87.62
472.435	90.62
472.654	95.62
472.873	119.62
473.092	80.62
473.311	85.62
473.53	86.62
473.749	84.62
473.968	91.62
474.187	100.62
474.406	91.62
474.625	96.62
474.844	93.62
475.063	89.62
475.282	94.62
475.501	86.62
475.72	93.62
475.939	102.62
476.158	75.62
476.377	95.62
476.596	91.62
476.814	94.62
477.033	93.62
477.252	90.62
477.471	87.62
477.69	104.62
477.908	101.62
478.127	95.62
478.346	97.62
478.564	95.62
478.783	89.62
479.002	99.62
479.22	107.62
479.439	113.62
479.658	103.62
479.876	99.62
480.095	89.62
480.313	88.62
480.532	93.62
480.751	81.62
480.969	89.62
481.188	87.62
481.406	86.62
481.624	85.62
481.843	84.62
482.061	83.62
482.28	84.62
482.498	86.62
482.717	87.62
482.935	87.62
483.153	96.62
483.372	113.62
483.59	105.62
483.808	110.62
484.027	99.62
484.245	92.62
484.463	95.62
484.681	98.62
484.9	75.62
485.118	110.62
485.336	100.62
485.554	90.62
485.772	86.62
485.99	91.62
486.209	75.62
486.427	88.62
486.645	89.62
486.863	88.62
487.081	91.62
487.299	105.62
487.517	101.62
487.735	111.62
487.953	123.62
488.171	121.62
488.389	104.62
488.607	104.62
488.825	88.62
489.043	111.62
489.261	100.62
489.479	91.62
489.696	87.62
489.914	102.62
490.132	104.62
490.35	110.62
490.568	96.62
490.786	100.62
491.003	112.62
491.221	109.62
491.439	114.62
491.657	118.62
491.874	117.62
492.092	130.62
492.31	123.62
492.527	114.62
492.745	111.62
492.963	114.62
493.18	117.62
493.398	117.62
493.615	97.62
493.833	100.62
494.05	103.62
494.268	107.62
494.485	107.62
494.703	117.62
494.92	113.62
495.138	113.62
495.355	109.62
495.573	101.62
495.79	100.62
496.008	105.62
496.225	116.62
496.442	112.62
496.66	111.62
496.877	98.62
497.094	108.62
497.312	113.62
497.529	99.62
497.746	90.62
497.963	94.62
498.181	96.62
498.398	92.62
498.615	103.62
498.832	88.62
499.049	97.62
499.267	98.62
499.484	87.62
499.701	100.62
499.918	86.62
500.135	90.62
500.352	98.62
500.569	114.62
500.786	101.62
501.003	97.62
501.22	86.62
501.437	94.62
501.654	103.62
501.871	94.62
502.088	79.62
502.305	127.62
502.522	106.62
502.739	103.62
502.956	80.62
503.172	98.62
503.389	103.62
503.606	94.62
503.823	89.62
504.04	91.62
504.256	97.62
504.473	100.62
504.69	81.62
504.907	93.62
505.123	103.62
505.34	98.62
505.557	86.62
505.773	93.62
505.99	103.62
506.207	82.62
506.423	89.62
506.64	91.62
506.856	101.62
507.073	103.62
507.289	100.62
507.506	94.62
507.722	90.62
507.939	85.62
508.155	88.62
508.372	82.62
508.588	85.62
508.805	89.62
509.021	77.62
509.238	87.62
509.454	98.62
509.67	85.62
509.887	78.62
510.103	80.62
510.319	93.62
510.536	66.62
510.752	79.62
510.968	79.62
511.184	86.62
511.401	99.62
511.617	85.62
511.833	91.62
512.049	85.62
512.265	81.62
512.481	84.62
512.698	83.62
512.914	91.62
513.13	104.62
513.346	94.62
513.562	86.62
513.778	88.62
513.994	95.62
514.21	79.62
514.426	82.62
514.642	78.62
514.858	78.62
515.074	87.62
515.29	93.62
515.506	87.62
515.721	88.62
515.937	104.62
516.153	80.62
516.369	87.62
516.585	72.62
516.801	81.62
517.016	86.62
517.232	64.62
517.448	89.62
