Data from Location3.07152019.Energy5.Lamp.07192019.3%Agarose_HRD10591_15-19-44-270.txt Node
Date: Fri Jul 19 15:19:44 EDT 2019
User: cochatt
Spectrometer: HR+D1059
Trigger mode: 1
Integration Time (sec): 1.000000E-1
Scans to average: 1
Electric dark correction enabled: true
Nonlinearity correction enabled: false
Boxcar width: 0
XAxis mode: Wavelengths
Number of Pixels in Spectrum: 2048
>>>>>Begin Spectral Data<<<<<
223.165	-14.44
223.4	-14.44
223.635	-14.44
223.869	-6.44
224.104	-29.44
224.338	-1.44
224.573	-13.44
224.808	-11.44
225.042	-7.44
225.277	-16.44
225.511	-4.44
225.746	-7.44
225.98	8.56
226.215	16.56
226.449	12.56
226.683	18.56
226.918	28.56
227.152	27.56
227.387	35.56
227.621	30.56
227.856	34.56
228.09	56.56
228.324	63.56
228.559	56.56
228.793	64.56
229.027	57.56
229.262	76.56
229.496	64.56
229.73	71.56
229.964	68.56
230.199	77.56
230.433	69.56
230.667	81.56
230.901	86.56
231.136	85.56
231.37	86.56
231.604	81.56
231.838	69.56
232.072	76.56
232.306	91.56
232.541	81.56
232.775	88.56
233.009	85.56
233.243	72.56
233.477	64.56
233.711	98.56
233.945	79.56
234.179	84.56
234.413	85.56
234.647	93.56
234.881	71.56
235.115	81.56
235.349	90.56
235.583	90.56
235.817	86.56
236.051	72.56
236.285	80.56
236.519	83.56
236.753	84.56
236.987	88.56
237.221	67.56
237.455	74.56
237.689	83.56
237.922	83.56
238.156	78.56
238.39	69.56
238.624	77.56
238.858	90.56
239.091	81.56
239.325	81.56
239.559	70.56
239.793	79.56
240.027	80.56
240.26	70.56
240.494	78.56
240.728	93.56
240.961	84.56
241.195	70.56
241.429	70.56
241.662	67.56
241.896	64.56
242.13	62.56
242.363	81.56
242.597	74.56
242.83	80.56
243.064	74.56
243.298	76.56
243.531	84.56
243.765	94.56
243.998	77.56
244.232	91.56
244.465	80.56
244.699	70.56
244.932	84.56
245.166	76.56
245.399	84.56
245.633	87.56
245.866	74.56
246.099	81.56
246.333	91.56
246.566	80.56
246.8	90.56
247.033	80.56
247.266	78.56
247.5	75.56
247.733	74.56
247.966	65.56
248.2	66.56
248.433	80.56
248.666	61.56
248.899	78.56
249.133	70.56
249.366	91.56
249.599	82.56
249.832	89.56
250.066	83.56
250.299	86.56
250.532	87.56
250.765	74.56
250.998	76.56
251.231	72.56
251.465	86.56
251.698	80.56
251.931	83.56
252.164	73.56
252.397	75.56
252.63	74.56
252.863	82.56
253.096	71.56
253.329	76.56
253.562	76.56
253.795	74.56
254.028	85.56
254.261	80.56
254.494	80.56
254.727	81.56
254.96	90.56
255.193	75.56
255.426	80.56
255.659	84.56
255.892	82.56
256.124	78.56
256.357	87.56
256.59	83.56
256.823	82.56
257.056	87.56
257.289	91.56
257.521	79.56
257.754	73.56
257.987	81.56
258.22	87.56
258.452	67.56
258.685	75.56
258.918	81.56
259.151	78.56
259.383	81.56
259.616	85.56
259.849	77.56
260.081	73.56
260.314	81.56
260.547	76.56
260.779	98.56
261.012	81.56
261.244	84.56
261.477	87.56
261.71	79.56
261.942	76.56
262.175	87.56
262.407	86.56
262.64	85.56
262.872	90.56
263.105	80.56
263.337	73.56
263.57	94.56
263.802	87.56
264.035	77.56
264.267	77.56
264.499	95.56
264.732	86.56
264.964	89.56
265.197	83.56
265.429	86.56
265.661	79.56
265.894	80.56
266.126	91.56
266.358	88.56
266.591	73.56
266.823	88.56
267.055	75.56
267.287	82.56
267.52	94.56
267.752	87.56
267.984	85.56
268.216	74.56
268.448	89.56
268.681	80.56
268.913	96.56
269.145	79.56
269.377	82.56
269.609	84.56
269.841	82.56
270.073	89.56
270.306	87.56
270.538	75.56
270.77	87.56
271.002	79.56
271.234	83.56
271.466	86.56
271.698	83.56
271.93	86.56
272.162	99.56
272.394	91.56
272.626	90.56
272.858	104.56
273.09	83.56
273.322	88.56
273.553	80.56
273.785	87.56
274.017	97.56
274.249	80.56
274.481	95.56
274.713	91.56
274.945	95.56
275.176	76.56
275.408	81.56
275.64	75.56
275.872	72.56
276.104	79.56
276.335	79.56
276.567	91.56
276.799	92.56
277.031	76.56
277.262	88.56
277.494	86.56
277.726	95.56
277.957	79.56
278.189	84.56
278.421	81.56
278.652	84.56
278.884	92.56
279.115	99.56
279.347	83.56
279.579	80.56
279.81	80.56
280.042	79.56
280.273	86.56
280.505	79.56
280.736	97.56
280.968	79.56
281.199	81.56
281.431	79.56
281.662	93.56
281.894	89.56
282.125	92.56
282.356	82.56
282.588	84.56
282.819	89.56
283.051	90.56
283.282	84.56
283.513	86.56
283.745	89.56
283.976	95.56
284.207	85.56
284.439	89.56
284.67	94.56
284.901	87.56
285.132	86.56
285.364	87.56
285.595	76.56
285.826	88.56
286.057	80.56
286.288	83.56
286.52	82.56
286.751	81.56
286.982	81.56
287.213	83.56
287.444	87.56
287.675	87.56
287.906	80.56
288.138	96.56
288.369	90.56
288.6	93.56
288.831	86.56
289.062	85.56
289.293	71.56
289.524	76.56
289.755	86.56
289.986	103.56
290.217	87.56
290.448	91.56
290.679	87.56
290.91	79.56
291.141	86.56
291.371	82.56
291.602	72.56
291.833	75.56
292.064	81.56
292.295	76.56
292.526	94.56
292.757	75.56
292.987	82.56
293.218	86.56
293.449	94.56
293.68	99.56
293.91	86.56
294.141	87.56
294.372	69.56
294.603	79.56
294.833	80.56
295.064	86.56
295.295	76.56
295.525	79.56
295.756	78.56
295.987	89.56
296.217	81.56
296.448	92.56
296.679	84.56
296.909	85.56
297.14	84.56
297.37	84.56
297.601	72.56
297.831	76.56
298.062	81.56
298.292	86.56
298.523	76.56
298.753	91.56
298.984	76.56
299.214	82.56
299.445	87.56
299.675	83.56
299.905	92.56
300.136	85.56
300.366	83.56
300.597	76.56
300.827	85.56
301.057	80.56
301.288	86.56
301.518	83.56
301.748	83.56
301.979	92.56
302.209	70.56
302.439	79.56
302.669	79.56
302.9	84.56
303.13	97.56
303.36	96.56
303.59	85.56
303.82	96.56
304.051	92.56
304.281	91.56
304.511	86.56
304.741	96.56
304.971	73.56
305.201	77.56
305.431	83.56
305.661	100.56
305.891	83.56
306.121	77.56
306.352	83.56
306.582	85.56
306.812	80.56
307.042	74.56
307.272	75.56
307.502	79.56
307.731	66.56
307.961	90.56
308.191	97.56
308.421	73.56
308.651	91.56
308.881	89.56
309.111	81.56
309.341	94.56
309.571	73.56
309.8	93.56
310.03	91.56
310.26	75.56
310.49	87.56
310.72	79.56
310.949	101.56
311.179	82.56
311.409	82.56
311.639	76.56
311.868	90.56
312.098	87.56
312.328	84.56
312.557	87.56
312.787	90.56
313.017	110.56
313.246	84.56
313.476	101.56
313.706	90.56
313.935	85.56
314.165	94.56
314.394	83.56
314.624	90.56
314.853	93.56
315.083	99.56
315.312	83.56
315.542	79.56
315.771	86.56
316.001	84.56
316.23	92.56
316.46	94.56
316.689	92.56
316.919	72.56
317.148	81.56
317.377	90.56
317.607	82.56
317.836	90.56
318.065	83.56
318.295	75.56
318.524	69.56
318.753	83.56
318.983	85.56
319.212	84.56
319.441	69.56
319.67	73.56
319.9	75.56
320.129	86.56
320.358	90.56
320.587	89.56
320.816	78.56
321.046	78.56
321.275	87.56
321.504	79.56
321.733	93.56
321.962	90.56
322.191	96.56
322.42	91.56
322.649	97.56
322.878	92.56
323.108	80.56
323.337	86.56
323.566	84.56
323.795	79.56
324.024	84.56
324.253	75.56
324.482	77.56
324.71	75.56
324.939	94.56
325.168	89.56
325.397	83.56
325.626	89.56
325.855	88.56
326.084	82.56
326.313	80.56
326.542	87.56
326.77	73.56
326.999	87.56
327.228	82.56
327.457	74.56
327.686	97.56
327.914	83.56
328.143	86.56
328.372	80.56
328.6	79.56
328.829	85.56
329.058	89.56
329.287	90.56
329.515	87.56
329.744	96.56
329.972	82.56
330.201	79.56
330.43	98.56
330.658	94.56
330.887	94.56
331.115	73.56
331.344	85.56
331.572	88.56
331.801	82.56
332.03	81.56
332.258	88.56
332.486	93.56
332.715	75.56
332.943	92.56
333.172	84.56
333.4	85.56
333.629	91.56
333.857	83.56
334.085	65.56
334.314	95.56
334.542	88.56
334.771	96.56
334.999	74.56
335.227	87.56
335.455	86.56
335.684	95.56
335.912	87.56
336.14	71.56
336.369	84.56
336.597	100.56
336.825	89.56
337.053	94.56
337.281	81.56
337.51	96.56
337.738	82.56
337.966	76.56
338.194	85.56
338.422	99.56
338.65	89.56
338.878	99.56
339.106	88.56
339.334	71.56
339.562	82.56
339.79	77.56
340.018	78.56
340.246	76.56
340.474	85.56
340.702	88.56
340.93	86.56
341.158	76.56
341.386	80.56
341.614	85.56
341.842	101.56
342.07	81.56
342.298	81.56
342.526	81.56
342.754	95.56
342.981	91.56
343.209	82.56
343.437	85.56
343.665	84.56
343.893	89.56
344.12	93.56
344.348	88.56
344.576	89.56
344.804	85.56
345.031	86.56
345.259	82.56
345.487	70.56
345.714	86.56
345.942	75.56
346.17	84.56
346.397	88.56
346.625	90.56
346.853	95.56
347.08	90.56
347.308	86.56
347.535	83.56
347.763	75.56
347.99	94.56
348.218	89.56
348.445	82.56
348.673	87.56
348.9	85.56
349.128	79.56
349.355	77.56
349.583	101.56
349.81	83.56
350.037	85.56
350.265	74.56
350.492	84.56
350.72	86.56
350.947	86.56
351.174	86.56
351.402	87.56
351.629	83.56
351.856	86.56
352.083	74.56
352.311	69.56
352.538	81.56
352.765	76.56
352.992	88.56
353.22	78.56
353.447	86.56
353.674	80.56
353.901	89.56
354.128	83.56
354.355	73.56
354.583	84.56
354.81	76.56
355.037	103.56
355.264	79.56
355.491	87.56
355.718	71.56
355.945	87.56
356.172	88.56
356.399	98.56
356.626	85.56
356.853	95.56
357.08	91.56
357.307	85.56
357.534	89.56
357.761	92.56
357.988	83.56
358.215	80.56
358.441	72.56
358.668	89.56
358.895	94.56
359.122	91.56
359.349	72.56
359.576	77.56
359.802	74.56
360.029	83.56
360.256	85.56
360.483	73.56
360.709	68.56
360.936	95.56
361.163	80.56
361.39	83.56
361.616	88.56
361.843	95.56
362.07	87.56
362.296	83.56
362.523	84.56
362.749	88.56
362.976	85.56
363.203	74.56
363.429	74.56
363.656	81.56
363.882	82.56
364.109	85.56
364.335	85.56
364.562	91.56
364.788	73.56
365.015	78.56
365.241	76.56
365.468	91.56
365.694	80.56
365.92	74.56
366.147	74.56
366.373	81.56
366.599	88.56
366.826	74.56
367.052	74.56
367.278	91.56
367.505	84.56
367.731	84.56
367.957	73.56
368.184	70.56
368.41	73.56
368.636	69.56
368.862	80.56
369.089	76.56
369.315	91.56
369.541	83.56
369.767	81.56
369.993	75.56
370.219	89.56
370.445	99.56
370.672	82.56
370.898	71.56
371.124	80.56
371.35	75.56
371.576	74.56
371.802	88.56
372.028	102.56
372.254	90.56
372.48	87.56
372.706	96.56
372.932	79.56
373.158	79.56
373.384	87.56
373.61	79.56
373.835	67.56
374.061	63.56
374.287	79.56
374.513	89.56
374.739	78.56
374.965	81.56
375.191	99.56
375.416	90.56
375.642	78.56
375.868	88.56
376.094	87.56
376.319	94.56
376.545	86.56
376.771	99.56
376.997	79.56
377.222	80.56
377.448	75.56
377.674	80.56
377.899	99.56
378.125	77.56
378.35	83.56
378.576	85.56
378.802	92.56
379.027	83.56
379.253	82.56
379.478	87.56
379.704	87.56
379.929	83.56
380.155	87.56
380.38	83.56
380.606	79.56
380.831	74.56
381.057	92.56
381.282	87.56
381.507	84.56
381.733	77.56
381.958	89.56
382.184	70.56
382.409	89.56
382.634	85.56
382.86	74.56
383.085	64.56
383.31	77.56
383.535	86.56
383.761	95.56
383.986	91.56
384.211	80.56
384.436	87.56
384.662	85.56
384.887	69.56
385.112	87.56
385.337	94.56
385.562	82.56
385.787	100.56
386.013	98.56
386.238	84.56
386.463	93.56
386.688	90.56
386.913	86.56
387.138	81.56
387.363	83.56
387.588	85.56
387.813	88.56
388.038	91.56
388.263	94.56
388.488	88.56
388.713	99.56
388.938	86.56
389.163	70.56
389.387	82.56
389.612	91.56
389.837	89.56
390.062	88.56
390.287	89.56
390.512	82.56
390.736	86.56
390.961	93.56
391.186	89.56
391.411	84.56
391.636	88.56
391.86	87.56
392.085	79.56
392.31	95.56
392.534	84.56
392.759	94.56
392.984	94.56
393.208	89.56
393.433	77.56
393.658	94.56
393.882	81.56
394.107	76.56
394.331	77.56
394.556	80.56
394.78	90.56
395.005	99.56
395.229	94.56
395.454	93.56
395.678	88.56
395.903	94.56
396.127	104.56
396.352	92.56
396.576	90.56
396.801	80.56
397.025	91.56
397.249	86.56
397.474	87.56
397.698	89.56
397.922	75.56
398.147	82.56
398.371	102.56
398.595	101.56
398.82	93.56
399.044	94.56
399.268	93.56
399.492	77.56
399.717	91.56
399.941	84.56
400.165	93.56
400.389	80.56
400.613	79.56
400.837	83.56
401.062	91.56
401.286	100.56
401.51	96.56
401.734	84.56
401.958	90.56
402.182	80.56
402.406	86.56
402.63	81.56
402.854	88.56
403.078	95.56
403.302	93.56
403.526	98.56
403.75	92.56
403.974	89.56
404.198	85.56
404.422	92.56
404.645	89.56
404.869	82.56
405.093	97.56
405.317	100.56
405.541	80.56
405.765	100.56
405.988	92.56
406.212	86.56
406.436	89.56
406.66	94.56
406.883	84.56
407.107	90.56
407.331	86.56
407.555	95.56
407.778	98.56
408.002	76.56
408.226	94.56
408.449	94.56
408.673	92.56
408.896	95.56
409.12	92.56
409.344	93.56
409.567	92.56
409.791	97.56
410.014	95.56
410.238	88.56
410.461	97.56
410.685	99.56
410.908	94.56
411.132	88.56
411.355	84.56
411.578	95.56
411.802	98.56
412.025	82.56
412.249	85.56
412.472	96.56
412.695	101.56
412.919	104.56
413.142	107.56
413.365	96.56
413.589	78.56
413.812	82.56
414.035	88.56
414.258	95.56
414.482	88.56
414.705	88.56
414.928	95.56
415.151	84.56
415.374	88.56
415.597	81.56
415.821	87.56
416.044	90.56
416.267	102.56
416.49	84.56
416.713	107.56
416.936	98.56
417.159	92.56
417.382	103.56
417.605	91.56
417.828	93.56
418.051	81.56
418.274	98.56
418.497	103.56
418.72	92.56
418.943	93.56
419.166	92.56
419.389	88.56
419.611	94.56
419.834	94.56
420.057	81.56
420.28	83.56
420.503	92.56
420.726	101.56
420.948	95.56
421.171	96.56
421.394	100.56
421.617	92.56
421.839	87.56
422.062	84.56
422.285	98.56
422.507	83.56
422.73	89.56
422.953	87.56
423.175	92.56
423.398	95.56
423.621	105.56
423.843	102.56
424.066	101.56
424.288	101.56
424.511	87.56
424.733	93.56
424.956	102.56
425.178	99.56
425.401	95.56
425.623	95.56
425.846	96.56
426.068	94.56
426.291	94.56
426.513	82.56
426.735	86.56
426.958	99.56
427.18	88.56
427.402	93.56
427.625	94.56
427.847	98.56
428.069	86.56
428.292	99.56
428.514	84.56
428.736	88.56
428.958	72.56
429.181	100.56
429.403	94.56
429.625	86.56
429.847	89.56
430.069	102.56
430.292	105.56
430.514	98.56
430.736	87.56
430.958	90.56
431.18	107.56
431.402	107.56
431.624	101.56
431.846	88.56
432.068	92.56
432.29	82.56
432.512	102.56
432.734	100.56
432.956	86.56
433.178	95.56
433.4	98.56
433.622	90.56
433.844	99.56
434.066	99.56
434.287	92.56
434.509	81.56
434.731	85.56
434.953	84.56
435.175	93.56
435.397	86.56
435.618	89.56
435.84	96.56
436.062	92.56
436.284	94.56
436.505	97.56
436.727	97.56
436.949	102.56
437.17	93.56
437.392	82.56
437.614	95.56
437.835	94.56
438.057	92.56
438.278	100.56
438.5	102.56
438.721	99.56
438.943	78.56
439.165	91.56
439.386	91.56
439.608	107.56
439.829	111.56
440.05	102.56
440.272	105.56
440.493	104.56
440.715	97.56
440.936	102.56
441.158	92.56
441.379	100.56
441.6	105.56
441.822	111.56
442.043	98.56
442.264	96.56
442.486	103.56
442.707	94.56
442.928	92.56
443.149	107.56
443.371	96.56
443.592	92.56
443.813	92.56
444.034	99.56
444.255	91.56
444.476	94.56
444.698	117.56
444.919	93.56
445.14	212.56
445.361	152.56
445.582	104.56
445.803	93.56
446.024	101.56
446.245	87.56
446.466	95.56
446.687	87.56
446.908	86.56
447.129	101.56
447.35	95.56
447.571	91.56
447.792	97.56
448.013	97.56
448.234	93.56
448.455	103.56
448.675	95.56
448.896	94.56
449.117	100.56
449.338	96.56
449.559	102.56
449.779	104.56
450	98.56
450.221	90.56
450.442	94.56
450.662	89.56
450.883	82.56
451.104	86.56
451.324	95.56
451.545	100.56
451.766	101.56
451.986	90.56
452.207	81.56
452.428	96.56
452.648	96.56
452.869	98.56
453.089	82.56
453.31	100.56
453.53	86.56
453.751	79.56
453.971	75.56
454.192	96.56
454.412	90.56
454.633	89.56
454.853	96.56
455.073	89.56
455.294	85.56
455.514	84.56
455.734	90.56
455.955	91.56
456.175	102.56
456.395	97.56
456.616	84.56
456.836	87.56
457.056	95.56
457.276	95.56
457.497	90.56
457.717	81.56
457.937	79.56
458.157	94.56
458.377	93.56
458.598	93.56
458.818	87.56
459.038	82.56
459.258	88.56
459.478	77.56
459.698	96.56
459.918	88.56
460.138	79.56
460.358	91.56
460.578	107.56
460.798	103.56
461.018	104.56
461.238	88.56
461.458	83.56
461.678	89.56
461.898	89.56
462.118	99.56
462.338	103.56
462.558	100.56
462.777	87.56
462.997	92.56
463.217	81.56
463.437	82.56
463.657	87.56
463.876	97.56
464.096	93.56
464.316	88.56
464.536	90.56
464.755	103.56
464.975	89.56
465.195	89.56
465.414	95.56
465.634	97.56
465.854	107.56
466.073	96.56
466.293	95.56
466.512	106.56
466.732	80.56
466.951	84.56
467.171	94.56
467.391	105.56
467.61	89.56
467.829	90.56
468.049	94.56
468.268	102.56
468.488	105.56
468.707	106.56
468.927	98.56
469.146	100.56
469.365	102.56
469.585	112.56
469.804	106.56
470.023	98.56
470.243	92.56
470.462	92.56
470.681	102.56
470.901	106.56
471.12	103.56
471.339	108.56
471.558	97.56
471.777	103.56
471.997	87.56
472.216	105.56
472.435	91.56
472.654	89.56
472.873	65.56
473.092	92.56
473.311	97.56
473.53	94.56
473.749	84.56
473.968	110.56
474.187	101.56
474.406	78.56
474.625	94.56
474.844	86.56
475.063	107.56
475.282	88.56
475.501	96.56
475.72	86.56
475.939	80.56
476.158	107.56
476.377	88.56
476.596	93.56
476.814	83.56
477.033	95.56
477.252	95.56
477.471	79.56
477.69	88.56
477.908	90.56
478.127	107.56
478.346	99.56
478.564	92.56
478.783	94.56
479.002	99.56
479.22	77.56
479.439	100.56
479.658	91.56
479.876	102.56
480.095	101.56
480.313	113.56
480.532	96.56
480.751	95.56
480.969	88.56
481.188	87.56
481.406	76.56
481.624	86.56
481.843	82.56
482.061	87.56
482.28	81.56
482.498	104.56
482.717	91.56
482.935	102.56
483.153	100.56
483.372	94.56
483.59	117.56
483.808	106.56
484.027	94.56
484.245	113.56
484.463	99.56
484.681	116.56
484.9	110.56
485.118	78.56
485.336	100.56
485.554	102.56
485.772	90.56
485.99	88.56
486.209	99.56
486.427	108.56
486.645	107.56
486.863	93.56
487.081	93.56
487.299	79.56
487.517	106.56
487.735	98.56
487.953	115.56
488.171	110.56
488.389	92.56
488.607	102.56
488.825	95.56
489.043	95.56
489.261	100.56
489.479	88.56
489.696	85.56
489.914	99.56
490.132	91.56
490.35	100.56
490.568	99.56
490.786	114.56
491.003	112.56
491.221	126.56
491.439	98.56
491.657	119.56
491.874	116.56
492.092	120.56
492.31	133.56
492.527	123.56
492.745	116.56
492.963	121.56
493.18	120.56
493.398	112.56
493.615	110.56
493.833	113.56
494.05	122.56
494.268	105.56
494.485	119.56
494.703	122.56
494.92	116.56
495.138	119.56
495.355	119.56
495.573	112.56
495.79	95.56
496.008	105.56
496.225	119.56
496.442	124.56
496.66	113.56
496.877	108.56
497.094	103.56
497.312	103.56
497.529	111.56
497.746	99.56
497.963	104.56
498.181	102.56
498.398	93.56
498.615	98.56
498.832	99.56
499.049	93.56
499.267	93.56
499.484	104.56
499.701	103.56
499.918	111.56
500.135	109.56
500.352	96.56
500.569	113.56
500.786	100.56
501.003	86.56
501.22	101.56
501.437	99.56
501.654	94.56
501.871	81.56
502.088	100.56
502.305	94.56
502.522	106.56
502.739	85.56
502.956	95.56
503.172	91.56
503.389	85.56
503.606	99.56
503.823	107.56
504.04	99.56
504.256	94.56
504.473	90.56
504.69	102.56
504.907	97.56
505.123	106.56
505.34	102.56
505.557	98.56
505.773	105.56
505.99	97.56
506.207	102.56
506.423	90.56
506.64	99.56
506.856	90.56
507.073	97.56
507.289	90.56
507.506	88.56
507.722	88.56
507.939	88.56
508.155	110.56
508.372	93.56
508.588	90.56
508.805	85.56
509.021	86.56
509.238	83.56
509.454	86.56
509.67	90.56
509.887	95.56
510.103	88.56
510.319	95.56
510.536	83.56
510.752	90.56
510.968	73.56
511.184	83.56
511.401	87.56
511.617	89.56
511.833	96.56
512.049	89.56
512.265	98.56
512.481	94.56
512.698	90.56
512.914	88.56
513.13	85.56
513.346	76.56
513.562	82.56
513.778	82.56
513.994	87.56
514.21	89.56
514.426	96.56
514.642	100.56
514.858	91.56
515.074	78.56
515.29	82.56
515.506	90.56
515.721	83.56
515.937	81.56
516.153	102.56
516.369	86.56
516.585	76.56
516.801	81.56
517.016	85.56
517.232	78.56
