Data from Location3.07152019.Energy5.Lamp.07192019.3%Agarose_HRD10591_15-16-57-269.txt Node
Date: Fri Jul 19 15:16:57 EDT 2019
User: cochatt
Spectrometer: HR+D1059
Trigger mode: 1
Integration Time (sec): 1.000000E-1
Scans to average: 1
Electric dark correction enabled: true
Nonlinearity correction enabled: false
Boxcar width: 0
XAxis mode: Wavelengths
Number of Pixels in Spectrum: 2048
>>>>>Begin Spectral Data<<<<<
223.165	-16.19
223.4	-16.19
223.635	-16.19
223.869	-35.19
224.104	-8.19
224.338	-15.19
224.573	-11.19
224.808	-15.19
225.042	-21.19
225.277	8.81
225.511	-3.19
225.746	10.81
225.98	12.81
226.215	15.81
226.449	16.81
226.683	8.81
226.918	27.81
227.152	23.81
227.387	36.81
227.621	49.81
227.856	43.81
228.09	43.81
228.324	42.81
228.559	57.81
228.793	54.81
229.027	65.81
229.262	63.81
229.496	66.81
229.73	62.81
229.964	70.81
230.199	73.81
230.433	61.81
230.667	73.81
230.901	88.81
231.136	78.81
231.37	90.81
231.604	71.81
231.838	79.81
232.072	73.81
232.306	68.81
232.541	84.81
232.775	76.81
233.009	75.81
233.243	88.81
233.477	93.81
233.711	76.81
233.945	77.81
234.179	84.81
234.413	83.81
234.647	83.81
234.881	79.81
235.115	78.81
235.349	81.81
235.583	79.81
235.817	55.81
236.051	87.81
236.285	76.81
236.519	76.81
236.753	77.81
236.987	70.81
237.221	62.81
237.455	76.81
237.689	78.81
237.922	70.81
238.156	74.81
238.39	69.81
238.624	85.81
238.858	87.81
239.091	81.81
239.325	80.81
239.559	73.81
239.793	67.81
240.027	64.81
240.26	84.81
240.494	66.81
240.728	71.81
240.961	65.81
241.195	86.81
241.429	64.81
241.662	72.81
241.896	85.81
242.13	72.81
242.363	86.81
242.597	69.81
242.83	75.81
243.064	72.81
243.298	61.81
243.531	71.81
243.765	79.81
243.998	78.81
244.232	83.81
244.465	70.81
244.699	83.81
244.932	85.81
245.166	70.81
245.399	78.81
245.633	80.81
245.866	59.81
246.099	80.81
246.333	94.81
246.566	81.81
246.8	67.81
247.033	83.81
247.266	77.81
247.5	94.81
247.733	87.81
247.966	75.81
248.2	76.81
248.433	76.81
248.666	77.81
248.899	68.81
249.133	92.81
249.366	91.81
249.599	80.81
249.832	68.81
250.066	92.81
250.299	74.81
250.532	75.81
250.765	76.81
250.998	67.81
251.231	81.81
251.465	78.81
251.698	86.81
251.931	63.81
252.164	87.81
252.397	86.81
252.63	79.81
252.863	88.81
253.096	71.81
253.329	73.81
253.562	82.81
253.795	79.81
254.028	72.81
254.261	76.81
254.494	80.81
254.727	78.81
254.96	83.81
255.193	91.81
255.426	80.81
255.659	78.81
255.892	82.81
256.124	75.81
256.357	80.81
256.59	79.81
256.823	79.81
257.056	71.81
257.289	80.81
257.521	81.81
257.754	76.81
257.987	86.81
258.22	80.81
258.452	73.81
258.685	87.81
258.918	91.81
259.151	85.81
259.383	74.81
259.616	85.81
259.849	82.81
260.081	90.81
260.314	76.81
260.547	92.81
260.779	77.81
261.012	65.81
261.244	78.81
261.477	84.81
261.71	72.81
261.942	68.81
262.175	88.81
262.407	98.81
262.64	90.81
262.872	69.81
263.105	75.81
263.337	87.81
263.57	92.81
263.802	79.81
264.035	79.81
264.267	86.81
264.499	75.81
264.732	84.81
264.964	88.81
265.197	94.81
265.429	84.81
265.661	87.81
265.894	86.81
266.126	89.81
266.358	90.81
266.591	78.81
266.823	82.81
267.055	85.81
267.287	70.81
267.52	80.81
267.752	91.81
267.984	82.81
268.216	93.81
268.448	69.81
268.681	85.81
268.913	92.81
269.145	83.81
269.377	76.81
269.609	85.81
269.841	84.81
270.073	74.81
270.306	85.81
270.538	75.81
270.77	81.81
271.002	81.81
271.234	90.81
271.466	79.81
271.698	92.81
271.93	80.81
272.162	84.81
272.394	90.81
272.626	93.81
272.858	81.81
273.09	82.81
273.322	89.81
273.553	76.81
273.785	78.81
274.017	76.81
274.249	87.81
274.481	74.81
274.713	63.81
274.945	83.81
275.176	83.81
275.408	85.81
275.64	88.81
275.872	78.81
276.104	75.81
276.335	82.81
276.567	89.81
276.799	77.81
277.031	71.81
277.262	74.81
277.494	88.81
277.726	86.81
277.957	83.81
278.189	80.81
278.421	83.81
278.652	75.81
278.884	99.81
279.115	86.81
279.347	84.81
279.579	97.81
279.81	76.81
280.042	77.81
280.273	84.81
280.505	76.81
280.736	85.81
280.968	82.81
281.199	91.81
281.431	90.81
281.662	78.81
281.894	76.81
282.125	83.81
282.356	94.81
282.588	74.81
282.819	78.81
283.051	91.81
283.282	87.81
283.513	91.81
283.745	89.81
283.976	98.81
284.207	90.81
284.439	83.81
284.67	89.81
284.901	98.81
285.132	89.81
285.364	86.81
285.595	100.81
285.826	98.81
286.057	76.81
286.288	73.81
286.52	74.81
286.751	72.81
286.982	94.81
287.213	89.81
287.444	92.81
287.675	80.81
287.906	80.81
288.138	95.81
288.369	80.81
288.6	77.81
288.831	84.81
289.062	99.81
289.293	79.81
289.524	88.81
289.755	84.81
289.986	98.81
290.217	95.81
290.448	81.81
290.679	88.81
290.91	90.81
291.141	88.81
291.371	97.81
291.602	81.81
291.833	95.81
292.064	81.81
292.295	80.81
292.526	81.81
292.757	87.81
292.987	93.81
293.218	91.81
293.449	81.81
293.68	66.81
293.91	84.81
294.141	73.81
294.372	82.81
294.603	88.81
294.833	70.81
295.064	81.81
295.295	83.81
295.525	87.81
295.756	79.81
295.987	91.81
296.217	83.81
296.448	84.81
296.679	93.81
296.909	88.81
297.14	94.81
297.37	82.81
297.601	74.81
297.831	75.81
298.062	94.81
298.292	96.81
298.523	86.81
298.753	83.81
298.984	81.81
299.214	96.81
299.445	89.81
299.675	82.81
299.905	81.81
300.136	76.81
300.366	93.81
300.597	91.81
300.827	93.81
301.057	78.81
301.288	82.81
301.518	85.81
301.748	73.81
301.979	98.81
302.209	80.81
302.439	64.81
302.669	79.81
302.9	76.81
303.13	78.81
303.36	88.81
303.59	81.81
303.82	86.81
304.051	79.81
304.281	79.81
304.511	84.81
304.741	84.81
304.971	83.81
305.201	86.81
305.431	91.81
305.661	94.81
305.891	81.81
306.121	99.81
306.352	82.81
306.582	81.81
306.812	83.81
307.042	71.81
307.272	79.81
307.502	89.81
307.731	76.81
307.961	81.81
308.191	95.81
308.421	86.81
308.651	82.81
308.881	83.81
309.111	87.81
309.341	72.81
309.571	83.81
309.8	85.81
310.03	94.81
310.26	86.81
310.49	82.81
310.72	90.81
310.949	79.81
311.179	72.81
311.409	81.81
311.639	86.81
311.868	85.81
312.098	83.81
312.328	89.81
312.557	91.81
312.787	77.81
313.017	75.81
313.246	96.81
313.476	85.81
313.706	77.81
313.935	80.81
314.165	73.81
314.394	89.81
314.624	100.81
314.853	81.81
315.083	83.81
315.312	86.81
315.542	86.81
315.771	83.81
316.001	76.81
316.23	79.81
316.46	89.81
316.689	79.81
316.919	82.81
317.148	93.81
317.377	90.81
317.607	88.81
317.836	84.81
318.065	83.81
318.295	73.81
318.524	94.81
318.753	72.81
318.983	82.81
319.212	83.81
319.441	104.81
319.67	72.81
319.9	81.81
320.129	85.81
320.358	80.81
320.587	85.81
320.816	78.81
321.046	80.81
321.275	78.81
321.504	96.81
321.733	89.81
321.962	72.81
322.191	86.81
322.42	89.81
322.649	87.81
322.878	79.81
323.108	70.81
323.337	82.81
323.566	77.81
323.795	87.81
324.024	80.81
324.253	73.81
324.482	76.81
324.71	83.81
324.939	72.81
325.168	96.81
325.397	83.81
325.626	81.81
325.855	88.81
326.084	90.81
326.313	82.81
326.542	76.81
326.77	76.81
326.999	79.81
327.228	81.81
327.457	79.81
327.686	95.81
327.914	94.81
328.143	93.81
328.372	87.81
328.6	82.81
328.829	86.81
329.058	79.81
329.287	85.81
329.515	81.81
329.744	99.81
329.972	82.81
330.201	73.81
330.43	92.81
330.658	76.81
330.887	74.81
331.115	92.81
331.344	95.81
331.572	72.81
331.801	76.81
332.03	71.81
332.258	78.81
332.486	75.81
332.715	75.81
332.943	88.81
333.172	76.81
333.4	87.81
333.629	91.81
333.857	75.81
334.085	85.81
334.314	67.81
334.542	90.81
334.771	72.81
334.999	87.81
335.227	78.81
335.455	94.81
335.684	69.81
335.912	80.81
336.14	92.81
336.369	89.81
336.597	74.81
336.825	80.81
337.053	78.81
337.281	80.81
337.51	95.81
337.738	90.81
337.966	78.81
338.194	80.81
338.422	98.81
338.65	78.81
338.878	87.81
339.106	78.81
339.334	81.81
339.562	73.81
339.79	73.81
340.018	83.81
340.246	72.81
340.474	71.81
340.702	91.81
340.93	82.81
341.158	75.81
341.386	78.81
341.614	78.81
341.842	83.81
342.07	62.81
342.298	81.81
342.526	83.81
342.754	82.81
342.981	79.81
343.209	76.81
343.437	84.81
343.665	75.81
343.893	85.81
344.12	86.81
344.348	91.81
344.576	91.81
344.804	88.81
345.031	83.81
345.259	76.81
345.487	86.81
345.714	70.81
345.942	74.81
346.17	87.81
346.397	75.81
346.625	74.81
346.853	76.81
347.08	78.81
347.308	84.81
347.535	71.81
347.763	80.81
347.99	91.81
348.218	84.81
348.445	82.81
348.673	87.81
348.9	86.81
349.128	82.81
349.355	88.81
349.583	90.81
349.81	75.81
350.037	78.81
350.265	83.81
350.492	92.81
350.72	87.81
350.947	76.81
351.174	98.81
351.402	87.81
351.629	74.81
351.856	88.81
352.083	84.81
352.311	75.81
352.538	82.81
352.765	75.81
352.992	89.81
353.22	80.81
353.447	79.81
353.674	86.81
353.901	94.81
354.128	82.81
354.355	96.81
354.583	90.81
354.81	90.81
355.037	92.81
355.264	100.81
355.491	95.81
355.718	82.81
355.945	86.81
356.172	74.81
356.399	79.81
356.626	74.81
356.853	92.81
357.08	86.81
357.307	79.81
357.534	80.81
357.761	69.81
357.988	78.81
358.215	83.81
358.441	82.81
358.668	74.81
358.895	88.81
359.122	66.81
359.349	75.81
359.576	83.81
359.802	90.81
360.029	82.81
360.256	85.81
360.483	96.81
360.709	86.81
360.936	84.81
361.163	86.81
361.39	83.81
361.616	75.81
361.843	84.81
362.07	74.81
362.296	86.81
362.523	87.81
362.749	78.81
362.976	92.81
363.203	87.81
363.429	68.81
363.656	87.81
363.882	75.81
364.109	89.81
364.335	92.81
364.562	70.81
364.788	76.81
365.015	86.81
365.241	73.81
365.468	81.81
365.694	84.81
365.92	88.81
366.147	98.81
366.373	78.81
366.599	89.81
366.826	91.81
367.052	85.81
367.278	91.81
367.505	76.81
367.731	83.81
367.957	87.81
368.184	76.81
368.41	71.81
368.636	84.81
368.862	84.81
369.089	92.81
369.315	67.81
369.541	87.81
369.767	84.81
369.993	79.81
370.219	92.81
370.445	89.81
370.672	83.81
370.898	85.81
371.124	72.81
371.35	89.81
371.576	91.81
371.802	84.81
372.028	84.81
372.254	87.81
372.48	95.81
372.706	94.81
372.932	78.81
373.158	95.81
373.384	69.81
373.61	86.81
373.835	96.81
374.061	78.81
374.287	78.81
374.513	67.81
374.739	83.81
374.965	80.81
375.191	83.81
375.416	89.81
375.642	66.81
375.868	86.81
376.094	67.81
376.319	65.81
376.545	83.81
376.771	83.81
376.997	86.81
377.222	83.81
377.448	85.81
377.674	85.81
377.899	89.81
378.125	92.81
378.35	70.81
378.576	87.81
378.802	86.81
379.027	67.81
379.253	84.81
379.478	85.81
379.704	84.81
379.929	87.81
380.155	72.81
380.38	69.81
380.606	84.81
380.831	87.81
381.057	84.81
381.282	80.81
381.507	77.81
381.733	76.81
381.958	81.81
382.184	82.81
382.409	88.81
382.634	94.81
382.86	72.81
383.085	85.81
383.31	98.81
383.535	72.81
383.761	92.81
383.986	89.81
384.211	80.81
384.436	94.81
384.662	82.81
384.887	83.81
385.112	85.81
385.337	82.81
385.562	88.81
385.787	85.81
386.013	105.81
386.238	83.81
386.463	88.81
386.688	80.81
386.913	74.81
387.138	86.81
387.363	89.81
387.588	84.81
387.813	79.81
388.038	91.81
388.263	82.81
388.488	76.81
388.713	90.81
388.938	82.81
389.163	93.81
389.387	83.81
389.612	80.81
389.837	88.81
390.062	89.81
390.287	75.81
390.512	96.81
390.736	88.81
390.961	84.81
391.186	85.81
391.411	90.81
391.636	85.81
391.86	76.81
392.085	69.81
392.31	90.81
392.534	82.81
392.759	81.81
392.984	74.81
393.208	84.81
393.433	85.81
393.658	84.81
393.882	76.81
394.107	82.81
394.331	84.81
394.556	88.81
394.78	88.81
395.005	91.81
395.229	78.81
395.454	101.81
395.678	77.81
395.903	82.81
396.127	80.81
396.352	72.81
396.576	75.81
396.801	79.81
397.025	84.81
397.249	83.81
397.474	83.81
397.698	77.81
397.922	87.81
398.147	94.81
398.371	85.81
398.595	88.81
398.82	81.81
399.044	99.81
399.268	90.81
399.492	95.81
399.717	92.81
399.941	78.81
400.165	86.81
400.389	92.81
400.613	75.81
400.837	75.81
401.062	94.81
401.286	88.81
401.51	83.81
401.734	90.81
401.958	87.81
402.182	92.81
402.406	99.81
402.63	83.81
402.854	85.81
403.078	95.81
403.302	79.81
403.526	81.81
403.75	92.81
403.974	91.81
404.198	83.81
404.422	91.81
404.645	97.81
404.869	93.81
405.093	105.81
405.317	85.81
405.541	80.81
405.765	76.81
405.988	88.81
406.212	93.81
406.436	83.81
406.66	98.81
406.883	93.81
407.107	88.81
407.331	108.81
407.555	103.81
407.778	90.81
408.002	81.81
408.226	91.81
408.449	99.81
408.673	107.81
408.896	105.81
409.12	97.81
409.344	94.81
409.567	94.81
409.791	89.81
410.014	88.81
410.238	92.81
410.461	89.81
410.685	99.81
410.908	89.81
411.132	95.81
411.355	103.81
411.578	95.81
411.802	103.81
412.025	94.81
412.249	89.81
412.472	85.81
412.695	81.81
412.919	101.81
413.142	96.81
413.365	89.81
413.589	82.81
413.812	98.81
414.035	97.81
414.258	80.81
414.482	91.81
414.705	90.81
414.928	86.81
415.151	88.81
415.374	96.81
415.597	90.81
415.821	92.81
416.044	96.81
416.267	92.81
416.49	97.81
416.713	94.81
416.936	86.81
417.159	84.81
417.382	95.81
417.605	100.81
417.828	96.81
418.051	86.81
418.274	94.81
418.497	89.81
418.72	86.81
418.943	88.81
419.166	89.81
419.389	92.81
419.611	86.81
419.834	81.81
420.057	96.81
420.28	90.81
420.503	98.81
420.726	96.81
420.948	97.81
421.171	96.81
421.394	91.81
421.617	110.81
421.839	94.81
422.062	93.81
422.285	94.81
422.507	83.81
422.73	75.81
422.953	85.81
423.175	87.81
423.398	94.81
423.621	98.81
423.843	86.81
424.066	99.81
424.288	86.81
424.511	100.81
424.733	93.81
424.956	101.81
425.178	111.81
425.401	98.81
425.623	98.81
425.846	90.81
426.068	94.81
426.291	97.81
426.513	99.81
426.735	85.81
426.958	101.81
427.18	105.81
427.402	106.81
427.625	103.81
427.847	82.81
428.069	80.81
428.292	95.81
428.514	81.81
428.736	108.81
428.958	91.81
429.181	84.81
429.403	111.81
429.625	96.81
429.847	94.81
430.069	87.81
430.292	91.81
430.514	94.81
430.736	98.81
430.958	104.81
431.18	84.81
431.402	98.81
431.624	98.81
431.846	99.81
432.068	83.81
432.29	64.81
432.512	90.81
432.734	95.81
432.956	102.81
433.178	97.81
433.4	90.81
433.622	95.81
433.844	99.81
434.066	91.81
434.287	71.81
434.509	74.81
434.731	88.81
434.953	89.81
435.175	98.81
435.397	102.81
435.618	90.81
435.84	89.81
436.062	89.81
436.284	100.81
436.505	79.81
436.727	84.81
436.949	94.81
437.17	100.81
437.392	98.81
437.614	92.81
437.835	86.81
438.057	81.81
438.278	70.81
438.5	95.81
438.721	88.81
438.943	94.81
439.165	88.81
439.386	93.81
439.608	101.81
439.829	96.81
440.05	91.81
440.272	116.81
440.493	115.81
440.715	95.81
440.936	97.81
441.158	92.81
441.379	86.81
441.6	104.81
441.822	111.81
442.043	91.81
442.264	93.81
442.486	94.81
442.707	101.81
442.928	108.81
443.149	90.81
443.371	93.81
443.592	95.81
443.813	100.81
444.034	85.81
444.255	100.81
444.476	84.81
444.698	102.81
444.919	110.81
445.14	216.81
445.361	169.81
445.582	96.81
445.803	98.81
446.024	95.81
446.245	103.81
446.466	86.81
446.687	107.81
446.908	94.81
447.129	119.81
447.35	104.81
447.571	101.81
447.792	98.81
448.013	96.81
448.234	87.81
448.455	98.81
448.675	102.81
448.896	92.81
449.117	115.81
449.338	92.81
449.559	91.81
449.779	93.81
450	90.81
450.221	98.81
450.442	95.81
450.662	89.81
450.883	102.81
451.104	90.81
451.324	103.81
451.545	82.81
451.766	86.81
451.986	107.81
452.207	91.81
452.428	89.81
452.648	103.81
452.869	88.81
453.089	104.81
453.31	91.81
453.53	98.81
453.751	112.81
453.971	88.81
454.192	74.81
454.412	86.81
454.633	98.81
454.853	112.81
455.073	87.81
455.294	90.81
455.514	96.81
455.734	91.81
455.955	74.81
456.175	89.81
456.395	89.81
456.616	83.81
456.836	87.81
457.056	90.81
457.276	80.81
457.497	91.81
457.717	97.81
457.937	81.81
458.157	87.81
458.377	90.81
458.598	92.81
458.818	84.81
459.038	85.81
459.258	83.81
459.478	92.81
459.698	88.81
459.918	89.81
460.138	111.81
460.358	88.81
460.578	95.81
460.798	86.81
461.018	87.81
461.238	90.81
461.458	96.81
461.678	90.81
461.898	85.81
462.118	80.81
462.338	95.81
462.558	95.81
462.777	99.81
462.997	77.81
463.217	81.81
463.437	79.81
463.657	88.81
463.876	88.81
464.096	88.81
464.316	98.81
464.536	112.81
464.755	86.81
464.975	88.81
465.195	113.81
465.414	86.81
465.634	86.81
465.854	96.81
466.073	105.81
466.293	108.81
466.512	94.81
466.732	96.81
466.951	79.81
467.171	81.81
467.391	80.81
467.61	85.81
467.829	85.81
468.049	103.81
468.268	104.81
468.488	98.81
468.707	81.81
468.927	95.81
469.146	102.81
469.365	99.81
469.585	95.81
469.804	88.81
470.023	98.81
470.243	79.81
470.462	104.81
470.681	107.81
470.901	119.81
471.12	96.81
471.339	107.81
471.558	94.81
471.777	104.81
471.997	89.81
472.216	97.81
472.435	93.81
472.654	99.81
472.873	94.81
473.092	98.81
473.311	89.81
473.53	81.81
473.749	88.81
473.968	95.81
474.187	76.81
474.406	97.81
474.625	96.81
474.844	99.81
475.063	96.81
475.282	108.81
475.501	81.81
475.72	93.81
475.939	94.81
476.158	75.81
476.377	104.81
476.596	88.81
476.814	80.81
477.033	96.81
477.252	89.81
477.471	86.81
477.69	95.81
477.908	85.81
478.127	77.81
478.346	88.81
478.564	94.81
478.783	100.81
479.002	101.81
479.22	110.81
479.439	105.81
479.658	100.81
479.876	81.81
480.095	91.81
480.313	102.81
480.532	76.81
480.751	88.81
480.969	79.81
481.188	85.81
481.406	84.81
481.624	92.81
481.843	81.81
482.061	86.81
482.28	96.81
482.498	80.81
482.717	91.81
482.935	83.81
483.153	107.81
483.372	100.81
483.59	95.81
483.808	105.81
484.027	90.81
484.245	86.81
484.463	94.81
484.681	82.81
484.9	107.81
485.118	97.81
485.336	100.81
485.554	85.81
485.772	83.81
485.99	97.81
486.209	95.81
486.427	96.81
486.645	86.81
486.863	90.81
487.081	101.81
487.299	91.81
487.517	99.81
487.735	101.81
487.953	114.81
488.171	106.81
488.389	111.81
488.607	96.81
488.825	100.81
489.043	86.81
489.261	93.81
489.479	91.81
489.696	100.81
489.914	97.81
490.132	104.81
490.35	106.81
490.568	109.81
490.786	102.81
491.003	122.81
491.221	102.81
491.439	102.81
491.657	114.81
491.874	115.81
492.092	128.81
492.31	113.81
492.527	126.81
492.745	120.81
492.963	110.81
493.18	100.81
493.398	96.81
493.615	112.81
493.833	107.81
494.05	102.81
494.268	96.81
494.485	113.81
494.703	108.81
494.92	121.81
495.138	112.81
495.355	101.81
495.573	112.81
495.79	104.81
496.008	128.81
496.225	99.81
496.442	108.81
496.66	97.81
496.877	113.81
497.094	123.81
497.312	97.81
497.529	96.81
497.746	101.81
497.963	88.81
498.181	102.81
498.398	92.81
498.615	86.81
498.832	93.81
499.049	89.81
499.267	97.81
499.484	98.81
499.701	100.81
499.918	102.81
500.135	93.81
500.352	96.81
500.569	92.81
500.786	96.81
501.003	102.81
501.22	95.81
501.437	93.81
501.654	106.81
501.871	101.81
502.088	109.81
502.305	96.81
502.522	96.81
502.739	94.81
502.956	84.81
503.172	95.81
503.389	78.81
503.606	91.81
503.823	84.81
504.04	103.81
504.256	114.81
504.473	92.81
504.69	93.81
504.907	92.81
505.123	118.81
505.34	94.81
505.557	79.81
505.773	89.81
505.99	96.81
506.207	95.81
506.423	88.81
506.64	102.81
506.856	74.81
507.073	91.81
507.289	101.81
507.506	93.81
507.722	90.81
507.939	100.81
508.155	101.81
508.372	75.81
508.588	92.81
508.805	101.81
509.021	86.81
509.238	92.81
509.454	83.81
509.67	81.81
509.887	81.81
510.103	97.81
510.319	91.81
510.536	84.81
510.752	69.81
510.968	73.81
511.184	80.81
511.401	76.81
511.617	92.81
511.833	72.81
512.049	87.81
512.265	95.81
512.481	83.81
512.698	78.81
512.914	84.81
513.13	80.81
513.346	95.81
513.562	84.81
513.778	75.81
513.994	86.81
514.21	88.81
514.426	96.81
514.642	88.81
514.858	87.81
515.074	97.81
515.29	82.81
515.506	81.81
515.721	87.81
515.937	74.81
516.153	82.81
516.369	87.81
516.585	89.81
516.801	82.81
517.016	81.81
517.232	69.81
517.448	97.81
517.664	87.81
