Data from Location3.07152019.Energy5.Lamp.07192019.3%Agarose_HRD10591_15-18-55-270.txt Node
Date: Fri Jul 19 15:18:55 EDT 2019
User: cochatt
Spectrometer: HR+D1059
Trigger mode: 1
Integration Time (sec): 1.000000E-1
Scans to average: 1
Electric dark correction enabled: true
Nonlinearity correction enabled: false
Boxcar width: 0
XAxis mode: Wavelengths
Number of Pixels in Spectrum: 2048
>>>>>Begin Spectral Data<<<<<
223.165	-16.88
223.4	-16.88
223.635	-16.88
223.869	-12.88
224.104	-22.88
224.338	-14.88
224.573	-24.88
224.808	-12.88
225.042	1.12
225.277	0.12
225.511	-12.88
225.746	-3.88
225.98	8.12
226.215	20.12
226.449	12.12
226.683	27.12
226.918	30.12
227.152	23.12
227.387	40.12
227.621	32.12
227.856	38.12
228.09	57.12
228.324	44.12
228.559	57.12
228.793	52.12
229.027	54.12
229.262	59.12
229.496	66.12
229.73	67.12
229.964	65.12
230.199	66.12
230.433	67.12
230.667	67.12
230.901	80.12
231.136	80.12
231.37	75.12
231.604	75.12
231.838	85.12
232.072	87.12
232.306	89.12
232.541	74.12
232.775	77.12
233.009	66.12
233.243	84.12
233.477	97.12
233.711	76.12
233.945	79.12
234.179	67.12
234.413	81.12
234.647	83.12
234.881	70.12
235.115	67.12
235.349	83.12
235.583	79.12
235.817	87.12
236.051	83.12
236.285	80.12
236.519	84.12
236.753	81.12
236.987	85.12
237.221	75.12
237.455	92.12
237.689	69.12
237.922	84.12
238.156	77.12
238.39	82.12
238.624	79.12
238.858	86.12
239.091	78.12
239.325	72.12
239.559	66.12
239.793	89.12
240.027	87.12
240.26	78.12
240.494	74.12
240.728	77.12
240.961	59.12
241.195	76.12
241.429	89.12
241.662	89.12
241.896	68.12
242.13	79.12
242.363	80.12
242.597	92.12
242.83	79.12
243.064	76.12
243.298	86.12
243.531	80.12
243.765	81.12
243.998	77.12
244.232	79.12
244.465	77.12
244.699	60.12
244.932	74.12
245.166	78.12
245.399	94.12
245.633	75.12
245.866	86.12
246.099	79.12
246.333	89.12
246.566	76.12
246.8	80.12
247.033	75.12
247.266	85.12
247.5	70.12
247.733	73.12
247.966	86.12
248.2	78.12
248.433	74.12
248.666	88.12
248.899	67.12
249.133	72.12
249.366	85.12
249.599	85.12
249.832	76.12
250.066	80.12
250.299	68.12
250.532	80.12
250.765	72.12
250.998	62.12
251.231	80.12
251.465	90.12
251.698	84.12
251.931	84.12
252.164	82.12
252.397	73.12
252.63	71.12
252.863	75.12
253.096	76.12
253.329	81.12
253.562	82.12
253.795	89.12
254.028	74.12
254.261	66.12
254.494	76.12
254.727	88.12
254.96	82.12
255.193	78.12
255.426	88.12
255.659	82.12
255.892	82.12
256.124	73.12
256.357	94.12
256.59	75.12
256.823	75.12
257.056	82.12
257.289	79.12
257.521	75.12
257.754	82.12
257.987	90.12
258.22	92.12
258.452	68.12
258.685	81.12
258.918	90.12
259.151	92.12
259.383	88.12
259.616	90.12
259.849	78.12
260.081	76.12
260.314	69.12
260.547	74.12
260.779	86.12
261.012	73.12
261.244	85.12
261.477	85.12
261.71	93.12
261.942	77.12
262.175	91.12
262.407	81.12
262.64	75.12
262.872	88.12
263.105	73.12
263.337	97.12
263.57	73.12
263.802	86.12
264.035	88.12
264.267	87.12
264.499	78.12
264.732	72.12
264.964	67.12
265.197	81.12
265.429	69.12
265.661	84.12
265.894	87.12
266.126	75.12
266.358	85.12
266.591	86.12
266.823	85.12
267.055	77.12
267.287	90.12
267.52	76.12
267.752	64.12
267.984	85.12
268.216	74.12
268.448	73.12
268.681	82.12
268.913	66.12
269.145	72.12
269.377	83.12
269.609	76.12
269.841	97.12
270.073	85.12
270.306	79.12
270.538	86.12
270.77	86.12
271.002	75.12
271.234	88.12
271.466	88.12
271.698	91.12
271.93	78.12
272.162	78.12
272.394	82.12
272.626	78.12
272.858	88.12
273.09	70.12
273.322	80.12
273.553	94.12
273.785	82.12
274.017	73.12
274.249	79.12
274.481	75.12
274.713	92.12
274.945	74.12
275.176	83.12
275.408	87.12
275.64	98.12
275.872	92.12
276.104	86.12
276.335	78.12
276.567	71.12
276.799	96.12
277.031	83.12
277.262	89.12
277.494	80.12
277.726	86.12
277.957	89.12
278.189	85.12
278.421	70.12
278.652	71.12
278.884	93.12
279.115	71.12
279.347	84.12
279.579	87.12
279.81	85.12
280.042	91.12
280.273	83.12
280.505	96.12
280.736	84.12
280.968	86.12
281.199	93.12
281.431	81.12
281.662	67.12
281.894	84.12
282.125	74.12
282.356	79.12
282.588	85.12
282.819	82.12
283.051	95.12
283.282	86.12
283.513	88.12
283.745	90.12
283.976	82.12
284.207	72.12
284.439	83.12
284.67	93.12
284.901	83.12
285.132	77.12
285.364	91.12
285.595	85.12
285.826	86.12
286.057	85.12
286.288	90.12
286.52	77.12
286.751	87.12
286.982	77.12
287.213	81.12
287.444	88.12
287.675	85.12
287.906	85.12
288.138	83.12
288.369	81.12
288.6	96.12
288.831	89.12
289.062	77.12
289.293	84.12
289.524	90.12
289.755	86.12
289.986	89.12
290.217	83.12
290.448	84.12
290.679	90.12
290.91	89.12
291.141	90.12
291.371	88.12
291.602	87.12
291.833	78.12
292.064	88.12
292.295	97.12
292.526	75.12
292.757	81.12
292.987	91.12
293.218	99.12
293.449	85.12
293.68	83.12
293.91	91.12
294.141	94.12
294.372	98.12
294.603	87.12
294.833	84.12
295.064	84.12
295.295	107.12
295.525	93.12
295.756	88.12
295.987	91.12
296.217	79.12
296.448	87.12
296.679	85.12
296.909	82.12
297.14	77.12
297.37	103.12
297.601	90.12
297.831	73.12
298.062	87.12
298.292	76.12
298.523	78.12
298.753	82.12
298.984	88.12
299.214	96.12
299.445	89.12
299.675	87.12
299.905	76.12
300.136	92.12
300.366	89.12
300.597	92.12
300.827	85.12
301.057	86.12
301.288	68.12
301.518	73.12
301.748	97.12
301.979	83.12
302.209	66.12
302.439	86.12
302.669	79.12
302.9	88.12
303.13	83.12
303.36	86.12
303.59	68.12
303.82	94.12
304.051	89.12
304.281	79.12
304.511	97.12
304.741	95.12
304.971	81.12
305.201	98.12
305.431	78.12
305.661	91.12
305.891	79.12
306.121	87.12
306.352	86.12
306.582	89.12
306.812	87.12
307.042	92.12
307.272	85.12
307.502	81.12
307.731	83.12
307.961	90.12
308.191	90.12
308.421	97.12
308.651	85.12
308.881	105.12
309.111	85.12
309.341	86.12
309.571	98.12
309.8	102.12
310.03	80.12
310.26	102.12
310.49	81.12
310.72	81.12
310.949	84.12
311.179	86.12
311.409	79.12
311.639	86.12
311.868	86.12
312.098	78.12
312.328	87.12
312.557	85.12
312.787	68.12
313.017	89.12
313.246	81.12
313.476	86.12
313.706	96.12
313.935	97.12
314.165	76.12
314.394	93.12
314.624	85.12
314.853	96.12
315.083	79.12
315.312	79.12
315.542	88.12
315.771	90.12
316.001	80.12
316.23	95.12
316.46	90.12
316.689	77.12
316.919	88.12
317.148	91.12
317.377	93.12
317.607	101.12
317.836	81.12
318.065	91.12
318.295	103.12
318.524	71.12
318.753	80.12
318.983	81.12
319.212	76.12
319.441	83.12
319.67	84.12
319.9	90.12
320.129	91.12
320.358	77.12
320.587	93.12
320.816	84.12
321.046	73.12
321.275	87.12
321.504	89.12
321.733	82.12
321.962	76.12
322.191	82.12
322.42	79.12
322.649	86.12
322.878	77.12
323.108	93.12
323.337	99.12
323.566	84.12
323.795	81.12
324.024	92.12
324.253	80.12
324.482	87.12
324.71	73.12
324.939	64.12
325.168	88.12
325.397	82.12
325.626	71.12
325.855	84.12
326.084	86.12
326.313	84.12
326.542	80.12
326.77	83.12
326.999	83.12
327.228	85.12
327.457	88.12
327.686	82.12
327.914	98.12
328.143	76.12
328.372	86.12
328.6	83.12
328.829	88.12
329.058	76.12
329.287	84.12
329.515	93.12
329.744	87.12
329.972	85.12
330.201	73.12
330.43	84.12
330.658	91.12
330.887	83.12
331.115	70.12
331.344	92.12
331.572	100.12
331.801	87.12
332.03	83.12
332.258	84.12
332.486	76.12
332.715	90.12
332.943	80.12
333.172	89.12
333.4	92.12
333.629	87.12
333.857	87.12
334.085	96.12
334.314	89.12
334.542	106.12
334.771	94.12
334.999	83.12
335.227	76.12
335.455	78.12
335.684	85.12
335.912	82.12
336.14	86.12
336.369	88.12
336.597	71.12
336.825	76.12
337.053	74.12
337.281	83.12
337.51	86.12
337.738	75.12
337.966	88.12
338.194	73.12
338.422	88.12
338.65	88.12
338.878	81.12
339.106	86.12
339.334	93.12
339.562	76.12
339.79	82.12
340.018	99.12
340.246	81.12
340.474	89.12
340.702	90.12
340.93	83.12
341.158	96.12
341.386	83.12
341.614	77.12
341.842	74.12
342.07	92.12
342.298	99.12
342.526	76.12
342.754	81.12
342.981	78.12
343.209	90.12
343.437	97.12
343.665	87.12
343.893	81.12
344.12	87.12
344.348	90.12
344.576	93.12
344.804	87.12
345.031	99.12
345.259	88.12
345.487	84.12
345.714	83.12
345.942	96.12
346.17	81.12
346.397	84.12
346.625	91.12
346.853	88.12
347.08	77.12
347.308	85.12
347.535	84.12
347.763	84.12
347.99	84.12
348.218	82.12
348.445	88.12
348.673	84.12
348.9	87.12
349.128	88.12
349.355	81.12
349.583	78.12
349.81	81.12
350.037	85.12
350.265	78.12
350.492	91.12
350.72	89.12
350.947	89.12
351.174	89.12
351.402	97.12
351.629	106.12
351.856	97.12
352.083	90.12
352.311	89.12
352.538	93.12
352.765	88.12
352.992	97.12
353.22	80.12
353.447	76.12
353.674	78.12
353.901	84.12
354.128	74.12
354.355	76.12
354.583	83.12
354.81	75.12
355.037	91.12
355.264	81.12
355.491	87.12
355.718	90.12
355.945	88.12
356.172	87.12
356.399	78.12
356.626	86.12
356.853	85.12
357.08	88.12
357.307	82.12
357.534	79.12
357.761	76.12
357.988	78.12
358.215	77.12
358.441	83.12
358.668	82.12
358.895	90.12
359.122	83.12
359.349	92.12
359.576	97.12
359.802	76.12
360.029	81.12
360.256	77.12
360.483	83.12
360.709	74.12
360.936	86.12
361.163	65.12
361.39	78.12
361.616	98.12
361.843	98.12
362.07	73.12
362.296	87.12
362.523	68.12
362.749	89.12
362.976	82.12
363.203	76.12
363.429	84.12
363.656	94.12
363.882	75.12
364.109	82.12
364.335	100.12
364.562	80.12
364.788	76.12
365.015	81.12
365.241	82.12
365.468	85.12
365.694	78.12
365.92	90.12
366.147	80.12
366.373	102.12
366.599	71.12
366.826	68.12
367.052	76.12
367.278	89.12
367.505	83.12
367.731	90.12
367.957	82.12
368.184	94.12
368.41	85.12
368.636	75.12
368.862	82.12
369.089	92.12
369.315	90.12
369.541	79.12
369.767	77.12
369.993	92.12
370.219	90.12
370.445	79.12
370.672	93.12
370.898	78.12
371.124	76.12
371.35	89.12
371.576	74.12
371.802	87.12
372.028	86.12
372.254	86.12
372.48	80.12
372.706	67.12
372.932	83.12
373.158	95.12
373.384	79.12
373.61	90.12
373.835	96.12
374.061	103.12
374.287	82.12
374.513	87.12
374.739	85.12
374.965	75.12
375.191	92.12
375.416	83.12
375.642	88.12
375.868	75.12
376.094	92.12
376.319	89.12
376.545	88.12
376.771	73.12
376.997	77.12
377.222	78.12
377.448	94.12
377.674	81.12
377.899	92.12
378.125	80.12
378.35	90.12
378.576	76.12
378.802	93.12
379.027	84.12
379.253	92.12
379.478	88.12
379.704	88.12
379.929	80.12
380.155	88.12
380.38	87.12
380.606	87.12
380.831	70.12
381.057	81.12
381.282	95.12
381.507	80.12
381.733	82.12
381.958	81.12
382.184	72.12
382.409	95.12
382.634	93.12
382.86	86.12
383.085	88.12
383.31	82.12
383.535	88.12
383.761	102.12
383.986	84.12
384.211	88.12
384.436	83.12
384.662	87.12
384.887	73.12
385.112	81.12
385.337	101.12
385.562	70.12
385.787	84.12
386.013	93.12
386.238	96.12
386.463	80.12
386.688	87.12
386.913	80.12
387.138	76.12
387.363	86.12
387.588	88.12
387.813	100.12
388.038	86.12
388.263	87.12
388.488	81.12
388.713	98.12
388.938	79.12
389.163	80.12
389.387	87.12
389.612	97.12
389.837	94.12
390.062	102.12
390.287	72.12
390.512	81.12
390.736	90.12
390.961	76.12
391.186	82.12
391.411	86.12
391.636	89.12
391.86	88.12
392.085	87.12
392.31	89.12
392.534	81.12
392.759	85.12
392.984	91.12
393.208	88.12
393.433	84.12
393.658	74.12
393.882	88.12
394.107	86.12
394.331	82.12
394.556	83.12
394.78	85.12
395.005	77.12
395.229	84.12
395.454	93.12
395.678	94.12
395.903	101.12
396.127	102.12
396.352	70.12
396.576	81.12
396.801	85.12
397.025	69.12
397.249	86.12
397.474	81.12
397.698	77.12
397.922	73.12
398.147	75.12
398.371	84.12
398.595	87.12
398.82	83.12
399.044	78.12
399.268	89.12
399.492	82.12
399.717	103.12
399.941	90.12
400.165	87.12
400.389	74.12
400.613	90.12
400.837	100.12
401.062	102.12
401.286	99.12
401.51	83.12
401.734	81.12
401.958	89.12
402.182	73.12
402.406	79.12
402.63	84.12
402.854	83.12
403.078	96.12
403.302	87.12
403.526	88.12
403.75	80.12
403.974	87.12
404.198	98.12
404.422	93.12
404.645	85.12
404.869	96.12
405.093	86.12
405.317	100.12
405.541	86.12
405.765	90.12
405.988	107.12
406.212	102.12
406.436	86.12
406.66	86.12
406.883	87.12
407.107	89.12
407.331	98.12
407.555	91.12
407.778	89.12
408.002	103.12
408.226	97.12
408.449	108.12
408.673	77.12
408.896	81.12
409.12	72.12
409.344	100.12
409.567	88.12
409.791	92.12
410.014	87.12
410.238	92.12
410.461	90.12
410.685	93.12
410.908	96.12
411.132	77.12
411.355	100.12
411.578	89.12
411.802	83.12
412.025	93.12
412.249	90.12
412.472	100.12
412.695	86.12
412.919	90.12
413.142	83.12
413.365	97.12
413.589	89.12
413.812	82.12
414.035	87.12
414.258	94.12
414.482	87.12
414.705	93.12
414.928	101.12
415.151	105.12
415.374	101.12
415.597	93.12
415.821	90.12
416.044	91.12
416.267	107.12
416.49	90.12
416.713	90.12
416.936	101.12
417.159	103.12
417.382	83.12
417.605	82.12
417.828	92.12
418.051	99.12
418.274	115.12
418.497	91.12
418.72	76.12
418.943	95.12
419.166	95.12
419.389	103.12
419.611	94.12
419.834	96.12
420.057	91.12
420.28	97.12
420.503	95.12
420.726	95.12
420.948	96.12
421.171	87.12
421.394	105.12
421.617	101.12
421.839	98.12
422.062	104.12
422.285	95.12
422.507	96.12
422.73	101.12
422.953	93.12
423.175	86.12
423.398	95.12
423.621	90.12
423.843	74.12
424.066	92.12
424.288	94.12
424.511	86.12
424.733	94.12
424.956	76.12
425.178	97.12
425.401	96.12
425.623	82.12
425.846	96.12
426.068	102.12
426.291	84.12
426.513	94.12
426.735	101.12
426.958	95.12
427.18	94.12
427.402	89.12
427.625	88.12
427.847	108.12
428.069	81.12
428.292	90.12
428.514	88.12
428.736	90.12
428.958	97.12
429.181	89.12
429.403	86.12
429.625	94.12
429.847	88.12
430.069	95.12
430.292	110.12
430.514	95.12
430.736	102.12
430.958	96.12
431.18	91.12
431.402	104.12
431.624	92.12
431.846	95.12
432.068	81.12
432.29	85.12
432.512	92.12
432.734	91.12
432.956	96.12
433.178	94.12
433.4	86.12
433.622	104.12
433.844	94.12
434.066	93.12
434.287	95.12
434.509	100.12
434.731	99.12
434.953	96.12
435.175	91.12
435.397	87.12
435.618	102.12
435.84	77.12
436.062	89.12
436.284	99.12
436.505	88.12
436.727	112.12
436.949	100.12
437.17	87.12
437.392	88.12
437.614	89.12
437.835	104.12
438.057	96.12
438.278	87.12
438.5	87.12
438.721	95.12
438.943	90.12
439.165	100.12
439.386	90.12
439.608	106.12
439.829	98.12
440.05	99.12
440.272	90.12
440.493	102.12
440.715	103.12
440.936	95.12
441.158	102.12
441.379	107.12
441.6	102.12
441.822	93.12
442.043	113.12
442.264	99.12
442.486	95.12
442.707	120.12
442.928	86.12
443.149	106.12
443.371	76.12
443.592	93.12
443.813	75.12
444.034	109.12
444.255	120.12
444.476	101.12
444.698	100.12
444.919	101.12
445.14	216.12
445.361	149.12
445.582	106.12
445.803	102.12
446.024	100.12
446.245	101.12
446.466	102.12
446.687	102.12
446.908	105.12
447.129	96.12
447.35	99.12
447.571	105.12
447.792	96.12
448.013	105.12
448.234	112.12
448.455	101.12
448.675	85.12
448.896	93.12
449.117	105.12
449.338	111.12
449.559	88.12
449.779	95.12
450	92.12
450.221	97.12
450.442	98.12
450.662	102.12
450.883	94.12
451.104	81.12
451.324	92.12
451.545	96.12
451.766	102.12
451.986	113.12
452.207	103.12
452.428	93.12
452.648	104.12
452.869	91.12
453.089	79.12
453.31	84.12
453.53	65.12
453.751	76.12
453.971	87.12
454.192	69.12
454.412	85.12
454.633	90.12
454.853	80.12
455.073	86.12
455.294	95.12
455.514	89.12
455.734	106.12
455.955	93.12
456.175	77.12
456.395	88.12
456.616	79.12
456.836	94.12
457.056	83.12
457.276	105.12
457.497	95.12
457.717	97.12
457.937	76.12
458.157	87.12
458.377	79.12
458.598	80.12
458.818	89.12
459.038	75.12
459.258	85.12
459.478	91.12
459.698	86.12
459.918	86.12
460.138	84.12
460.358	89.12
460.578	84.12
460.798	99.12
461.018	96.12
461.238	85.12
461.458	93.12
461.678	98.12
461.898	101.12
462.118	87.12
462.338	95.12
462.558	83.12
462.777	79.12
462.997	89.12
463.217	96.12
463.437	88.12
463.657	99.12
463.876	89.12
464.096	93.12
464.316	87.12
464.536	76.12
464.755	84.12
464.975	95.12
465.195	95.12
465.414	92.12
465.634	92.12
465.854	95.12
466.073	94.12
466.293	98.12
466.512	96.12
466.732	96.12
466.951	97.12
467.171	85.12
467.391	89.12
467.61	92.12
467.829	98.12
468.049	83.12
468.268	91.12
468.488	87.12
468.707	95.12
468.927	97.12
469.146	100.12
469.365	96.12
469.585	97.12
469.804	97.12
470.023	93.12
470.243	104.12
470.462	99.12
470.681	98.12
470.901	92.12
471.12	86.12
471.339	92.12
471.558	93.12
471.777	94.12
471.997	89.12
472.216	106.12
472.435	91.12
472.654	88.12
472.873	79.12
473.092	87.12
473.311	99.12
473.53	80.12
473.749	90.12
473.968	104.12
474.187	95.12
474.406	80.12
474.625	90.12
474.844	103.12
475.063	92.12
475.282	91.12
475.501	100.12
475.72	104.12
475.939	80.12
476.158	105.12
476.377	89.12
476.596	95.12
476.814	84.12
477.033	101.12
477.252	84.12
477.471	92.12
477.69	91.12
477.908	98.12
478.127	96.12
478.346	91.12
478.564	106.12
478.783	99.12
479.002	109.12
479.22	99.12
479.439	86.12
479.658	83.12
479.876	88.12
480.095	96.12
480.313	77.12
480.532	91.12
480.751	88.12
480.969	87.12
481.188	81.12
481.406	93.12
481.624	84.12
481.843	88.12
482.061	75.12
482.28	90.12
482.498	90.12
482.717	91.12
482.935	90.12
483.153	114.12
483.372	103.12
483.59	101.12
483.808	88.12
484.027	86.12
484.245	85.12
484.463	100.12
484.681	103.12
484.9	104.12
485.118	90.12
485.336	99.12
485.554	89.12
485.772	94.12
485.99	73.12
486.209	81.12
486.427	73.12
486.645	82.12
486.863	111.12
487.081	116.12
487.299	105.12
487.517	99.12
487.735	105.12
487.953	121.12
488.171	121.12
488.389	90.12
488.607	108.12
488.825	100.12
489.043	102.12
489.261	102.12
489.479	98.12
489.696	110.12
489.914	106.12
490.132	95.12
490.35	118.12
490.568	99.12
490.786	115.12
491.003	109.12
491.221	125.12
491.439	102.12
491.657	115.12
491.874	113.12
492.092	109.12
492.31	115.12
492.527	125.12
492.745	116.12
492.963	118.12
493.18	120.12
493.398	123.12
493.615	112.12
493.833	115.12
494.05	121.12
494.268	105.12
494.485	104.12
494.703	111.12
494.92	100.12
495.138	103.12
495.355	119.12
495.573	101.12
495.79	113.12
496.008	111.12
496.225	95.12
496.442	104.12
496.66	116.12
496.877	101.12
497.094	109.12
497.312	119.12
497.529	103.12
497.746	96.12
497.963	103.12
498.181	98.12
498.398	87.12
498.615	92.12
498.832	97.12
499.049	89.12
499.267	97.12
499.484	102.12
499.701	96.12
499.918	95.12
500.135	91.12
500.352	102.12
500.569	100.12
500.786	104.12
501.003	108.12
501.22	107.12
501.437	93.12
501.654	93.12
501.871	87.12
502.088	113.12
502.305	115.12
502.522	102.12
502.739	101.12
502.956	94.12
503.172	96.12
503.389	99.12
503.606	91.12
503.823	96.12
504.04	99.12
504.256	84.12
504.473	85.12
504.69	88.12
504.907	92.12
505.123	84.12
505.34	99.12
505.557	90.12
505.773	97.12
505.99	81.12
506.207	99.12
506.423	90.12
506.64	98.12
506.856	93.12
507.073	75.12
507.289	96.12
507.506	94.12
507.722	106.12
507.939	89.12
508.155	93.12
508.372	95.12
508.588	84.12
508.805	95.12
509.021	91.12
509.238	83.12
509.454	86.12
509.67	82.12
509.887	81.12
510.103	84.12
510.319	85.12
510.536	90.12
510.752	89.12
510.968	96.12
511.184	85.12
511.401	81.12
511.617	84.12
511.833	91.12
512.049	85.12
512.265	79.12
512.481	67.12
512.698	77.12
512.914	88.12
513.13	88.12
513.346	88.12
513.562	91.12
513.778	94.12
513.994	96.12
514.21	88.12
514.426	94.12
514.642	95.12
514.858	97.12
515.074	89.12
515.29	95.12
515.506	87.12
515.721	80.12
515.937	87.12
516.153	76.12
516.369	77.12
516.585	83.12
516.801	81.12
517.016	96.12
517.232	84.12
