Data from Location3.07152019.Energy5.Lamp.07192019.3%Agarose_HRD10591_15-19-18-269.txt Node
Date: Fri Jul 19 15:19:18 EDT 2019
User: cochatt
Spectrometer: HR+D1059
Trigger mode: 1
Integration Time (sec): 1.000000E-1
Scans to average: 1
Electric dark correction enabled: true
Nonlinearity correction enabled: false
Boxcar width: 0
XAxis mode: Wavelengths
Number of Pixels in Spectrum: 2048
>>>>>Begin Spectral Data<<<<<
223.165	-13.19
223.4	-13.19
223.635	-13.19
223.869	-5.19
224.104	-13.19
224.338	-13.19
224.573	-12.19
224.808	-1.19
225.042	-21.19
225.277	-9.19
225.511	-11.19
225.746	20.81
225.98	7.81
226.215	22.81
226.449	-7.19
226.683	17.81
226.918	6.81
227.152	30.81
227.387	35.81
227.621	33.81
227.856	48.81
228.09	68.81
228.324	54.81
228.559	58.81
228.793	49.81
229.027	57.81
229.262	42.81
229.496	71.81
229.73	56.81
229.964	67.81
230.199	76.81
230.433	89.81
230.667	80.81
230.901	83.81
231.136	81.81
231.37	66.81
231.604	60.81
231.838	79.81
232.072	82.81
232.306	96.81
232.541	86.81
232.775	82.81
233.009	90.81
233.243	84.81
233.477	92.81
233.711	79.81
233.945	78.81
234.179	76.81
234.413	78.81
234.647	66.81
234.881	86.81
235.115	80.81
235.349	80.81
235.583	83.81
235.817	82.81
236.051	75.81
236.285	74.81
236.519	87.81
236.753	73.81
236.987	82.81
237.221	87.81
237.455	77.81
237.689	75.81
237.922	88.81
238.156	79.81
238.39	72.81
238.624	76.81
238.858	94.81
239.091	88.81
239.325	86.81
239.559	73.81
239.793	77.81
240.027	71.81
240.26	75.81
240.494	81.81
240.728	80.81
240.961	73.81
241.195	74.81
241.429	62.81
241.662	83.81
241.896	80.81
242.13	87.81
242.363	81.81
242.597	75.81
242.83	81.81
243.064	78.81
243.298	76.81
243.531	77.81
243.765	71.81
243.998	88.81
244.232	73.81
244.465	81.81
244.699	81.81
244.932	82.81
245.166	73.81
245.399	78.81
245.633	75.81
245.866	76.81
246.099	62.81
246.333	84.81
246.566	77.81
246.8	80.81
247.033	82.81
247.266	60.81
247.5	80.81
247.733	87.81
247.966	78.81
248.2	78.81
248.433	68.81
248.666	67.81
248.899	90.81
249.133	75.81
249.366	82.81
249.599	69.81
249.832	72.81
250.066	92.81
250.299	69.81
250.532	67.81
250.765	84.81
250.998	77.81
251.231	84.81
251.465	91.81
251.698	91.81
251.931	68.81
252.164	86.81
252.397	86.81
252.63	86.81
252.863	93.81
253.096	93.81
253.329	84.81
253.562	76.81
253.795	84.81
254.028	87.81
254.261	81.81
254.494	70.81
254.727	72.81
254.96	70.81
255.193	89.81
255.426	75.81
255.659	71.81
255.892	79.81
256.124	74.81
256.357	88.81
256.59	79.81
256.823	83.81
257.056	79.81
257.289	80.81
257.521	93.81
257.754	74.81
257.987	92.81
258.22	84.81
258.452	79.81
258.685	94.81
258.918	75.81
259.151	84.81
259.383	96.81
259.616	83.81
259.849	73.81
260.081	82.81
260.314	80.81
260.547	78.81
260.779	81.81
261.012	82.81
261.244	84.81
261.477	74.81
261.71	72.81
261.942	71.81
262.175	82.81
262.407	85.81
262.64	85.81
262.872	83.81
263.105	82.81
263.337	71.81
263.57	66.81
263.802	79.81
264.035	78.81
264.267	78.81
264.499	75.81
264.732	86.81
264.964	77.81
265.197	78.81
265.429	76.81
265.661	94.81
265.894	80.81
266.126	83.81
266.358	88.81
266.591	98.81
266.823	75.81
267.055	82.81
267.287	88.81
267.52	81.81
267.752	76.81
267.984	82.81
268.216	84.81
268.448	77.81
268.681	86.81
268.913	85.81
269.145	86.81
269.377	82.81
269.609	94.81
269.841	80.81
270.073	94.81
270.306	86.81
270.538	84.81
270.77	76.81
271.002	74.81
271.234	83.81
271.466	88.81
271.698	99.81
271.93	74.81
272.162	77.81
272.394	84.81
272.626	95.81
272.858	78.81
273.09	89.81
273.322	91.81
273.553	75.81
273.785	78.81
274.017	83.81
274.249	80.81
274.481	64.81
274.713	75.81
274.945	84.81
275.176	70.81
275.408	83.81
275.64	78.81
275.872	87.81
276.104	76.81
276.335	75.81
276.567	72.81
276.799	72.81
277.031	82.81
277.262	75.81
277.494	85.81
277.726	78.81
277.957	73.81
278.189	94.81
278.421	76.81
278.652	63.81
278.884	83.81
279.115	90.81
279.347	84.81
279.579	71.81
279.81	69.81
280.042	89.81
280.273	80.81
280.505	77.81
280.736	79.81
280.968	79.81
281.199	87.81
281.431	88.81
281.662	82.81
281.894	77.81
282.125	81.81
282.356	86.81
282.588	87.81
282.819	91.81
283.051	85.81
283.282	84.81
283.513	95.81
283.745	85.81
283.976	84.81
284.207	93.81
284.439	86.81
284.67	95.81
284.901	81.81
285.132	91.81
285.364	82.81
285.595	80.81
285.826	83.81
286.057	88.81
286.288	83.81
286.52	83.81
286.751	76.81
286.982	83.81
287.213	85.81
287.444	83.81
287.675	91.81
287.906	82.81
288.138	75.81
288.369	88.81
288.6	96.81
288.831	98.81
289.062	86.81
289.293	91.81
289.524	88.81
289.755	94.81
289.986	87.81
290.217	81.81
290.448	73.81
290.679	76.81
290.91	91.81
291.141	71.81
291.371	90.81
291.602	82.81
291.833	81.81
292.064	94.81
292.295	84.81
292.526	75.81
292.757	82.81
292.987	83.81
293.218	81.81
293.449	82.81
293.68	87.81
293.91	101.81
294.141	89.81
294.372	83.81
294.603	79.81
294.833	97.81
295.064	79.81
295.295	90.81
295.525	76.81
295.756	75.81
295.987	81.81
296.217	69.81
296.448	73.81
296.679	94.81
296.909	86.81
297.14	83.81
297.37	84.81
297.601	88.81
297.831	69.81
298.062	91.81
298.292	70.81
298.523	79.81
298.753	95.81
298.984	90.81
299.214	95.81
299.445	96.81
299.675	72.81
299.905	82.81
300.136	90.81
300.366	87.81
300.597	94.81
300.827	91.81
301.057	77.81
301.288	82.81
301.518	77.81
301.748	88.81
301.979	82.81
302.209	74.81
302.439	70.81
302.669	93.81
302.9	74.81
303.13	86.81
303.36	81.81
303.59	88.81
303.82	93.81
304.051	75.81
304.281	83.81
304.511	94.81
304.741	89.81
304.971	79.81
305.201	79.81
305.431	81.81
305.661	83.81
305.891	79.81
306.121	76.81
306.352	85.81
306.582	83.81
306.812	78.81
307.042	76.81
307.272	88.81
307.502	83.81
307.731	83.81
307.961	87.81
308.191	90.81
308.421	94.81
308.651	95.81
308.881	74.81
309.111	82.81
309.341	83.81
309.571	83.81
309.8	79.81
310.03	92.81
310.26	87.81
310.49	90.81
310.72	97.81
310.949	87.81
311.179	76.81
311.409	78.81
311.639	76.81
311.868	79.81
312.098	91.81
312.328	94.81
312.557	87.81
312.787	90.81
313.017	71.81
313.246	77.81
313.476	78.81
313.706	81.81
313.935	81.81
314.165	82.81
314.394	78.81
314.624	102.81
314.853	72.81
315.083	84.81
315.312	83.81
315.542	87.81
315.771	85.81
316.001	96.81
316.23	89.81
316.46	78.81
316.689	94.81
316.919	87.81
317.148	94.81
317.377	80.81
317.607	89.81
317.836	91.81
318.065	98.81
318.295	89.81
318.524	85.81
318.753	79.81
318.983	82.81
319.212	72.81
319.441	91.81
319.67	83.81
319.9	83.81
320.129	84.81
320.358	80.81
320.587	81.81
320.816	81.81
321.046	81.81
321.275	88.81
321.504	86.81
321.733	83.81
321.962	89.81
322.191	74.81
322.42	82.81
322.649	101.81
322.878	78.81
323.108	98.81
323.337	104.81
323.566	88.81
323.795	86.81
324.024	86.81
324.253	92.81
324.482	86.81
324.71	72.81
324.939	81.81
325.168	79.81
325.397	73.81
325.626	93.81
325.855	79.81
326.084	89.81
326.313	91.81
326.542	97.81
326.77	74.81
326.999	83.81
327.228	86.81
327.457	80.81
327.686	88.81
327.914	73.81
328.143	95.81
328.372	88.81
328.6	70.81
328.829	74.81
329.058	92.81
329.287	76.81
329.515	81.81
329.744	87.81
329.972	90.81
330.201	83.81
330.43	78.81
330.658	89.81
330.887	91.81
331.115	90.81
331.344	84.81
331.572	75.81
331.801	84.81
332.03	81.81
332.258	95.81
332.486	84.81
332.715	84.81
332.943	75.81
333.172	84.81
333.4	101.81
333.629	76.81
333.857	84.81
334.085	81.81
334.314	81.81
334.542	91.81
334.771	85.81
334.999	91.81
335.227	95.81
335.455	87.81
335.684	76.81
335.912	88.81
336.14	82.81
336.369	78.81
336.597	74.81
336.825	87.81
337.053	89.81
337.281	74.81
337.51	89.81
337.738	75.81
337.966	88.81
338.194	81.81
338.422	81.81
338.65	93.81
338.878	98.81
339.106	81.81
339.334	89.81
339.562	95.81
339.79	92.81
340.018	85.81
340.246	102.81
340.474	86.81
340.702	92.81
340.93	96.81
341.158	96.81
341.386	85.81
341.614	94.81
341.842	81.81
342.07	85.81
342.298	94.81
342.526	90.81
342.754	79.81
342.981	77.81
343.209	73.81
343.437	78.81
343.665	80.81
343.893	94.81
344.12	99.81
344.348	92.81
344.576	92.81
344.804	84.81
345.031	80.81
345.259	71.81
345.487	88.81
345.714	80.81
345.942	82.81
346.17	94.81
346.397	79.81
346.625	87.81
346.853	84.81
347.08	81.81
347.308	72.81
347.535	81.81
347.763	80.81
347.99	87.81
348.218	86.81
348.445	71.81
348.673	86.81
348.9	79.81
349.128	102.81
349.355	85.81
349.583	87.81
349.81	70.81
350.037	83.81
350.265	78.81
350.492	91.81
350.72	94.81
350.947	70.81
351.174	93.81
351.402	80.81
351.629	86.81
351.856	83.81
352.083	80.81
352.311	84.81
352.538	72.81
352.765	76.81
352.992	85.81
353.22	99.81
353.447	92.81
353.674	90.81
353.901	98.81
354.128	83.81
354.355	82.81
354.583	71.81
354.81	91.81
355.037	85.81
355.264	77.81
355.491	76.81
355.718	80.81
355.945	90.81
356.172	81.81
356.399	89.81
356.626	90.81
356.853	90.81
357.08	95.81
357.307	76.81
357.534	86.81
357.761	88.81
357.988	81.81
358.215	82.81
358.441	82.81
358.668	92.81
358.895	91.81
359.122	86.81
359.349	88.81
359.576	86.81
359.802	88.81
360.029	89.81
360.256	80.81
360.483	75.81
360.709	67.81
360.936	81.81
361.163	97.81
361.39	86.81
361.616	79.81
361.843	86.81
362.07	76.81
362.296	89.81
362.523	72.81
362.749	72.81
362.976	86.81
363.203	80.81
363.429	83.81
363.656	70.81
363.882	85.81
364.109	76.81
364.335	90.81
364.562	73.81
364.788	99.81
365.015	86.81
365.241	77.81
365.468	85.81
365.694	91.81
365.92	80.81
366.147	93.81
366.373	103.81
366.599	92.81
366.826	91.81
367.052	85.81
367.278	70.81
367.505	74.81
367.731	91.81
367.957	79.81
368.184	81.81
368.41	86.81
368.636	87.81
368.862	87.81
369.089	76.81
369.315	74.81
369.541	86.81
369.767	84.81
369.993	92.81
370.219	95.81
370.445	74.81
370.672	78.81
370.898	87.81
371.124	87.81
371.35	82.81
371.576	90.81
371.802	71.81
372.028	96.81
372.254	82.81
372.48	82.81
372.706	85.81
372.932	84.81
373.158	81.81
373.384	84.81
373.61	81.81
373.835	91.81
374.061	88.81
374.287	82.81
374.513	89.81
374.739	80.81
374.965	93.81
375.191	84.81
375.416	80.81
375.642	68.81
375.868	91.81
376.094	84.81
376.319	96.81
376.545	76.81
376.771	88.81
376.997	78.81
377.222	76.81
377.448	74.81
377.674	88.81
377.899	91.81
378.125	93.81
378.35	89.81
378.576	76.81
378.802	80.81
379.027	97.81
379.253	95.81
379.478	95.81
379.704	82.81
379.929	99.81
380.155	94.81
380.38	85.81
380.606	89.81
380.831	90.81
381.057	75.81
381.282	83.81
381.507	80.81
381.733	84.81
381.958	89.81
382.184	63.81
382.409	95.81
382.634	85.81
382.86	94.81
383.085	98.81
383.31	93.81
383.535	67.81
383.761	77.81
383.986	84.81
384.211	79.81
384.436	90.81
384.662	75.81
384.887	85.81
385.112	99.81
385.337	95.81
385.562	88.81
385.787	92.81
386.013	87.81
386.238	82.81
386.463	87.81
386.688	86.81
386.913	90.81
387.138	85.81
387.363	79.81
387.588	90.81
387.813	95.81
388.038	89.81
388.263	78.81
388.488	92.81
388.713	94.81
388.938	87.81
389.163	100.81
389.387	87.81
389.612	92.81
389.837	76.81
390.062	85.81
390.287	78.81
390.512	89.81
390.736	100.81
390.961	87.81
391.186	89.81
391.411	103.81
391.636	91.81
391.86	93.81
392.085	86.81
392.31	90.81
392.534	74.81
392.759	95.81
392.984	94.81
393.208	95.81
393.433	92.81
393.658	90.81
393.882	76.81
394.107	97.81
394.331	85.81
394.556	92.81
394.78	93.81
395.005	88.81
395.229	91.81
395.454	99.81
395.678	79.81
395.903	83.81
396.127	94.81
396.352	81.81
396.576	85.81
396.801	84.81
397.025	93.81
397.249	91.81
397.474	81.81
397.698	99.81
397.922	103.81
398.147	90.81
398.371	93.81
398.595	94.81
398.82	92.81
399.044	82.81
399.268	104.81
399.492	93.81
399.717	85.81
399.941	86.81
400.165	73.81
400.389	92.81
400.613	79.81
400.837	86.81
401.062	89.81
401.286	84.81
401.51	84.81
401.734	95.81
401.958	94.81
402.182	81.81
402.406	100.81
402.63	89.81
402.854	93.81
403.078	102.81
403.302	86.81
403.526	92.81
403.75	94.81
403.974	82.81
404.198	97.81
404.422	98.81
404.645	99.81
404.869	84.81
405.093	100.81
405.317	105.81
405.541	92.81
405.765	75.81
405.988	103.81
406.212	101.81
406.436	92.81
406.66	87.81
406.883	84.81
407.107	74.81
407.331	97.81
407.555	94.81
407.778	102.81
408.002	91.81
408.226	91.81
408.449	91.81
408.673	95.81
408.896	89.81
409.12	86.81
409.344	91.81
409.567	98.81
409.791	97.81
410.014	80.81
410.238	90.81
410.461	100.81
410.685	93.81
410.908	96.81
411.132	88.81
411.355	95.81
411.578	87.81
411.802	81.81
412.025	93.81
412.249	91.81
412.472	90.81
412.695	92.81
412.919	89.81
413.142	100.81
413.365	95.81
413.589	94.81
413.812	91.81
414.035	102.81
414.258	105.81
414.482	89.81
414.705	104.81
414.928	88.81
415.151	77.81
415.374	88.81
415.597	94.81
415.821	100.81
416.044	89.81
416.267	94.81
416.49	96.81
416.713	89.81
416.936	99.81
417.159	82.81
417.382	99.81
417.605	79.81
417.828	104.81
418.051	92.81
418.274	88.81
418.497	114.81
418.72	93.81
418.943	96.81
419.166	101.81
419.389	88.81
419.611	101.81
419.834	98.81
420.057	101.81
420.28	94.81
420.503	91.81
420.726	88.81
420.948	87.81
421.171	88.81
421.394	91.81
421.617	93.81
421.839	105.81
422.062	103.81
422.285	79.81
422.507	96.81
422.73	99.81
422.953	101.81
423.175	111.81
423.398	102.81
423.621	110.81
423.843	102.81
424.066	86.81
424.288	102.81
424.511	90.81
424.733	107.81
424.956	96.81
425.178	100.81
425.401	106.81
425.623	99.81
425.846	95.81
426.068	83.81
426.291	90.81
426.513	86.81
426.735	89.81
426.958	106.81
427.18	91.81
427.402	85.81
427.625	100.81
427.847	102.81
428.069	96.81
428.292	92.81
428.514	88.81
428.736	95.81
428.958	106.81
429.181	106.81
429.403	98.81
429.625	99.81
429.847	94.81
430.069	103.81
430.292	92.81
430.514	92.81
430.736	95.81
430.958	101.81
431.18	101.81
431.402	88.81
431.624	84.81
431.846	80.81
432.068	82.81
432.29	91.81
432.512	100.81
432.734	88.81
432.956	99.81
433.178	113.81
433.4	100.81
433.622	81.81
433.844	91.81
434.066	87.81
434.287	84.81
434.509	100.81
434.731	74.81
434.953	88.81
435.175	84.81
435.397	89.81
435.618	95.81
435.84	90.81
436.062	92.81
436.284	100.81
436.505	97.81
436.727	91.81
436.949	96.81
437.17	94.81
437.392	102.81
437.614	99.81
437.835	89.81
438.057	94.81
438.278	96.81
438.5	90.81
438.721	92.81
438.943	89.81
439.165	97.81
439.386	93.81
439.608	100.81
439.829	100.81
440.05	102.81
440.272	95.81
440.493	89.81
440.715	91.81
440.936	96.81
441.158	108.81
441.379	91.81
441.6	98.81
441.822	100.81
442.043	99.81
442.264	99.81
442.486	89.81
442.707	96.81
442.928	93.81
443.149	97.81
443.371	102.81
443.592	103.81
443.813	100.81
444.034	115.81
444.255	106.81
444.476	104.81
444.698	106.81
444.919	91.81
445.14	225.81
445.361	143.81
445.582	94.81
445.803	116.81
446.024	104.81
446.245	109.81
446.466	98.81
446.687	104.81
446.908	111.81
447.129	108.81
447.35	112.81
447.571	87.81
447.792	101.81
448.013	97.81
448.234	104.81
448.455	101.81
448.675	102.81
448.896	83.81
449.117	95.81
449.338	98.81
449.559	103.81
449.779	98.81
450	78.81
450.221	85.81
450.442	107.81
450.662	92.81
450.883	104.81
451.104	89.81
451.324	95.81
451.545	100.81
451.766	91.81
451.986	92.81
452.207	98.81
452.428	91.81
452.648	85.81
452.869	88.81
453.089	84.81
453.31	89.81
453.53	96.81
453.751	97.81
453.971	89.81
454.192	101.81
454.412	85.81
454.633	86.81
454.853	103.81
455.073	88.81
455.294	79.81
455.514	98.81
455.734	95.81
455.955	86.81
456.175	84.81
456.395	86.81
456.616	89.81
456.836	78.81
457.056	89.81
457.276	82.81
457.497	83.81
457.717	97.81
457.937	99.81
458.157	87.81
458.377	83.81
458.598	91.81
458.818	99.81
459.038	84.81
459.258	78.81
459.478	77.81
459.698	79.81
459.918	88.81
460.138	86.81
460.358	87.81
460.578	90.81
460.798	91.81
461.018	94.81
461.238	90.81
461.458	82.81
461.678	91.81
461.898	85.81
462.118	91.81
462.338	86.81
462.558	90.81
462.777	102.81
462.997	91.81
463.217	94.81
463.437	88.81
463.657	86.81
463.876	82.81
464.096	99.81
464.316	95.81
464.536	86.81
464.755	94.81
464.975	111.81
465.195	102.81
465.414	87.81
465.634	76.81
465.854	99.81
466.073	100.81
466.293	89.81
466.512	96.81
466.732	103.81
466.951	112.81
467.171	100.81
467.391	93.81
467.61	93.81
467.829	95.81
468.049	108.81
468.268	95.81
468.488	80.81
468.707	105.81
468.927	97.81
469.146	95.81
469.365	98.81
469.585	107.81
469.804	104.81
470.023	85.81
470.243	102.81
470.462	97.81
470.681	99.81
470.901	113.81
471.12	106.81
471.339	111.81
471.558	100.81
471.777	117.81
471.997	94.81
472.216	85.81
472.435	98.81
472.654	99.81
472.873	99.81
473.092	92.81
473.311	96.81
473.53	94.81
473.749	102.81
473.968	83.81
474.187	98.81
474.406	89.81
474.625	102.81
474.844	86.81
475.063	110.81
475.282	96.81
475.501	101.81
475.72	96.81
475.939	92.81
476.158	86.81
476.377	90.81
476.596	85.81
476.814	104.81
477.033	88.81
477.252	84.81
477.471	105.81
477.69	101.81
477.908	97.81
478.127	104.81
478.346	94.81
478.564	106.81
478.783	86.81
479.002	101.81
479.22	94.81
479.439	119.81
479.658	104.81
479.876	86.81
480.095	74.81
480.313	76.81
480.532	97.81
480.751	88.81
480.969	82.81
481.188	93.81
481.406	95.81
481.624	77.81
481.843	75.81
482.061	76.81
482.28	97.81
482.498	101.81
482.717	88.81
482.935	95.81
483.153	100.81
483.372	98.81
483.59	99.81
483.808	94.81
484.027	93.81
484.245	94.81
484.463	96.81
484.681	100.81
484.9	88.81
485.118	94.81
485.336	98.81
485.554	96.81
485.772	85.81
485.99	88.81
486.209	100.81
486.427	108.81
486.645	87.81
486.863	94.81
487.081	85.81
487.299	88.81
487.517	114.81
487.735	109.81
487.953	119.81
488.171	115.81
488.389	112.81
488.607	116.81
488.825	100.81
489.043	94.81
489.261	103.81
489.479	103.81
489.696	101.81
489.914	116.81
490.132	101.81
490.35	89.81
490.568	100.81
490.786	106.81
491.003	98.81
491.221	119.81
491.439	122.81
491.657	122.81
491.874	129.81
492.092	124.81
492.31	131.81
492.527	127.81
492.745	118.81
492.963	120.81
493.18	116.81
493.398	113.81
493.615	122.81
493.833	116.81
494.05	121.81
494.268	118.81
494.485	114.81
494.703	107.81
494.92	116.81
495.138	108.81
495.355	102.81
495.573	106.81
495.79	88.81
496.008	101.81
496.225	102.81
496.442	108.81
496.66	110.81
496.877	95.81
497.094	105.81
497.312	114.81
497.529	111.81
497.746	103.81
497.963	115.81
498.181	87.81
498.398	85.81
498.615	77.81
498.832	91.81
499.049	78.81
499.267	91.81
499.484	99.81
499.701	101.81
499.918	98.81
500.135	111.81
500.352	86.81
500.569	102.81
500.786	105.81
501.003	102.81
501.22	105.81
501.437	94.81
501.654	97.81
501.871	94.81
502.088	95.81
502.305	106.81
502.522	94.81
502.739	110.81
502.956	85.81
503.172	94.81
503.389	98.81
503.606	101.81
503.823	100.81
504.04	100.81
504.256	88.81
504.473	82.81
504.69	90.81
504.907	98.81
505.123	86.81
505.34	84.81
505.557	102.81
505.773	86.81
505.99	90.81
506.207	92.81
506.423	91.81
506.64	107.81
506.856	105.81
507.073	96.81
507.289	91.81
507.506	88.81
507.722	94.81
507.939	68.81
508.155	106.81
508.372	94.81
508.588	85.81
508.805	82.81
509.021	98.81
509.238	95.81
509.454	89.81
509.67	87.81
509.887	98.81
510.103	81.81
510.319	77.81
510.536	84.81
510.752	82.81
510.968	84.81
511.184	82.81
511.401	92.81
511.617	83.81
511.833	99.81
512.049	88.81
512.265	93.81
512.481	82.81
512.698	80.81
512.914	86.81
513.13	79.81
513.346	95.81
513.562	90.81
513.778	91.81
513.994	75.81
514.21	90.81
514.426	93.81
514.642	97.81
514.858	88.81
515.074	86.81
515.29	83.81
515.506	87.81
515.721	86.81
515.937	84.81
516.153	80.81
516.369	80.81
516.585	90.81
516.801	69.81
517.016	83.81
