Data from Location3.07152019.Energy5.Lamp.07192019.3%Agarose_HRD10591_15-16-47-268.txt Node
Date: Fri Jul 19 15:16:47 EDT 2019
User: cochatt
Spectrometer: HR+D1059
Trigger mode: 1
Integration Time (sec): 1.000000E-1
Scans to average: 1
Electric dark correction enabled: true
Nonlinearity correction enabled: false
Boxcar width: 0
XAxis mode: Wavelengths
Number of Pixels in Spectrum: 2048
>>>>>Begin Spectral Data<<<<<
223.165	-19.38
223.4	-19.38
223.635	-19.38
223.869	-31.38
224.104	-17.38
224.338	-17.38
224.573	-13.38
224.808	-6.38
225.042	-2.38
225.277	-3.38
225.511	8.62
225.746	4.62
225.98	0.62
226.215	15.62
226.449	15.62
226.683	8.62
226.918	20.62
227.152	36.62
227.387	21.62
227.621	36.62
227.856	37.62
228.09	39.62
228.324	45.62
228.559	70.62
228.793	50.62
229.027	59.62
229.262	54.62
229.496	70.62
229.73	62.62
229.964	62.62
230.199	70.62
230.433	72.62
230.667	66.62
230.901	64.62
231.136	80.62
231.37	72.62
231.604	71.62
231.838	73.62
232.072	82.62
232.306	74.62
232.541	73.62
232.775	73.62
233.009	81.62
233.243	70.62
233.477	90.62
233.711	77.62
233.945	79.62
234.179	81.62
234.413	96.62
234.647	86.62
234.881	67.62
235.115	73.62
235.349	76.62
235.583	70.62
235.817	84.62
236.051	80.62
236.285	78.62
236.519	80.62
236.753	71.62
236.987	82.62
237.221	79.62
237.455	80.62
237.689	81.62
237.922	88.62
238.156	78.62
238.39	74.62
238.624	75.62
238.858	81.62
239.091	69.62
239.325	66.62
239.559	68.62
239.793	82.62
240.027	72.62
240.26	71.62
240.494	65.62
240.728	67.62
240.961	63.62
241.195	86.62
241.429	80.62
241.662	60.62
241.896	72.62
242.13	58.62
242.363	64.62
242.597	100.62
242.83	90.62
243.064	86.62
243.298	83.62
243.531	77.62
243.765	70.62
243.998	70.62
244.232	73.62
244.465	66.62
244.699	79.62
244.932	65.62
245.166	78.62
245.399	79.62
245.633	86.62
245.866	79.62
246.099	75.62
246.333	78.62
246.566	78.62
246.8	62.62
247.033	67.62
247.266	79.62
247.5	82.62
247.733	79.62
247.966	80.62
248.2	87.62
248.433	78.62
248.666	93.62
248.899	74.62
249.133	75.62
249.366	70.62
249.599	71.62
249.832	76.62
250.066	86.62
250.299	77.62
250.532	78.62
250.765	70.62
250.998	74.62
251.231	95.62
251.465	87.62
251.698	78.62
251.931	87.62
252.164	76.62
252.397	66.62
252.63	72.62
252.863	80.62
253.096	86.62
253.329	82.62
253.562	71.62
253.795	85.62
254.028	73.62
254.261	76.62
254.494	71.62
254.727	74.62
254.96	82.62
255.193	72.62
255.426	76.62
255.659	68.62
255.892	75.62
256.124	79.62
256.357	86.62
256.59	89.62
256.823	70.62
257.056	81.62
257.289	81.62
257.521	82.62
257.754	63.62
257.987	74.62
258.22	66.62
258.452	75.62
258.685	99.62
258.918	81.62
259.151	77.62
259.383	79.62
259.616	82.62
259.849	79.62
260.081	81.62
260.314	86.62
260.547	76.62
260.779	80.62
261.012	84.62
261.244	85.62
261.477	89.62
261.71	89.62
261.942	77.62
262.175	88.62
262.407	85.62
262.64	80.62
262.872	78.62
263.105	83.62
263.337	88.62
263.57	89.62
263.802	78.62
264.035	93.62
264.267	81.62
264.499	72.62
264.732	74.62
264.964	81.62
265.197	74.62
265.429	72.62
265.661	81.62
265.894	100.62
266.126	72.62
266.358	86.62
266.591	86.62
266.823	73.62
267.055	97.62
267.287	92.62
267.52	74.62
267.752	75.62
267.984	70.62
268.216	84.62
268.448	81.62
268.681	77.62
268.913	84.62
269.145	81.62
269.377	95.62
269.609	88.62
269.841	73.62
270.073	68.62
270.306	83.62
270.538	88.62
270.77	88.62
271.002	81.62
271.234	89.62
271.466	83.62
271.698	82.62
271.93	81.62
272.162	77.62
272.394	76.62
272.626	90.62
272.858	69.62
273.09	73.62
273.322	87.62
273.553	85.62
273.785	88.62
274.017	82.62
274.249	84.62
274.481	73.62
274.713	67.62
274.945	81.62
275.176	79.62
275.408	78.62
275.64	73.62
275.872	87.62
276.104	85.62
276.335	82.62
276.567	82.62
276.799	72.62
277.031	98.62
277.262	80.62
277.494	88.62
277.726	76.62
277.957	73.62
278.189	80.62
278.421	68.62
278.652	78.62
278.884	84.62
279.115	91.62
279.347	81.62
279.579	87.62
279.81	76.62
280.042	71.62
280.273	78.62
280.505	79.62
280.736	93.62
280.968	61.62
281.199	77.62
281.431	80.62
281.662	85.62
281.894	91.62
282.125	86.62
282.356	88.62
282.588	77.62
282.819	76.62
283.051	80.62
283.282	85.62
283.513	89.62
283.745	84.62
283.976	103.62
284.207	86.62
284.439	82.62
284.67	85.62
284.901	63.62
285.132	88.62
285.364	71.62
285.595	94.62
285.826	78.62
286.057	91.62
286.288	87.62
286.52	79.62
286.751	83.62
286.982	75.62
287.213	85.62
287.444	79.62
287.675	76.62
287.906	80.62
288.138	83.62
288.369	79.62
288.6	85.62
288.831	76.62
289.062	74.62
289.293	97.62
289.524	98.62
289.755	78.62
289.986	93.62
290.217	86.62
290.448	84.62
290.679	85.62
290.91	84.62
291.141	76.62
291.371	72.62
291.602	80.62
291.833	72.62
292.064	76.62
292.295	78.62
292.526	80.62
292.757	78.62
292.987	74.62
293.218	75.62
293.449	84.62
293.68	72.62
293.91	86.62
294.141	89.62
294.372	77.62
294.603	87.62
294.833	87.62
295.064	79.62
295.295	81.62
295.525	85.62
295.756	91.62
295.987	92.62
296.217	79.62
296.448	77.62
296.679	87.62
296.909	89.62
297.14	80.62
297.37	86.62
297.601	87.62
297.831	83.62
298.062	88.62
298.292	77.62
298.523	76.62
298.753	82.62
298.984	78.62
299.214	91.62
299.445	95.62
299.675	65.62
299.905	80.62
300.136	90.62
300.366	91.62
300.597	92.62
300.827	83.62
301.057	80.62
301.288	87.62
301.518	84.62
301.748	87.62
301.979	95.62
302.209	87.62
302.439	77.62
302.669	97.62
302.9	91.62
303.13	79.62
303.36	76.62
303.59	62.62
303.82	83.62
304.051	102.62
304.281	85.62
304.511	86.62
304.741	90.62
304.971	71.62
305.201	83.62
305.431	102.62
305.661	71.62
305.891	74.62
306.121	79.62
306.352	82.62
306.582	76.62
306.812	91.62
307.042	86.62
307.272	84.62
307.502	84.62
307.731	78.62
307.961	95.62
308.191	88.62
308.421	103.62
308.651	90.62
308.881	77.62
309.111	98.62
309.341	73.62
309.571	85.62
309.8	89.62
310.03	85.62
310.26	87.62
310.49	86.62
310.72	81.62
310.949	84.62
311.179	84.62
311.409	75.62
311.639	69.62
311.868	108.62
312.098	96.62
312.328	83.62
312.557	81.62
312.787	64.62
313.017	98.62
313.246	77.62
313.476	82.62
313.706	79.62
313.935	92.62
314.165	78.62
314.394	88.62
314.624	85.62
314.853	84.62
315.083	72.62
315.312	84.62
315.542	85.62
315.771	86.62
316.001	79.62
316.23	83.62
316.46	86.62
316.689	77.62
316.919	82.62
317.148	87.62
317.377	95.62
317.607	90.62
317.836	77.62
318.065	89.62
318.295	88.62
318.524	88.62
318.753	66.62
318.983	80.62
319.212	82.62
319.441	68.62
319.67	99.62
319.9	79.62
320.129	85.62
320.358	81.62
320.587	64.62
320.816	74.62
321.046	102.62
321.275	74.62
321.504	80.62
321.733	97.62
321.962	75.62
322.191	78.62
322.42	77.62
322.649	89.62
322.878	92.62
323.108	82.62
323.337	73.62
323.566	79.62
323.795	86.62
324.024	90.62
324.253	101.62
324.482	76.62
324.71	75.62
324.939	89.62
325.168	94.62
325.397	77.62
325.626	90.62
325.855	87.62
326.084	89.62
326.313	84.62
326.542	76.62
326.77	94.62
326.999	92.62
327.228	69.62
327.457	73.62
327.686	74.62
327.914	87.62
328.143	84.62
328.372	89.62
328.6	68.62
328.829	84.62
329.058	80.62
329.287	80.62
329.515	82.62
329.744	79.62
329.972	81.62
330.201	88.62
330.43	86.62
330.658	81.62
330.887	80.62
331.115	69.62
331.344	83.62
331.572	80.62
331.801	101.62
332.03	77.62
332.258	77.62
332.486	75.62
332.715	87.62
332.943	88.62
333.172	85.62
333.4	81.62
333.629	87.62
333.857	81.62
334.085	89.62
334.314	79.62
334.542	98.62
334.771	94.62
334.999	77.62
335.227	75.62
335.455	81.62
335.684	79.62
335.912	89.62
336.14	82.62
336.369	95.62
336.597	84.62
336.825	95.62
337.053	81.62
337.281	83.62
337.51	77.62
337.738	75.62
337.966	72.62
338.194	69.62
338.422	79.62
338.65	79.62
338.878	80.62
339.106	87.62
339.334	91.62
339.562	81.62
339.79	71.62
340.018	77.62
340.246	97.62
340.474	67.62
340.702	92.62
340.93	74.62
341.158	84.62
341.386	92.62
341.614	82.62
341.842	77.62
342.07	85.62
342.298	78.62
342.526	94.62
342.754	83.62
342.981	68.62
343.209	66.62
343.437	90.62
343.665	94.62
343.893	67.62
344.12	87.62
344.348	85.62
344.576	87.62
344.804	94.62
345.031	85.62
345.259	94.62
345.487	94.62
345.714	81.62
345.942	90.62
346.17	80.62
346.397	86.62
346.625	94.62
346.853	91.62
347.08	84.62
347.308	83.62
347.535	87.62
347.763	88.62
347.99	81.62
348.218	93.62
348.445	89.62
348.673	69.62
348.9	76.62
349.128	91.62
349.355	78.62
349.583	84.62
349.81	76.62
350.037	86.62
350.265	86.62
350.492	90.62
350.72	75.62
350.947	82.62
351.174	88.62
351.402	93.62
351.629	83.62
351.856	72.62
352.083	80.62
352.311	92.62
352.538	89.62
352.765	79.62
352.992	80.62
353.22	84.62
353.447	79.62
353.674	76.62
353.901	89.62
354.128	108.62
354.355	84.62
354.583	86.62
354.81	62.62
355.037	95.62
355.264	74.62
355.491	88.62
355.718	80.62
355.945	85.62
356.172	83.62
356.399	76.62
356.626	73.62
356.853	79.62
357.08	80.62
357.307	82.62
357.534	86.62
357.761	76.62
357.988	69.62
358.215	93.62
358.441	79.62
358.668	82.62
358.895	79.62
359.122	84.62
359.349	89.62
359.576	86.62
359.802	73.62
360.029	68.62
360.256	84.62
360.483	86.62
360.709	87.62
360.936	91.62
361.163	90.62
361.39	73.62
361.616	80.62
361.843	94.62
362.07	84.62
362.296	89.62
362.523	81.62
362.749	92.62
362.976	80.62
363.203	71.62
363.429	73.62
363.656	84.62
363.882	96.62
364.109	85.62
364.335	73.62
364.562	75.62
364.788	86.62
365.015	79.62
365.241	83.62
365.468	94.62
365.694	83.62
365.92	84.62
366.147	79.62
366.373	82.62
366.599	64.62
366.826	81.62
367.052	81.62
367.278	81.62
367.505	74.62
367.731	80.62
367.957	84.62
368.184	78.62
368.41	77.62
368.636	75.62
368.862	92.62
369.089	70.62
369.315	87.62
369.541	89.62
369.767	85.62
369.993	81.62
370.219	69.62
370.445	87.62
370.672	81.62
370.898	94.62
371.124	69.62
371.35	80.62
371.576	75.62
371.802	81.62
372.028	63.62
372.254	84.62
372.48	93.62
372.706	85.62
372.932	64.62
373.158	69.62
373.384	91.62
373.61	87.62
373.835	89.62
374.061	70.62
374.287	84.62
374.513	75.62
374.739	78.62
374.965	94.62
375.191	79.62
375.416	81.62
375.642	80.62
375.868	93.62
376.094	80.62
376.319	90.62
376.545	92.62
376.771	93.62
376.997	89.62
377.222	82.62
377.448	87.62
377.674	79.62
377.899	79.62
378.125	78.62
378.35	90.62
378.576	69.62
378.802	72.62
379.027	82.62
379.253	81.62
379.478	97.62
379.704	80.62
379.929	76.62
380.155	82.62
380.38	90.62
380.606	92.62
380.831	82.62
381.057	85.62
381.282	90.62
381.507	81.62
381.733	90.62
381.958	77.62
382.184	93.62
382.409	80.62
382.634	86.62
382.86	86.62
383.085	88.62
383.31	81.62
383.535	88.62
383.761	72.62
383.986	76.62
384.211	92.62
384.436	81.62
384.662	73.62
384.887	82.62
385.112	89.62
385.337	80.62
385.562	91.62
385.787	86.62
386.013	85.62
386.238	105.62
386.463	83.62
386.688	76.62
386.913	86.62
387.138	76.62
387.363	74.62
387.588	89.62
387.813	89.62
388.038	81.62
388.263	86.62
388.488	83.62
388.713	84.62
388.938	76.62
389.163	80.62
389.387	84.62
389.612	77.62
389.837	69.62
390.062	85.62
390.287	82.62
390.512	86.62
390.736	88.62
390.961	81.62
391.186	73.62
391.411	75.62
391.636	67.62
391.86	86.62
392.085	86.62
392.31	84.62
392.534	95.62
392.759	79.62
392.984	81.62
393.208	74.62
393.433	86.62
393.658	92.62
393.882	84.62
394.107	80.62
394.331	93.62
394.556	76.62
394.78	86.62
395.005	84.62
395.229	77.62
395.454	88.62
395.678	86.62
395.903	89.62
396.127	86.62
396.352	88.62
396.576	109.62
396.801	85.62
397.025	91.62
397.249	88.62
397.474	86.62
397.698	89.62
397.922	80.62
398.147	75.62
398.371	84.62
398.595	86.62
398.82	104.62
399.044	95.62
399.268	81.62
399.492	95.62
399.717	86.62
399.941	85.62
400.165	78.62
400.389	77.62
400.613	87.62
400.837	92.62
401.062	100.62
401.286	94.62
401.51	89.62
401.734	80.62
401.958	89.62
402.182	83.62
402.406	87.62
402.63	78.62
402.854	78.62
403.078	87.62
403.302	89.62
403.526	98.62
403.75	90.62
403.974	85.62
404.198	73.62
404.422	81.62
404.645	79.62
404.869	88.62
405.093	75.62
405.317	88.62
405.541	94.62
405.765	92.62
405.988	85.62
406.212	82.62
406.436	79.62
406.66	81.62
406.883	93.62
407.107	87.62
407.331	89.62
407.555	112.62
407.778	85.62
408.002	71.62
408.226	92.62
408.449	96.62
408.673	94.62
408.896	93.62
409.12	65.62
409.344	84.62
409.567	95.62
409.791	87.62
410.014	81.62
410.238	84.62
410.461	88.62
410.685	77.62
410.908	86.62
411.132	83.62
411.355	84.62
411.578	87.62
411.802	97.62
412.025	93.62
412.249	81.62
412.472	79.62
412.695	100.62
412.919	92.62
413.142	92.62
413.365	90.62
413.589	90.62
413.812	95.62
414.035	85.62
414.258	93.62
414.482	93.62
414.705	98.62
414.928	93.62
415.151	88.62
415.374	89.62
415.597	85.62
415.821	99.62
416.044	73.62
416.267	90.62
416.49	85.62
416.713	103.62
416.936	83.62
417.159	93.62
417.382	100.62
417.605	101.62
417.828	97.62
418.051	89.62
418.274	95.62
418.497	89.62
418.72	95.62
418.943	95.62
419.166	92.62
419.389	101.62
419.611	88.62
419.834	72.62
420.057	96.62
420.28	81.62
420.503	88.62
420.726	89.62
420.948	108.62
421.171	103.62
421.394	96.62
421.617	97.62
421.839	102.62
422.062	96.62
422.285	93.62
422.507	84.62
422.73	100.62
422.953	83.62
423.175	90.62
423.398	88.62
423.621	90.62
423.843	88.62
424.066	75.62
424.288	72.62
424.511	84.62
424.733	82.62
424.956	96.62
425.178	99.62
425.401	97.62
425.623	96.62
425.846	94.62
426.068	95.62
426.291	92.62
426.513	74.62
426.735	93.62
426.958	82.62
427.18	88.62
427.402	102.62
427.625	94.62
427.847	95.62
428.069	90.62
428.292	78.62
428.514	92.62
428.736	84.62
428.958	98.62
429.181	93.62
429.403	83.62
429.625	96.62
429.847	90.62
430.069	89.62
430.292	108.62
430.514	90.62
430.736	101.62
430.958	85.62
431.18	96.62
431.402	92.62
431.624	82.62
431.846	92.62
432.068	81.62
432.29	86.62
432.512	98.62
432.734	100.62
432.956	92.62
433.178	100.62
433.4	94.62
433.622	84.62
433.844	93.62
434.066	80.62
434.287	97.62
434.509	94.62
434.731	78.62
434.953	97.62
435.175	87.62
435.397	98.62
435.618	74.62
435.84	85.62
436.062	87.62
436.284	92.62
436.505	93.62
436.727	79.62
436.949	95.62
437.17	85.62
437.392	92.62
437.614	91.62
437.835	86.62
438.057	89.62
438.278	96.62
438.5	87.62
438.721	92.62
438.943	97.62
439.165	108.62
439.386	94.62
439.608	90.62
439.829	89.62
440.05	104.62
440.272	95.62
440.493	96.62
440.715	104.62
440.936	91.62
441.158	95.62
441.379	96.62
441.6	91.62
441.822	80.62
442.043	95.62
442.264	101.62
442.486	95.62
442.707	96.62
442.928	94.62
443.149	95.62
443.371	100.62
443.592	93.62
443.813	99.62
444.034	88.62
444.255	85.62
444.476	87.62
444.698	86.62
444.919	84.62
445.14	170.62
445.361	126.62
445.582	89.62
445.803	87.62
446.024	105.62
446.245	92.62
446.466	95.62
446.687	94.62
446.908	109.62
447.129	95.62
447.35	106.62
447.571	101.62
447.792	101.62
448.013	101.62
448.234	92.62
448.455	100.62
448.675	86.62
448.896	85.62
449.117	98.62
449.338	89.62
449.559	100.62
449.779	99.62
450	96.62
450.221	93.62
450.442	93.62
450.662	82.62
450.883	95.62
451.104	94.62
451.324	102.62
451.545	100.62
451.766	105.62
451.986	98.62
452.207	84.62
452.428	100.62
452.648	87.62
452.869	98.62
453.089	85.62
453.31	76.62
453.53	95.62
453.751	81.62
453.971	98.62
454.192	87.62
454.412	114.62
454.633	90.62
454.853	92.62
455.073	68.62
455.294	93.62
455.514	102.62
455.734	86.62
455.955	69.62
456.175	89.62
456.395	79.62
456.616	92.62
456.836	91.62
457.056	80.62
457.276	85.62
457.497	87.62
457.717	85.62
457.937	81.62
458.157	81.62
458.377	86.62
458.598	102.62
458.818	83.62
459.038	86.62
459.258	83.62
459.478	83.62
459.698	84.62
459.918	87.62
460.138	73.62
460.358	97.62
460.578	101.62
460.798	85.62
461.018	86.62
461.238	87.62
461.458	72.62
461.678	90.62
461.898	94.62
462.118	108.62
462.338	100.62
462.558	93.62
462.777	76.62
462.997	88.62
463.217	83.62
463.437	82.62
463.657	85.62
463.876	96.62
464.096	92.62
464.316	92.62
464.536	84.62
464.755	90.62
464.975	80.62
465.195	91.62
465.414	90.62
465.634	96.62
465.854	64.62
466.073	87.62
466.293	103.62
466.512	88.62
466.732	97.62
466.951	105.62
467.171	99.62
467.391	97.62
467.61	84.62
467.829	89.62
468.049	86.62
468.268	87.62
468.488	109.62
468.707	102.62
468.927	94.62
469.146	95.62
469.365	82.62
469.585	98.62
469.804	84.62
470.023	84.62
470.243	82.62
470.462	102.62
470.681	95.62
470.901	101.62
471.12	89.62
471.339	88.62
471.558	97.62
471.777	93.62
471.997	101.62
472.216	93.62
472.435	86.62
472.654	82.62
472.873	83.62
473.092	95.62
473.311	81.62
473.53	94.62
473.749	98.62
473.968	85.62
474.187	103.62
474.406	94.62
474.625	96.62
474.844	88.62
475.063	92.62
475.282	100.62
475.501	97.62
475.72	110.62
475.939	103.62
476.158	81.62
476.377	104.62
476.596	86.62
476.814	88.62
477.033	96.62
477.252	98.62
477.471	98.62
477.69	103.62
477.908	93.62
478.127	102.62
478.346	95.62
478.564	93.62
478.783	93.62
479.002	96.62
479.22	92.62
479.439	95.62
479.658	101.62
479.876	90.62
480.095	82.62
480.313	79.62
480.532	84.62
480.751	81.62
480.969	85.62
481.188	90.62
481.406	77.62
481.624	82.62
481.843	77.62
482.061	82.62
482.28	88.62
482.498	92.62
482.717	80.62
482.935	94.62
483.153	91.62
483.372	99.62
483.59	107.62
483.808	110.62
484.027	109.62
484.245	95.62
484.463	122.62
484.681	113.62
484.9	99.62
485.118	99.62
485.336	94.62
485.554	80.62
485.772	97.62
485.99	95.62
486.209	98.62
486.427	102.62
486.645	90.62
486.863	118.62
487.081	97.62
487.299	102.62
487.517	98.62
487.735	89.62
487.953	112.62
488.171	101.62
488.389	108.62
488.607	102.62
488.825	96.62
489.043	97.62
489.261	96.62
489.479	112.62
489.696	110.62
489.914	118.62
490.132	114.62
490.35	109.62
490.568	94.62
490.786	116.62
491.003	88.62
491.221	110.62
491.439	113.62
491.657	121.62
491.874	101.62
492.092	119.62
492.31	140.62
492.527	124.62
492.745	119.62
492.963	116.62
493.18	120.62
493.398	117.62
493.615	116.62
493.833	109.62
494.05	102.62
494.268	96.62
494.485	101.62
494.703	119.62
494.92	123.62
495.138	105.62
495.355	112.62
495.573	104.62
495.79	120.62
496.008	100.62
496.225	98.62
496.442	91.62
496.66	98.62
496.877	112.62
497.094	107.62
497.312	107.62
497.529	109.62
497.746	113.62
497.963	107.62
498.181	95.62
498.398	94.62
498.615	109.62
498.832	99.62
499.049	97.62
499.267	84.62
499.484	103.62
499.701	102.62
499.918	96.62
500.135	77.62
500.352	78.62
500.569	94.62
500.786	92.62
501.003	90.62
501.22	105.62
501.437	100.62
501.654	93.62
501.871	99.62
502.088	91.62
502.305	106.62
502.522	97.62
502.739	102.62
502.956	100.62
503.172	85.62
503.389	99.62
503.606	88.62
503.823	85.62
504.04	77.62
504.256	103.62
504.473	86.62
504.69	82.62
504.907	110.62
505.123	86.62
505.34	94.62
505.557	97.62
505.773	84.62
505.99	101.62
506.207	94.62
506.423	102.62
506.64	97.62
506.856	87.62
507.073	72.62
507.289	89.62
507.506	89.62
507.722	88.62
507.939	90.62
508.155	99.62
508.372	97.62
508.588	95.62
508.805	94.62
509.021	93.62
509.238	90.62
509.454	85.62
509.67	89.62
509.887	83.62
510.103	91.62
510.319	82.62
510.536	89.62
510.752	92.62
510.968	82.62
511.184	90.62
511.401	85.62
511.617	90.62
511.833	87.62
512.049	93.62
512.265	88.62
512.481	100.62
512.698	85.62
512.914	80.62
513.13	87.62
513.346	77.62
513.562	92.62
513.778	76.62
513.994	97.62
514.21	90.62
514.426	82.62
514.642	78.62
514.858	85.62
515.074	85.62
515.29	85.62
515.506	82.62
515.721	88.62
515.937	78.62
516.153	84.62
516.369	80.62
516.585	80.62
516.801	97.62
517.016	91.62
517.232	87.62
517.448	92.62
517.664	72.62
