Data from Location3.07152019.Energy5.Lamp.07192019.3%Agarose_HRD10591_15-18-27-269.txt Node
Date: Fri Jul 19 15:18:27 EDT 2019
User: cochatt
Spectrometer: HR+D1059
Trigger mode: 1
Integration Time (sec): 1.000000E-1
Scans to average: 1
Electric dark correction enabled: true
Nonlinearity correction enabled: false
Boxcar width: 0
XAxis mode: Wavelengths
Number of Pixels in Spectrum: 2048
>>>>>Begin Spectral Data<<<<<
223.165	-16.25
223.4	-16.25
223.635	-16.25
223.869	-19.25
224.104	-7.25
224.338	-13.25
224.573	-27.25
224.808	-4.25
225.042	-19.25
225.277	-6.25
225.511	-14.25
225.746	12.75
225.98	5.75
226.215	17.75
226.449	15.75
226.683	20.75
226.918	30.75
227.152	23.75
227.387	31.75
227.621	24.75
227.856	27.75
228.09	39.75
228.324	19.75
228.559	53.75
228.793	39.75
229.027	41.75
229.262	51.75
229.496	63.75
229.73	64.75
229.964	74.75
230.199	70.75
230.433	81.75
230.667	62.75
230.901	64.75
231.136	70.75
231.37	76.75
231.604	68.75
231.838	81.75
232.072	87.75
232.306	68.75
232.541	85.75
232.775	83.75
233.009	84.75
233.243	76.75
233.477	73.75
233.711	71.75
233.945	61.75
234.179	70.75
234.413	80.75
234.647	84.75
234.881	88.75
235.115	88.75
235.349	66.75
235.583	68.75
235.817	67.75
236.051	69.75
236.285	67.75
236.519	68.75
236.753	70.75
236.987	84.75
237.221	81.75
237.455	72.75
237.689	67.75
237.922	82.75
238.156	64.75
238.39	78.75
238.624	63.75
238.858	82.75
239.091	69.75
239.325	72.75
239.559	72.75
239.793	72.75
240.027	73.75
240.26	71.75
240.494	72.75
240.728	78.75
240.961	81.75
241.195	70.75
241.429	77.75
241.662	77.75
241.896	90.75
242.13	73.75
242.363	79.75
242.597	69.75
242.83	76.75
243.064	82.75
243.298	73.75
243.531	57.75
243.765	85.75
243.998	86.75
244.232	76.75
244.465	55.75
244.699	65.75
244.932	75.75
245.166	77.75
245.399	74.75
245.633	64.75
245.866	87.75
246.099	68.75
246.333	61.75
246.566	78.75
246.8	86.75
247.033	76.75
247.266	76.75
247.5	73.75
247.733	65.75
247.966	80.75
248.2	74.75
248.433	66.75
248.666	65.75
248.899	55.75
249.133	65.75
249.366	81.75
249.599	80.75
249.832	68.75
250.066	95.75
250.299	72.75
250.532	81.75
250.765	80.75
250.998	82.75
251.231	70.75
251.465	73.75
251.698	73.75
251.931	79.75
252.164	75.75
252.397	66.75
252.63	84.75
252.863	78.75
253.096	82.75
253.329	72.75
253.562	75.75
253.795	66.75
254.028	91.75
254.261	75.75
254.494	68.75
254.727	75.75
254.96	84.75
255.193	76.75
255.426	79.75
255.659	69.75
255.892	69.75
256.124	66.75
256.357	68.75
256.59	78.75
256.823	100.75
257.056	81.75
257.289	81.75
257.521	67.75
257.754	73.75
257.987	83.75
258.22	81.75
258.452	81.75
258.685	83.75
258.918	76.75
259.151	80.75
259.383	80.75
259.616	81.75
259.849	73.75
260.081	82.75
260.314	84.75
260.547	69.75
260.779	71.75
261.012	73.75
261.244	78.75
261.477	84.75
261.71	83.75
261.942	82.75
262.175	93.75
262.407	78.75
262.64	72.75
262.872	74.75
263.105	82.75
263.337	76.75
263.57	86.75
263.802	79.75
264.035	73.75
264.267	79.75
264.499	61.75
264.732	87.75
264.964	73.75
265.197	77.75
265.429	79.75
265.661	82.75
265.894	73.75
266.126	86.75
266.358	83.75
266.591	77.75
266.823	79.75
267.055	80.75
267.287	75.75
267.52	90.75
267.752	73.75
267.984	69.75
268.216	91.75
268.448	72.75
268.681	74.75
268.913	81.75
269.145	70.75
269.377	83.75
269.609	77.75
269.841	67.75
270.073	71.75
270.306	89.75
270.538	76.75
270.77	65.75
271.002	78.75
271.234	70.75
271.466	89.75
271.698	67.75
271.93	73.75
272.162	75.75
272.394	83.75
272.626	75.75
272.858	99.75
273.09	83.75
273.322	87.75
273.553	82.75
273.785	83.75
274.017	82.75
274.249	77.75
274.481	77.75
274.713	72.75
274.945	88.75
275.176	70.75
275.408	90.75
275.64	92.75
275.872	70.75
276.104	79.75
276.335	72.75
276.567	66.75
276.799	77.75
277.031	73.75
277.262	65.75
277.494	79.75
277.726	89.75
277.957	72.75
278.189	80.75
278.421	80.75
278.652	76.75
278.884	77.75
279.115	85.75
279.347	86.75
279.579	84.75
279.81	84.75
280.042	92.75
280.273	91.75
280.505	84.75
280.736	69.75
280.968	88.75
281.199	78.75
281.431	88.75
281.662	79.75
281.894	76.75
282.125	86.75
282.356	79.75
282.588	82.75
282.819	82.75
283.051	81.75
283.282	77.75
283.513	81.75
283.745	67.75
283.976	71.75
284.207	96.75
284.439	76.75
284.67	77.75
284.901	77.75
285.132	81.75
285.364	70.75
285.595	77.75
285.826	75.75
286.057	76.75
286.288	88.75
286.52	80.75
286.751	67.75
286.982	73.75
287.213	77.75
287.444	78.75
287.675	84.75
287.906	79.75
288.138	92.75
288.369	86.75
288.6	89.75
288.831	62.75
289.062	88.75
289.293	83.75
289.524	80.75
289.755	85.75
289.986	78.75
290.217	85.75
290.448	86.75
290.679	79.75
290.91	87.75
291.141	76.75
291.371	82.75
291.602	87.75
291.833	80.75
292.064	92.75
292.295	89.75
292.526	86.75
292.757	80.75
292.987	88.75
293.218	87.75
293.449	88.75
293.68	81.75
293.91	87.75
294.141	95.75
294.372	89.75
294.603	79.75
294.833	78.75
295.064	83.75
295.295	90.75
295.525	81.75
295.756	84.75
295.987	75.75
296.217	78.75
296.448	81.75
296.679	87.75
296.909	85.75
297.14	88.75
297.37	91.75
297.601	73.75
297.831	84.75
298.062	78.75
298.292	88.75
298.523	89.75
298.753	87.75
298.984	83.75
299.214	84.75
299.445	85.75
299.675	73.75
299.905	74.75
300.136	67.75
300.366	79.75
300.597	69.75
300.827	86.75
301.057	81.75
301.288	71.75
301.518	74.75
301.748	62.75
301.979	77.75
302.209	88.75
302.439	94.75
302.669	71.75
302.9	75.75
303.13	83.75
303.36	79.75
303.59	83.75
303.82	83.75
304.051	79.75
304.281	82.75
304.511	89.75
304.741	76.75
304.971	86.75
305.201	80.75
305.431	76.75
305.661	85.75
305.891	80.75
306.121	78.75
306.352	78.75
306.582	87.75
306.812	75.75
307.042	78.75
307.272	88.75
307.502	85.75
307.731	84.75
307.961	88.75
308.191	75.75
308.421	69.75
308.651	87.75
308.881	87.75
309.111	87.75
309.341	80.75
309.571	74.75
309.8	82.75
310.03	83.75
310.26	93.75
310.49	76.75
310.72	74.75
310.949	73.75
311.179	75.75
311.409	61.75
311.639	85.75
311.868	92.75
312.098	81.75
312.328	74.75
312.557	83.75
312.787	78.75
313.017	82.75
313.246	80.75
313.476	74.75
313.706	80.75
313.935	73.75
314.165	87.75
314.394	85.75
314.624	90.75
314.853	94.75
315.083	82.75
315.312	73.75
315.542	93.75
315.771	85.75
316.001	78.75
316.23	88.75
316.46	91.75
316.689	73.75
316.919	79.75
317.148	84.75
317.377	87.75
317.607	78.75
317.836	75.75
318.065	84.75
318.295	78.75
318.524	68.75
318.753	75.75
318.983	76.75
319.212	82.75
319.441	76.75
319.67	89.75
319.9	76.75
320.129	84.75
320.358	78.75
320.587	67.75
320.816	83.75
321.046	77.75
321.275	76.75
321.504	83.75
321.733	80.75
321.962	88.75
322.191	83.75
322.42	86.75
322.649	82.75
322.878	82.75
323.108	68.75
323.337	76.75
323.566	74.75
323.795	80.75
324.024	79.75
324.253	91.75
324.482	72.75
324.71	80.75
324.939	85.75
325.168	73.75
325.397	74.75
325.626	67.75
325.855	84.75
326.084	79.75
326.313	81.75
326.542	87.75
326.77	71.75
326.999	72.75
327.228	78.75
327.457	87.75
327.686	85.75
327.914	81.75
328.143	71.75
328.372	86.75
328.6	88.75
328.829	65.75
329.058	81.75
329.287	84.75
329.515	76.75
329.744	72.75
329.972	90.75
330.201	89.75
330.43	77.75
330.658	87.75
330.887	90.75
331.115	68.75
331.344	83.75
331.572	92.75
331.801	73.75
332.03	94.75
332.258	61.75
332.486	62.75
332.715	95.75
332.943	79.75
333.172	71.75
333.4	87.75
333.629	57.75
333.857	79.75
334.085	91.75
334.314	82.75
334.542	85.75
334.771	79.75
334.999	88.75
335.227	72.75
335.455	75.75
335.684	93.75
335.912	90.75
336.14	87.75
336.369	70.75
336.597	87.75
336.825	83.75
337.053	80.75
337.281	84.75
337.51	76.75
337.738	77.75
337.966	68.75
338.194	83.75
338.422	87.75
338.65	88.75
338.878	92.75
339.106	71.75
339.334	81.75
339.562	89.75
339.79	76.75
340.018	80.75
340.246	77.75
340.474	80.75
340.702	84.75
340.93	81.75
341.158	87.75
341.386	84.75
341.614	85.75
341.842	85.75
342.07	100.75
342.298	96.75
342.526	78.75
342.754	86.75
342.981	85.75
343.209	93.75
343.437	80.75
343.665	84.75
343.893	75.75
344.12	83.75
344.348	97.75
344.576	81.75
344.804	78.75
345.031	85.75
345.259	82.75
345.487	93.75
345.714	74.75
345.942	79.75
346.17	90.75
346.397	83.75
346.625	87.75
346.853	81.75
347.08	73.75
347.308	87.75
347.535	86.75
347.763	59.75
347.99	90.75
348.218	93.75
348.445	60.75
348.673	94.75
348.9	89.75
349.128	77.75
349.355	86.75
349.583	70.75
349.81	77.75
350.037	79.75
350.265	81.75
350.492	73.75
350.72	81.75
350.947	80.75
351.174	80.75
351.402	85.75
351.629	93.75
351.856	79.75
352.083	81.75
352.311	82.75
352.538	88.75
352.765	77.75
352.992	87.75
353.22	75.75
353.447	85.75
353.674	85.75
353.901	87.75
354.128	75.75
354.355	72.75
354.583	84.75
354.81	91.75
355.037	87.75
355.264	73.75
355.491	82.75
355.718	76.75
355.945	80.75
356.172	86.75
356.399	81.75
356.626	71.75
356.853	72.75
357.08	81.75
357.307	81.75
357.534	76.75
357.761	81.75
357.988	77.75
358.215	86.75
358.441	80.75
358.668	95.75
358.895	83.75
359.122	79.75
359.349	77.75
359.576	87.75
359.802	80.75
360.029	81.75
360.256	76.75
360.483	88.75
360.709	76.75
360.936	81.75
361.163	65.75
361.39	79.75
361.616	93.75
361.843	87.75
362.07	80.75
362.296	79.75
362.523	75.75
362.749	63.75
362.976	84.75
363.203	86.75
363.429	72.75
363.656	95.75
363.882	83.75
364.109	85.75
364.335	84.75
364.562	84.75
364.788	72.75
365.015	88.75
365.241	80.75
365.468	85.75
365.694	80.75
365.92	67.75
366.147	85.75
366.373	69.75
366.599	75.75
366.826	93.75
367.052	94.75
367.278	64.75
367.505	81.75
367.731	84.75
367.957	75.75
368.184	72.75
368.41	96.75
368.636	73.75
368.862	76.75
369.089	75.75
369.315	86.75
369.541	81.75
369.767	92.75
369.993	75.75
370.219	71.75
370.445	91.75
370.672	83.75
370.898	77.75
371.124	82.75
371.35	91.75
371.576	79.75
371.802	88.75
372.028	76.75
372.254	83.75
372.48	89.75
372.706	96.75
372.932	70.75
373.158	82.75
373.384	82.75
373.61	87.75
373.835	97.75
374.061	95.75
374.287	79.75
374.513	83.75
374.739	86.75
374.965	80.75
375.191	80.75
375.416	73.75
375.642	92.75
375.868	75.75
376.094	72.75
376.319	72.75
376.545	70.75
376.771	72.75
376.997	78.75
377.222	80.75
377.448	94.75
377.674	101.75
377.899	75.75
378.125	82.75
378.35	71.75
378.576	87.75
378.802	87.75
379.027	83.75
379.253	91.75
379.478	77.75
379.704	84.75
379.929	92.75
380.155	85.75
380.38	68.75
380.606	81.75
380.831	81.75
381.057	74.75
381.282	69.75
381.507	91.75
381.733	87.75
381.958	90.75
382.184	90.75
382.409	88.75
382.634	83.75
382.86	90.75
383.085	90.75
383.31	72.75
383.535	90.75
383.761	94.75
383.986	87.75
384.211	89.75
384.436	82.75
384.662	91.75
384.887	87.75
385.112	69.75
385.337	79.75
385.562	76.75
385.787	72.75
386.013	79.75
386.238	67.75
386.463	79.75
386.688	71.75
386.913	75.75
387.138	82.75
387.363	82.75
387.588	81.75
387.813	80.75
388.038	84.75
388.263	94.75
388.488	78.75
388.713	75.75
388.938	79.75
389.163	79.75
389.387	77.75
389.612	82.75
389.837	85.75
390.062	85.75
390.287	73.75
390.512	71.75
390.736	94.75
390.961	80.75
391.186	88.75
391.411	85.75
391.636	89.75
391.86	82.75
392.085	72.75
392.31	86.75
392.534	84.75
392.759	73.75
392.984	88.75
393.208	73.75
393.433	94.75
393.658	96.75
393.882	84.75
394.107	88.75
394.331	82.75
394.556	78.75
394.78	96.75
395.005	87.75
395.229	76.75
395.454	82.75
395.678	79.75
395.903	69.75
396.127	94.75
396.352	85.75
396.576	88.75
396.801	88.75
397.025	75.75
397.249	77.75
397.474	86.75
397.698	79.75
397.922	99.75
398.147	81.75
398.371	89.75
398.595	95.75
398.82	82.75
399.044	79.75
399.268	86.75
399.492	75.75
399.717	98.75
399.941	79.75
400.165	84.75
400.389	76.75
400.613	65.75
400.837	71.75
401.062	78.75
401.286	77.75
401.51	102.75
401.734	96.75
401.958	89.75
402.182	91.75
402.406	91.75
402.63	79.75
402.854	83.75
403.078	84.75
403.302	90.75
403.526	84.75
403.75	85.75
403.974	80.75
404.198	96.75
404.422	89.75
404.645	88.75
404.869	91.75
405.093	88.75
405.317	82.75
405.541	76.75
405.765	88.75
405.988	82.75
406.212	69.75
406.436	73.75
406.66	81.75
406.883	90.75
407.107	87.75
407.331	83.75
407.555	68.75
407.778	92.75
408.002	89.75
408.226	83.75
408.449	73.75
408.673	70.75
408.896	84.75
409.12	83.75
409.344	70.75
409.567	81.75
409.791	93.75
410.014	78.75
410.238	82.75
410.461	83.75
410.685	85.75
410.908	96.75
411.132	99.75
411.355	100.75
411.578	96.75
411.802	84.75
412.025	96.75
412.249	83.75
412.472	73.75
412.695	99.75
412.919	83.75
413.142	84.75
413.365	86.75
413.589	88.75
413.812	74.75
414.035	79.75
414.258	80.75
414.482	101.75
414.705	85.75
414.928	88.75
415.151	88.75
415.374	91.75
415.597	91.75
415.821	88.75
416.044	79.75
416.267	88.75
416.49	100.75
416.713	95.75
416.936	90.75
417.159	92.75
417.382	81.75
417.605	98.75
417.828	87.75
418.051	87.75
418.274	70.75
418.497	100.75
418.72	92.75
418.943	85.75
419.166	103.75
419.389	95.75
419.611	87.75
419.834	94.75
420.057	94.75
420.28	82.75
420.503	100.75
420.726	91.75
420.948	77.75
421.171	97.75
421.394	101.75
421.617	93.75
421.839	91.75
422.062	89.75
422.285	78.75
422.507	74.75
422.73	84.75
422.953	97.75
423.175	99.75
423.398	103.75
423.621	86.75
423.843	92.75
424.066	92.75
424.288	92.75
424.511	104.75
424.733	99.75
424.956	89.75
425.178	95.75
425.401	88.75
425.623	87.75
425.846	95.75
426.068	82.75
426.291	87.75
426.513	91.75
426.735	97.75
426.958	105.75
427.18	88.75
427.402	88.75
427.625	82.75
427.847	76.75
428.069	83.75
428.292	89.75
428.514	86.75
428.736	99.75
428.958	98.75
429.181	84.75
429.403	101.75
429.625	87.75
429.847	83.75
430.069	73.75
430.292	80.75
430.514	85.75
430.736	96.75
430.958	88.75
431.18	85.75
431.402	95.75
431.624	90.75
431.846	70.75
432.068	74.75
432.29	80.75
432.512	84.75
432.734	91.75
432.956	101.75
433.178	113.75
433.4	87.75
433.622	93.75
433.844	95.75
434.066	83.75
434.287	80.75
434.509	96.75
434.731	72.75
434.953	89.75
435.175	87.75
435.397	93.75
435.618	81.75
435.84	79.75
436.062	78.75
436.284	82.75
436.505	79.75
436.727	92.75
436.949	90.75
437.17	86.75
437.392	92.75
437.614	81.75
437.835	83.75
438.057	84.75
438.278	99.75
438.5	83.75
438.721	86.75
438.943	102.75
439.165	108.75
439.386	93.75
439.608	111.75
439.829	104.75
440.05	97.75
440.272	98.75
440.493	77.75
440.715	92.75
440.936	96.75
441.158	84.75
441.379	99.75
441.6	96.75
441.822	92.75
442.043	87.75
442.264	100.75
442.486	96.75
442.707	86.75
442.928	103.75
443.149	89.75
443.371	85.75
443.592	86.75
443.813	112.75
444.034	97.75
444.255	104.75
444.476	86.75
444.698	97.75
444.919	82.75
445.14	206.75
445.361	152.75
445.582	96.75
445.803	102.75
446.024	100.75
446.245	87.75
446.466	91.75
446.687	102.75
446.908	83.75
447.129	102.75
447.35	83.75
447.571	89.75
447.792	102.75
448.013	101.75
448.234	102.75
448.455	98.75
448.675	102.75
448.896	96.75
449.117	97.75
449.338	98.75
449.559	92.75
449.779	94.75
450	95.75
450.221	94.75
450.442	93.75
450.662	79.75
450.883	76.75
451.104	91.75
451.324	70.75
451.545	94.75
451.766	97.75
451.986	100.75
452.207	91.75
452.428	94.75
452.648	83.75
452.869	85.75
453.089	76.75
453.31	69.75
453.53	78.75
453.751	80.75
453.971	97.75
454.192	86.75
454.412	73.75
454.633	83.75
454.853	82.75
455.073	79.75
455.294	81.75
455.514	92.75
455.734	88.75
455.955	79.75
456.175	70.75
456.395	81.75
456.616	79.75
456.836	86.75
457.056	98.75
457.276	79.75
457.497	87.75
457.717	78.75
457.937	75.75
458.157	83.75
458.377	83.75
458.598	84.75
458.818	81.75
459.038	79.75
459.258	85.75
459.478	94.75
459.698	82.75
459.918	95.75
460.138	68.75
460.358	81.75
460.578	80.75
460.798	98.75
461.018	83.75
461.238	86.75
461.458	87.75
461.678	79.75
461.898	95.75
462.118	72.75
462.338	100.75
462.558	91.75
462.777	79.75
462.997	84.75
463.217	102.75
463.437	88.75
463.657	80.75
463.876	75.75
464.096	86.75
464.316	75.75
464.536	81.75
464.755	80.75
464.975	81.75
465.195	86.75
465.414	86.75
465.634	91.75
465.854	80.75
466.073	98.75
466.293	77.75
466.512	85.75
466.732	103.75
466.951	89.75
467.171	88.75
467.391	93.75
467.61	97.75
467.829	98.75
468.049	102.75
468.268	103.75
468.488	88.75
468.707	77.75
468.927	90.75
469.146	96.75
469.365	100.75
469.585	97.75
469.804	89.75
470.023	93.75
470.243	78.75
470.462	90.75
470.681	102.75
470.901	95.75
471.12	79.75
471.339	95.75
471.558	93.75
471.777	99.75
471.997	89.75
472.216	96.75
472.435	83.75
472.654	75.75
472.873	91.75
473.092	85.75
473.311	90.75
473.53	103.75
473.749	89.75
473.968	91.75
474.187	101.75
474.406	78.75
474.625	96.75
474.844	84.75
475.063	88.75
475.282	99.75
475.501	88.75
475.72	96.75
475.939	94.75
476.158	84.75
476.377	88.75
476.596	98.75
476.814	99.75
477.033	81.75
477.252	83.75
477.471	76.75
477.69	95.75
477.908	106.75
478.127	102.75
478.346	95.75
478.564	86.75
478.783	94.75
479.002	91.75
479.22	97.75
479.439	93.75
479.658	75.75
479.876	83.75
480.095	76.75
480.313	91.75
480.532	85.75
480.751	87.75
480.969	84.75
481.188	79.75
481.406	84.75
481.624	72.75
481.843	78.75
482.061	83.75
482.28	80.75
482.498	80.75
482.717	87.75
482.935	89.75
483.153	104.75
483.372	98.75
483.59	112.75
483.808	94.75
484.027	91.75
484.245	104.75
484.463	94.75
484.681	104.75
484.9	88.75
485.118	96.75
485.336	98.75
485.554	83.75
485.772	72.75
485.99	72.75
486.209	77.75
486.427	91.75
486.645	86.75
486.863	91.75
487.081	86.75
487.299	102.75
487.517	100.75
487.735	118.75
487.953	123.75
488.171	102.75
488.389	97.75
488.607	97.75
488.825	105.75
489.043	97.75
489.261	97.75
489.479	100.75
489.696	95.75
489.914	89.75
490.132	105.75
490.35	107.75
490.568	94.75
490.786	115.75
491.003	109.75
491.221	119.75
491.439	107.75
491.657	101.75
491.874	114.75
492.092	118.75
492.31	123.75
492.527	121.75
492.745	125.75
492.963	108.75
493.18	101.75
493.398	112.75
493.615	100.75
493.833	100.75
494.05	93.75
494.268	115.75
494.485	109.75
494.703	114.75
494.92	113.75
495.138	101.75
495.355	94.75
495.573	103.75
495.79	94.75
496.008	98.75
496.225	98.75
496.442	115.75
496.66	104.75
496.877	85.75
497.094	105.75
497.312	97.75
497.529	110.75
497.746	105.75
497.963	98.75
498.181	110.75
498.398	97.75
498.615	94.75
498.832	85.75
499.049	84.75
499.267	87.75
499.484	87.75
499.701	82.75
499.918	99.75
500.135	97.75
500.352	93.75
500.569	105.75
500.786	102.75
501.003	89.75
501.22	92.75
501.437	93.75
501.654	104.75
501.871	92.75
502.088	118.75
502.305	101.75
502.522	99.75
502.739	98.75
502.956	96.75
503.172	91.75
503.389	78.75
503.606	94.75
503.823	110.75
504.04	83.75
504.256	91.75
504.473	87.75
504.69	97.75
504.907	90.75
505.123	87.75
505.34	87.75
505.557	79.75
505.773	85.75
505.99	93.75
506.207	86.75
506.423	86.75
506.64	87.75
506.856	107.75
507.073	87.75
507.289	91.75
507.506	84.75
507.722	99.75
507.939	92.75
508.155	83.75
508.372	92.75
508.588	86.75
508.805	90.75
509.021	82.75
509.238	93.75
509.454	89.75
509.67	79.75
509.887	80.75
510.103	97.75
510.319	65.75
510.536	83.75
510.752	86.75
510.968	78.75
511.184	90.75
511.401	74.75
511.617	70.75
511.833	85.75
512.049	84.75
512.265	84.75
512.481	96.75
512.698	81.75
512.914	83.75
513.13	79.75
513.346	89.75
513.562	93.75
513.778	82.75
513.994	65.75
514.21	95.75
514.426	76.75
514.642	90.75
514.858	64.75
515.074	79.75
515.29	75.75
515.506	72.75
515.721	83.75
515.937	75.75
516.153	79.75
516.369	80.75
516.585	80.75
516.801	81.75
517.016	81.75
517.232	81.75
517.448	79.75
517.664	82.75
517.879	64.75
518.095	70.75
