Data from Location3.07152019.Energy5.Lamp.07192019.3%Agarose_HRD10591_15-17-29-269.txt Node
Date: Fri Jul 19 15:17:29 EDT 2019
User: cochatt
Spectrometer: HR+D1059
Trigger mode: 1
Integration Time (sec): 1.000000E-1
Scans to average: 1
Electric dark correction enabled: true
Nonlinearity correction enabled: false
Boxcar width: 0
XAxis mode: Wavelengths
Number of Pixels in Spectrum: 2048
>>>>>Begin Spectral Data<<<<<
223.165	-15.25
223.4	-15.25
223.635	-15.25
223.869	-6.25
224.104	-20.25
224.338	-16.25
224.573	-25.25
224.808	-24.25
225.042	-4.25
225.277	-5.25
225.511	7.75
225.746	7.75
225.98	-0.25
226.215	11.75
226.449	17.75
226.683	27.75
226.918	21.75
227.152	22.75
227.387	42.75
227.621	24.75
227.856	44.75
228.09	41.75
228.324	38.75
228.559	58.75
228.793	56.75
229.027	67.75
229.262	62.75
229.496	60.75
229.73	71.75
229.964	64.75
230.199	69.75
230.433	68.75
230.667	64.75
230.901	68.75
231.136	66.75
231.37	88.75
231.604	76.75
231.838	89.75
232.072	81.75
232.306	67.75
232.541	69.75
232.775	83.75
233.009	81.75
233.243	85.75
233.477	81.75
233.711	85.75
233.945	80.75
234.179	80.75
234.413	83.75
234.647	85.75
234.881	74.75
235.115	64.75
235.349	86.75
235.583	82.75
235.817	69.75
236.051	79.75
236.285	70.75
236.519	78.75
236.753	96.75
236.987	68.75
237.221	78.75
237.455	80.75
237.689	96.75
237.922	63.75
238.156	79.75
238.39	76.75
238.624	75.75
238.858	78.75
239.091	80.75
239.325	76.75
239.559	77.75
239.793	68.75
240.027	77.75
240.26	76.75
240.494	70.75
240.728	84.75
240.961	78.75
241.195	66.75
241.429	86.75
241.662	73.75
241.896	68.75
242.13	71.75
242.363	81.75
242.597	74.75
242.83	66.75
243.064	86.75
243.298	86.75
243.531	92.75
243.765	73.75
243.998	75.75
244.232	76.75
244.465	87.75
244.699	88.75
244.932	79.75
245.166	80.75
245.399	90.75
245.633	90.75
245.866	87.75
246.099	77.75
246.333	83.75
246.566	80.75
246.8	82.75
247.033	88.75
247.266	75.75
247.5	72.75
247.733	71.75
247.966	76.75
248.2	72.75
248.433	75.75
248.666	74.75
248.899	86.75
249.133	73.75
249.366	78.75
249.599	87.75
249.832	76.75
250.066	86.75
250.299	72.75
250.532	60.75
250.765	89.75
250.998	80.75
251.231	82.75
251.465	82.75
251.698	70.75
251.931	79.75
252.164	79.75
252.397	78.75
252.63	83.75
252.863	77.75
253.096	75.75
253.329	85.75
253.562	88.75
253.795	83.75
254.028	66.75
254.261	72.75
254.494	81.75
254.727	87.75
254.96	78.75
255.193	78.75
255.426	87.75
255.659	83.75
255.892	75.75
256.124	76.75
256.357	95.75
256.59	83.75
256.823	79.75
257.056	86.75
257.289	74.75
257.521	87.75
257.754	80.75
257.987	92.75
258.22	80.75
258.452	81.75
258.685	72.75
258.918	80.75
259.151	80.75
259.383	88.75
259.616	83.75
259.849	64.75
260.081	82.75
260.314	98.75
260.547	90.75
260.779	82.75
261.012	93.75
261.244	66.75
261.477	85.75
261.71	93.75
261.942	81.75
262.175	79.75
262.407	94.75
262.64	93.75
262.872	80.75
263.105	101.75
263.337	85.75
263.57	83.75
263.802	88.75
264.035	84.75
264.267	85.75
264.499	72.75
264.732	86.75
264.964	83.75
265.197	94.75
265.429	88.75
265.661	84.75
265.894	75.75
266.126	87.75
266.358	88.75
266.591	75.75
266.823	87.75
267.055	84.75
267.287	75.75
267.52	93.75
267.752	73.75
267.984	78.75
268.216	98.75
268.448	81.75
268.681	74.75
268.913	88.75
269.145	75.75
269.377	75.75
269.609	88.75
269.841	75.75
270.073	77.75
270.306	88.75
270.538	89.75
270.77	78.75
271.002	82.75
271.234	73.75
271.466	74.75
271.698	81.75
271.93	87.75
272.162	85.75
272.394	84.75
272.626	90.75
272.858	93.75
273.09	89.75
273.322	69.75
273.553	84.75
273.785	92.75
274.017	82.75
274.249	101.75
274.481	81.75
274.713	74.75
274.945	88.75
275.176	76.75
275.408	100.75
275.64	95.75
275.872	80.75
276.104	90.75
276.335	83.75
276.567	87.75
276.799	76.75
277.031	77.75
277.262	94.75
277.494	82.75
277.726	72.75
277.957	86.75
278.189	76.75
278.421	81.75
278.652	80.75
278.884	83.75
279.115	82.75
279.347	93.75
279.579	85.75
279.81	81.75
280.042	73.75
280.273	91.75
280.505	88.75
280.736	92.75
280.968	87.75
281.199	76.75
281.431	86.75
281.662	81.75
281.894	69.75
282.125	70.75
282.356	83.75
282.588	89.75
282.819	94.75
283.051	76.75
283.282	85.75
283.513	90.75
283.745	87.75
283.976	81.75
284.207	69.75
284.439	90.75
284.67	81.75
284.901	87.75
285.132	98.75
285.364	78.75
285.595	73.75
285.826	89.75
286.057	81.75
286.288	91.75
286.52	90.75
286.751	72.75
286.982	84.75
287.213	84.75
287.444	95.75
287.675	86.75
287.906	94.75
288.138	89.75
288.369	84.75
288.6	82.75
288.831	90.75
289.062	80.75
289.293	88.75
289.524	74.75
289.755	73.75
289.986	70.75
290.217	90.75
290.448	83.75
290.679	80.75
290.91	100.75
291.141	82.75
291.371	78.75
291.602	82.75
291.833	69.75
292.064	92.75
292.295	88.75
292.526	69.75
292.757	89.75
292.987	83.75
293.218	106.75
293.449	77.75
293.68	82.75
293.91	71.75
294.141	90.75
294.372	101.75
294.603	102.75
294.833	81.75
295.064	97.75
295.295	87.75
295.525	91.75
295.756	83.75
295.987	91.75
296.217	89.75
296.448	87.75
296.679	89.75
296.909	77.75
297.14	94.75
297.37	81.75
297.601	81.75
297.831	92.75
298.062	79.75
298.292	75.75
298.523	90.75
298.753	92.75
298.984	90.75
299.214	88.75
299.445	89.75
299.675	75.75
299.905	89.75
300.136	77.75
300.366	82.75
300.597	86.75
300.827	84.75
301.057	84.75
301.288	90.75
301.518	87.75
301.748	78.75
301.979	76.75
302.209	81.75
302.439	79.75
302.669	69.75
302.9	92.75
303.13	84.75
303.36	81.75
303.59	88.75
303.82	90.75
304.051	97.75
304.281	88.75
304.511	97.75
304.741	93.75
304.971	78.75
305.201	93.75
305.431	85.75
305.661	74.75
305.891	86.75
306.121	89.75
306.352	84.75
306.582	88.75
306.812	99.75
307.042	86.75
307.272	76.75
307.502	85.75
307.731	76.75
307.961	105.75
308.191	91.75
308.421	83.75
308.651	102.75
308.881	84.75
309.111	87.75
309.341	75.75
309.571	68.75
309.8	93.75
310.03	89.75
310.26	84.75
310.49	89.75
310.72	87.75
310.949	102.75
311.179	86.75
311.409	100.75
311.639	72.75
311.868	89.75
312.098	77.75
312.328	88.75
312.557	86.75
312.787	82.75
313.017	93.75
313.246	91.75
313.476	86.75
313.706	74.75
313.935	87.75
314.165	81.75
314.394	72.75
314.624	83.75
314.853	96.75
315.083	77.75
315.312	89.75
315.542	88.75
315.771	94.75
316.001	78.75
316.23	89.75
316.46	86.75
316.689	95.75
316.919	78.75
317.148	92.75
317.377	88.75
317.607	90.75
317.836	73.75
318.065	68.75
318.295	75.75
318.524	79.75
318.753	94.75
318.983	87.75
319.212	83.75
319.441	101.75
319.67	76.75
319.9	82.75
320.129	100.75
320.358	89.75
320.587	88.75
320.816	83.75
321.046	91.75
321.275	88.75
321.504	91.75
321.733	86.75
321.962	99.75
322.191	89.75
322.42	88.75
322.649	99.75
322.878	82.75
323.108	76.75
323.337	87.75
323.566	85.75
323.795	89.75
324.024	72.75
324.253	77.75
324.482	78.75
324.71	85.75
324.939	83.75
325.168	79.75
325.397	70.75
325.626	87.75
325.855	86.75
326.084	78.75
326.313	86.75
326.542	98.75
326.77	91.75
326.999	80.75
327.228	78.75
327.457	78.75
327.686	88.75
327.914	80.75
328.143	92.75
328.372	85.75
328.6	95.75
328.829	87.75
329.058	85.75
329.287	92.75
329.515	81.75
329.744	103.75
329.972	88.75
330.201	84.75
330.43	95.75
330.658	84.75
330.887	86.75
331.115	89.75
331.344	90.75
331.572	93.75
331.801	80.75
332.03	89.75
332.258	87.75
332.486	79.75
332.715	90.75
332.943	88.75
333.172	77.75
333.4	76.75
333.629	84.75
333.857	83.75
334.085	80.75
334.314	63.75
334.542	81.75
334.771	86.75
334.999	94.75
335.227	84.75
335.455	88.75
335.684	90.75
335.912	86.75
336.14	93.75
336.369	99.75
336.597	85.75
336.825	81.75
337.053	84.75
337.281	86.75
337.51	79.75
337.738	82.75
337.966	75.75
338.194	77.75
338.422	78.75
338.65	74.75
338.878	80.75
339.106	102.75
339.334	86.75
339.562	91.75
339.79	89.75
340.018	77.75
340.246	76.75
340.474	75.75
340.702	83.75
340.93	77.75
341.158	75.75
341.386	86.75
341.614	72.75
341.842	84.75
342.07	85.75
342.298	94.75
342.526	94.75
342.754	96.75
342.981	69.75
343.209	94.75
343.437	59.75
343.665	91.75
343.893	72.75
344.12	82.75
344.348	86.75
344.576	77.75
344.804	79.75
345.031	83.75
345.259	69.75
345.487	90.75
345.714	87.75
345.942	80.75
346.17	94.75
346.397	83.75
346.625	87.75
346.853	89.75
347.08	74.75
347.308	94.75
347.535	68.75
347.763	93.75
347.99	77.75
348.218	89.75
348.445	85.75
348.673	81.75
348.9	90.75
349.128	95.75
349.355	80.75
349.583	85.75
349.81	73.75
350.037	95.75
350.265	82.75
350.492	73.75
350.72	84.75
350.947	83.75
351.174	82.75
351.402	82.75
351.629	86.75
351.856	74.75
352.083	88.75
352.311	98.75
352.538	64.75
352.765	98.75
352.992	94.75
353.22	97.75
353.447	82.75
353.674	88.75
353.901	86.75
354.128	86.75
354.355	86.75
354.583	76.75
354.81	84.75
355.037	69.75
355.264	76.75
355.491	90.75
355.718	89.75
355.945	85.75
356.172	74.75
356.399	88.75
356.626	86.75
356.853	98.75
357.08	84.75
357.307	94.75
357.534	82.75
357.761	75.75
357.988	100.75
358.215	89.75
358.441	83.75
358.668	71.75
358.895	64.75
359.122	77.75
359.349	74.75
359.576	94.75
359.802	86.75
360.029	92.75
360.256	90.75
360.483	100.75
360.709	96.75
360.936	85.75
361.163	89.75
361.39	91.75
361.616	105.75
361.843	81.75
362.07	79.75
362.296	78.75
362.523	97.75
362.749	78.75
362.976	81.75
363.203	97.75
363.429	70.75
363.656	91.75
363.882	74.75
364.109	99.75
364.335	86.75
364.562	90.75
364.788	83.75
365.015	90.75
365.241	94.75
365.468	84.75
365.694	74.75
365.92	91.75
366.147	77.75
366.373	88.75
366.599	92.75
366.826	91.75
367.052	90.75
367.278	79.75
367.505	87.75
367.731	88.75
367.957	82.75
368.184	91.75
368.41	93.75
368.636	89.75
368.862	91.75
369.089	80.75
369.315	81.75
369.541	100.75
369.767	94.75
369.993	94.75
370.219	88.75
370.445	78.75
370.672	91.75
370.898	82.75
371.124	79.75
371.35	88.75
371.576	101.75
371.802	85.75
372.028	75.75
372.254	79.75
372.48	84.75
372.706	83.75
372.932	91.75
373.158	74.75
373.384	73.75
373.61	86.75
373.835	96.75
374.061	81.75
374.287	83.75
374.513	88.75
374.739	80.75
374.965	78.75
375.191	91.75
375.416	81.75
375.642	89.75
375.868	84.75
376.094	90.75
376.319	83.75
376.545	83.75
376.771	81.75
376.997	78.75
377.222	105.75
377.448	94.75
377.674	89.75
377.899	89.75
378.125	94.75
378.35	87.75
378.576	92.75
378.802	88.75
379.027	80.75
379.253	90.75
379.478	76.75
379.704	86.75
379.929	80.75
380.155	88.75
380.38	83.75
380.606	87.75
380.831	76.75
381.057	91.75
381.282	105.75
381.507	85.75
381.733	87.75
381.958	85.75
382.184	80.75
382.409	81.75
382.634	90.75
382.86	87.75
383.085	86.75
383.31	90.75
383.535	80.75
383.761	85.75
383.986	86.75
384.211	90.75
384.436	93.75
384.662	87.75
384.887	87.75
385.112	94.75
385.337	89.75
385.562	90.75
385.787	80.75
386.013	85.75
386.238	87.75
386.463	82.75
386.688	76.75
386.913	103.75
387.138	103.75
387.363	89.75
387.588	92.75
387.813	87.75
388.038	84.75
388.263	71.75
388.488	91.75
388.713	85.75
388.938	88.75
389.163	91.75
389.387	91.75
389.612	92.75
389.837	86.75
390.062	73.75
390.287	84.75
390.512	87.75
390.736	75.75
390.961	73.75
391.186	80.75
391.411	86.75
391.636	101.75
391.86	91.75
392.085	91.75
392.31	84.75
392.534	98.75
392.759	100.75
392.984	96.75
393.208	87.75
393.433	82.75
393.658	100.75
393.882	92.75
394.107	96.75
394.331	104.75
394.556	91.75
394.78	91.75
395.005	96.75
395.229	97.75
395.454	94.75
395.678	79.75
395.903	90.75
396.127	84.75
396.352	76.75
396.576	100.75
396.801	91.75
397.025	79.75
397.249	83.75
397.474	99.75
397.698	90.75
397.922	82.75
398.147	87.75
398.371	77.75
398.595	92.75
398.82	86.75
399.044	87.75
399.268	85.75
399.492	76.75
399.717	90.75
399.941	95.75
400.165	89.75
400.389	89.75
400.613	85.75
400.837	83.75
401.062	83.75
401.286	94.75
401.51	83.75
401.734	98.75
401.958	92.75
402.182	88.75
402.406	79.75
402.63	84.75
402.854	89.75
403.078	92.75
403.302	92.75
403.526	74.75
403.75	90.75
403.974	84.75
404.198	76.75
404.422	79.75
404.645	91.75
404.869	90.75
405.093	89.75
405.317	86.75
405.541	77.75
405.765	88.75
405.988	100.75
406.212	91.75
406.436	98.75
406.66	96.75
406.883	95.75
407.107	98.75
407.331	94.75
407.555	91.75
407.778	92.75
408.002	94.75
408.226	81.75
408.449	97.75
408.673	95.75
408.896	87.75
409.12	82.75
409.344	91.75
409.567	68.75
409.791	99.75
410.014	103.75
410.238	83.75
410.461	86.75
410.685	88.75
410.908	91.75
411.132	102.75
411.355	96.75
411.578	96.75
411.802	94.75
412.025	93.75
412.249	93.75
412.472	86.75
412.695	77.75
412.919	84.75
413.142	89.75
413.365	89.75
413.589	107.75
413.812	90.75
414.035	87.75
414.258	92.75
414.482	92.75
414.705	100.75
414.928	84.75
415.151	95.75
415.374	93.75
415.597	83.75
415.821	101.75
416.044	98.75
416.267	96.75
416.49	83.75
416.713	93.75
416.936	79.75
417.159	90.75
417.382	106.75
417.605	91.75
417.828	82.75
418.051	97.75
418.274	90.75
418.497	95.75
418.72	92.75
418.943	96.75
419.166	88.75
419.389	92.75
419.611	95.75
419.834	86.75
420.057	105.75
420.28	107.75
420.503	100.75
420.726	97.75
420.948	102.75
421.171	89.75
421.394	91.75
421.617	93.75
421.839	95.75
422.062	95.75
422.285	93.75
422.507	107.75
422.73	115.75
422.953	101.75
423.175	103.75
423.398	114.75
423.621	82.75
423.843	89.75
424.066	101.75
424.288	92.75
424.511	105.75
424.733	89.75
424.956	94.75
425.178	100.75
425.401	99.75
425.623	97.75
425.846	101.75
426.068	88.75
426.291	98.75
426.513	97.75
426.735	92.75
426.958	97.75
427.18	90.75
427.402	81.75
427.625	83.75
427.847	87.75
428.069	87.75
428.292	106.75
428.514	110.75
428.736	86.75
428.958	86.75
429.181	95.75
429.403	96.75
429.625	106.75
429.847	82.75
430.069	82.75
430.292	89.75
430.514	97.75
430.736	92.75
430.958	100.75
431.18	100.75
431.402	90.75
431.624	90.75
431.846	89.75
432.068	84.75
432.29	90.75
432.512	88.75
432.734	99.75
432.956	100.75
433.178	93.75
433.4	95.75
433.622	103.75
433.844	108.75
434.066	87.75
434.287	97.75
434.509	88.75
434.731	88.75
434.953	95.75
435.175	103.75
435.397	89.75
435.618	100.75
435.84	89.75
436.062	94.75
436.284	90.75
436.505	89.75
436.727	102.75
436.949	103.75
437.17	89.75
437.392	104.75
437.614	88.75
437.835	85.75
438.057	87.75
438.278	89.75
438.5	103.75
438.721	101.75
438.943	83.75
439.165	91.75
439.386	93.75
439.608	84.75
439.829	110.75
440.05	90.75
440.272	97.75
440.493	103.75
440.715	100.75
440.936	107.75
441.158	96.75
441.379	110.75
441.6	90.75
441.822	102.75
442.043	98.75
442.264	96.75
442.486	111.75
442.707	97.75
442.928	90.75
443.149	93.75
443.371	97.75
443.592	112.75
443.813	99.75
444.034	102.75
444.255	96.75
444.476	99.75
444.698	82.75
444.919	104.75
445.14	205.75
445.361	151.75
445.582	99.75
445.803	106.75
446.024	120.75
446.245	114.75
446.466	102.75
446.687	88.75
446.908	93.75
447.129	97.75
447.35	111.75
447.571	115.75
447.792	94.75
448.013	106.75
448.234	104.75
448.455	99.75
448.675	95.75
448.896	110.75
449.117	99.75
449.338	102.75
449.559	96.75
449.779	95.75
450	100.75
450.221	100.75
450.442	102.75
450.662	96.75
450.883	103.75
451.104	102.75
451.324	97.75
451.545	86.75
451.766	107.75
451.986	94.75
452.207	90.75
452.428	102.75
452.648	98.75
452.869	92.75
453.089	91.75
453.31	93.75
453.53	74.75
453.751	85.75
453.971	75.75
454.192	85.75
454.412	96.75
454.633	97.75
454.853	88.75
455.073	80.75
455.294	108.75
455.514	92.75
455.734	97.75
455.955	90.75
456.175	104.75
456.395	91.75
456.616	95.75
456.836	90.75
457.056	88.75
457.276	86.75
457.497	101.75
457.717	87.75
457.937	82.75
458.157	95.75
458.377	101.75
458.598	82.75
458.818	75.75
459.038	92.75
459.258	93.75
459.478	85.75
459.698	71.75
459.918	87.75
460.138	88.75
460.358	94.75
460.578	100.75
460.798	92.75
461.018	91.75
461.238	82.75
461.458	96.75
461.678	93.75
461.898	83.75
462.118	92.75
462.338	90.75
462.558	110.75
462.777	97.75
462.997	90.75
463.217	92.75
463.437	71.75
463.657	81.75
463.876	76.75
464.096	84.75
464.316	96.75
464.536	91.75
464.755	99.75
464.975	97.75
465.195	97.75
465.414	90.75
465.634	72.75
465.854	82.75
466.073	97.75
466.293	86.75
466.512	98.75
466.732	92.75
466.951	92.75
467.171	93.75
467.391	98.75
467.61	107.75
467.829	97.75
468.049	93.75
468.268	99.75
468.488	112.75
468.707	83.75
468.927	102.75
469.146	88.75
469.365	98.75
469.585	95.75
469.804	94.75
470.023	112.75
470.243	99.75
470.462	104.75
470.681	104.75
470.901	98.75
471.12	94.75
471.339	100.75
471.558	96.75
471.777	105.75
471.997	99.75
472.216	102.75
472.435	86.75
472.654	98.75
472.873	87.75
473.092	84.75
473.311	95.75
473.53	94.75
473.749	97.75
473.968	93.75
474.187	89.75
474.406	89.75
474.625	113.75
474.844	114.75
475.063	86.75
475.282	95.75
475.501	98.75
475.72	104.75
475.939	88.75
476.158	97.75
476.377	97.75
476.596	95.75
476.814	74.75
477.033	86.75
477.252	89.75
477.471	95.75
477.69	97.75
477.908	84.75
478.127	104.75
478.346	99.75
478.564	106.75
478.783	113.75
479.002	112.75
479.22	115.75
479.439	101.75
479.658	103.75
479.876	92.75
480.095	104.75
480.313	100.75
480.532	94.75
480.751	121.75
480.969	88.75
481.188	102.75
481.406	83.75
481.624	87.75
481.843	83.75
482.061	88.75
482.28	88.75
482.498	91.75
482.717	71.75
482.935	99.75
483.153	84.75
483.372	85.75
483.59	103.75
483.808	106.75
484.027	94.75
484.245	86.75
484.463	94.75
484.681	98.75
484.9	104.75
485.118	113.75
485.336	105.75
485.554	100.75
485.772	77.75
485.99	86.75
486.209	86.75
486.427	97.75
486.645	105.75
486.863	93.75
487.081	103.75
487.299	91.75
487.517	112.75
487.735	128.75
487.953	122.75
488.171	107.75
488.389	117.75
488.607	101.75
488.825	95.75
489.043	89.75
489.261	92.75
489.479	100.75
489.696	111.75
489.914	89.75
490.132	100.75
490.35	114.75
490.568	102.75
490.786	103.75
491.003	126.75
491.221	121.75
491.439	123.75
491.657	115.75
491.874	111.75
492.092	107.75
492.31	124.75
492.527	127.75
492.745	122.75
492.963	105.75
493.18	121.75
493.398	116.75
493.615	117.75
493.833	110.75
494.05	116.75
494.268	106.75
494.485	122.75
494.703	126.75
494.92	97.75
495.138	97.75
495.355	104.75
495.573	114.75
495.79	88.75
496.008	103.75
496.225	107.75
496.442	115.75
496.66	101.75
496.877	95.75
497.094	104.75
497.312	107.75
497.529	106.75
497.746	106.75
497.963	91.75
498.181	96.75
498.398	83.75
498.615	98.75
498.832	97.75
499.049	97.75
499.267	96.75
499.484	80.75
499.701	96.75
499.918	91.75
500.135	106.75
500.352	103.75
500.569	102.75
500.786	96.75
501.003	78.75
501.22	93.75
501.437	88.75
501.654	102.75
501.871	92.75
502.088	96.75
502.305	90.75
502.522	114.75
502.739	97.75
502.956	99.75
503.172	103.75
503.389	90.75
503.606	100.75
503.823	100.75
504.04	96.75
504.256	95.75
504.473	82.75
504.69	83.75
504.907	110.75
505.123	82.75
505.34	101.75
505.557	87.75
505.773	92.75
505.99	86.75
506.207	98.75
506.423	99.75
506.64	87.75
506.856	88.75
507.073	93.75
507.289	88.75
507.506	99.75
507.722	87.75
507.939	94.75
508.155	95.75
508.372	113.75
508.588	87.75
508.805	103.75
509.021	100.75
509.238	79.75
509.454	87.75
509.67	96.75
509.887	88.75
510.103	85.75
510.319	70.75
510.536	95.75
510.752	84.75
510.968	78.75
511.184	91.75
511.401	81.75
511.617	78.75
511.833	68.75
512.049	75.75
512.265	91.75
512.481	94.75
512.698	96.75
512.914	90.75
513.13	99.75
513.346	92.75
513.562	90.75
513.778	101.75
513.994	87.75
514.21	83.75
514.426	88.75
514.642	93.75
514.858	95.75
515.074	92.75
515.29	105.75
515.506	85.75
515.721	94.75
515.937	95.75
516.153	83.75
516.369	101.75
516.585	95.75
516.801	84.75
