Data from Location3.07152019.Energy5.Lamp.07192019.3%Agarose_HRD10591_15-17-07-269.txt Node
Date: Fri Jul 19 15:17:07 EDT 2019
User: cochatt
Spectrometer: HR+D1059
Trigger mode: 1
Integration Time (sec): 1.000000E-1
Scans to average: 1
Electric dark correction enabled: true
Nonlinearity correction enabled: false
Boxcar width: 0
XAxis mode: Wavelengths
Number of Pixels in Spectrum: 2048
>>>>>Begin Spectral Data<<<<<
223.165	2.12
223.4	2.12
223.635	2.12
223.869	-20.88
224.104	-9.88
224.338	-7.88
224.573	-22.88
224.808	-17.88
225.042	-13.88
225.277	-2.88
225.511	-6.88
225.746	-3.88
225.98	-3.88
226.215	7.12
226.449	17.12
226.683	20.12
226.918	39.12
227.152	25.12
227.387	25.12
227.621	33.12
227.856	48.12
228.09	38.12
228.324	49.12
228.559	56.12
228.793	59.12
229.027	63.12
229.262	55.12
229.496	67.12
229.73	64.12
229.964	79.12
230.199	73.12
230.433	68.12
230.667	64.12
230.901	63.12
231.136	65.12
231.37	79.12
231.604	75.12
231.838	78.12
232.072	80.12
232.306	89.12
232.541	74.12
232.775	80.12
233.009	94.12
233.243	91.12
233.477	78.12
233.711	78.12
233.945	87.12
234.179	90.12
234.413	84.12
234.647	77.12
234.881	76.12
235.115	69.12
235.349	89.12
235.583	83.12
235.817	75.12
236.051	72.12
236.285	73.12
236.519	91.12
236.753	91.12
236.987	76.12
237.221	64.12
237.455	82.12
237.689	79.12
237.922	74.12
238.156	89.12
238.39	70.12
238.624	77.12
238.858	62.12
239.091	92.12
239.325	69.12
239.559	71.12
239.793	66.12
240.027	73.12
240.26	69.12
240.494	74.12
240.728	75.12
240.961	69.12
241.195	81.12
241.429	69.12
241.662	80.12
241.896	87.12
242.13	80.12
242.363	85.12
242.597	80.12
242.83	73.12
243.064	70.12
243.298	73.12
243.531	81.12
243.765	73.12
243.998	82.12
244.232	71.12
244.465	79.12
244.699	73.12
244.932	72.12
245.166	82.12
245.399	91.12
245.633	79.12
245.866	77.12
246.099	71.12
246.333	80.12
246.566	73.12
246.8	76.12
247.033	70.12
247.266	81.12
247.5	84.12
247.733	80.12
247.966	83.12
248.2	77.12
248.433	87.12
248.666	81.12
248.899	80.12
249.133	72.12
249.366	73.12
249.599	81.12
249.832	80.12
250.066	82.12
250.299	73.12
250.532	86.12
250.765	80.12
250.998	79.12
251.231	81.12
251.465	75.12
251.698	78.12
251.931	76.12
252.164	91.12
252.397	76.12
252.63	76.12
252.863	79.12
253.096	73.12
253.329	78.12
253.562	77.12
253.795	82.12
254.028	83.12
254.261	82.12
254.494	79.12
254.727	93.12
254.96	72.12
255.193	82.12
255.426	68.12
255.659	75.12
255.892	80.12
256.124	78.12
256.357	76.12
256.59	97.12
256.823	78.12
257.056	91.12
257.289	81.12
257.521	88.12
257.754	65.12
257.987	86.12
258.22	76.12
258.452	81.12
258.685	74.12
258.918	79.12
259.151	81.12
259.383	74.12
259.616	85.12
259.849	88.12
260.081	97.12
260.314	79.12
260.547	84.12
260.779	75.12
261.012	74.12
261.244	75.12
261.477	71.12
261.71	89.12
261.942	76.12
262.175	69.12
262.407	78.12
262.64	90.12
262.872	75.12
263.105	77.12
263.337	80.12
263.57	83.12
263.802	96.12
264.035	88.12
264.267	87.12
264.499	89.12
264.732	91.12
264.964	80.12
265.197	88.12
265.429	89.12
265.661	92.12
265.894	77.12
266.126	96.12
266.358	84.12
266.591	83.12
266.823	83.12
267.055	71.12
267.287	78.12
267.52	87.12
267.752	90.12
267.984	89.12
268.216	71.12
268.448	91.12
268.681	78.12
268.913	90.12
269.145	81.12
269.377	79.12
269.609	83.12
269.841	85.12
270.073	89.12
270.306	99.12
270.538	84.12
270.77	83.12
271.002	79.12
271.234	98.12
271.466	77.12
271.698	90.12
271.93	77.12
272.162	84.12
272.394	83.12
272.626	82.12
272.858	80.12
273.09	89.12
273.322	83.12
273.553	82.12
273.785	78.12
274.017	79.12
274.249	92.12
274.481	84.12
274.713	73.12
274.945	96.12
275.176	85.12
275.408	77.12
275.64	74.12
275.872	77.12
276.104	82.12
276.335	83.12
276.567	95.12
276.799	81.12
277.031	69.12
277.262	83.12
277.494	80.12
277.726	71.12
277.957	88.12
278.189	81.12
278.421	90.12
278.652	74.12
278.884	80.12
279.115	81.12
279.347	98.12
279.579	83.12
279.81	86.12
280.042	76.12
280.273	89.12
280.505	93.12
280.736	78.12
280.968	74.12
281.199	80.12
281.431	82.12
281.662	81.12
281.894	91.12
282.125	78.12
282.356	95.12
282.588	83.12
282.819	75.12
283.051	72.12
283.282	86.12
283.513	95.12
283.745	85.12
283.976	86.12
284.207	80.12
284.439	76.12
284.67	75.12
284.901	90.12
285.132	90.12
285.364	75.12
285.595	94.12
285.826	77.12
286.057	84.12
286.288	82.12
286.52	82.12
286.751	92.12
286.982	92.12
287.213	78.12
287.444	71.12
287.675	84.12
287.906	76.12
288.138	71.12
288.369	77.12
288.6	87.12
288.831	92.12
289.062	91.12
289.293	94.12
289.524	77.12
289.755	80.12
289.986	79.12
290.217	86.12
290.448	80.12
290.679	84.12
290.91	93.12
291.141	88.12
291.371	70.12
291.602	79.12
291.833	83.12
292.064	68.12
292.295	83.12
292.526	68.12
292.757	80.12
292.987	75.12
293.218	79.12
293.449	80.12
293.68	75.12
293.91	78.12
294.141	74.12
294.372	80.12
294.603	75.12
294.833	76.12
295.064	70.12
295.295	87.12
295.525	86.12
295.756	79.12
295.987	83.12
296.217	79.12
296.448	87.12
296.679	96.12
296.909	98.12
297.14	90.12
297.37	65.12
297.601	79.12
297.831	91.12
298.062	86.12
298.292	84.12
298.523	71.12
298.753	83.12
298.984	75.12
299.214	73.12
299.445	74.12
299.675	71.12
299.905	92.12
300.136	74.12
300.366	87.12
300.597	92.12
300.827	73.12
301.057	78.12
301.288	80.12
301.518	76.12
301.748	80.12
301.979	90.12
302.209	93.12
302.439	86.12
302.669	88.12
302.9	75.12
303.13	75.12
303.36	73.12
303.59	86.12
303.82	79.12
304.051	79.12
304.281	80.12
304.511	74.12
304.741	99.12
304.971	89.12
305.201	87.12
305.431	84.12
305.661	94.12
305.891	94.12
306.121	84.12
306.352	92.12
306.582	90.12
306.812	73.12
307.042	86.12
307.272	86.12
307.502	83.12
307.731	101.12
307.961	79.12
308.191	85.12
308.421	87.12
308.651	105.12
308.881	86.12
309.111	93.12
309.341	72.12
309.571	90.12
309.8	72.12
310.03	88.12
310.26	74.12
310.49	67.12
310.72	77.12
310.949	87.12
311.179	75.12
311.409	84.12
311.639	82.12
311.868	73.12
312.098	94.12
312.328	86.12
312.557	94.12
312.787	90.12
313.017	93.12
313.246	77.12
313.476	80.12
313.706	88.12
313.935	77.12
314.165	100.12
314.394	94.12
314.624	85.12
314.853	86.12
315.083	88.12
315.312	90.12
315.542	88.12
315.771	89.12
316.001	86.12
316.23	83.12
316.46	89.12
316.689	96.12
316.919	90.12
317.148	78.12
317.377	83.12
317.607	88.12
317.836	89.12
318.065	90.12
318.295	70.12
318.524	74.12
318.753	71.12
318.983	86.12
319.212	82.12
319.441	81.12
319.67	78.12
319.9	77.12
320.129	73.12
320.358	85.12
320.587	87.12
320.816	87.12
321.046	91.12
321.275	79.12
321.504	81.12
321.733	86.12
321.962	86.12
322.191	94.12
322.42	84.12
322.649	88.12
322.878	83.12
323.108	86.12
323.337	89.12
323.566	93.12
323.795	70.12
324.024	79.12
324.253	84.12
324.482	82.12
324.71	72.12
324.939	99.12
325.168	83.12
325.397	90.12
325.626	93.12
325.855	78.12
326.084	86.12
326.313	74.12
326.542	84.12
326.77	68.12
326.999	74.12
327.228	92.12
327.457	88.12
327.686	86.12
327.914	98.12
328.143	76.12
328.372	90.12
328.6	88.12
328.829	89.12
329.058	75.12
329.287	86.12
329.515	79.12
329.744	90.12
329.972	97.12
330.201	75.12
330.43	90.12
330.658	92.12
330.887	70.12
331.115	76.12
331.344	83.12
331.572	83.12
331.801	80.12
332.03	82.12
332.258	82.12
332.486	75.12
332.715	83.12
332.943	62.12
333.172	82.12
333.4	80.12
333.629	90.12
333.857	76.12
334.085	82.12
334.314	76.12
334.542	70.12
334.771	84.12
334.999	88.12
335.227	90.12
335.455	59.12
335.684	75.12
335.912	84.12
336.14	76.12
336.369	82.12
336.597	75.12
336.825	83.12
337.053	70.12
337.281	83.12
337.51	100.12
337.738	82.12
337.966	84.12
338.194	74.12
338.422	75.12
338.65	73.12
338.878	91.12
339.106	91.12
339.334	78.12
339.562	84.12
339.79	97.12
340.018	79.12
340.246	75.12
340.474	90.12
340.702	72.12
340.93	82.12
341.158	93.12
341.386	81.12
341.614	81.12
341.842	75.12
342.07	75.12
342.298	65.12
342.526	75.12
342.754	84.12
342.981	79.12
343.209	95.12
343.437	77.12
343.665	79.12
343.893	92.12
344.12	94.12
344.348	78.12
344.576	85.12
344.804	64.12
345.031	66.12
345.259	76.12
345.487	88.12
345.714	86.12
345.942	83.12
346.17	81.12
346.397	94.12
346.625	91.12
346.853	92.12
347.08	94.12
347.308	86.12
347.535	85.12
347.763	92.12
347.99	91.12
348.218	81.12
348.445	79.12
348.673	75.12
348.9	83.12
349.128	88.12
349.355	80.12
349.583	84.12
349.81	97.12
350.037	76.12
350.265	91.12
350.492	79.12
350.72	82.12
350.947	69.12
351.174	76.12
351.402	88.12
351.629	82.12
351.856	80.12
352.083	79.12
352.311	77.12
352.538	81.12
352.765	84.12
352.992	85.12
353.22	65.12
353.447	68.12
353.674	66.12
353.901	75.12
354.128	80.12
354.355	84.12
354.583	76.12
354.81	84.12
355.037	84.12
355.264	81.12
355.491	88.12
355.718	90.12
355.945	83.12
356.172	88.12
356.399	89.12
356.626	82.12
356.853	81.12
357.08	71.12
357.307	87.12
357.534	72.12
357.761	80.12
357.988	74.12
358.215	74.12
358.441	75.12
358.668	87.12
358.895	78.12
359.122	92.12
359.349	79.12
359.576	89.12
359.802	75.12
360.029	94.12
360.256	92.12
360.483	69.12
360.709	78.12
360.936	86.12
361.163	80.12
361.39	83.12
361.616	94.12
361.843	80.12
362.07	94.12
362.296	84.12
362.523	83.12
362.749	82.12
362.976	75.12
363.203	90.12
363.429	87.12
363.656	86.12
363.882	83.12
364.109	89.12
364.335	100.12
364.562	87.12
364.788	62.12
365.015	83.12
365.241	73.12
365.468	77.12
365.694	82.12
365.92	80.12
366.147	88.12
366.373	81.12
366.599	86.12
366.826	84.12
367.052	68.12
367.278	92.12
367.505	78.12
367.731	74.12
367.957	87.12
368.184	74.12
368.41	81.12
368.636	88.12
368.862	74.12
369.089	82.12
369.315	96.12
369.541	72.12
369.767	82.12
369.993	87.12
370.219	82.12
370.445	76.12
370.672	83.12
370.898	69.12
371.124	82.12
371.35	83.12
371.576	82.12
371.802	82.12
372.028	90.12
372.254	79.12
372.48	86.12
372.706	87.12
372.932	95.12
373.158	71.12
373.384	78.12
373.61	83.12
373.835	71.12
374.061	68.12
374.287	67.12
374.513	82.12
374.739	75.12
374.965	84.12
375.191	95.12
375.416	84.12
375.642	84.12
375.868	78.12
376.094	76.12
376.319	88.12
376.545	78.12
376.771	82.12
376.997	90.12
377.222	85.12
377.448	84.12
377.674	84.12
377.899	84.12
378.125	86.12
378.35	94.12
378.576	65.12
378.802	97.12
379.027	82.12
379.253	95.12
379.478	93.12
379.704	89.12
379.929	76.12
380.155	75.12
380.38	68.12
380.606	66.12
380.831	75.12
381.057	95.12
381.282	78.12
381.507	88.12
381.733	85.12
381.958	102.12
382.184	70.12
382.409	69.12
382.634	86.12
382.86	70.12
383.085	92.12
383.31	87.12
383.535	79.12
383.761	76.12
383.986	85.12
384.211	91.12
384.436	75.12
384.662	88.12
384.887	74.12
385.112	76.12
385.337	84.12
385.562	74.12
385.787	85.12
386.013	82.12
386.238	86.12
386.463	91.12
386.688	88.12
386.913	90.12
387.138	83.12
387.363	87.12
387.588	82.12
387.813	86.12
388.038	84.12
388.263	100.12
388.488	96.12
388.713	83.12
388.938	76.12
389.163	80.12
389.387	88.12
389.612	102.12
389.837	74.12
390.062	88.12
390.287	75.12
390.512	84.12
390.736	84.12
390.961	95.12
391.186	89.12
391.411	95.12
391.636	75.12
391.86	88.12
392.085	81.12
392.31	82.12
392.534	93.12
392.759	93.12
392.984	88.12
393.208	78.12
393.433	83.12
393.658	84.12
393.882	89.12
394.107	80.12
394.331	90.12
394.556	79.12
394.78	78.12
395.005	78.12
395.229	87.12
395.454	79.12
395.678	85.12
395.903	90.12
396.127	87.12
396.352	97.12
396.576	83.12
396.801	71.12
397.025	83.12
397.249	86.12
397.474	72.12
397.698	74.12
397.922	88.12
398.147	82.12
398.371	88.12
398.595	90.12
398.82	89.12
399.044	94.12
399.268	83.12
399.492	78.12
399.717	97.12
399.941	93.12
400.165	108.12
400.389	82.12
400.613	59.12
400.837	85.12
401.062	92.12
401.286	99.12
401.51	78.12
401.734	82.12
401.958	87.12
402.182	83.12
402.406	79.12
402.63	77.12
402.854	98.12
403.078	94.12
403.302	82.12
403.526	98.12
403.75	84.12
403.974	89.12
404.198	98.12
404.422	97.12
404.645	92.12
404.869	94.12
405.093	90.12
405.317	90.12
405.541	92.12
405.765	80.12
405.988	91.12
406.212	82.12
406.436	81.12
406.66	98.12
406.883	95.12
407.107	82.12
407.331	89.12
407.555	94.12
407.778	92.12
408.002	98.12
408.226	88.12
408.449	98.12
408.673	90.12
408.896	97.12
409.12	97.12
409.344	90.12
409.567	89.12
409.791	80.12
410.014	81.12
410.238	81.12
410.461	90.12
410.685	98.12
410.908	92.12
411.132	90.12
411.355	95.12
411.578	96.12
411.802	96.12
412.025	97.12
412.249	97.12
412.472	93.12
412.695	87.12
412.919	89.12
413.142	90.12
413.365	96.12
413.589	81.12
413.812	91.12
414.035	101.12
414.258	94.12
414.482	95.12
414.705	80.12
414.928	96.12
415.151	94.12
415.374	92.12
415.597	88.12
415.821	77.12
416.044	84.12
416.267	87.12
416.49	86.12
416.713	90.12
416.936	100.12
417.159	94.12
417.382	88.12
417.605	81.12
417.828	69.12
418.051	80.12
418.274	101.12
418.497	90.12
418.72	94.12
418.943	99.12
419.166	97.12
419.389	99.12
419.611	105.12
419.834	102.12
420.057	94.12
420.28	96.12
420.503	86.12
420.726	98.12
420.948	91.12
421.171	90.12
421.394	99.12
421.617	92.12
421.839	105.12
422.062	92.12
422.285	96.12
422.507	91.12
422.73	88.12
422.953	94.12
423.175	86.12
423.398	90.12
423.621	83.12
423.843	110.12
424.066	104.12
424.288	88.12
424.511	91.12
424.733	92.12
424.956	73.12
425.178	98.12
425.401	86.12
425.623	83.12
425.846	83.12
426.068	103.12
426.291	92.12
426.513	84.12
426.735	94.12
426.958	104.12
427.18	101.12
427.402	91.12
427.625	95.12
427.847	91.12
428.069	97.12
428.292	85.12
428.514	96.12
428.736	69.12
428.958	93.12
429.181	99.12
429.403	84.12
429.625	92.12
429.847	85.12
430.069	91.12
430.292	92.12
430.514	102.12
430.736	105.12
430.958	92.12
431.18	93.12
431.402	85.12
431.624	94.12
431.846	88.12
432.068	76.12
432.29	81.12
432.512	89.12
432.734	89.12
432.956	106.12
433.178	97.12
433.4	98.12
433.622	114.12
433.844	95.12
434.066	93.12
434.287	98.12
434.509	85.12
434.731	88.12
434.953	86.12
435.175	101.12
435.397	88.12
435.618	74.12
435.84	79.12
436.062	92.12
436.284	86.12
436.505	106.12
436.727	98.12
436.949	96.12
437.17	97.12
437.392	103.12
437.614	88.12
437.835	82.12
438.057	73.12
438.278	83.12
438.5	83.12
438.721	105.12
438.943	87.12
439.165	88.12
439.386	102.12
439.608	111.12
439.829	89.12
440.05	100.12
440.272	82.12
440.493	99.12
440.715	97.12
440.936	109.12
441.158	82.12
441.379	85.12
441.6	98.12
441.822	104.12
442.043	91.12
442.264	86.12
442.486	91.12
442.707	83.12
442.928	91.12
443.149	86.12
443.371	95.12
443.592	93.12
443.813	103.12
444.034	91.12
444.255	101.12
444.476	100.12
444.698	111.12
444.919	98.12
445.14	223.12
445.361	158.12
445.582	94.12
445.803	98.12
446.024	104.12
446.245	108.12
446.466	103.12
446.687	108.12
446.908	108.12
447.129	100.12
447.35	103.12
447.571	107.12
447.792	88.12
448.013	98.12
448.234	102.12
448.455	115.12
448.675	101.12
448.896	100.12
449.117	103.12
449.338	95.12
449.559	100.12
449.779	105.12
450	104.12
450.221	104.12
450.442	93.12
450.662	105.12
450.883	77.12
451.104	97.12
451.324	100.12
451.545	95.12
451.766	86.12
451.986	107.12
452.207	92.12
452.428	88.12
452.648	90.12
452.869	99.12
453.089	97.12
453.31	80.12
453.53	87.12
453.751	97.12
453.971	96.12
454.192	70.12
454.412	70.12
454.633	82.12
454.853	96.12
455.073	86.12
455.294	80.12
455.514	115.12
455.734	93.12
455.955	93.12
456.175	81.12
456.395	82.12
456.616	89.12
456.836	86.12
457.056	90.12
457.276	84.12
457.497	100.12
457.717	78.12
457.937	83.12
458.157	86.12
458.377	98.12
458.598	83.12
458.818	86.12
459.038	80.12
459.258	90.12
459.478	80.12
459.698	88.12
459.918	84.12
460.138	89.12
460.358	75.12
460.578	85.12
460.798	93.12
461.018	101.12
461.238	85.12
461.458	98.12
461.678	97.12
461.898	89.12
462.118	94.12
462.338	81.12
462.558	95.12
462.777	96.12
462.997	96.12
463.217	92.12
463.437	103.12
463.657	93.12
463.876	86.12
464.096	88.12
464.316	72.12
464.536	75.12
464.755	89.12
464.975	82.12
465.195	83.12
465.414	84.12
465.634	95.12
465.854	89.12
466.073	89.12
466.293	83.12
466.512	92.12
466.732	95.12
466.951	104.12
467.171	97.12
467.391	98.12
467.61	100.12
467.829	104.12
468.049	94.12
468.268	107.12
468.488	108.12
468.707	83.12
468.927	88.12
469.146	90.12
469.365	107.12
469.585	111.12
469.804	106.12
470.023	111.12
470.243	104.12
470.462	105.12
470.681	91.12
470.901	102.12
471.12	89.12
471.339	96.12
471.558	92.12
471.777	97.12
471.997	92.12
472.216	80.12
472.435	102.12
472.654	76.12
472.873	97.12
473.092	83.12
473.311	105.12
473.53	92.12
473.749	88.12
473.968	100.12
474.187	103.12
474.406	84.12
474.625	90.12
474.844	95.12
475.063	98.12
475.282	99.12
475.501	85.12
475.72	106.12
475.939	87.12
476.158	102.12
476.377	103.12
476.596	79.12
476.814	86.12
477.033	86.12
477.252	91.12
477.471	85.12
477.69	88.12
477.908	95.12
478.127	98.12
478.346	85.12
478.564	93.12
478.783	111.12
479.002	92.12
479.22	102.12
479.439	90.12
479.658	102.12
479.876	82.12
480.095	91.12
480.313	96.12
480.532	97.12
480.751	83.12
480.969	82.12
481.188	85.12
481.406	81.12
481.624	76.12
481.843	83.12
482.061	89.12
482.28	94.12
482.498	86.12
482.717	85.12
482.935	100.12
483.153	100.12
483.372	107.12
483.59	103.12
483.808	95.12
484.027	94.12
484.245	100.12
484.463	97.12
484.681	109.12
484.9	99.12
485.118	90.12
485.336	103.12
485.554	91.12
485.772	74.12
485.99	82.12
486.209	88.12
486.427	84.12
486.645	93.12
486.863	89.12
487.081	100.12
487.299	87.12
487.517	104.12
487.735	109.12
487.953	110.12
488.171	120.12
488.389	113.12
488.607	105.12
488.825	86.12
489.043	108.12
489.261	110.12
489.479	94.12
489.696	91.12
489.914	103.12
490.132	98.12
490.35	103.12
490.568	94.12
490.786	104.12
491.003	113.12
491.221	98.12
491.439	117.12
491.657	98.12
491.874	123.12
492.092	118.12
492.31	136.12
492.527	118.12
492.745	131.12
492.963	116.12
493.18	112.12
493.398	107.12
493.615	105.12
493.833	123.12
494.05	99.12
494.268	110.12
494.485	103.12
494.703	124.12
494.92	123.12
495.138	124.12
495.355	126.12
495.573	113.12
495.79	97.12
496.008	128.12
496.225	124.12
496.442	115.12
496.66	116.12
496.877	111.12
497.094	104.12
497.312	109.12
497.529	96.12
497.746	96.12
497.963	105.12
498.181	118.12
498.398	103.12
498.615	84.12
498.832	84.12
499.049	86.12
499.267	90.12
499.484	89.12
499.701	76.12
499.918	92.12
500.135	100.12
500.352	93.12
500.569	98.12
500.786	107.12
501.003	102.12
501.22	98.12
501.437	104.12
501.654	109.12
501.871	92.12
502.088	95.12
502.305	89.12
502.522	104.12
502.739	102.12
502.956	98.12
503.172	97.12
503.389	81.12
503.606	104.12
503.823	108.12
504.04	97.12
504.256	92.12
504.473	97.12
504.69	76.12
504.907	97.12
505.123	95.12
505.34	98.12
505.557	107.12
505.773	88.12
505.99	96.12
506.207	98.12
506.423	117.12
506.64	98.12
506.856	88.12
507.073	111.12
507.289	95.12
507.506	92.12
507.722	85.12
507.939	94.12
508.155	92.12
508.372	89.12
508.588	95.12
508.805	95.12
509.021	93.12
509.238	90.12
509.454	86.12
509.67	90.12
509.887	98.12
510.103	97.12
510.319	77.12
510.536	96.12
510.752	95.12
510.968	74.12
511.184	74.12
511.401	80.12
511.617	92.12
511.833	79.12
512.049	84.12
512.265	85.12
512.481	79.12
512.698	83.12
512.914	92.12
513.13	78.12
513.346	63.12
513.562	96.12
513.778	71.12
513.994	83.12
514.21	88.12
514.426	80.12
514.642	89.12
514.858	70.12
515.074	81.12
515.29	85.12
515.506	101.12
515.721	89.12
515.937	85.12
516.153	82.12
516.369	63.12
516.585	78.12
516.801	67.12
517.016	81.12
517.232	103.12
517.448	89.12
