Data from Location3.07152019.Energy5.Lamp.07192019.3%Agarose_HRD10591_15-17-17-268.txt Node
Date: Fri Jul 19 15:17:17 EDT 2019
User: cochatt
Spectrometer: HR+D1059
Trigger mode: 1
Integration Time (sec): 1.000000E-1
Scans to average: 1
Electric dark correction enabled: true
Nonlinearity correction enabled: false
Boxcar width: 0
XAxis mode: Wavelengths
Number of Pixels in Spectrum: 2048
>>>>>Begin Spectral Data<<<<<
223.165	-10.75
223.4	-10.75
223.635	-10.75
223.869	-3.75
224.104	-26.75
224.338	2.25
224.573	-24.75
224.808	-14.75
225.042	-4.75
225.277	-3.75
225.511	-11.75
225.746	-0.75
225.98	16.25
226.215	10.25
226.449	-1.75
226.683	24.25
226.918	27.25
227.152	23.25
227.387	47.25
227.621	47.25
227.856	46.25
228.09	32.25
228.324	54.25
228.559	65.25
228.793	49.25
229.027	65.25
229.262	66.25
229.496	63.25
229.73	72.25
229.964	56.25
230.199	78.25
230.433	65.25
230.667	63.25
230.901	77.25
231.136	80.25
231.37	81.25
231.604	72.25
231.838	79.25
232.072	76.25
232.306	70.25
232.541	97.25
232.775	78.25
233.009	69.25
233.243	80.25
233.477	81.25
233.711	78.25
233.945	68.25
234.179	71.25
234.413	76.25
234.647	87.25
234.881	73.25
235.115	86.25
235.349	86.25
235.583	74.25
235.817	63.25
236.051	73.25
236.285	72.25
236.519	66.25
236.753	82.25
236.987	82.25
237.221	65.25
237.455	75.25
237.689	78.25
237.922	72.25
238.156	70.25
238.39	66.25
238.624	80.25
238.858	71.25
239.091	64.25
239.325	69.25
239.559	71.25
239.793	72.25
240.027	66.25
240.26	83.25
240.494	93.25
240.728	69.25
240.961	73.25
241.195	65.25
241.429	83.25
241.662	81.25
241.896	70.25
242.13	73.25
242.363	74.25
242.597	78.25
242.83	71.25
243.064	74.25
243.298	72.25
243.531	65.25
243.765	69.25
243.998	82.25
244.232	74.25
244.465	77.25
244.699	77.25
244.932	69.25
245.166	87.25
245.399	80.25
245.633	87.25
245.866	83.25
246.099	67.25
246.333	79.25
246.566	74.25
246.8	81.25
247.033	83.25
247.266	87.25
247.5	81.25
247.733	72.25
247.966	77.25
248.2	92.25
248.433	74.25
248.666	75.25
248.899	84.25
249.133	64.25
249.366	94.25
249.599	89.25
249.832	70.25
250.066	81.25
250.299	73.25
250.532	89.25
250.765	80.25
250.998	74.25
251.231	72.25
251.465	87.25
251.698	89.25
251.931	72.25
252.164	89.25
252.397	73.25
252.63	77.25
252.863	82.25
253.096	63.25
253.329	78.25
253.562	74.25
253.795	81.25
254.028	82.25
254.261	82.25
254.494	70.25
254.727	73.25
254.96	78.25
255.193	92.25
255.426	72.25
255.659	78.25
255.892	60.25
256.124	76.25
256.357	90.25
256.59	89.25
256.823	62.25
257.056	81.25
257.289	79.25
257.521	84.25
257.754	85.25
257.987	77.25
258.22	94.25
258.452	81.25
258.685	82.25
258.918	76.25
259.151	62.25
259.383	92.25
259.616	80.25
259.849	80.25
260.081	69.25
260.314	78.25
260.547	87.25
260.779	77.25
261.012	73.25
261.244	76.25
261.477	83.25
261.71	66.25
261.942	79.25
262.175	77.25
262.407	71.25
262.64	74.25
262.872	85.25
263.105	73.25
263.337	84.25
263.57	72.25
263.802	95.25
264.035	80.25
264.267	80.25
264.499	89.25
264.732	85.25
264.964	75.25
265.197	77.25
265.429	85.25
265.661	85.25
265.894	82.25
266.126	86.25
266.358	98.25
266.591	82.25
266.823	83.25
267.055	65.25
267.287	78.25
267.52	80.25
267.752	74.25
267.984	68.25
268.216	84.25
268.448	73.25
268.681	87.25
268.913	98.25
269.145	77.25
269.377	80.25
269.609	85.25
269.841	81.25
270.073	84.25
270.306	86.25
270.538	87.25
270.77	86.25
271.002	85.25
271.234	80.25
271.466	84.25
271.698	90.25
271.93	72.25
272.162	88.25
272.394	102.25
272.626	84.25
272.858	74.25
273.09	77.25
273.322	78.25
273.553	76.25
273.785	88.25
274.017	85.25
274.249	85.25
274.481	84.25
274.713	87.25
274.945	87.25
275.176	79.25
275.408	80.25
275.64	73.25
275.872	84.25
276.104	71.25
276.335	82.25
276.567	83.25
276.799	88.25
277.031	97.25
277.262	73.25
277.494	91.25
277.726	72.25
277.957	86.25
278.189	81.25
278.421	78.25
278.652	83.25
278.884	108.25
279.115	71.25
279.347	80.25
279.579	93.25
279.81	69.25
280.042	86.25
280.273	78.25
280.505	77.25
280.736	101.25
280.968	85.25
281.199	80.25
281.431	81.25
281.662	72.25
281.894	83.25
282.125	77.25
282.356	75.25
282.588	71.25
282.819	73.25
283.051	92.25
283.282	78.25
283.513	85.25
283.745	70.25
283.976	68.25
284.207	80.25
284.439	64.25
284.67	87.25
284.901	94.25
285.132	81.25
285.364	81.25
285.595	89.25
285.826	78.25
286.057	89.25
286.288	85.25
286.52	77.25
286.751	92.25
286.982	79.25
287.213	79.25
287.444	89.25
287.675	85.25
287.906	72.25
288.138	75.25
288.369	78.25
288.6	79.25
288.831	85.25
289.062	92.25
289.293	67.25
289.524	87.25
289.755	82.25
289.986	98.25
290.217	94.25
290.448	92.25
290.679	88.25
290.91	77.25
291.141	71.25
291.371	93.25
291.602	93.25
291.833	72.25
292.064	80.25
292.295	77.25
292.526	78.25
292.757	82.25
292.987	90.25
293.218	73.25
293.449	79.25
293.68	85.25
293.91	83.25
294.141	76.25
294.372	64.25
294.603	72.25
294.833	78.25
295.064	79.25
295.295	88.25
295.525	67.25
295.756	85.25
295.987	78.25
296.217	79.25
296.448	80.25
296.679	95.25
296.909	81.25
297.14	73.25
297.37	80.25
297.601	84.25
297.831	74.25
298.062	98.25
298.292	94.25
298.523	81.25
298.753	91.25
298.984	89.25
299.214	79.25
299.445	100.25
299.675	78.25
299.905	72.25
300.136	78.25
300.366	76.25
300.597	77.25
300.827	82.25
301.057	87.25
301.288	76.25
301.518	86.25
301.748	88.25
301.979	84.25
302.209	76.25
302.439	65.25
302.669	85.25
302.9	83.25
303.13	78.25
303.36	80.25
303.59	78.25
303.82	85.25
304.051	81.25
304.281	82.25
304.511	77.25
304.741	72.25
304.971	72.25
305.201	89.25
305.431	74.25
305.661	80.25
305.891	89.25
306.121	96.25
306.352	94.25
306.582	70.25
306.812	75.25
307.042	89.25
307.272	81.25
307.502	80.25
307.731	79.25
307.961	83.25
308.191	89.25
308.421	82.25
308.651	87.25
308.881	111.25
309.111	95.25
309.341	73.25
309.571	97.25
309.8	77.25
310.03	74.25
310.26	78.25
310.49	78.25
310.72	87.25
310.949	81.25
311.179	71.25
311.409	82.25
311.639	71.25
311.868	92.25
312.098	81.25
312.328	72.25
312.557	82.25
312.787	79.25
313.017	85.25
313.246	91.25
313.476	87.25
313.706	78.25
313.935	84.25
314.165	74.25
314.394	87.25
314.624	102.25
314.853	85.25
315.083	70.25
315.312	90.25
315.542	76.25
315.771	76.25
316.001	84.25
316.23	81.25
316.46	71.25
316.689	72.25
316.919	86.25
317.148	78.25
317.377	84.25
317.607	80.25
317.836	78.25
318.065	86.25
318.295	73.25
318.524	82.25
318.753	75.25
318.983	71.25
319.212	76.25
319.441	66.25
319.67	84.25
319.9	101.25
320.129	84.25
320.358	85.25
320.587	93.25
320.816	76.25
321.046	79.25
321.275	94.25
321.504	82.25
321.733	86.25
321.962	90.25
322.191	74.25
322.42	82.25
322.649	79.25
322.878	79.25
323.108	90.25
323.337	88.25
323.566	89.25
323.795	93.25
324.024	78.25
324.253	81.25
324.482	93.25
324.71	86.25
324.939	83.25
325.168	77.25
325.397	74.25
325.626	74.25
325.855	89.25
326.084	68.25
326.313	77.25
326.542	90.25
326.77	89.25
326.999	83.25
327.228	77.25
327.457	65.25
327.686	90.25
327.914	84.25
328.143	84.25
328.372	84.25
328.6	81.25
328.829	84.25
329.058	87.25
329.287	88.25
329.515	71.25
329.744	71.25
329.972	79.25
330.201	90.25
330.43	74.25
330.658	83.25
330.887	78.25
331.115	82.25
331.344	79.25
331.572	83.25
331.801	80.25
332.03	77.25
332.258	79.25
332.486	82.25
332.715	75.25
332.943	97.25
333.172	83.25
333.4	86.25
333.629	82.25
333.857	86.25
334.085	74.25
334.314	71.25
334.542	85.25
334.771	70.25
334.999	83.25
335.227	88.25
335.455	93.25
335.684	87.25
335.912	87.25
336.14	89.25
336.369	81.25
336.597	93.25
336.825	70.25
337.053	69.25
337.281	91.25
337.51	84.25
337.738	72.25
337.966	83.25
338.194	72.25
338.422	81.25
338.65	70.25
338.878	89.25
339.106	86.25
339.334	84.25
339.562	86.25
339.79	80.25
340.018	72.25
340.246	82.25
340.474	68.25
340.702	90.25
340.93	87.25
341.158	69.25
341.386	82.25
341.614	81.25
341.842	89.25
342.07	89.25
342.298	73.25
342.526	70.25
342.754	83.25
342.981	75.25
343.209	87.25
343.437	64.25
343.665	76.25
343.893	83.25
344.12	79.25
344.348	85.25
344.576	84.25
344.804	80.25
345.031	87.25
345.259	80.25
345.487	79.25
345.714	82.25
345.942	98.25
346.17	85.25
346.397	91.25
346.625	74.25
346.853	76.25
347.08	75.25
347.308	90.25
347.535	90.25
347.763	89.25
347.99	94.25
348.218	86.25
348.445	72.25
348.673	82.25
348.9	80.25
349.128	81.25
349.355	84.25
349.583	78.25
349.81	70.25
350.037	87.25
350.265	76.25
350.492	88.25
350.72	86.25
350.947	88.25
351.174	70.25
351.402	89.25
351.629	84.25
351.856	63.25
352.083	72.25
352.311	69.25
352.538	74.25
352.765	82.25
352.992	72.25
353.22	91.25
353.447	71.25
353.674	83.25
353.901	76.25
354.128	73.25
354.355	69.25
354.583	86.25
354.81	78.25
355.037	74.25
355.264	97.25
355.491	88.25
355.718	72.25
355.945	82.25
356.172	82.25
356.399	88.25
356.626	85.25
356.853	85.25
357.08	74.25
357.307	87.25
357.534	85.25
357.761	70.25
357.988	96.25
358.215	98.25
358.441	88.25
358.668	76.25
358.895	71.25
359.122	75.25
359.349	93.25
359.576	90.25
359.802	78.25
360.029	88.25
360.256	82.25
360.483	83.25
360.709	79.25
360.936	91.25
361.163	84.25
361.39	66.25
361.616	76.25
361.843	85.25
362.07	85.25
362.296	79.25
362.523	73.25
362.749	86.25
362.976	92.25
363.203	90.25
363.429	79.25
363.656	60.25
363.882	85.25
364.109	92.25
364.335	83.25
364.562	77.25
364.788	90.25
365.015	86.25
365.241	78.25
365.468	85.25
365.694	73.25
365.92	80.25
366.147	86.25
366.373	80.25
366.599	80.25
366.826	72.25
367.052	77.25
367.278	84.25
367.505	82.25
367.731	87.25
367.957	61.25
368.184	80.25
368.41	90.25
368.636	74.25
368.862	83.25
369.089	69.25
369.315	74.25
369.541	82.25
369.767	75.25
369.993	83.25
370.219	74.25
370.445	80.25
370.672	90.25
370.898	77.25
371.124	80.25
371.35	74.25
371.576	93.25
371.802	80.25
372.028	71.25
372.254	82.25
372.48	81.25
372.706	79.25
372.932	96.25
373.158	89.25
373.384	102.25
373.61	72.25
373.835	80.25
374.061	81.25
374.287	68.25
374.513	73.25
374.739	88.25
374.965	74.25
375.191	85.25
375.416	87.25
375.642	100.25
375.868	81.25
376.094	77.25
376.319	82.25
376.545	80.25
376.771	74.25
376.997	87.25
377.222	82.25
377.448	78.25
377.674	79.25
377.899	93.25
378.125	73.25
378.35	89.25
378.576	95.25
378.802	85.25
379.027	86.25
379.253	84.25
379.478	80.25
379.704	87.25
379.929	91.25
380.155	86.25
380.38	84.25
380.606	78.25
380.831	88.25
381.057	91.25
381.282	90.25
381.507	90.25
381.733	90.25
381.958	93.25
382.184	76.25
382.409	84.25
382.634	98.25
382.86	88.25
383.085	79.25
383.31	99.25
383.535	80.25
383.761	81.25
383.986	80.25
384.211	85.25
384.436	74.25
384.662	77.25
384.887	88.25
385.112	91.25
385.337	80.25
385.562	88.25
385.787	85.25
386.013	97.25
386.238	74.25
386.463	82.25
386.688	81.25
386.913	84.25
387.138	92.25
387.363	73.25
387.588	86.25
387.813	70.25
388.038	85.25
388.263	82.25
388.488	99.25
388.713	80.25
388.938	78.25
389.163	89.25
389.387	72.25
389.612	83.25
389.837	80.25
390.062	78.25
390.287	86.25
390.512	101.25
390.736	91.25
390.961	74.25
391.186	73.25
391.411	79.25
391.636	80.25
391.86	81.25
392.085	79.25
392.31	75.25
392.534	97.25
392.759	93.25
392.984	71.25
393.208	80.25
393.433	101.25
393.658	90.25
393.882	86.25
394.107	87.25
394.331	94.25
394.556	87.25
394.78	85.25
395.005	93.25
395.229	92.25
395.454	86.25
395.678	88.25
395.903	94.25
396.127	91.25
396.352	74.25
396.576	87.25
396.801	83.25
397.025	75.25
397.249	85.25
397.474	97.25
397.698	88.25
397.922	73.25
398.147	89.25
398.371	73.25
398.595	85.25
398.82	92.25
399.044	84.25
399.268	84.25
399.492	87.25
399.717	86.25
399.941	84.25
400.165	95.25
400.389	103.25
400.613	93.25
400.837	85.25
401.062	83.25
401.286	82.25
401.51	78.25
401.734	88.25
401.958	85.25
402.182	86.25
402.406	92.25
402.63	87.25
402.854	87.25
403.078	92.25
403.302	88.25
403.526	79.25
403.75	83.25
403.974	91.25
404.198	91.25
404.422	105.25
404.645	100.25
404.869	89.25
405.093	86.25
405.317	105.25
405.541	90.25
405.765	83.25
405.988	87.25
406.212	80.25
406.436	93.25
406.66	72.25
406.883	84.25
407.107	95.25
407.331	98.25
407.555	90.25
407.778	86.25
408.002	87.25
408.226	94.25
408.449	81.25
408.673	93.25
408.896	103.25
409.12	85.25
409.344	88.25
409.567	92.25
409.791	76.25
410.014	77.25
410.238	92.25
410.461	91.25
410.685	82.25
410.908	96.25
411.132	74.25
411.355	103.25
411.578	95.25
411.802	85.25
412.025	92.25
412.249	79.25
412.472	77.25
412.695	76.25
412.919	87.25
413.142	89.25
413.365	72.25
413.589	109.25
413.812	74.25
414.035	91.25
414.258	87.25
414.482	103.25
414.705	73.25
414.928	77.25
415.151	93.25
415.374	95.25
415.597	101.25
415.821	86.25
416.044	96.25
416.267	102.25
416.49	87.25
416.713	102.25
416.936	84.25
417.159	82.25
417.382	101.25
417.605	88.25
417.828	80.25
418.051	79.25
418.274	105.25
418.497	92.25
418.72	94.25
418.943	111.25
419.166	87.25
419.389	98.25
419.611	93.25
419.834	91.25
420.057	86.25
420.28	83.25
420.503	90.25
420.726	95.25
420.948	103.25
421.171	89.25
421.394	87.25
421.617	101.25
421.839	92.25
422.062	90.25
422.285	86.25
422.507	92.25
422.73	82.25
422.953	97.25
423.175	91.25
423.398	96.25
423.621	95.25
423.843	93.25
424.066	99.25
424.288	101.25
424.511	96.25
424.733	89.25
424.956	103.25
425.178	84.25
425.401	89.25
425.623	93.25
425.846	89.25
426.068	93.25
426.291	93.25
426.513	89.25
426.735	87.25
426.958	96.25
427.18	92.25
427.402	100.25
427.625	83.25
427.847	81.25
428.069	99.25
428.292	85.25
428.514	82.25
428.736	99.25
428.958	86.25
429.181	89.25
429.403	95.25
429.625	94.25
429.847	93.25
430.069	82.25
430.292	84.25
430.514	88.25
430.736	100.25
430.958	95.25
431.18	93.25
431.402	92.25
431.624	64.25
431.846	84.25
432.068	81.25
432.29	85.25
432.512	74.25
432.734	86.25
432.956	96.25
433.178	87.25
433.4	94.25
433.622	89.25
433.844	94.25
434.066	99.25
434.287	78.25
434.509	85.25
434.731	89.25
434.953	80.25
435.175	84.25
435.397	94.25
435.618	84.25
435.84	74.25
436.062	76.25
436.284	88.25
436.505	83.25
436.727	92.25
436.949	87.25
437.17	85.25
437.392	98.25
437.614	85.25
437.835	96.25
438.057	86.25
438.278	100.25
438.5	85.25
438.721	83.25
438.943	94.25
439.165	91.25
439.386	92.25
439.608	98.25
439.829	96.25
440.05	98.25
440.272	97.25
440.493	92.25
440.715	89.25
440.936	100.25
441.158	75.25
441.379	77.25
441.6	95.25
441.822	84.25
442.043	87.25
442.264	89.25
442.486	82.25
442.707	89.25
442.928	93.25
443.149	101.25
443.371	91.25
443.592	87.25
443.813	80.25
444.034	100.25
444.255	106.25
444.476	94.25
444.698	98.25
444.919	103.25
445.14	201.25
445.361	132.25
445.582	86.25
445.803	98.25
446.024	101.25
446.245	100.25
446.466	85.25
446.687	111.25
446.908	119.25
447.129	111.25
447.35	96.25
447.571	96.25
447.792	98.25
448.013	104.25
448.234	84.25
448.455	100.25
448.675	104.25
448.896	80.25
449.117	115.25
449.338	111.25
449.559	95.25
449.779	90.25
450	89.25
450.221	110.25
450.442	80.25
450.662	94.25
450.883	95.25
451.104	100.25
451.324	86.25
451.545	83.25
451.766	95.25
451.986	99.25
452.207	98.25
452.428	100.25
452.648	102.25
452.869	87.25
453.089	80.25
453.31	80.25
453.53	89.25
453.751	85.25
453.971	78.25
454.192	85.25
454.412	85.25
454.633	89.25
454.853	94.25
455.073	85.25
455.294	96.25
455.514	92.25
455.734	86.25
455.955	84.25
456.175	95.25
456.395	82.25
456.616	95.25
456.836	94.25
457.056	97.25
457.276	92.25
457.497	84.25
457.717	101.25
457.937	83.25
458.157	91.25
458.377	96.25
458.598	85.25
458.818	87.25
459.038	69.25
459.258	77.25
459.478	79.25
459.698	73.25
459.918	83.25
460.138	81.25
460.358	85.25
460.578	91.25
460.798	78.25
461.018	84.25
461.238	96.25
461.458	103.25
461.678	86.25
461.898	89.25
462.118	88.25
462.338	74.25
462.558	100.25
462.777	75.25
462.997	71.25
463.217	80.25
463.437	89.25
463.657	96.25
463.876	96.25
464.096	72.25
464.316	86.25
464.536	91.25
464.755	111.25
464.975	97.25
465.195	90.25
465.414	81.25
465.634	87.25
465.854	91.25
466.073	94.25
466.293	88.25
466.512	84.25
466.732	91.25
466.951	97.25
467.171	95.25
467.391	100.25
467.61	82.25
467.829	87.25
468.049	103.25
468.268	89.25
468.488	116.25
468.707	96.25
468.927	84.25
469.146	97.25
469.365	103.25
469.585	85.25
469.804	98.25
470.023	96.25
470.243	96.25
470.462	98.25
470.681	104.25
470.901	100.25
471.12	93.25
471.339	112.25
471.558	108.25
471.777	92.25
471.997	92.25
472.216	86.25
472.435	111.25
472.654	98.25
472.873	97.25
473.092	83.25
473.311	92.25
473.53	91.25
473.749	81.25
473.968	100.25
474.187	96.25
474.406	86.25
474.625	98.25
474.844	108.25
475.063	102.25
475.282	78.25
475.501	96.25
475.72	100.25
475.939	84.25
476.158	89.25
476.377	94.25
476.596	76.25
476.814	93.25
477.033	85.25
477.252	81.25
477.471	96.25
477.69	98.25
477.908	83.25
478.127	105.25
478.346	94.25
478.564	104.25
478.783	105.25
479.002	81.25
479.22	100.25
479.439	110.25
479.658	86.25
479.876	101.25
480.095	94.25
480.313	101.25
480.532	84.25
480.751	69.25
480.969	82.25
481.188	78.25
481.406	98.25
481.624	78.25
481.843	74.25
482.061	84.25
482.28	95.25
482.498	93.25
482.717	77.25
482.935	91.25
483.153	97.25
483.372	107.25
483.59	96.25
483.808	94.25
484.027	86.25
484.245	87.25
484.463	95.25
484.681	94.25
484.9	103.25
485.118	93.25
485.336	95.25
485.554	79.25
485.772	91.25
485.99	76.25
486.209	95.25
486.427	82.25
486.645	99.25
486.863	91.25
487.081	94.25
487.299	103.25
487.517	79.25
487.735	98.25
487.953	110.25
488.171	100.25
488.389	116.25
488.607	104.25
488.825	100.25
489.043	94.25
489.261	89.25
489.479	85.25
489.696	89.25
489.914	93.25
490.132	96.25
490.35	102.25
490.568	104.25
490.786	113.25
491.003	106.25
491.221	118.25
491.439	113.25
491.657	111.25
491.874	117.25
492.092	121.25
492.31	132.25
492.527	114.25
492.745	128.25
492.963	116.25
493.18	118.25
493.398	105.25
493.615	118.25
493.833	110.25
494.05	88.25
494.268	113.25
494.485	106.25
494.703	97.25
494.92	100.25
495.138	108.25
495.355	112.25
495.573	100.25
495.79	86.25
496.008	108.25
496.225	113.25
496.442	111.25
496.66	111.25
496.877	111.25
497.094	117.25
497.312	96.25
497.529	117.25
497.746	100.25
497.963	97.25
498.181	81.25
498.398	92.25
498.615	88.25
498.832	90.25
499.049	92.25
499.267	93.25
499.484	97.25
499.701	88.25
499.918	109.25
500.135	105.25
500.352	106.25
500.569	97.25
500.786	104.25
501.003	111.25
501.22	99.25
501.437	100.25
501.654	82.25
501.871	100.25
502.088	93.25
502.305	87.25
502.522	104.25
502.739	110.25
502.956	99.25
503.172	99.25
503.389	91.25
503.606	78.25
503.823	77.25
504.04	85.25
504.256	100.25
504.473	99.25
504.69	91.25
504.907	95.25
505.123	98.25
505.34	88.25
505.557	105.25
505.773	94.25
505.99	97.25
506.207	82.25
506.423	96.25
506.64	74.25
506.856	82.25
507.073	96.25
507.289	102.25
507.506	94.25
507.722	101.25
507.939	79.25
508.155	92.25
508.372	110.25
508.588	109.25
508.805	79.25
509.021	84.25
509.238	78.25
509.454	92.25
509.67	90.25
509.887	99.25
510.103	83.25
510.319	82.25
510.536	92.25
510.752	80.25
510.968	73.25
511.184	80.25
511.401	77.25
511.617	100.25
511.833	77.25
512.049	81.25
512.265	87.25
512.481	85.25
512.698	88.25
512.914	85.25
513.13	82.25
513.346	75.25
513.562	84.25
513.778	91.25
513.994	76.25
514.21	74.25
514.426	79.25
514.642	90.25
514.858	79.25
515.074	83.25
515.29	82.25
515.506	102.25
515.721	74.25
515.937	79.25
516.153	89.25
516.369	81.25
516.585	74.25
516.801	86.25
517.016	89.25
517.232	101.25
517.448	82.25
517.664	86.25
