Data from Location3.07152019.Energy5.Lamp.07192019.3%Agarose_HRD10591_15-16-33-268.txt Node
Date: Fri Jul 19 15:16:33 EDT 2019
User: cochatt
Spectrometer: HR+D1059
Trigger mode: 1
Integration Time (sec): 1.000000E-1
Scans to average: 1
Electric dark correction enabled: true
Nonlinearity correction enabled: false
Boxcar width: 0
XAxis mode: Wavelengths
Number of Pixels in Spectrum: 2048
>>>>>Begin Spectral Data<<<<<
223.165	-19.81
223.4	-19.81
223.635	-19.81
223.869	-25.81
224.104	-16.81
224.338	-20.81
224.573	-27.81
224.808	-21.81
225.042	-9.81
225.277	-18.81
225.511	-4.81
225.746	12.19
225.98	15.19
226.215	21.19
226.449	20.19
226.683	35.19
226.918	33.19
227.152	29.19
227.387	37.19
227.621	34.19
227.856	42.19
228.09	52.19
228.324	47.19
228.559	55.19
228.793	60.19
229.027	59.19
229.262	66.19
229.496	70.19
229.73	74.19
229.964	68.19
230.199	72.19
230.433	59.19
230.667	70.19
230.901	68.19
231.136	71.19
231.37	79.19
231.604	83.19
231.838	73.19
232.072	73.19
232.306	87.19
232.541	85.19
232.775	87.19
233.009	88.19
233.243	71.19
233.477	89.19
233.711	91.19
233.945	81.19
234.179	78.19
234.413	79.19
234.647	82.19
234.881	79.19
235.115	85.19
235.349	82.19
235.583	72.19
235.817	79.19
236.051	76.19
236.285	78.19
236.519	84.19
236.753	77.19
236.987	83.19
237.221	74.19
237.455	81.19
237.689	74.19
237.922	69.19
238.156	82.19
238.39	74.19
238.624	61.19
238.858	84.19
239.091	78.19
239.325	82.19
239.559	88.19
239.793	68.19
240.027	68.19
240.26	89.19
240.494	79.19
240.728	80.19
240.961	73.19
241.195	81.19
241.429	74.19
241.662	90.19
241.896	65.19
242.13	72.19
242.363	68.19
242.597	80.19
242.83	72.19
243.064	74.19
243.298	82.19
243.531	78.19
243.765	76.19
243.998	76.19
244.232	77.19
244.465	79.19
244.699	78.19
244.932	75.19
245.166	81.19
245.399	84.19
245.633	81.19
245.866	86.19
246.099	74.19
246.333	84.19
246.566	73.19
246.8	81.19
247.033	85.19
247.266	78.19
247.5	84.19
247.733	78.19
247.966	79.19
248.2	82.19
248.433	79.19
248.666	79.19
248.899	84.19
249.133	88.19
249.366	83.19
249.599	79.19
249.832	88.19
250.066	80.19
250.299	74.19
250.532	87.19
250.765	91.19
250.998	77.19
251.231	80.19
251.465	75.19
251.698	85.19
251.931	77.19
252.164	76.19
252.397	94.19
252.63	75.19
252.863	83.19
253.096	85.19
253.329	77.19
253.562	82.19
253.795	82.19
254.028	81.19
254.261	79.19
254.494	77.19
254.727	83.19
254.96	83.19
255.193	79.19
255.426	75.19
255.659	62.19
255.892	96.19
256.124	83.19
256.357	59.19
256.59	91.19
256.823	76.19
257.056	75.19
257.289	78.19
257.521	79.19
257.754	76.19
257.987	85.19
258.22	80.19
258.452	87.19
258.685	72.19
258.918	77.19
259.151	78.19
259.383	84.19
259.616	85.19
259.849	85.19
260.081	85.19
260.314	87.19
260.547	91.19
260.779	86.19
261.012	75.19
261.244	83.19
261.477	81.19
261.71	81.19
261.942	68.19
262.175	70.19
262.407	82.19
262.64	83.19
262.872	83.19
263.105	71.19
263.337	74.19
263.57	73.19
263.802	80.19
264.035	78.19
264.267	75.19
264.499	90.19
264.732	80.19
264.964	73.19
265.197	90.19
265.429	86.19
265.661	77.19
265.894	90.19
266.126	94.19
266.358	73.19
266.591	83.19
266.823	73.19
267.055	98.19
267.287	79.19
267.52	80.19
267.752	67.19
267.984	87.19
268.216	93.19
268.448	86.19
268.681	78.19
268.913	89.19
269.145	92.19
269.377	81.19
269.609	79.19
269.841	79.19
270.073	82.19
270.306	62.19
270.538	82.19
270.77	89.19
271.002	86.19
271.234	79.19
271.466	99.19
271.698	80.19
271.93	72.19
272.162	64.19
272.394	83.19
272.626	81.19
272.858	70.19
273.09	85.19
273.322	74.19
273.553	83.19
273.785	81.19
274.017	79.19
274.249	79.19
274.481	77.19
274.713	94.19
274.945	78.19
275.176	98.19
275.408	89.19
275.64	87.19
275.872	81.19
276.104	75.19
276.335	91.19
276.567	83.19
276.799	74.19
277.031	84.19
277.262	89.19
277.494	67.19
277.726	86.19
277.957	77.19
278.189	75.19
278.421	88.19
278.652	82.19
278.884	83.19
279.115	79.19
279.347	84.19
279.579	79.19
279.81	81.19
280.042	97.19
280.273	79.19
280.505	79.19
280.736	86.19
280.968	80.19
281.199	73.19
281.431	86.19
281.662	95.19
281.894	72.19
282.125	78.19
282.356	85.19
282.588	77.19
282.819	81.19
283.051	87.19
283.282	84.19
283.513	82.19
283.745	91.19
283.976	79.19
284.207	77.19
284.439	89.19
284.67	81.19
284.901	81.19
285.132	82.19
285.364	82.19
285.595	84.19
285.826	94.19
286.057	86.19
286.288	91.19
286.52	85.19
286.751	90.19
286.982	90.19
287.213	69.19
287.444	86.19
287.675	70.19
287.906	93.19
288.138	85.19
288.369	81.19
288.6	74.19
288.831	100.19
289.062	79.19
289.293	93.19
289.524	82.19
289.755	91.19
289.986	71.19
290.217	85.19
290.448	86.19
290.679	73.19
290.91	88.19
291.141	67.19
291.371	81.19
291.602	95.19
291.833	90.19
292.064	89.19
292.295	83.19
292.526	87.19
292.757	71.19
292.987	78.19
293.218	84.19
293.449	91.19
293.68	91.19
293.91	88.19
294.141	67.19
294.372	92.19
294.603	73.19
294.833	77.19
295.064	88.19
295.295	83.19
295.525	74.19
295.756	100.19
295.987	90.19
296.217	82.19
296.448	77.19
296.679	75.19
296.909	74.19
297.14	76.19
297.37	87.19
297.601	92.19
297.831	88.19
298.062	82.19
298.292	84.19
298.523	88.19
298.753	82.19
298.984	109.19
299.214	86.19
299.445	87.19
299.675	86.19
299.905	81.19
300.136	79.19
300.366	78.19
300.597	66.19
300.827	85.19
301.057	78.19
301.288	87.19
301.518	90.19
301.748	91.19
301.979	90.19
302.209	58.19
302.439	80.19
302.669	84.19
302.9	91.19
303.13	72.19
303.36	80.19
303.59	86.19
303.82	65.19
304.051	86.19
304.281	79.19
304.511	84.19
304.741	73.19
304.971	95.19
305.201	88.19
305.431	70.19
305.661	85.19
305.891	83.19
306.121	83.19
306.352	89.19
306.582	87.19
306.812	81.19
307.042	94.19
307.272	92.19
307.502	90.19
307.731	95.19
307.961	102.19
308.191	82.19
308.421	89.19
308.651	91.19
308.881	83.19
309.111	97.19
309.341	83.19
309.571	87.19
309.8	89.19
310.03	99.19
310.26	82.19
310.49	88.19
310.72	90.19
310.949	99.19
311.179	98.19
311.409	97.19
311.639	84.19
311.868	108.19
312.098	93.19
312.328	87.19
312.557	83.19
312.787	85.19
313.017	89.19
313.246	90.19
313.476	81.19
313.706	76.19
313.935	69.19
314.165	88.19
314.394	91.19
314.624	80.19
314.853	83.19
315.083	77.19
315.312	101.19
315.542	85.19
315.771	87.19
316.001	81.19
316.23	91.19
316.46	72.19
316.689	81.19
316.919	94.19
317.148	90.19
317.377	94.19
317.607	79.19
317.836	86.19
318.065	87.19
318.295	80.19
318.524	76.19
318.753	94.19
318.983	80.19
319.212	81.19
319.441	81.19
319.67	93.19
319.9	90.19
320.129	88.19
320.358	75.19
320.587	74.19
320.816	86.19
321.046	90.19
321.275	97.19
321.504	84.19
321.733	81.19
321.962	88.19
322.191	73.19
322.42	71.19
322.649	83.19
322.878	85.19
323.108	80.19
323.337	89.19
323.566	76.19
323.795	83.19
324.024	85.19
324.253	81.19
324.482	91.19
324.71	86.19
324.939	94.19
325.168	75.19
325.397	87.19
325.626	75.19
325.855	88.19
326.084	76.19
326.313	92.19
326.542	74.19
326.77	83.19
326.999	80.19
327.228	82.19
327.457	97.19
327.686	100.19
327.914	81.19
328.143	101.19
328.372	69.19
328.6	69.19
328.829	72.19
329.058	78.19
329.287	81.19
329.515	75.19
329.744	75.19
329.972	74.19
330.201	82.19
330.43	80.19
330.658	86.19
330.887	77.19
331.115	83.19
331.344	82.19
331.572	83.19
331.801	85.19
332.03	72.19
332.258	80.19
332.486	83.19
332.715	78.19
332.943	76.19
333.172	86.19
333.4	83.19
333.629	82.19
333.857	83.19
334.085	90.19
334.314	88.19
334.542	94.19
334.771	89.19
334.999	80.19
335.227	83.19
335.455	88.19
335.684	86.19
335.912	81.19
336.14	78.19
336.369	89.19
336.597	78.19
336.825	89.19
337.053	85.19
337.281	84.19
337.51	91.19
337.738	90.19
337.966	71.19
338.194	80.19
338.422	85.19
338.65	81.19
338.878	92.19
339.106	82.19
339.334	89.19
339.562	77.19
339.79	86.19
340.018	84.19
340.246	95.19
340.474	89.19
340.702	72.19
340.93	77.19
341.158	80.19
341.386	86.19
341.614	89.19
341.842	78.19
342.07	85.19
342.298	85.19
342.526	90.19
342.754	88.19
342.981	80.19
343.209	78.19
343.437	81.19
343.665	78.19
343.893	84.19
344.12	89.19
344.348	94.19
344.576	79.19
344.804	82.19
345.031	90.19
345.259	67.19
345.487	83.19
345.714	85.19
345.942	87.19
346.17	93.19
346.397	88.19
346.625	82.19
346.853	72.19
347.08	79.19
347.308	90.19
347.535	73.19
347.763	96.19
347.99	70.19
348.218	76.19
348.445	80.19
348.673	94.19
348.9	87.19
349.128	81.19
349.355	89.19
349.583	84.19
349.81	86.19
350.037	82.19
350.265	83.19
350.492	73.19
350.72	85.19
350.947	91.19
351.174	83.19
351.402	83.19
351.629	81.19
351.856	93.19
352.083	80.19
352.311	90.19
352.538	71.19
352.765	76.19
352.992	79.19
353.22	75.19
353.447	69.19
353.674	71.19
353.901	88.19
354.128	81.19
354.355	94.19
354.583	73.19
354.81	73.19
355.037	74.19
355.264	87.19
355.491	88.19
355.718	85.19
355.945	84.19
356.172	82.19
356.399	78.19
356.626	80.19
356.853	82.19
357.08	78.19
357.307	90.19
357.534	82.19
357.761	73.19
357.988	75.19
358.215	84.19
358.441	73.19
358.668	100.19
358.895	73.19
359.122	76.19
359.349	88.19
359.576	80.19
359.802	89.19
360.029	86.19
360.256	84.19
360.483	81.19
360.709	74.19
360.936	99.19
361.163	75.19
361.39	85.19
361.616	79.19
361.843	84.19
362.07	85.19
362.296	69.19
362.523	69.19
362.749	66.19
362.976	75.19
363.203	84.19
363.429	91.19
363.656	82.19
363.882	81.19
364.109	82.19
364.335	95.19
364.562	85.19
364.788	77.19
365.015	86.19
365.241	74.19
365.468	90.19
365.694	80.19
365.92	80.19
366.147	77.19
366.373	72.19
366.599	74.19
366.826	70.19
367.052	95.19
367.278	86.19
367.505	95.19
367.731	79.19
367.957	79.19
368.184	83.19
368.41	83.19
368.636	83.19
368.862	85.19
369.089	80.19
369.315	70.19
369.541	83.19
369.767	84.19
369.993	83.19
370.219	82.19
370.445	95.19
370.672	88.19
370.898	98.19
371.124	87.19
371.35	86.19
371.576	79.19
371.802	99.19
372.028	74.19
372.254	79.19
372.48	95.19
372.706	76.19
372.932	87.19
373.158	82.19
373.384	79.19
373.61	76.19
373.835	81.19
374.061	85.19
374.287	77.19
374.513	82.19
374.739	87.19
374.965	98.19
375.191	73.19
375.416	82.19
375.642	80.19
375.868	98.19
376.094	77.19
376.319	76.19
376.545	82.19
376.771	89.19
376.997	79.19
377.222	86.19
377.448	88.19
377.674	83.19
377.899	69.19
378.125	78.19
378.35	82.19
378.576	89.19
378.802	94.19
379.027	90.19
379.253	90.19
379.478	82.19
379.704	71.19
379.929	81.19
380.155	86.19
380.38	77.19
380.606	77.19
380.831	78.19
381.057	83.19
381.282	82.19
381.507	92.19
381.733	81.19
381.958	75.19
382.184	100.19
382.409	100.19
382.634	110.19
382.86	96.19
383.085	81.19
383.31	97.19
383.535	78.19
383.761	88.19
383.986	79.19
384.211	102.19
384.436	69.19
384.662	88.19
384.887	84.19
385.112	85.19
385.337	86.19
385.562	83.19
385.787	91.19
386.013	92.19
386.238	85.19
386.463	84.19
386.688	86.19
386.913	75.19
387.138	89.19
387.363	75.19
387.588	92.19
387.813	89.19
388.038	102.19
388.263	88.19
388.488	87.19
388.713	80.19
388.938	93.19
389.163	82.19
389.387	81.19
389.612	79.19
389.837	81.19
390.062	78.19
390.287	88.19
390.512	70.19
390.736	75.19
390.961	85.19
391.186	92.19
391.411	84.19
391.636	86.19
391.86	74.19
392.085	99.19
392.31	84.19
392.534	97.19
392.759	101.19
392.984	84.19
393.208	75.19
393.433	78.19
393.658	75.19
393.882	84.19
394.107	72.19
394.331	92.19
394.556	72.19
394.78	76.19
395.005	95.19
395.229	82.19
395.454	94.19
395.678	93.19
395.903	81.19
396.127	79.19
396.352	82.19
396.576	80.19
396.801	93.19
397.025	83.19
397.249	79.19
397.474	85.19
397.698	94.19
397.922	94.19
398.147	81.19
398.371	82.19
398.595	84.19
398.82	86.19
399.044	88.19
399.268	97.19
399.492	92.19
399.717	90.19
399.941	88.19
400.165	95.19
400.389	79.19
400.613	92.19
400.837	98.19
401.062	97.19
401.286	84.19
401.51	84.19
401.734	87.19
401.958	89.19
402.182	87.19
402.406	77.19
402.63	84.19
402.854	105.19
403.078	90.19
403.302	89.19
403.526	94.19
403.75	94.19
403.974	86.19
404.198	86.19
404.422	80.19
404.645	83.19
404.869	78.19
405.093	82.19
405.317	99.19
405.541	81.19
405.765	74.19
405.988	89.19
406.212	79.19
406.436	89.19
406.66	91.19
406.883	76.19
407.107	93.19
407.331	91.19
407.555	84.19
407.778	98.19
408.002	96.19
408.226	87.19
408.449	83.19
408.673	99.19
408.896	88.19
409.12	94.19
409.344	78.19
409.567	94.19
409.791	90.19
410.014	91.19
410.238	96.19
410.461	80.19
410.685	90.19
410.908	91.19
411.132	109.19
411.355	85.19
411.578	79.19
411.802	95.19
412.025	88.19
412.249	90.19
412.472	83.19
412.695	86.19
412.919	78.19
413.142	77.19
413.365	86.19
413.589	100.19
413.812	86.19
414.035	93.19
414.258	91.19
414.482	107.19
414.705	91.19
414.928	103.19
415.151	96.19
415.374	78.19
415.597	84.19
415.821	81.19
416.044	99.19
416.267	91.19
416.49	80.19
416.713	103.19
416.936	95.19
417.159	90.19
417.382	101.19
417.605	95.19
417.828	97.19
418.051	92.19
418.274	91.19
418.497	94.19
418.72	87.19
418.943	115.19
419.166	87.19
419.389	93.19
419.611	97.19
419.834	87.19
420.057	105.19
420.28	100.19
420.503	94.19
420.726	100.19
420.948	109.19
421.171	97.19
421.394	96.19
421.617	89.19
421.839	107.19
422.062	97.19
422.285	86.19
422.507	90.19
422.73	112.19
422.953	82.19
423.175	92.19
423.398	79.19
423.621	86.19
423.843	96.19
424.066	96.19
424.288	98.19
424.511	80.19
424.733	95.19
424.956	86.19
425.178	96.19
425.401	90.19
425.623	103.19
425.846	101.19
426.068	88.19
426.291	84.19
426.513	93.19
426.735	80.19
426.958	85.19
427.18	95.19
427.402	89.19
427.625	90.19
427.847	86.19
428.069	100.19
428.292	103.19
428.514	88.19
428.736	79.19
428.958	88.19
429.181	95.19
429.403	95.19
429.625	98.19
429.847	93.19
430.069	81.19
430.292	103.19
430.514	91.19
430.736	98.19
430.958	102.19
431.18	86.19
431.402	89.19
431.624	104.19
431.846	95.19
432.068	95.19
432.29	96.19
432.512	78.19
432.734	98.19
432.956	96.19
433.178	101.19
433.4	92.19
433.622	106.19
433.844	96.19
434.066	98.19
434.287	103.19
434.509	76.19
434.731	89.19
434.953	91.19
435.175	91.19
435.397	95.19
435.618	99.19
435.84	93.19
436.062	84.19
436.284	83.19
436.505	91.19
436.727	99.19
436.949	95.19
437.17	90.19
437.392	84.19
437.614	91.19
437.835	78.19
438.057	96.19
438.278	78.19
438.5	98.19
438.721	86.19
438.943	96.19
439.165	100.19
439.386	83.19
439.608	79.19
439.829	96.19
440.05	91.19
440.272	97.19
440.493	91.19
440.715	87.19
440.936	98.19
441.158	110.19
441.379	97.19
441.6	110.19
441.822	109.19
442.043	102.19
442.264	88.19
442.486	109.19
442.707	104.19
442.928	101.19
443.149	109.19
443.371	95.19
443.592	92.19
443.813	90.19
444.034	97.19
444.255	90.19
444.476	94.19
444.698	97.19
444.919	91.19
445.14	175.19
445.361	150.19
445.582	96.19
445.803	83.19
446.024	103.19
446.245	107.19
446.466	99.19
446.687	110.19
446.908	103.19
447.129	91.19
447.35	102.19
447.571	100.19
447.792	97.19
448.013	101.19
448.234	98.19
448.455	102.19
448.675	93.19
448.896	92.19
449.117	106.19
449.338	93.19
449.559	84.19
449.779	91.19
450	98.19
450.221	83.19
450.442	90.19
450.662	102.19
450.883	81.19
451.104	82.19
451.324	90.19
451.545	83.19
451.766	89.19
451.986	85.19
452.207	91.19
452.428	95.19
452.648	103.19
452.869	76.19
453.089	93.19
453.31	94.19
453.53	82.19
453.751	85.19
453.971	83.19
454.192	103.19
454.412	82.19
454.633	83.19
454.853	95.19
455.073	103.19
455.294	80.19
455.514	96.19
455.734	93.19
455.955	87.19
456.175	73.19
456.395	87.19
456.616	86.19
456.836	83.19
457.056	85.19
457.276	77.19
457.497	75.19
457.717	84.19
457.937	94.19
458.157	98.19
458.377	91.19
458.598	91.19
458.818	86.19
459.038	85.19
459.258	76.19
459.478	80.19
459.698	87.19
459.918	81.19
460.138	96.19
460.358	91.19
460.578	108.19
460.798	101.19
461.018	95.19
461.238	83.19
461.458	94.19
461.678	88.19
461.898	91.19
462.118	70.19
462.338	91.19
462.558	96.19
462.777	105.19
462.997	89.19
463.217	83.19
463.437	101.19
463.657	83.19
463.876	95.19
464.096	87.19
464.316	93.19
464.536	83.19
464.755	91.19
464.975	84.19
465.195	97.19
465.414	111.19
465.634	88.19
465.854	82.19
466.073	92.19
466.293	73.19
466.512	94.19
466.732	99.19
466.951	88.19
467.171	94.19
467.391	99.19
467.61	100.19
467.829	97.19
468.049	92.19
468.268	89.19
468.488	87.19
468.707	92.19
468.927	103.19
469.146	102.19
469.365	97.19
469.585	109.19
469.804	105.19
470.023	93.19
470.243	92.19
470.462	90.19
470.681	103.19
470.901	89.19
471.12	91.19
471.339	102.19
471.558	108.19
471.777	98.19
471.997	106.19
472.216	86.19
472.435	85.19
472.654	89.19
472.873	82.19
473.092	95.19
473.311	105.19
473.53	93.19
473.749	86.19
473.968	96.19
474.187	94.19
474.406	90.19
474.625	89.19
474.844	94.19
475.063	93.19
475.282	82.19
475.501	94.19
475.72	92.19
475.939	98.19
476.158	89.19
476.377	79.19
476.596	98.19
476.814	79.19
477.033	94.19
477.252	88.19
477.471	93.19
477.69	95.19
477.908	103.19
478.127	109.19
478.346	93.19
478.564	104.19
478.783	85.19
479.002	101.19
479.22	87.19
479.439	104.19
479.658	94.19
479.876	83.19
480.095	94.19
480.313	72.19
480.532	80.19
480.751	91.19
480.969	76.19
481.188	67.19
481.406	66.19
481.624	78.19
481.843	87.19
482.061	88.19
482.28	92.19
482.498	100.19
482.717	86.19
482.935	74.19
483.153	98.19
483.372	98.19
483.59	106.19
483.808	95.19
484.027	108.19
484.245	90.19
484.463	88.19
484.681	95.19
484.9	93.19
485.118	91.19
485.336	80.19
485.554	83.19
485.772	102.19
485.99	75.19
486.209	89.19
486.427	82.19
486.645	88.19
486.863	94.19
487.081	94.19
487.299	107.19
487.517	97.19
487.735	112.19
487.953	106.19
488.171	119.19
488.389	122.19
488.607	104.19
488.825	96.19
489.043	87.19
489.261	88.19
489.479	90.19
489.696	99.19
489.914	86.19
490.132	109.19
490.35	85.19
490.568	99.19
490.786	109.19
491.003	102.19
491.221	102.19
491.439	110.19
491.657	110.19
491.874	111.19
492.092	126.19
492.31	118.19
492.527	122.19
492.745	125.19
492.963	121.19
493.18	110.19
493.398	117.19
493.615	121.19
493.833	104.19
494.05	105.19
494.268	101.19
494.485	105.19
494.703	119.19
494.92	103.19
495.138	114.19
495.355	112.19
495.573	115.19
495.79	106.19
496.008	99.19
496.225	99.19
496.442	96.19
496.66	109.19
496.877	98.19
497.094	107.19
497.312	105.19
497.529	107.19
497.746	98.19
497.963	94.19
498.181	74.19
498.398	88.19
498.615	87.19
498.832	110.19
499.049	77.19
499.267	97.19
499.484	94.19
499.701	94.19
499.918	110.19
500.135	113.19
500.352	120.19
500.569	90.19
500.786	98.19
501.003	98.19
501.22	100.19
501.437	93.19
501.654	103.19
501.871	116.19
502.088	98.19
502.305	113.19
502.522	103.19
502.739	91.19
502.956	90.19
503.172	95.19
503.389	89.19
503.606	95.19
503.823	91.19
504.04	95.19
504.256	103.19
504.473	93.19
504.69	100.19
504.907	81.19
505.123	97.19
505.34	94.19
505.557	108.19
505.773	95.19
505.99	89.19
506.207	107.19
506.423	87.19
506.64	100.19
506.856	77.19
507.073	89.19
507.289	92.19
507.506	95.19
507.722	89.19
507.939	91.19
508.155	96.19
508.372	109.19
508.588	90.19
508.805	89.19
509.021	94.19
509.238	89.19
509.454	101.19
509.67	75.19
509.887	87.19
510.103	91.19
510.319	75.19
510.536	89.19
510.752	85.19
510.968	106.19
511.184	85.19
511.401	85.19
511.617	97.19
511.833	82.19
512.049	80.19
512.265	92.19
512.481	87.19
512.698	88.19
512.914	83.19
513.13	92.19
513.346	80.19
513.562	78.19
513.778	85.19
513.994	94.19
514.21	85.19
514.426	82.19
514.642	82.19
514.858	82.19
515.074	79.19
515.29	79.19
515.506	77.19
515.721	81.19
515.937	88.19
516.153	86.19
516.369	92.19
516.585	89.19
516.801	80.19
517.016	77.19
517.232	81.19
517.448	89.19
