Data from Location3.07152019.Energy5.Lamp.07192019.3%Agarose_HRD10591_15-19-23-269.txt Node
Date: Fri Jul 19 15:19:23 EDT 2019
User: cochatt
Spectrometer: HR+D1059
Trigger mode: 1
Integration Time (sec): 1.000000E-1
Scans to average: 1
Electric dark correction enabled: true
Nonlinearity correction enabled: false
Boxcar width: 0
XAxis mode: Wavelengths
Number of Pixels in Spectrum: 2048
>>>>>Begin Spectral Data<<<<<
223.165	-5.44
223.4	-5.44
223.635	-5.44
223.869	-18.44
224.104	-6.44
224.338	-11.44
224.573	-15.44
224.808	-11.44
225.042	-14.44
225.277	-8.44
225.511	-13.44
225.746	6.56
225.98	4.56
226.215	12.56
226.449	14.56
226.683	28.56
226.918	19.56
227.152	18.56
227.387	26.56
227.621	44.56
227.856	52.56
228.09	50.56
228.324	44.56
228.559	49.56
228.793	59.56
229.027	59.56
229.262	71.56
229.496	65.56
229.73	81.56
229.964	100.56
230.199	65.56
230.433	72.56
230.667	77.56
230.901	81.56
231.136	84.56
231.37	92.56
231.604	74.56
231.838	87.56
232.072	79.56
232.306	88.56
232.541	89.56
232.775	77.56
233.009	88.56
233.243	100.56
233.477	88.56
233.711	85.56
233.945	82.56
234.179	72.56
234.413	94.56
234.647	81.56
234.881	82.56
235.115	97.56
235.349	83.56
235.583	82.56
235.817	87.56
236.051	76.56
236.285	77.56
236.519	71.56
236.753	80.56
236.987	77.56
237.221	92.56
237.455	82.56
237.689	98.56
237.922	77.56
238.156	82.56
238.39	85.56
238.624	81.56
238.858	95.56
239.091	81.56
239.325	81.56
239.559	82.56
239.793	94.56
240.027	83.56
240.26	97.56
240.494	80.56
240.728	89.56
240.961	78.56
241.195	68.56
241.429	95.56
241.662	77.56
241.896	72.56
242.13	82.56
242.363	75.56
242.597	75.56
242.83	81.56
243.064	72.56
243.298	86.56
243.531	89.56
243.765	75.56
243.998	66.56
244.232	70.56
244.465	86.56
244.699	84.56
244.932	88.56
245.166	93.56
245.399	68.56
245.633	84.56
245.866	84.56
246.099	65.56
246.333	66.56
246.566	74.56
246.8	83.56
247.033	86.56
247.266	102.56
247.5	80.56
247.733	73.56
247.966	84.56
248.2	74.56
248.433	77.56
248.666	80.56
248.899	79.56
249.133	89.56
249.366	78.56
249.599	92.56
249.832	85.56
250.066	82.56
250.299	74.56
250.532	79.56
250.765	86.56
250.998	84.56
251.231	77.56
251.465	80.56
251.698	77.56
251.931	74.56
252.164	76.56
252.397	72.56
252.63	89.56
252.863	86.56
253.096	70.56
253.329	86.56
253.562	85.56
253.795	75.56
254.028	91.56
254.261	96.56
254.494	87.56
254.727	88.56
254.96	71.56
255.193	102.56
255.426	83.56
255.659	73.56
255.892	82.56
256.124	69.56
256.357	77.56
256.59	74.56
256.823	85.56
257.056	87.56
257.289	76.56
257.521	82.56
257.754	81.56
257.987	84.56
258.22	85.56
258.452	57.56
258.685	82.56
258.918	77.56
259.151	77.56
259.383	97.56
259.616	81.56
259.849	92.56
260.081	89.56
260.314	84.56
260.547	67.56
260.779	97.56
261.012	84.56
261.244	88.56
261.477	95.56
261.71	86.56
261.942	87.56
262.175	84.56
262.407	81.56
262.64	95.56
262.872	90.56
263.105	91.56
263.337	96.56
263.57	70.56
263.802	70.56
264.035	83.56
264.267	106.56
264.499	82.56
264.732	78.56
264.964	76.56
265.197	82.56
265.429	85.56
265.661	84.56
265.894	77.56
266.126	78.56
266.358	76.56
266.591	75.56
266.823	77.56
267.055	77.56
267.287	80.56
267.52	78.56
267.752	92.56
267.984	98.56
268.216	83.56
268.448	70.56
268.681	87.56
268.913	86.56
269.145	86.56
269.377	75.56
269.609	98.56
269.841	94.56
270.073	89.56
270.306	90.56
270.538	94.56
270.77	96.56
271.002	83.56
271.234	83.56
271.466	77.56
271.698	74.56
271.93	78.56
272.162	101.56
272.394	77.56
272.626	70.56
272.858	92.56
273.09	81.56
273.322	73.56
273.553	80.56
273.785	74.56
274.017	84.56
274.249	98.56
274.481	84.56
274.713	88.56
274.945	99.56
275.176	78.56
275.408	83.56
275.64	88.56
275.872	83.56
276.104	89.56
276.335	89.56
276.567	98.56
276.799	83.56
277.031	68.56
277.262	91.56
277.494	86.56
277.726	76.56
277.957	85.56
278.189	83.56
278.421	84.56
278.652	103.56
278.884	89.56
279.115	91.56
279.347	88.56
279.579	90.56
279.81	74.56
280.042	85.56
280.273	82.56
280.505	77.56
280.736	83.56
280.968	78.56
281.199	84.56
281.431	100.56
281.662	93.56
281.894	90.56
282.125	94.56
282.356	90.56
282.588	80.56
282.819	75.56
283.051	92.56
283.282	97.56
283.513	86.56
283.745	81.56
283.976	94.56
284.207	83.56
284.439	97.56
284.67	89.56
284.901	86.56
285.132	98.56
285.364	89.56
285.595	84.56
285.826	77.56
286.057	82.56
286.288	81.56
286.52	98.56
286.751	87.56
286.982	85.56
287.213	77.56
287.444	89.56
287.675	73.56
287.906	90.56
288.138	75.56
288.369	97.56
288.6	89.56
288.831	86.56
289.062	70.56
289.293	76.56
289.524	78.56
289.755	69.56
289.986	80.56
290.217	88.56
290.448	83.56
290.679	87.56
290.91	91.56
291.141	90.56
291.371	88.56
291.602	83.56
291.833	105.56
292.064	97.56
292.295	80.56
292.526	89.56
292.757	89.56
292.987	79.56
293.218	89.56
293.449	84.56
293.68	84.56
293.91	87.56
294.141	90.56
294.372	88.56
294.603	97.56
294.833	77.56
295.064	76.56
295.295	90.56
295.525	78.56
295.756	86.56
295.987	80.56
296.217	92.56
296.448	73.56
296.679	100.56
296.909	102.56
297.14	84.56
297.37	93.56
297.601	74.56
297.831	74.56
298.062	91.56
298.292	84.56
298.523	83.56
298.753	83.56
298.984	85.56
299.214	83.56
299.445	88.56
299.675	90.56
299.905	81.56
300.136	88.56
300.366	85.56
300.597	75.56
300.827	91.56
301.057	82.56
301.288	89.56
301.518	94.56
301.748	96.56
301.979	99.56
302.209	85.56
302.439	84.56
302.669	97.56
302.9	84.56
303.13	100.56
303.36	81.56
303.59	77.56
303.82	101.56
304.051	97.56
304.281	94.56
304.511	84.56
304.741	84.56
304.971	73.56
305.201	94.56
305.431	86.56
305.661	86.56
305.891	92.56
306.121	89.56
306.352	93.56
306.582	88.56
306.812	86.56
307.042	80.56
307.272	97.56
307.502	82.56
307.731	84.56
307.961	89.56
308.191	88.56
308.421	84.56
308.651	92.56
308.881	87.56
309.111	82.56
309.341	104.56
309.571	88.56
309.8	83.56
310.03	90.56
310.26	86.56
310.49	83.56
310.72	86.56
310.949	81.56
311.179	92.56
311.409	91.56
311.639	94.56
311.868	77.56
312.098	84.56
312.328	86.56
312.557	97.56
312.787	92.56
313.017	93.56
313.246	105.56
313.476	102.56
313.706	83.56
313.935	87.56
314.165	85.56
314.394	91.56
314.624	86.56
314.853	93.56
315.083	96.56
315.312	90.56
315.542	81.56
315.771	81.56
316.001	91.56
316.23	77.56
316.46	71.56
316.689	81.56
316.919	87.56
317.148	87.56
317.377	95.56
317.607	87.56
317.836	79.56
318.065	83.56
318.295	98.56
318.524	80.56
318.753	86.56
318.983	98.56
319.212	101.56
319.441	80.56
319.67	96.56
319.9	93.56
320.129	92.56
320.358	86.56
320.587	85.56
320.816	97.56
321.046	79.56
321.275	90.56
321.504	85.56
321.733	86.56
321.962	86.56
322.191	88.56
322.42	93.56
322.649	87.56
322.878	85.56
323.108	87.56
323.337	82.56
323.566	87.56
323.795	74.56
324.024	87.56
324.253	86.56
324.482	83.56
324.71	101.56
324.939	105.56
325.168	86.56
325.397	87.56
325.626	90.56
325.855	64.56
326.084	82.56
326.313	85.56
326.542	102.56
326.77	82.56
326.999	84.56
327.228	71.56
327.457	90.56
327.686	92.56
327.914	82.56
328.143	81.56
328.372	78.56
328.6	89.56
328.829	99.56
329.058	87.56
329.287	86.56
329.515	91.56
329.744	94.56
329.972	97.56
330.201	70.56
330.43	95.56
330.658	82.56
330.887	80.56
331.115	83.56
331.344	81.56
331.572	75.56
331.801	79.56
332.03	95.56
332.258	88.56
332.486	79.56
332.715	79.56
332.943	91.56
333.172	77.56
333.4	75.56
333.629	84.56
333.857	92.56
334.085	83.56
334.314	82.56
334.542	73.56
334.771	87.56
334.999	78.56
335.227	91.56
335.455	85.56
335.684	98.56
335.912	88.56
336.14	92.56
336.369	92.56
336.597	74.56
336.825	93.56
337.053	78.56
337.281	90.56
337.51	74.56
337.738	98.56
337.966	82.56
338.194	92.56
338.422	99.56
338.65	89.56
338.878	87.56
339.106	85.56
339.334	85.56
339.562	71.56
339.79	90.56
340.018	96.56
340.246	102.56
340.474	75.56
340.702	86.56
340.93	89.56
341.158	86.56
341.386	80.56
341.614	68.56
341.842	80.56
342.07	72.56
342.298	96.56
342.526	96.56
342.754	89.56
342.981	96.56
343.209	76.56
343.437	88.56
343.665	74.56
343.893	74.56
344.12	96.56
344.348	80.56
344.576	92.56
344.804	89.56
345.031	94.56
345.259	104.56
345.487	77.56
345.714	84.56
345.942	89.56
346.17	95.56
346.397	91.56
346.625	85.56
346.853	85.56
347.08	89.56
347.308	102.56
347.535	82.56
347.763	72.56
347.99	85.56
348.218	86.56
348.445	94.56
348.673	97.56
348.9	94.56
349.128	86.56
349.355	67.56
349.583	94.56
349.81	60.56
350.037	70.56
350.265	77.56
350.492	96.56
350.72	93.56
350.947	85.56
351.174	85.56
351.402	87.56
351.629	88.56
351.856	87.56
352.083	83.56
352.311	94.56
352.538	84.56
352.765	84.56
352.992	85.56
353.22	76.56
353.447	87.56
353.674	88.56
353.901	93.56
354.128	89.56
354.355	98.56
354.583	78.56
354.81	83.56
355.037	76.56
355.264	86.56
355.491	90.56
355.718	85.56
355.945	103.56
356.172	85.56
356.399	89.56
356.626	73.56
356.853	83.56
357.08	96.56
357.307	75.56
357.534	82.56
357.761	76.56
357.988	73.56
358.215	89.56
358.441	78.56
358.668	85.56
358.895	87.56
359.122	82.56
359.349	76.56
359.576	94.56
359.802	87.56
360.029	89.56
360.256	98.56
360.483	91.56
360.709	89.56
360.936	96.56
361.163	93.56
361.39	88.56
361.616	78.56
361.843	77.56
362.07	89.56
362.296	86.56
362.523	97.56
362.749	77.56
362.976	94.56
363.203	85.56
363.429	93.56
363.656	93.56
363.882	73.56
364.109	86.56
364.335	85.56
364.562	86.56
364.788	106.56
365.015	82.56
365.241	88.56
365.468	90.56
365.694	91.56
365.92	96.56
366.147	80.56
366.373	88.56
366.599	101.56
366.826	94.56
367.052	76.56
367.278	94.56
367.505	75.56
367.731	88.56
367.957	88.56
368.184	95.56
368.41	86.56
368.636	94.56
368.862	84.56
369.089	90.56
369.315	96.56
369.541	97.56
369.767	90.56
369.993	86.56
370.219	86.56
370.445	82.56
370.672	81.56
370.898	84.56
371.124	90.56
371.35	90.56
371.576	82.56
371.802	87.56
372.028	93.56
372.254	88.56
372.48	84.56
372.706	89.56
372.932	90.56
373.158	96.56
373.384	99.56
373.61	88.56
373.835	77.56
374.061	91.56
374.287	83.56
374.513	75.56
374.739	92.56
374.965	74.56
375.191	93.56
375.416	93.56
375.642	85.56
375.868	85.56
376.094	86.56
376.319	90.56
376.545	78.56
376.771	92.56
376.997	83.56
377.222	85.56
377.448	89.56
377.674	88.56
377.899	85.56
378.125	83.56
378.35	86.56
378.576	83.56
378.802	81.56
379.027	84.56
379.253	99.56
379.478	69.56
379.704	83.56
379.929	88.56
380.155	95.56
380.38	93.56
380.606	87.56
380.831	90.56
381.057	96.56
381.282	105.56
381.507	85.56
381.733	77.56
381.958	101.56
382.184	97.56
382.409	95.56
382.634	93.56
382.86	95.56
383.085	77.56
383.31	86.56
383.535	96.56
383.761	97.56
383.986	93.56
384.211	89.56
384.436	81.56
384.662	84.56
384.887	78.56
385.112	88.56
385.337	78.56
385.562	85.56
385.787	97.56
386.013	89.56
386.238	88.56
386.463	91.56
386.688	90.56
386.913	92.56
387.138	98.56
387.363	73.56
387.588	93.56
387.813	85.56
388.038	102.56
388.263	100.56
388.488	81.56
388.713	91.56
388.938	90.56
389.163	79.56
389.387	95.56
389.612	91.56
389.837	94.56
390.062	103.56
390.287	92.56
390.512	85.56
390.736	90.56
390.961	89.56
391.186	85.56
391.411	85.56
391.636	82.56
391.86	100.56
392.085	104.56
392.31	106.56
392.534	91.56
392.759	85.56
392.984	93.56
393.208	102.56
393.433	95.56
393.658	92.56
393.882	95.56
394.107	92.56
394.331	83.56
394.556	88.56
394.78	79.56
395.005	100.56
395.229	93.56
395.454	96.56
395.678	106.56
395.903	82.56
396.127	89.56
396.352	85.56
396.576	91.56
396.801	85.56
397.025	76.56
397.249	94.56
397.474	84.56
397.698	98.56
397.922	91.56
398.147	77.56
398.371	98.56
398.595	99.56
398.82	86.56
399.044	86.56
399.268	97.56
399.492	93.56
399.717	93.56
399.941	88.56
400.165	106.56
400.389	97.56
400.613	87.56
400.837	93.56
401.062	85.56
401.286	74.56
401.51	98.56
401.734	97.56
401.958	95.56
402.182	94.56
402.406	87.56
402.63	97.56
402.854	95.56
403.078	99.56
403.302	106.56
403.526	89.56
403.75	92.56
403.974	81.56
404.198	87.56
404.422	92.56
404.645	86.56
404.869	93.56
405.093	89.56
405.317	90.56
405.541	99.56
405.765	93.56
405.988	89.56
406.212	87.56
406.436	106.56
406.66	94.56
406.883	101.56
407.107	99.56
407.331	91.56
407.555	101.56
407.778	77.56
408.002	97.56
408.226	95.56
408.449	101.56
408.673	86.56
408.896	93.56
409.12	97.56
409.344	100.56
409.567	90.56
409.791	82.56
410.014	101.56
410.238	86.56
410.461	99.56
410.685	93.56
410.908	84.56
411.132	96.56
411.355	84.56
411.578	81.56
411.802	79.56
412.025	94.56
412.249	90.56
412.472	90.56
412.695	105.56
412.919	87.56
413.142	100.56
413.365	92.56
413.589	104.56
413.812	98.56
414.035	112.56
414.258	86.56
414.482	99.56
414.705	98.56
414.928	85.56
415.151	105.56
415.374	100.56
415.597	114.56
415.821	114.56
416.044	87.56
416.267	95.56
416.49	89.56
416.713	95.56
416.936	100.56
417.159	97.56
417.382	83.56
417.605	100.56
417.828	81.56
418.051	85.56
418.274	90.56
418.497	88.56
418.72	99.56
418.943	93.56
419.166	97.56
419.389	84.56
419.611	92.56
419.834	97.56
420.057	89.56
420.28	96.56
420.503	107.56
420.726	113.56
420.948	98.56
421.171	99.56
421.394	98.56
421.617	105.56
421.839	101.56
422.062	100.56
422.285	87.56
422.507	86.56
422.73	101.56
422.953	97.56
423.175	93.56
423.398	91.56
423.621	112.56
423.843	90.56
424.066	101.56
424.288	100.56
424.511	110.56
424.733	97.56
424.956	110.56
425.178	106.56
425.401	91.56
425.623	101.56
425.846	97.56
426.068	97.56
426.291	103.56
426.513	108.56
426.735	93.56
426.958	89.56
427.18	94.56
427.402	103.56
427.625	88.56
427.847	89.56
428.069	94.56
428.292	89.56
428.514	84.56
428.736	88.56
428.958	93.56
429.181	102.56
429.403	93.56
429.625	90.56
429.847	90.56
430.069	97.56
430.292	106.56
430.514	92.56
430.736	96.56
430.958	110.56
431.18	115.56
431.402	95.56
431.624	108.56
431.846	94.56
432.068	85.56
432.29	87.56
432.512	93.56
432.734	95.56
432.956	106.56
433.178	109.56
433.4	102.56
433.622	114.56
433.844	96.56
434.066	97.56
434.287	96.56
434.509	88.56
434.731	89.56
434.953	91.56
435.175	91.56
435.397	95.56
435.618	92.56
435.84	95.56
436.062	90.56
436.284	109.56
436.505	91.56
436.727	92.56
436.949	97.56
437.17	96.56
437.392	100.56
437.614	79.56
437.835	93.56
438.057	90.56
438.278	95.56
438.5	84.56
438.721	107.56
438.943	107.56
439.165	88.56
439.386	82.56
439.608	92.56
439.829	109.56
440.05	96.56
440.272	100.56
440.493	103.56
440.715	107.56
440.936	90.56
441.158	114.56
441.379	102.56
441.6	101.56
441.822	116.56
442.043	103.56
442.264	83.56
442.486	101.56
442.707	99.56
442.928	111.56
443.149	96.56
443.371	84.56
443.592	107.56
443.813	100.56
444.034	98.56
444.255	95.56
444.476	96.56
444.698	95.56
444.919	94.56
445.14	232.56
445.361	156.56
445.582	114.56
445.803	107.56
446.024	92.56
446.245	102.56
446.466	94.56
446.687	110.56
446.908	108.56
447.129	99.56
447.35	90.56
447.571	101.56
447.792	112.56
448.013	86.56
448.234	96.56
448.455	102.56
448.675	92.56
448.896	80.56
449.117	94.56
449.338	106.56
449.559	102.56
449.779	101.56
450	109.56
450.221	99.56
450.442	102.56
450.662	103.56
450.883	99.56
451.104	109.56
451.324	97.56
451.545	98.56
451.766	98.56
451.986	86.56
452.207	90.56
452.428	91.56
452.648	108.56
452.869	93.56
453.089	100.56
453.31	83.56
453.53	105.56
453.751	98.56
453.971	94.56
454.192	84.56
454.412	92.56
454.633	95.56
454.853	88.56
455.073	94.56
455.294	99.56
455.514	102.56
455.734	96.56
455.955	87.56
456.175	89.56
456.395	78.56
456.616	90.56
456.836	95.56
457.056	85.56
457.276	85.56
457.497	84.56
457.717	96.56
457.937	102.56
458.157	79.56
458.377	77.56
458.598	88.56
458.818	64.56
459.038	85.56
459.258	83.56
459.478	91.56
459.698	93.56
459.918	83.56
460.138	88.56
460.358	88.56
460.578	93.56
460.798	96.56
461.018	92.56
461.238	90.56
461.458	90.56
461.678	98.56
461.898	94.56
462.118	88.56
462.338	93.56
462.558	103.56
462.777	82.56
462.997	96.56
463.217	82.56
463.437	106.56
463.657	85.56
463.876	104.56
464.096	101.56
464.316	92.56
464.536	101.56
464.755	85.56
464.975	77.56
465.195	100.56
465.414	79.56
465.634	83.56
465.854	85.56
466.073	105.56
466.293	90.56
466.512	103.56
466.732	97.56
466.951	106.56
467.171	99.56
467.391	87.56
467.61	94.56
467.829	93.56
468.049	95.56
468.268	89.56
468.488	90.56
468.707	97.56
468.927	90.56
469.146	97.56
469.365	110.56
469.585	88.56
469.804	87.56
470.023	97.56
470.243	107.56
470.462	93.56
470.681	104.56
470.901	99.56
471.12	112.56
471.339	99.56
471.558	114.56
471.777	113.56
471.997	90.56
472.216	97.56
472.435	96.56
472.654	85.56
472.873	89.56
473.092	93.56
473.311	86.56
473.53	91.56
473.749	96.56
473.968	88.56
474.187	91.56
474.406	90.56
474.625	104.56
474.844	84.56
475.063	86.56
475.282	93.56
475.501	90.56
475.72	93.56
475.939	101.56
476.158	88.56
476.377	76.56
476.596	103.56
476.814	88.56
477.033	91.56
477.252	88.56
477.471	97.56
477.69	108.56
477.908	104.56
478.127	101.56
478.346	103.56
478.564	88.56
478.783	90.56
479.002	106.56
479.22	113.56
479.439	108.56
479.658	90.56
479.876	88.56
480.095	106.56
480.313	97.56
480.532	109.56
480.751	94.56
480.969	95.56
481.188	88.56
481.406	85.56
481.624	82.56
481.843	83.56
482.061	80.56
482.28	113.56
482.498	96.56
482.717	93.56
482.935	85.56
483.153	109.56
483.372	104.56
483.59	109.56
483.808	102.56
484.027	103.56
484.245	100.56
484.463	105.56
484.681	97.56
484.9	116.56
485.118	83.56
485.336	102.56
485.554	98.56
485.772	96.56
485.99	90.56
486.209	87.56
486.427	99.56
486.645	91.56
486.863	97.56
487.081	96.56
487.299	94.56
487.517	90.56
487.735	101.56
487.953	115.56
488.171	87.56
488.389	108.56
488.607	123.56
488.825	102.56
489.043	96.56
489.261	83.56
489.479	108.56
489.696	102.56
489.914	104.56
490.132	101.56
490.35	94.56
490.568	108.56
490.786	109.56
491.003	112.56
491.221	122.56
491.439	116.56
491.657	105.56
491.874	138.56
492.092	130.56
492.31	147.56
492.527	146.56
492.745	120.56
492.963	129.56
493.18	118.56
493.398	101.56
493.615	110.56
493.833	121.56
494.05	110.56
494.268	119.56
494.485	100.56
494.703	94.56
494.92	124.56
495.138	114.56
495.355	102.56
495.573	114.56
495.79	114.56
496.008	100.56
496.225	104.56
496.442	105.56
496.66	105.56
496.877	92.56
497.094	108.56
497.312	120.56
497.529	107.56
497.746	109.56
497.963	104.56
498.181	98.56
498.398	101.56
498.615	95.56
498.832	93.56
499.049	85.56
499.267	96.56
499.484	94.56
499.701	102.56
499.918	115.56
500.135	106.56
500.352	100.56
500.569	100.56
500.786	105.56
501.003	103.56
501.22	116.56
501.437	112.56
501.654	97.56
501.871	115.56
502.088	98.56
502.305	93.56
502.522	92.56
502.739	101.56
502.956	99.56
503.172	105.56
503.389	103.56
503.606	101.56
503.823	105.56
504.04	103.56
504.256	99.56
504.473	98.56
504.69	110.56
504.907	113.56
505.123	96.56
505.34	94.56
505.557	108.56
505.773	97.56
505.99	99.56
506.207	92.56
506.423	93.56
506.64	91.56
506.856	104.56
507.073	98.56
507.289	93.56
507.506	84.56
507.722	92.56
507.939	81.56
508.155	94.56
508.372	91.56
508.588	88.56
508.805	85.56
509.021	106.56
509.238	84.56
509.454	97.56
509.67	96.56
509.887	83.56
510.103	87.56
510.319	95.56
510.536	91.56
510.752	96.56
510.968	103.56
511.184	78.56
511.401	87.56
511.617	85.56
511.833	86.56
512.049	90.56
512.265	86.56
512.481	89.56
512.698	89.56
512.914	88.56
513.13	82.56
513.346	93.56
513.562	85.56
513.778	107.56
513.994	79.56
514.21	81.56
514.426	79.56
514.642	82.56
514.858	94.56
515.074	80.56
515.29	102.56
515.506	85.56
515.721	83.56
515.937	103.56
516.153	87.56
516.369	80.56
