Data from Location3.07152019.Energy5.Lamp.07192019.3%Agarose_HRD10591_15-19-10-269.txt Node
Date: Fri Jul 19 15:19:10 EDT 2019
User: cochatt
Spectrometer: HR+D1059
Trigger mode: 1
Integration Time (sec): 1.000000E-1
Scans to average: 1
Electric dark correction enabled: true
Nonlinearity correction enabled: false
Boxcar width: 0
XAxis mode: Wavelengths
Number of Pixels in Spectrum: 2048
>>>>>Begin Spectral Data<<<<<
223.165	-29.12
223.4	-29.12
223.635	-29.12
223.869	-15.12
224.104	-19.12
224.338	-9.12
224.573	-14.12
224.808	-30.12
225.042	2.88
225.277	-11.12
225.511	3.88
225.746	-1.12
225.98	7.88
226.215	18.88
226.449	11.88
226.683	10.88
226.918	28.88
227.152	43.88
227.387	35.88
227.621	44.88
227.856	37.88
228.09	48.88
228.324	49.88
228.559	46.88
228.793	48.88
229.027	59.88
229.262	77.88
229.496	65.88
229.73	82.88
229.964	66.88
230.199	74.88
230.433	77.88
230.667	58.88
230.901	81.88
231.136	82.88
231.37	81.88
231.604	71.88
231.838	77.88
232.072	89.88
232.306	90.88
232.541	76.88
232.775	80.88
233.009	78.88
233.243	81.88
233.477	78.88
233.711	90.88
233.945	78.88
234.179	76.88
234.413	82.88
234.647	91.88
234.881	79.88
235.115	97.88
235.349	87.88
235.583	77.88
235.817	88.88
236.051	86.88
236.285	74.88
236.519	94.88
236.753	64.88
236.987	63.88
237.221	72.88
237.455	83.88
237.689	73.88
237.922	76.88
238.156	75.88
238.39	83.88
238.624	82.88
238.858	80.88
239.091	71.88
239.325	59.88
239.559	66.88
239.793	77.88
240.027	79.88
240.26	79.88
240.494	79.88
240.728	83.88
240.961	67.88
241.195	88.88
241.429	78.88
241.662	75.88
241.896	79.88
242.13	73.88
242.363	68.88
242.597	78.88
242.83	74.88
243.064	76.88
243.298	72.88
243.531	74.88
243.765	72.88
243.998	66.88
244.232	80.88
244.465	91.88
244.699	82.88
244.932	72.88
245.166	80.88
245.399	87.88
245.633	70.88
245.866	70.88
246.099	73.88
246.333	84.88
246.566	88.88
246.8	73.88
247.033	76.88
247.266	74.88
247.5	84.88
247.733	77.88
247.966	82.88
248.2	71.88
248.433	57.88
248.666	74.88
248.899	60.88
249.133	79.88
249.366	91.88
249.599	71.88
249.832	63.88
250.066	79.88
250.299	61.88
250.532	79.88
250.765	96.88
250.998	67.88
251.231	84.88
251.465	75.88
251.698	78.88
251.931	74.88
252.164	78.88
252.397	76.88
252.63	81.88
252.863	79.88
253.096	63.88
253.329	77.88
253.562	70.88
253.795	89.88
254.028	90.88
254.261	74.88
254.494	89.88
254.727	77.88
254.96	77.88
255.193	85.88
255.426	81.88
255.659	69.88
255.892	70.88
256.124	84.88
256.357	81.88
256.59	82.88
256.823	59.88
257.056	93.88
257.289	80.88
257.521	75.88
257.754	84.88
257.987	72.88
258.22	74.88
258.452	65.88
258.685	79.88
258.918	52.88
259.151	63.88
259.383	86.88
259.616	78.88
259.849	93.88
260.081	79.88
260.314	75.88
260.547	94.88
260.779	82.88
261.012	60.88
261.244	83.88
261.477	91.88
261.71	80.88
261.942	78.88
262.175	84.88
262.407	79.88
262.64	94.88
262.872	70.88
263.105	88.88
263.337	80.88
263.57	78.88
263.802	83.88
264.035	79.88
264.267	81.88
264.499	82.88
264.732	78.88
264.964	72.88
265.197	80.88
265.429	86.88
265.661	67.88
265.894	68.88
266.126	91.88
266.358	76.88
266.591	65.88
266.823	77.88
267.055	77.88
267.287	89.88
267.52	71.88
267.752	76.88
267.984	83.88
268.216	88.88
268.448	86.88
268.681	92.88
268.913	84.88
269.145	81.88
269.377	79.88
269.609	73.88
269.841	89.88
270.073	90.88
270.306	80.88
270.538	90.88
270.77	81.88
271.002	83.88
271.234	76.88
271.466	92.88
271.698	79.88
271.93	89.88
272.162	76.88
272.394	85.88
272.626	82.88
272.858	82.88
273.09	77.88
273.322	81.88
273.553	82.88
273.785	82.88
274.017	93.88
274.249	89.88
274.481	78.88
274.713	65.88
274.945	102.88
275.176	92.88
275.408	94.88
275.64	66.88
275.872	94.88
276.104	89.88
276.335	69.88
276.567	88.88
276.799	81.88
277.031	73.88
277.262	85.88
277.494	91.88
277.726	86.88
277.957	84.88
278.189	96.88
278.421	83.88
278.652	96.88
278.884	79.88
279.115	88.88
279.347	68.88
279.579	75.88
279.81	77.88
280.042	68.88
280.273	86.88
280.505	80.88
280.736	87.88
280.968	93.88
281.199	84.88
281.431	87.88
281.662	66.88
281.894	82.88
282.125	89.88
282.356	83.88
282.588	88.88
282.819	82.88
283.051	69.88
283.282	77.88
283.513	82.88
283.745	94.88
283.976	101.88
284.207	86.88
284.439	85.88
284.67	101.88
284.901	87.88
285.132	77.88
285.364	86.88
285.595	92.88
285.826	85.88
286.057	93.88
286.288	72.88
286.52	90.88
286.751	74.88
286.982	92.88
287.213	78.88
287.444	81.88
287.675	73.88
287.906	74.88
288.138	90.88
288.369	88.88
288.6	68.88
288.831	86.88
289.062	91.88
289.293	74.88
289.524	66.88
289.755	78.88
289.986	79.88
290.217	75.88
290.448	93.88
290.679	84.88
290.91	85.88
291.141	67.88
291.371	74.88
291.602	78.88
291.833	81.88
292.064	89.88
292.295	77.88
292.526	76.88
292.757	88.88
292.987	89.88
293.218	89.88
293.449	82.88
293.68	89.88
293.91	87.88
294.141	97.88
294.372	92.88
294.603	88.88
294.833	85.88
295.064	88.88
295.295	84.88
295.525	76.88
295.756	86.88
295.987	88.88
296.217	105.88
296.448	83.88
296.679	87.88
296.909	85.88
297.14	81.88
297.37	89.88
297.601	78.88
297.831	83.88
298.062	82.88
298.292	82.88
298.523	92.88
298.753	95.88
298.984	68.88
299.214	76.88
299.445	85.88
299.675	80.88
299.905	92.88
300.136	88.88
300.366	95.88
300.597	89.88
300.827	94.88
301.057	85.88
301.288	88.88
301.518	86.88
301.748	90.88
301.979	84.88
302.209	89.88
302.439	74.88
302.669	80.88
302.9	74.88
303.13	88.88
303.36	92.88
303.59	70.88
303.82	69.88
304.051	73.88
304.281	74.88
304.511	90.88
304.741	87.88
304.971	93.88
305.201	97.88
305.431	92.88
305.661	84.88
305.891	92.88
306.121	74.88
306.352	81.88
306.582	79.88
306.812	93.88
307.042	76.88
307.272	82.88
307.502	76.88
307.731	91.88
307.961	84.88
308.191	80.88
308.421	78.88
308.651	89.88
308.881	104.88
309.111	93.88
309.341	82.88
309.571	71.88
309.8	76.88
310.03	83.88
310.26	81.88
310.49	100.88
310.72	80.88
310.949	85.88
311.179	87.88
311.409	81.88
311.639	73.88
311.868	87.88
312.098	85.88
312.328	80.88
312.557	90.88
312.787	79.88
313.017	79.88
313.246	68.88
313.476	90.88
313.706	73.88
313.935	82.88
314.165	77.88
314.394	97.88
314.624	82.88
314.853	90.88
315.083	85.88
315.312	93.88
315.542	86.88
315.771	76.88
316.001	89.88
316.23	83.88
316.46	98.88
316.689	93.88
316.919	84.88
317.148	91.88
317.377	88.88
317.607	89.88
317.836	77.88
318.065	79.88
318.295	84.88
318.524	81.88
318.753	86.88
318.983	73.88
319.212	67.88
319.441	84.88
319.67	96.88
319.9	64.88
320.129	70.88
320.358	80.88
320.587	76.88
320.816	87.88
321.046	79.88
321.275	81.88
321.504	75.88
321.733	90.88
321.962	88.88
322.191	81.88
322.42	86.88
322.649	75.88
322.878	85.88
323.108	72.88
323.337	89.88
323.566	81.88
323.795	97.88
324.024	79.88
324.253	94.88
324.482	80.88
324.71	78.88
324.939	88.88
325.168	101.88
325.397	81.88
325.626	75.88
325.855	78.88
326.084	81.88
326.313	91.88
326.542	70.88
326.77	85.88
326.999	79.88
327.228	76.88
327.457	98.88
327.686	98.88
327.914	93.88
328.143	80.88
328.372	78.88
328.6	77.88
328.829	80.88
329.058	77.88
329.287	73.88
329.515	80.88
329.744	87.88
329.972	72.88
330.201	93.88
330.43	83.88
330.658	78.88
330.887	85.88
331.115	85.88
331.344	86.88
331.572	69.88
331.801	79.88
332.03	84.88
332.258	78.88
332.486	96.88
332.715	87.88
332.943	79.88
333.172	84.88
333.4	83.88
333.629	79.88
333.857	93.88
334.085	74.88
334.314	84.88
334.542	78.88
334.771	76.88
334.999	89.88
335.227	79.88
335.455	89.88
335.684	97.88
335.912	87.88
336.14	97.88
336.369	68.88
336.597	72.88
336.825	72.88
337.053	61.88
337.281	82.88
337.51	94.88
337.738	89.88
337.966	77.88
338.194	88.88
338.422	94.88
338.65	87.88
338.878	84.88
339.106	84.88
339.334	96.88
339.562	83.88
339.79	69.88
340.018	86.88
340.246	68.88
340.474	78.88
340.702	89.88
340.93	72.88
341.158	93.88
341.386	78.88
341.614	80.88
341.842	98.88
342.07	81.88
342.298	84.88
342.526	81.88
342.754	76.88
342.981	77.88
343.209	93.88
343.437	73.88
343.665	84.88
343.893	84.88
344.12	94.88
344.348	80.88
344.576	82.88
344.804	86.88
345.031	71.88
345.259	73.88
345.487	91.88
345.714	92.88
345.942	72.88
346.17	80.88
346.397	69.88
346.625	68.88
346.853	83.88
347.08	79.88
347.308	87.88
347.535	70.88
347.763	91.88
347.99	77.88
348.218	84.88
348.445	64.88
348.673	87.88
348.9	79.88
349.128	82.88
349.355	87.88
349.583	74.88
349.81	63.88
350.037	85.88
350.265	82.88
350.492	89.88
350.72	85.88
350.947	85.88
351.174	95.88
351.402	92.88
351.629	75.88
351.856	83.88
352.083	93.88
352.311	71.88
352.538	90.88
352.765	70.88
352.992	68.88
353.22	81.88
353.447	82.88
353.674	80.88
353.901	96.88
354.128	77.88
354.355	74.88
354.583	89.88
354.81	91.88
355.037	84.88
355.264	75.88
355.491	76.88
355.718	75.88
355.945	88.88
356.172	68.88
356.399	91.88
356.626	73.88
356.853	82.88
357.08	91.88
357.307	77.88
357.534	81.88
357.761	88.88
357.988	96.88
358.215	95.88
358.441	84.88
358.668	67.88
358.895	83.88
359.122	91.88
359.349	74.88
359.576	87.88
359.802	78.88
360.029	88.88
360.256	85.88
360.483	69.88
360.709	81.88
360.936	96.88
361.163	84.88
361.39	89.88
361.616	72.88
361.843	83.88
362.07	82.88
362.296	82.88
362.523	77.88
362.749	81.88
362.976	91.88
363.203	74.88
363.429	87.88
363.656	73.88
363.882	82.88
364.109	94.88
364.335	94.88
364.562	81.88
364.788	86.88
365.015	80.88
365.241	92.88
365.468	86.88
365.694	68.88
365.92	69.88
366.147	69.88
366.373	102.88
366.599	86.88
366.826	91.88
367.052	85.88
367.278	85.88
367.505	82.88
367.731	86.88
367.957	99.88
368.184	83.88
368.41	74.88
368.636	98.88
368.862	79.88
369.089	98.88
369.315	70.88
369.541	78.88
369.767	65.88
369.993	79.88
370.219	76.88
370.445	80.88
370.672	82.88
370.898	74.88
371.124	61.88
371.35	67.88
371.576	83.88
371.802	79.88
372.028	81.88
372.254	79.88
372.48	71.88
372.706	78.88
372.932	77.88
373.158	93.88
373.384	94.88
373.61	92.88
373.835	84.88
374.061	103.88
374.287	81.88
374.513	80.88
374.739	81.88
374.965	92.88
375.191	88.88
375.416	69.88
375.642	84.88
375.868	82.88
376.094	84.88
376.319	78.88
376.545	86.88
376.771	81.88
376.997	98.88
377.222	84.88
377.448	82.88
377.674	92.88
377.899	79.88
378.125	88.88
378.35	86.88
378.576	75.88
378.802	70.88
379.027	93.88
379.253	85.88
379.478	79.88
379.704	88.88
379.929	84.88
380.155	82.88
380.38	86.88
380.606	88.88
380.831	74.88
381.057	97.88
381.282	89.88
381.507	74.88
381.733	88.88
381.958	82.88
382.184	81.88
382.409	84.88
382.634	89.88
382.86	90.88
383.085	88.88
383.31	84.88
383.535	85.88
383.761	73.88
383.986	91.88
384.211	88.88
384.436	86.88
384.662	92.88
384.887	80.88
385.112	74.88
385.337	80.88
385.562	93.88
385.787	92.88
386.013	94.88
386.238	79.88
386.463	75.88
386.688	76.88
386.913	85.88
387.138	78.88
387.363	86.88
387.588	82.88
387.813	86.88
388.038	96.88
388.263	95.88
388.488	90.88
388.713	99.88
388.938	79.88
389.163	91.88
389.387	80.88
389.612	86.88
389.837	85.88
390.062	83.88
390.287	96.88
390.512	87.88
390.736	83.88
390.961	80.88
391.186	87.88
391.411	92.88
391.636	82.88
391.86	84.88
392.085	86.88
392.31	78.88
392.534	83.88
392.759	83.88
392.984	89.88
393.208	91.88
393.433	81.88
393.658	92.88
393.882	90.88
394.107	88.88
394.331	89.88
394.556	78.88
394.78	91.88
395.005	83.88
395.229	85.88
395.454	87.88
395.678	80.88
395.903	87.88
396.127	101.88
396.352	79.88
396.576	77.88
396.801	104.88
397.025	87.88
397.249	73.88
397.474	90.88
397.698	84.88
397.922	98.88
398.147	80.88
398.371	87.88
398.595	95.88
398.82	79.88
399.044	90.88
399.268	84.88
399.492	86.88
399.717	93.88
399.941	94.88
400.165	92.88
400.389	92.88
400.613	78.88
400.837	80.88
401.062	83.88
401.286	84.88
401.51	97.88
401.734	78.88
401.958	85.88
402.182	72.88
402.406	94.88
402.63	95.88
402.854	86.88
403.078	70.88
403.302	72.88
403.526	89.88
403.75	90.88
403.974	89.88
404.198	84.88
404.422	85.88
404.645	71.88
404.869	111.88
405.093	98.88
405.317	86.88
405.541	96.88
405.765	90.88
405.988	99.88
406.212	84.88
406.436	108.88
406.66	88.88
406.883	104.88
407.107	95.88
407.331	87.88
407.555	88.88
407.778	96.88
408.002	99.88
408.226	94.88
408.449	81.88
408.673	107.88
408.896	91.88
409.12	81.88
409.344	89.88
409.567	90.88
409.791	95.88
410.014	85.88
410.238	85.88
410.461	105.88
410.685	87.88
410.908	84.88
411.132	92.88
411.355	81.88
411.578	97.88
411.802	81.88
412.025	109.88
412.249	77.88
412.472	97.88
412.695	86.88
412.919	102.88
413.142	80.88
413.365	92.88
413.589	81.88
413.812	87.88
414.035	86.88
414.258	72.88
414.482	89.88
414.705	86.88
414.928	90.88
415.151	84.88
415.374	87.88
415.597	91.88
415.821	89.88
416.044	83.88
416.267	99.88
416.49	84.88
416.713	87.88
416.936	113.88
417.159	79.88
417.382	92.88
417.605	95.88
417.828	93.88
418.051	102.88
418.274	94.88
418.497	93.88
418.72	85.88
418.943	91.88
419.166	102.88
419.389	92.88
419.611	88.88
419.834	93.88
420.057	95.88
420.28	91.88
420.503	104.88
420.726	85.88
420.948	99.88
421.171	105.88
421.394	89.88
421.617	99.88
421.839	97.88
422.062	100.88
422.285	85.88
422.507	86.88
422.73	94.88
422.953	106.88
423.175	98.88
423.398	83.88
423.621	82.88
423.843	82.88
424.066	94.88
424.288	97.88
424.511	90.88
424.733	96.88
424.956	86.88
425.178	93.88
425.401	80.88
425.623	96.88
425.846	94.88
426.068	94.88
426.291	85.88
426.513	85.88
426.735	99.88
426.958	93.88
427.18	86.88
427.402	80.88
427.625	85.88
427.847	87.88
428.069	96.88
428.292	90.88
428.514	93.88
428.736	97.88
428.958	93.88
429.181	88.88
429.403	81.88
429.625	93.88
429.847	89.88
430.069	104.88
430.292	105.88
430.514	85.88
430.736	89.88
430.958	89.88
431.18	108.88
431.402	94.88
431.624	91.88
431.846	92.88
432.068	86.88
432.29	105.88
432.512	82.88
432.734	85.88
432.956	110.88
433.178	93.88
433.4	91.88
433.622	94.88
433.844	97.88
434.066	93.88
434.287	92.88
434.509	73.88
434.731	74.88
434.953	83.88
435.175	95.88
435.397	104.88
435.618	95.88
435.84	89.88
436.062	89.88
436.284	95.88
436.505	100.88
436.727	104.88
436.949	97.88
437.17	78.88
437.392	100.88
437.614	94.88
437.835	89.88
438.057	86.88
438.278	89.88
438.5	82.88
438.721	89.88
438.943	90.88
439.165	97.88
439.386	87.88
439.608	108.88
439.829	95.88
440.05	88.88
440.272	100.88
440.493	96.88
440.715	89.88
440.936	108.88
441.158	103.88
441.379	92.88
441.6	98.88
441.822	95.88
442.043	101.88
442.264	108.88
442.486	108.88
442.707	88.88
442.928	101.88
443.149	97.88
443.371	92.88
443.592	90.88
443.813	105.88
444.034	103.88
444.255	100.88
444.476	84.88
444.698	101.88
444.919	90.88
445.14	220.88
445.361	148.88
445.582	91.88
445.803	89.88
446.024	95.88
446.245	100.88
446.466	102.88
446.687	100.88
446.908	105.88
447.129	95.88
447.35	95.88
447.571	100.88
447.792	97.88
448.013	96.88
448.234	109.88
448.455	100.88
448.675	111.88
448.896	94.88
449.117	97.88
449.338	86.88
449.559	87.88
449.779	92.88
450	86.88
450.221	101.88
450.442	100.88
450.662	97.88
450.883	88.88
451.104	109.88
451.324	95.88
451.545	83.88
451.766	81.88
451.986	97.88
452.207	84.88
452.428	88.88
452.648	92.88
452.869	100.88
453.089	84.88
453.31	85.88
453.53	92.88
453.751	85.88
453.971	93.88
454.192	83.88
454.412	99.88
454.633	78.88
454.853	74.88
455.073	99.88
455.294	83.88
455.514	84.88
455.734	97.88
455.955	83.88
456.175	98.88
456.395	91.88
456.616	101.88
456.836	79.88
457.056	83.88
457.276	90.88
457.497	82.88
457.717	96.88
457.937	86.88
458.157	91.88
458.377	87.88
458.598	76.88
458.818	91.88
459.038	79.88
459.258	80.88
459.478	73.88
459.698	76.88
459.918	80.88
460.138	77.88
460.358	86.88
460.578	83.88
460.798	80.88
461.018	86.88
461.238	85.88
461.458	105.88
461.678	90.88
461.898	77.88
462.118	90.88
462.338	92.88
462.558	85.88
462.777	88.88
462.997	81.88
463.217	97.88
463.437	79.88
463.657	90.88
463.876	80.88
464.096	79.88
464.316	79.88
464.536	78.88
464.755	89.88
464.975	101.88
465.195	97.88
465.414	98.88
465.634	97.88
465.854	103.88
466.073	95.88
466.293	92.88
466.512	88.88
466.732	87.88
466.951	78.88
467.171	96.88
467.391	95.88
467.61	102.88
467.829	97.88
468.049	105.88
468.268	89.88
468.488	91.88
468.707	89.88
468.927	82.88
469.146	97.88
469.365	86.88
469.585	99.88
469.804	101.88
470.023	95.88
470.243	96.88
470.462	102.88
470.681	95.88
470.901	95.88
471.12	101.88
471.339	102.88
471.558	104.88
471.777	108.88
471.997	94.88
472.216	102.88
472.435	96.88
472.654	93.88
472.873	97.88
473.092	84.88
473.311	94.88
473.53	97.88
473.749	101.88
473.968	85.88
474.187	95.88
474.406	84.88
474.625	94.88
474.844	100.88
475.063	96.88
475.282	85.88
475.501	94.88
475.72	88.88
475.939	100.88
476.158	84.88
476.377	98.88
476.596	91.88
476.814	89.88
477.033	76.88
477.252	95.88
477.471	94.88
477.69	87.88
477.908	94.88
478.127	90.88
478.346	97.88
478.564	104.88
478.783	93.88
479.002	77.88
479.22	94.88
479.439	91.88
479.658	90.88
479.876	97.88
480.095	85.88
480.313	83.88
480.532	111.88
480.751	92.88
480.969	93.88
481.188	81.88
481.406	94.88
481.624	89.88
481.843	80.88
482.061	79.88
482.28	85.88
482.498	83.88
482.717	100.88
482.935	104.88
483.153	105.88
483.372	109.88
483.59	104.88
483.808	91.88
484.027	88.88
484.245	106.88
484.463	106.88
484.681	89.88
484.9	88.88
485.118	96.88
485.336	78.88
485.554	104.88
485.772	87.88
485.99	76.88
486.209	77.88
486.427	96.88
486.645	90.88
486.863	104.88
487.081	96.88
487.299	94.88
487.517	87.88
487.735	120.88
487.953	115.88
488.171	101.88
488.389	96.88
488.607	99.88
488.825	94.88
489.043	85.88
489.261	92.88
489.479	90.88
489.696	89.88
489.914	97.88
490.132	93.88
490.35	106.88
490.568	104.88
490.786	102.88
491.003	121.88
491.221	116.88
491.439	112.88
491.657	117.88
491.874	122.88
492.092	126.88
492.31	119.88
492.527	128.88
492.745	113.88
492.963	103.88
493.18	110.88
493.398	111.88
493.615	112.88
493.833	110.88
494.05	116.88
494.268	109.88
494.485	110.88
494.703	122.88
494.92	117.88
495.138	108.88
495.355	105.88
495.573	117.88
495.79	113.88
496.008	120.88
496.225	108.88
496.442	108.88
496.66	108.88
496.877	104.88
497.094	108.88
497.312	110.88
497.529	114.88
497.746	97.88
497.963	100.88
498.181	98.88
498.398	91.88
498.615	95.88
498.832	89.88
499.049	85.88
499.267	98.88
499.484	91.88
499.701	100.88
499.918	97.88
500.135	96.88
500.352	103.88
500.569	95.88
500.786	99.88
501.003	100.88
501.22	90.88
501.437	96.88
501.654	104.88
501.871	92.88
502.088	96.88
502.305	109.88
502.522	97.88
502.739	110.88
502.956	106.88
503.172	75.88
503.389	98.88
503.606	89.88
503.823	88.88
504.04	102.88
504.256	92.88
504.473	104.88
504.69	88.88
504.907	94.88
505.123	94.88
505.34	92.88
505.557	90.88
505.773	91.88
505.99	71.88
506.207	93.88
506.423	91.88
506.64	84.88
506.856	84.88
507.073	92.88
507.289	97.88
507.506	100.88
507.722	100.88
507.939	88.88
508.155	88.88
508.372	86.88
508.588	119.88
508.805	98.88
509.021	100.88
509.238	84.88
509.454	77.88
509.67	87.88
509.887	79.88
510.103	85.88
510.319	90.88
510.536	77.88
510.752	80.88
510.968	77.88
511.184	94.88
511.401	87.88
511.617	88.88
511.833	88.88
512.049	77.88
512.265	84.88
512.481	94.88
512.698	97.88
512.914	81.88
513.13	77.88
513.346	81.88
513.562	82.88
513.778	87.88
513.994	92.88
514.21	93.88
514.426	91.88
514.642	80.88
514.858	89.88
515.074	85.88
515.29	93.88
515.506	87.88
515.721	90.88
515.937	86.88
516.153	79.88
516.369	84.88
516.585	87.88
516.801	78.88
517.016	77.88
517.232	80.88
517.448	84.88
517.664	82.88
