Data from Location3.07152019.Energy5.Lamp.07192019.3%Agarose_HRD10591_15-16-43-268.txt Node
Date: Fri Jul 19 15:16:43 EDT 2019
User: cochatt
Spectrometer: HR+D1059
Trigger mode: 1
Integration Time (sec): 1.000000E-1
Scans to average: 1
Electric dark correction enabled: true
Nonlinearity correction enabled: false
Boxcar width: 0
XAxis mode: Wavelengths
Number of Pixels in Spectrum: 2048
>>>>>Begin Spectral Data<<<<<
223.165	-23.06
223.4	-23.06
223.635	-23.06
223.869	-30.06
224.104	-19.06
224.338	-12.06
224.573	-21.06
224.808	-3.06
225.042	-1.06
225.277	0.94
225.511	-12.06
225.746	3.94
225.98	6.94
226.215	7.94
226.449	17.94
226.683	22.94
226.918	33.94
227.152	26.94
227.387	32.94
227.621	37.94
227.856	65.94
228.09	46.94
228.324	50.94
228.559	59.94
228.793	49.94
229.027	52.94
229.262	62.94
229.496	59.94
229.73	80.94
229.964	62.94
230.199	61.94
230.433	79.94
230.667	74.94
230.901	68.94
231.136	73.94
231.37	87.94
231.604	81.94
231.838	86.94
232.072	77.94
232.306	87.94
232.541	87.94
232.775	76.94
233.009	92.94
233.243	83.94
233.477	72.94
233.711	80.94
233.945	87.94
234.179	87.94
234.413	77.94
234.647	87.94
234.881	88.94
235.115	78.94
235.349	80.94
235.583	86.94
235.817	80.94
236.051	76.94
236.285	69.94
236.519	81.94
236.753	79.94
236.987	79.94
237.221	81.94
237.455	95.94
237.689	73.94
237.922	69.94
238.156	84.94
238.39	66.94
238.624	77.94
238.858	76.94
239.091	77.94
239.325	71.94
239.559	56.94
239.793	68.94
240.027	88.94
240.26	76.94
240.494	72.94
240.728	70.94
240.961	72.94
241.195	73.94
241.429	84.94
241.662	66.94
241.896	74.94
242.13	91.94
242.363	76.94
242.597	83.94
242.83	83.94
243.064	84.94
243.298	91.94
243.531	65.94
243.765	90.94
243.998	80.94
244.232	70.94
244.465	79.94
244.699	82.94
244.932	77.94
245.166	70.94
245.399	79.94
245.633	76.94
245.866	91.94
246.099	83.94
246.333	69.94
246.566	82.94
246.8	81.94
247.033	89.94
247.266	79.94
247.5	69.94
247.733	71.94
247.966	88.94
248.2	58.94
248.433	86.94
248.666	70.94
248.899	72.94
249.133	76.94
249.366	70.94
249.599	75.94
249.832	76.94
250.066	84.94
250.299	81.94
250.532	80.94
250.765	77.94
250.998	74.94
251.231	87.94
251.465	71.94
251.698	71.94
251.931	79.94
252.164	72.94
252.397	87.94
252.63	69.94
252.863	82.94
253.096	76.94
253.329	70.94
253.562	78.94
253.795	82.94
254.028	75.94
254.261	65.94
254.494	88.94
254.727	86.94
254.96	88.94
255.193	70.94
255.426	84.94
255.659	85.94
255.892	86.94
256.124	79.94
256.357	73.94
256.59	76.94
256.823	81.94
257.056	81.94
257.289	82.94
257.521	87.94
257.754	83.94
257.987	76.94
258.22	71.94
258.452	70.94
258.685	92.94
258.918	89.94
259.151	94.94
259.383	86.94
259.616	72.94
259.849	83.94
260.081	77.94
260.314	73.94
260.547	91.94
260.779	71.94
261.012	72.94
261.244	76.94
261.477	88.94
261.71	88.94
261.942	83.94
262.175	78.94
262.407	93.94
262.64	92.94
262.872	78.94
263.105	88.94
263.337	95.94
263.57	82.94
263.802	95.94
264.035	87.94
264.267	77.94
264.499	84.94
264.732	80.94
264.964	84.94
265.197	87.94
265.429	82.94
265.661	82.94
265.894	86.94
266.126	83.94
266.358	73.94
266.591	88.94
266.823	86.94
267.055	80.94
267.287	87.94
267.52	82.94
267.752	86.94
267.984	89.94
268.216	79.94
268.448	73.94
268.681	85.94
268.913	103.94
269.145	98.94
269.377	99.94
269.609	74.94
269.841	88.94
270.073	87.94
270.306	94.94
270.538	98.94
270.77	84.94
271.002	75.94
271.234	88.94
271.466	86.94
271.698	65.94
271.93	82.94
272.162	91.94
272.394	88.94
272.626	82.94
272.858	87.94
273.09	100.94
273.322	84.94
273.553	83.94
273.785	88.94
274.017	79.94
274.249	82.94
274.481	94.94
274.713	76.94
274.945	82.94
275.176	90.94
275.408	72.94
275.64	86.94
275.872	82.94
276.104	92.94
276.335	71.94
276.567	77.94
276.799	67.94
277.031	76.94
277.262	83.94
277.494	67.94
277.726	84.94
277.957	80.94
278.189	76.94
278.421	75.94
278.652	95.94
278.884	95.94
279.115	94.94
279.347	72.94
279.579	84.94
279.81	90.94
280.042	94.94
280.273	81.94
280.505	99.94
280.736	90.94
280.968	78.94
281.199	72.94
281.431	90.94
281.662	84.94
281.894	90.94
282.125	83.94
282.356	77.94
282.588	76.94
282.819	88.94
283.051	76.94
283.282	91.94
283.513	87.94
283.745	91.94
283.976	72.94
284.207	81.94
284.439	85.94
284.67	92.94
284.901	80.94
285.132	81.94
285.364	70.94
285.595	73.94
285.826	87.94
286.057	89.94
286.288	95.94
286.52	86.94
286.751	94.94
286.982	92.94
287.213	81.94
287.444	80.94
287.675	86.94
287.906	94.94
288.138	73.94
288.369	85.94
288.6	86.94
288.831	84.94
289.062	86.94
289.293	71.94
289.524	79.94
289.755	84.94
289.986	58.94
290.217	78.94
290.448	90.94
290.679	91.94
290.91	80.94
291.141	91.94
291.371	105.94
291.602	86.94
291.833	95.94
292.064	94.94
292.295	95.94
292.526	83.94
292.757	79.94
292.987	69.94
293.218	80.94
293.449	93.94
293.68	88.94
293.91	79.94
294.141	86.94
294.372	94.94
294.603	90.94
294.833	85.94
295.064	79.94
295.295	87.94
295.525	81.94
295.756	79.94
295.987	82.94
296.217	83.94
296.448	90.94
296.679	92.94
296.909	83.94
297.14	92.94
297.37	80.94
297.601	79.94
297.831	83.94
298.062	74.94
298.292	72.94
298.523	93.94
298.753	79.94
298.984	75.94
299.214	85.94
299.445	77.94
299.675	85.94
299.905	81.94
300.136	87.94
300.366	88.94
300.597	98.94
300.827	84.94
301.057	92.94
301.288	97.94
301.518	87.94
301.748	82.94
301.979	79.94
302.209	83.94
302.439	104.94
302.669	81.94
302.9	93.94
303.13	79.94
303.36	87.94
303.59	68.94
303.82	98.94
304.051	79.94
304.281	94.94
304.511	88.94
304.741	88.94
304.971	87.94
305.201	104.94
305.431	92.94
305.661	84.94
305.891	88.94
306.121	91.94
306.352	89.94
306.582	64.94
306.812	90.94
307.042	94.94
307.272	72.94
307.502	98.94
307.731	96.94
307.961	82.94
308.191	76.94
308.421	71.94
308.651	92.94
308.881	78.94
309.111	92.94
309.341	97.94
309.571	87.94
309.8	86.94
310.03	82.94
310.26	72.94
310.49	82.94
310.72	80.94
310.949	89.94
311.179	99.94
311.409	76.94
311.639	86.94
311.868	88.94
312.098	86.94
312.328	85.94
312.557	90.94
312.787	77.94
313.017	97.94
313.246	86.94
313.476	80.94
313.706	83.94
313.935	78.94
314.165	80.94
314.394	91.94
314.624	72.94
314.853	88.94
315.083	79.94
315.312	79.94
315.542	79.94
315.771	88.94
316.001	90.94
316.23	83.94
316.46	84.94
316.689	98.94
316.919	86.94
317.148	81.94
317.377	80.94
317.607	87.94
317.836	85.94
318.065	83.94
318.295	83.94
318.524	79.94
318.753	70.94
318.983	71.94
319.212	81.94
319.441	82.94
319.67	78.94
319.9	94.94
320.129	75.94
320.358	83.94
320.587	81.94
320.816	88.94
321.046	92.94
321.275	78.94
321.504	91.94
321.733	90.94
321.962	100.94
322.191	85.94
322.42	86.94
322.649	81.94
322.878	86.94
323.108	80.94
323.337	75.94
323.566	82.94
323.795	86.94
324.024	86.94
324.253	96.94
324.482	78.94
324.71	94.94
324.939	88.94
325.168	79.94
325.397	99.94
325.626	85.94
325.855	83.94
326.084	90.94
326.313	90.94
326.542	86.94
326.77	89.94
326.999	83.94
327.228	79.94
327.457	92.94
327.686	85.94
327.914	92.94
328.143	86.94
328.372	84.94
328.6	79.94
328.829	87.94
329.058	81.94
329.287	80.94
329.515	86.94
329.744	80.94
329.972	82.94
330.201	75.94
330.43	86.94
330.658	98.94
330.887	78.94
331.115	82.94
331.344	85.94
331.572	86.94
331.801	88.94
332.03	82.94
332.258	81.94
332.486	81.94
332.715	97.94
332.943	75.94
333.172	87.94
333.4	75.94
333.629	87.94
333.857	80.94
334.085	99.94
334.314	81.94
334.542	90.94
334.771	91.94
334.999	84.94
335.227	89.94
335.455	85.94
335.684	97.94
335.912	85.94
336.14	87.94
336.369	91.94
336.597	82.94
336.825	70.94
337.053	91.94
337.281	74.94
337.51	94.94
337.738	83.94
337.966	97.94
338.194	91.94
338.422	86.94
338.65	74.94
338.878	87.94
339.106	80.94
339.334	70.94
339.562	82.94
339.79	77.94
340.018	78.94
340.246	82.94
340.474	81.94
340.702	75.94
340.93	85.94
341.158	84.94
341.386	85.94
341.614	71.94
341.842	84.94
342.07	91.94
342.298	91.94
342.526	84.94
342.754	92.94
342.981	73.94
343.209	94.94
343.437	105.94
343.665	93.94
343.893	99.94
344.12	97.94
344.348	96.94
344.576	84.94
344.804	94.94
345.031	75.94
345.259	83.94
345.487	82.94
345.714	84.94
345.942	82.94
346.17	102.94
346.397	91.94
346.625	79.94
346.853	76.94
347.08	76.94
347.308	86.94
347.535	76.94
347.763	83.94
347.99	89.94
348.218	96.94
348.445	86.94
348.673	86.94
348.9	93.94
349.128	94.94
349.355	70.94
349.583	82.94
349.81	92.94
350.037	84.94
350.265	90.94
350.492	84.94
350.72	79.94
350.947	96.94
351.174	86.94
351.402	71.94
351.629	95.94
351.856	90.94
352.083	75.94
352.311	87.94
352.538	85.94
352.765	93.94
352.992	97.94
353.22	84.94
353.447	86.94
353.674	86.94
353.901	85.94
354.128	85.94
354.355	91.94
354.583	76.94
354.81	83.94
355.037	93.94
355.264	88.94
355.491	85.94
355.718	83.94
355.945	88.94
356.172	86.94
356.399	93.94
356.626	82.94
356.853	80.94
357.08	103.94
357.307	104.94
357.534	95.94
357.761	97.94
357.988	94.94
358.215	84.94
358.441	89.94
358.668	83.94
358.895	88.94
359.122	78.94
359.349	83.94
359.576	76.94
359.802	82.94
360.029	92.94
360.256	90.94
360.483	86.94
360.709	84.94
360.936	81.94
361.163	88.94
361.39	82.94
361.616	86.94
361.843	87.94
362.07	85.94
362.296	80.94
362.523	89.94
362.749	88.94
362.976	94.94
363.203	81.94
363.429	96.94
363.656	80.94
363.882	98.94
364.109	93.94
364.335	87.94
364.562	82.94
364.788	89.94
365.015	86.94
365.241	81.94
365.468	93.94
365.694	97.94
365.92	85.94
366.147	76.94
366.373	86.94
366.599	88.94
366.826	81.94
367.052	88.94
367.278	72.94
367.505	85.94
367.731	79.94
367.957	78.94
368.184	94.94
368.41	81.94
368.636	91.94
368.862	98.94
369.089	92.94
369.315	83.94
369.541	86.94
369.767	85.94
369.993	68.94
370.219	90.94
370.445	81.94
370.672	81.94
370.898	84.94
371.124	82.94
371.35	85.94
371.576	87.94
371.802	72.94
372.028	79.94
372.254	76.94
372.48	92.94
372.706	77.94
372.932	87.94
373.158	90.94
373.384	83.94
373.61	85.94
373.835	91.94
374.061	76.94
374.287	87.94
374.513	80.94
374.739	90.94
374.965	94.94
375.191	82.94
375.416	103.94
375.642	84.94
375.868	87.94
376.094	79.94
376.319	79.94
376.545	82.94
376.771	87.94
376.997	82.94
377.222	83.94
377.448	94.94
377.674	86.94
377.899	81.94
378.125	89.94
378.35	89.94
378.576	92.94
378.802	92.94
379.027	92.94
379.253	83.94
379.478	78.94
379.704	80.94
379.929	90.94
380.155	87.94
380.38	78.94
380.606	78.94
380.831	76.94
381.057	91.94
381.282	78.94
381.507	87.94
381.733	88.94
381.958	82.94
382.184	85.94
382.409	80.94
382.634	92.94
382.86	74.94
383.085	83.94
383.31	83.94
383.535	98.94
383.761	87.94
383.986	93.94
384.211	101.94
384.436	95.94
384.662	85.94
384.887	83.94
385.112	74.94
385.337	86.94
385.562	94.94
385.787	70.94
386.013	87.94
386.238	76.94
386.463	80.94
386.688	97.94
386.913	78.94
387.138	76.94
387.363	96.94
387.588	88.94
387.813	78.94
388.038	86.94
388.263	88.94
388.488	92.94
388.713	90.94
388.938	81.94
389.163	80.94
389.387	91.94
389.612	86.94
389.837	98.94
390.062	95.94
390.287	87.94
390.512	92.94
390.736	87.94
390.961	84.94
391.186	86.94
391.411	86.94
391.636	83.94
391.86	87.94
392.085	92.94
392.31	88.94
392.534	101.94
392.759	83.94
392.984	95.94
393.208	82.94
393.433	87.94
393.658	78.94
393.882	89.94
394.107	86.94
394.331	93.94
394.556	82.94
394.78	101.94
395.005	77.94
395.229	94.94
395.454	93.94
395.678	98.94
395.903	95.94
396.127	93.94
396.352	99.94
396.576	71.94
396.801	97.94
397.025	70.94
397.249	99.94
397.474	80.94
397.698	88.94
397.922	76.94
398.147	100.94
398.371	99.94
398.595	86.94
398.82	102.94
399.044	86.94
399.268	69.94
399.492	85.94
399.717	89.94
399.941	87.94
400.165	100.94
400.389	77.94
400.613	82.94
400.837	90.94
401.062	98.94
401.286	87.94
401.51	88.94
401.734	102.94
401.958	91.94
402.182	99.94
402.406	87.94
402.63	81.94
402.854	93.94
403.078	94.94
403.302	98.94
403.526	90.94
403.75	73.94
403.974	88.94
404.198	89.94
404.422	94.94
404.645	82.94
404.869	79.94
405.093	81.94
405.317	92.94
405.541	89.94
405.765	83.94
405.988	94.94
406.212	83.94
406.436	95.94
406.66	115.94
406.883	104.94
407.107	86.94
407.331	79.94
407.555	89.94
407.778	86.94
408.002	82.94
408.226	95.94
408.449	79.94
408.673	93.94
408.896	76.94
409.12	91.94
409.344	92.94
409.567	96.94
409.791	86.94
410.014	79.94
410.238	89.94
410.461	96.94
410.685	92.94
410.908	94.94
411.132	98.94
411.355	83.94
411.578	100.94
411.802	93.94
412.025	83.94
412.249	94.94
412.472	103.94
412.695	90.94
412.919	90.94
413.142	112.94
413.365	98.94
413.589	85.94
413.812	85.94
414.035	83.94
414.258	91.94
414.482	75.94
414.705	81.94
414.928	90.94
415.151	82.94
415.374	86.94
415.597	93.94
415.821	86.94
416.044	89.94
416.267	90.94
416.49	103.94
416.713	90.94
416.936	89.94
417.159	92.94
417.382	97.94
417.605	97.94
417.828	83.94
418.051	94.94
418.274	112.94
418.497	100.94
418.72	88.94
418.943	76.94
419.166	80.94
419.389	111.94
419.611	96.94
419.834	93.94
420.057	98.94
420.28	97.94
420.503	73.94
420.726	94.94
420.948	86.94
421.171	93.94
421.394	83.94
421.617	96.94
421.839	100.94
422.062	96.94
422.285	94.94
422.507	79.94
422.73	82.94
422.953	91.94
423.175	93.94
423.398	91.94
423.621	85.94
423.843	92.94
424.066	99.94
424.288	103.94
424.511	88.94
424.733	88.94
424.956	105.94
425.178	106.94
425.401	103.94
425.623	99.94
425.846	95.94
426.068	97.94
426.291	94.94
426.513	87.94
426.735	99.94
426.958	85.94
427.18	90.94
427.402	85.94
427.625	96.94
427.847	101.94
428.069	93.94
428.292	73.94
428.514	97.94
428.736	83.94
428.958	87.94
429.181	84.94
429.403	91.94
429.625	78.94
429.847	90.94
430.069	95.94
430.292	87.94
430.514	94.94
430.736	87.94
430.958	100.94
431.18	89.94
431.402	81.94
431.624	90.94
431.846	81.94
432.068	85.94
432.29	80.94
432.512	95.94
432.734	82.94
432.956	81.94
433.178	83.94
433.4	87.94
433.622	93.94
433.844	90.94
434.066	101.94
434.287	90.94
434.509	74.94
434.731	98.94
434.953	83.94
435.175	99.94
435.397	96.94
435.618	89.94
435.84	91.94
436.062	78.94
436.284	88.94
436.505	97.94
436.727	101.94
436.949	114.94
437.17	92.94
437.392	90.94
437.614	92.94
437.835	87.94
438.057	82.94
438.278	88.94
438.5	95.94
438.721	98.94
438.943	109.94
439.165	91.94
439.386	96.94
439.608	95.94
439.829	113.94
440.05	99.94
440.272	88.94
440.493	103.94
440.715	85.94
440.936	102.94
441.158	91.94
441.379	104.94
441.6	107.94
441.822	95.94
442.043	100.94
442.264	104.94
442.486	104.94
442.707	111.94
442.928	97.94
443.149	100.94
443.371	96.94
443.592	85.94
443.813	107.94
444.034	111.94
444.255	96.94
444.476	106.94
444.698	68.94
444.919	92.94
445.14	182.94
445.361	143.94
445.582	122.94
445.803	90.94
446.024	83.94
446.245	100.94
446.466	83.94
446.687	94.94
446.908	97.94
447.129	106.94
447.35	96.94
447.571	93.94
447.792	91.94
448.013	95.94
448.234	104.94
448.455	97.94
448.675	97.94
448.896	94.94
449.117	79.94
449.338	89.94
449.559	106.94
449.779	108.94
450	99.94
450.221	104.94
450.442	94.94
450.662	94.94
450.883	97.94
451.104	99.94
451.324	94.94
451.545	86.94
451.766	105.94
451.986	101.94
452.207	89.94
452.428	94.94
452.648	115.94
452.869	105.94
453.089	84.94
453.31	90.94
453.53	72.94
453.751	80.94
453.971	87.94
454.192	100.94
454.412	89.94
454.633	97.94
454.853	85.94
455.073	93.94
455.294	84.94
455.514	91.94
455.734	84.94
455.955	85.94
456.175	87.94
456.395	85.94
456.616	98.94
456.836	97.94
457.056	85.94
457.276	77.94
457.497	82.94
457.717	89.94
457.937	98.94
458.157	94.94
458.377	97.94
458.598	83.94
458.818	78.94
459.038	96.94
459.258	87.94
459.478	87.94
459.698	86.94
459.918	88.94
460.138	94.94
460.358	84.94
460.578	90.94
460.798	94.94
461.018	93.94
461.238	84.94
461.458	97.94
461.678	94.94
461.898	84.94
462.118	90.94
462.338	85.94
462.558	85.94
462.777	94.94
462.997	86.94
463.217	80.94
463.437	78.94
463.657	104.94
463.876	100.94
464.096	90.94
464.316	90.94
464.536	96.94
464.755	85.94
464.975	82.94
465.195	107.94
465.414	96.94
465.634	86.94
465.854	90.94
466.073	96.94
466.293	96.94
466.512	86.94
466.732	102.94
466.951	101.94
467.171	91.94
467.391	98.94
467.61	108.94
467.829	106.94
468.049	115.94
468.268	88.94
468.488	86.94
468.707	100.94
468.927	95.94
469.146	84.94
469.365	98.94
469.585	96.94
469.804	116.94
470.023	102.94
470.243	106.94
470.462	105.94
470.681	103.94
470.901	99.94
471.12	107.94
471.339	106.94
471.558	95.94
471.777	91.94
471.997	101.94
472.216	102.94
472.435	91.94
472.654	90.94
472.873	86.94
473.092	87.94
473.311	91.94
473.53	102.94
473.749	98.94
473.968	99.94
474.187	114.94
474.406	96.94
474.625	91.94
474.844	88.94
475.063	93.94
475.282	97.94
475.501	76.94
475.72	98.94
475.939	100.94
476.158	95.94
476.377	82.94
476.596	94.94
476.814	94.94
477.033	89.94
477.252	94.94
477.471	91.94
477.69	95.94
477.908	92.94
478.127	110.94
478.346	100.94
478.564	94.94
478.783	87.94
479.002	93.94
479.22	88.94
479.439	98.94
479.658	92.94
479.876	97.94
480.095	95.94
480.313	98.94
480.532	98.94
480.751	89.94
480.969	82.94
481.188	89.94
481.406	91.94
481.624	76.94
481.843	74.94
482.061	90.94
482.28	92.94
482.498	84.94
482.717	82.94
482.935	100.94
483.153	99.94
483.372	127.94
483.59	97.94
483.808	105.94
484.027	107.94
484.245	99.94
484.463	85.94
484.681	107.94
484.9	100.94
485.118	85.94
485.336	98.94
485.554	87.94
485.772	88.94
485.99	100.94
486.209	97.94
486.427	81.94
486.645	81.94
486.863	98.94
487.081	91.94
487.299	84.94
487.517	94.94
487.735	111.94
487.953	110.94
488.171	102.94
488.389	104.94
488.607	108.94
488.825	116.94
489.043	116.94
489.261	105.94
489.479	107.94
489.696	111.94
489.914	91.94
490.132	96.94
490.35	107.94
490.568	88.94
490.786	94.94
491.003	113.94
491.221	109.94
491.439	109.94
491.657	126.94
491.874	120.94
492.092	130.94
492.31	123.94
492.527	122.94
492.745	119.94
492.963	120.94
493.18	110.94
493.398	123.94
493.615	118.94
493.833	114.94
494.05	117.94
494.268	104.94
494.485	105.94
494.703	106.94
494.92	106.94
495.138	111.94
495.355	119.94
495.573	122.94
495.79	105.94
496.008	113.94
496.225	99.94
496.442	111.94
496.66	114.94
496.877	117.94
497.094	119.94
497.312	103.94
497.529	106.94
497.746	106.94
497.963	101.94
498.181	96.94
498.398	101.94
498.615	104.94
498.832	83.94
499.049	90.94
499.267	98.94
499.484	96.94
499.701	102.94
499.918	99.94
500.135	96.94
500.352	99.94
500.569	93.94
500.786	96.94
501.003	96.94
501.22	108.94
501.437	90.94
501.654	85.94
501.871	97.94
502.088	99.94
502.305	93.94
502.522	81.94
502.739	106.94
502.956	81.94
503.172	102.94
503.389	99.94
503.606	89.94
503.823	95.94
504.04	118.94
504.256	99.94
504.473	99.94
504.69	90.94
504.907	106.94
505.123	85.94
505.34	95.94
505.557	112.94
505.773	102.94
505.99	99.94
506.207	98.94
506.423	94.94
506.64	96.94
506.856	84.94
507.073	81.94
507.289	89.94
507.506	89.94
507.722	90.94
507.939	87.94
508.155	96.94
508.372	83.94
508.588	98.94
508.805	83.94
509.021	67.94
509.238	102.94
509.454	87.94
509.67	84.94
509.887	95.94
510.103	95.94
510.319	92.94
510.536	91.94
510.752	90.94
510.968	76.94
511.184	81.94
511.401	82.94
511.617	90.94
511.833	82.94
512.049	81.94
512.265	81.94
512.481	86.94
512.698	99.94
512.914	86.94
513.13	82.94
513.346	82.94
513.562	91.94
513.778	91.94
513.994	81.94
514.21	95.94
514.426	98.94
514.642	81.94
514.858	95.94
515.074	91.94
515.29	107.94
515.506	76.94
515.721	66.94
515.937	80.94
516.153	73.94
516.369	81.94
516.585	99.94
516.801	82.94
517.016	90.94
517.232	83.94
517.448	81.94
