Data from Location3.07152019.Energy5.Lamp.07192019.3%Agarose_HRD10591_15-19-07-270.txt Node
Date: Fri Jul 19 15:19:07 EDT 2019
User: cochatt
Spectrometer: HR+D1059
Trigger mode: 1
Integration Time (sec): 1.000000E-1
Scans to average: 1
Electric dark correction enabled: true
Nonlinearity correction enabled: false
Boxcar width: 0
XAxis mode: Wavelengths
Number of Pixels in Spectrum: 2048
>>>>>Begin Spectral Data<<<<<
223.165	-17.19
223.4	-17.19
223.635	-17.19
223.869	-14.19
224.104	-20.19
224.338	-11.19
224.573	-14.19
224.808	-16.19
225.042	-8.19
225.277	-13.19
225.511	-7.19
225.746	-3.19
225.98	-0.19
226.215	23.81
226.449	21.81
226.683	14.81
226.918	29.81
227.152	34.81
227.387	47.81
227.621	35.81
227.856	47.81
228.09	43.81
228.324	56.81
228.559	53.81
228.793	64.81
229.027	49.81
229.262	66.81
229.496	62.81
229.73	67.81
229.964	74.81
230.199	62.81
230.433	70.81
230.667	64.81
230.901	62.81
231.136	75.81
231.37	72.81
231.604	67.81
231.838	71.81
232.072	89.81
232.306	87.81
232.541	87.81
232.775	78.81
233.009	90.81
233.243	89.81
233.477	86.81
233.711	83.81
233.945	99.81
234.179	81.81
234.413	67.81
234.647	78.81
234.881	78.81
235.115	81.81
235.349	79.81
235.583	81.81
235.817	68.81
236.051	91.81
236.285	80.81
236.519	83.81
236.753	66.81
236.987	79.81
237.221	97.81
237.455	75.81
237.689	73.81
237.922	87.81
238.156	69.81
238.39	70.81
238.624	83.81
238.858	78.81
239.091	77.81
239.325	67.81
239.559	73.81
239.793	80.81
240.027	69.81
240.26	75.81
240.494	81.81
240.728	82.81
240.961	64.81
241.195	70.81
241.429	83.81
241.662	73.81
241.896	79.81
242.13	80.81
242.363	70.81
242.597	77.81
242.83	83.81
243.064	82.81
243.298	68.81
243.531	75.81
243.765	83.81
243.998	85.81
244.232	74.81
244.465	78.81
244.699	62.81
244.932	83.81
245.166	74.81
245.399	92.81
245.633	81.81
245.866	81.81
246.099	75.81
246.333	84.81
246.566	74.81
246.8	80.81
247.033	69.81
247.266	76.81
247.5	83.81
247.733	69.81
247.966	74.81
248.2	77.81
248.433	78.81
248.666	68.81
248.899	82.81
249.133	75.81
249.366	70.81
249.599	69.81
249.832	73.81
250.066	78.81
250.299	69.81
250.532	86.81
250.765	74.81
250.998	63.81
251.231	79.81
251.465	82.81
251.698	75.81
251.931	89.81
252.164	84.81
252.397	86.81
252.63	86.81
252.863	68.81
253.096	84.81
253.329	83.81
253.562	94.81
253.795	90.81
254.028	71.81
254.261	72.81
254.494	78.81
254.727	71.81
254.96	75.81
255.193	81.81
255.426	89.81
255.659	76.81
255.892	82.81
256.124	83.81
256.357	77.81
256.59	87.81
256.823	80.81
257.056	79.81
257.289	85.81
257.521	75.81
257.754	84.81
257.987	76.81
258.22	87.81
258.452	76.81
258.685	83.81
258.918	94.81
259.151	79.81
259.383	78.81
259.616	64.81
259.849	67.81
260.081	68.81
260.314	72.81
260.547	81.81
260.779	76.81
261.012	81.81
261.244	75.81
261.477	87.81
261.71	74.81
261.942	73.81
262.175	75.81
262.407	78.81
262.64	82.81
262.872	82.81
263.105	83.81
263.337	90.81
263.57	80.81
263.802	81.81
264.035	92.81
264.267	72.81
264.499	82.81
264.732	77.81
264.964	70.81
265.197	73.81
265.429	77.81
265.661	85.81
265.894	82.81
266.126	85.81
266.358	98.81
266.591	89.81
266.823	93.81
267.055	87.81
267.287	80.81
267.52	89.81
267.752	90.81
267.984	77.81
268.216	78.81
268.448	74.81
268.681	83.81
268.913	78.81
269.145	79.81
269.377	85.81
269.609	70.81
269.841	86.81
270.073	79.81
270.306	78.81
270.538	76.81
270.77	86.81
271.002	75.81
271.234	88.81
271.466	96.81
271.698	70.81
271.93	90.81
272.162	72.81
272.394	72.81
272.626	94.81
272.858	62.81
273.09	83.81
273.322	83.81
273.553	89.81
273.785	94.81
274.017	89.81
274.249	82.81
274.481	72.81
274.713	81.81
274.945	88.81
275.176	83.81
275.408	85.81
275.64	76.81
275.872	86.81
276.104	91.81
276.335	80.81
276.567	82.81
276.799	101.81
277.031	83.81
277.262	83.81
277.494	93.81
277.726	93.81
277.957	86.81
278.189	77.81
278.421	77.81
278.652	80.81
278.884	99.81
279.115	80.81
279.347	56.81
279.579	85.81
279.81	85.81
280.042	76.81
280.273	80.81
280.505	78.81
280.736	86.81
280.968	81.81
281.199	81.81
281.431	83.81
281.662	84.81
281.894	96.81
282.125	73.81
282.356	78.81
282.588	93.81
282.819	87.81
283.051	83.81
283.282	81.81
283.513	98.81
283.745	87.81
283.976	88.81
284.207	84.81
284.439	88.81
284.67	80.81
284.901	80.81
285.132	78.81
285.364	84.81
285.595	83.81
285.826	76.81
286.057	89.81
286.288	65.81
286.52	95.81
286.751	89.81
286.982	93.81
287.213	73.81
287.444	88.81
287.675	80.81
287.906	82.81
288.138	73.81
288.369	83.81
288.6	80.81
288.831	91.81
289.062	92.81
289.293	93.81
289.524	78.81
289.755	89.81
289.986	96.81
290.217	72.81
290.448	82.81
290.679	74.81
290.91	78.81
291.141	86.81
291.371	81.81
291.602	89.81
291.833	85.81
292.064	93.81
292.295	80.81
292.526	82.81
292.757	89.81
292.987	90.81
293.218	93.81
293.449	96.81
293.68	78.81
293.91	80.81
294.141	77.81
294.372	68.81
294.603	84.81
294.833	96.81
295.064	79.81
295.295	95.81
295.525	93.81
295.756	75.81
295.987	80.81
296.217	85.81
296.448	76.81
296.679	93.81
296.909	88.81
297.14	97.81
297.37	81.81
297.601	78.81
297.831	90.81
298.062	83.81
298.292	72.81
298.523	73.81
298.753	83.81
298.984	85.81
299.214	93.81
299.445	89.81
299.675	87.81
299.905	86.81
300.136	92.81
300.366	76.81
300.597	83.81
300.827	76.81
301.057	86.81
301.288	81.81
301.518	86.81
301.748	95.81
301.979	95.81
302.209	89.81
302.439	93.81
302.669	80.81
302.9	89.81
303.13	89.81
303.36	97.81
303.59	68.81
303.82	82.81
304.051	84.81
304.281	82.81
304.511	87.81
304.741	87.81
304.971	78.81
305.201	85.81
305.431	91.81
305.661	92.81
305.891	79.81
306.121	84.81
306.352	91.81
306.582	93.81
306.812	79.81
307.042	79.81
307.272	97.81
307.502	85.81
307.731	84.81
307.961	82.81
308.191	75.81
308.421	76.81
308.651	83.81
308.881	88.81
309.111	64.81
309.341	79.81
309.571	91.81
309.8	84.81
310.03	97.81
310.26	89.81
310.49	89.81
310.72	84.81
310.949	74.81
311.179	77.81
311.409	87.81
311.639	87.81
311.868	94.81
312.098	89.81
312.328	72.81
312.557	83.81
312.787	79.81
313.017	74.81
313.246	81.81
313.476	77.81
313.706	86.81
313.935	79.81
314.165	89.81
314.394	87.81
314.624	82.81
314.853	81.81
315.083	94.81
315.312	91.81
315.542	90.81
315.771	88.81
316.001	70.81
316.23	79.81
316.46	93.81
316.689	98.81
316.919	79.81
317.148	88.81
317.377	81.81
317.607	80.81
317.836	86.81
318.065	88.81
318.295	77.81
318.524	80.81
318.753	88.81
318.983	90.81
319.212	96.81
319.441	82.81
319.67	85.81
319.9	87.81
320.129	87.81
320.358	87.81
320.587	97.81
320.816	72.81
321.046	87.81
321.275	99.81
321.504	72.81
321.733	84.81
321.962	81.81
322.191	73.81
322.42	85.81
322.649	86.81
322.878	73.81
323.108	86.81
323.337	71.81
323.566	87.81
323.795	88.81
324.024	70.81
324.253	85.81
324.482	86.81
324.71	94.81
324.939	97.81
325.168	97.81
325.397	89.81
325.626	80.81
325.855	86.81
326.084	86.81
326.313	75.81
326.542	76.81
326.77	89.81
326.999	83.81
327.228	74.81
327.457	70.81
327.686	102.81
327.914	83.81
328.143	74.81
328.372	84.81
328.6	83.81
328.829	89.81
329.058	85.81
329.287	88.81
329.515	80.81
329.744	84.81
329.972	84.81
330.201	90.81
330.43	80.81
330.658	82.81
330.887	78.81
331.115	85.81
331.344	87.81
331.572	82.81
331.801	88.81
332.03	72.81
332.258	82.81
332.486	95.81
332.715	96.81
332.943	84.81
333.172	85.81
333.4	88.81
333.629	74.81
333.857	89.81
334.085	86.81
334.314	75.81
334.542	84.81
334.771	94.81
334.999	89.81
335.227	83.81
335.455	74.81
335.684	66.81
335.912	84.81
336.14	81.81
336.369	93.81
336.597	87.81
336.825	82.81
337.053	84.81
337.281	90.81
337.51	88.81
337.738	86.81
337.966	86.81
338.194	66.81
338.422	85.81
338.65	90.81
338.878	106.81
339.106	83.81
339.334	91.81
339.562	88.81
339.79	76.81
340.018	76.81
340.246	82.81
340.474	83.81
340.702	88.81
340.93	90.81
341.158	87.81
341.386	81.81
341.614	80.81
341.842	70.81
342.07	85.81
342.298	84.81
342.526	89.81
342.754	81.81
342.981	77.81
343.209	93.81
343.437	104.81
343.665	89.81
343.893	68.81
344.12	92.81
344.348	72.81
344.576	88.81
344.804	88.81
345.031	83.81
345.259	96.81
345.487	98.81
345.714	73.81
345.942	70.81
346.17	85.81
346.397	71.81
346.625	84.81
346.853	79.81
347.08	81.81
347.308	79.81
347.535	84.81
347.763	93.81
347.99	84.81
348.218	87.81
348.445	74.81
348.673	92.81
348.9	87.81
349.128	75.81
349.355	85.81
349.583	96.81
349.81	92.81
350.037	84.81
350.265	85.81
350.492	85.81
350.72	89.81
350.947	92.81
351.174	81.81
351.402	76.81
351.629	74.81
351.856	84.81
352.083	88.81
352.311	75.81
352.538	92.81
352.765	79.81
352.992	99.81
353.22	88.81
353.447	81.81
353.674	85.81
353.901	90.81
354.128	90.81
354.355	83.81
354.583	76.81
354.81	75.81
355.037	79.81
355.264	78.81
355.491	83.81
355.718	68.81
355.945	79.81
356.172	85.81
356.399	92.81
356.626	74.81
356.853	94.81
357.08	74.81
357.307	75.81
357.534	77.81
357.761	88.81
357.988	81.81
358.215	88.81
358.441	83.81
358.668	77.81
358.895	90.81
359.122	88.81
359.349	91.81
359.576	90.81
359.802	83.81
360.029	85.81
360.256	80.81
360.483	79.81
360.709	84.81
360.936	95.81
361.163	85.81
361.39	86.81
361.616	92.81
361.843	77.81
362.07	86.81
362.296	86.81
362.523	88.81
362.749	94.81
362.976	87.81
363.203	81.81
363.429	85.81
363.656	85.81
363.882	69.81
364.109	90.81
364.335	93.81
364.562	87.81
364.788	85.81
365.015	77.81
365.241	84.81
365.468	87.81
365.694	82.81
365.92	83.81
366.147	94.81
366.373	86.81
366.599	79.81
366.826	89.81
367.052	78.81
367.278	82.81
367.505	76.81
367.731	74.81
367.957	74.81
368.184	75.81
368.41	85.81
368.636	85.81
368.862	90.81
369.089	73.81
369.315	87.81
369.541	85.81
369.767	89.81
369.993	98.81
370.219	89.81
370.445	77.81
370.672	71.81
370.898	84.81
371.124	74.81
371.35	72.81
371.576	89.81
371.802	68.81
372.028	70.81
372.254	97.81
372.48	96.81
372.706	81.81
372.932	87.81
373.158	84.81
373.384	74.81
373.61	92.81
373.835	91.81
374.061	83.81
374.287	82.81
374.513	77.81
374.739	81.81
374.965	96.81
375.191	73.81
375.416	92.81
375.642	86.81
375.868	99.81
376.094	83.81
376.319	98.81
376.545	82.81
376.771	75.81
376.997	88.81
377.222	91.81
377.448	81.81
377.674	90.81
377.899	89.81
378.125	83.81
378.35	90.81
378.576	75.81
378.802	72.81
379.027	87.81
379.253	93.81
379.478	85.81
379.704	77.81
379.929	65.81
380.155	74.81
380.38	76.81
380.606	90.81
380.831	74.81
381.057	109.81
381.282	91.81
381.507	93.81
381.733	86.81
381.958	80.81
382.184	85.81
382.409	73.81
382.634	87.81
382.86	95.81
383.085	89.81
383.31	85.81
383.535	86.81
383.761	81.81
383.986	86.81
384.211	81.81
384.436	72.81
384.662	72.81
384.887	79.81
385.112	89.81
385.337	93.81
385.562	64.81
385.787	71.81
386.013	92.81
386.238	87.81
386.463	93.81
386.688	84.81
386.913	86.81
387.138	80.81
387.363	83.81
387.588	89.81
387.813	92.81
388.038	89.81
388.263	84.81
388.488	84.81
388.713	82.81
388.938	98.81
389.163	93.81
389.387	112.81
389.612	78.81
389.837	87.81
390.062	90.81
390.287	71.81
390.512	92.81
390.736	85.81
390.961	79.81
391.186	88.81
391.411	86.81
391.636	91.81
391.86	87.81
392.085	102.81
392.31	88.81
392.534	95.81
392.759	98.81
392.984	89.81
393.208	86.81
393.433	82.81
393.658	87.81
393.882	82.81
394.107	91.81
394.331	98.81
394.556	90.81
394.78	90.81
395.005	87.81
395.229	93.81
395.454	81.81
395.678	91.81
395.903	96.81
396.127	89.81
396.352	88.81
396.576	72.81
396.801	111.81
397.025	92.81
397.249	86.81
397.474	84.81
397.698	82.81
397.922	81.81
398.147	67.81
398.371	94.81
398.595	76.81
398.82	88.81
399.044	84.81
399.268	103.81
399.492	112.81
399.717	104.81
399.941	102.81
400.165	93.81
400.389	100.81
400.613	75.81
400.837	79.81
401.062	95.81
401.286	89.81
401.51	86.81
401.734	94.81
401.958	88.81
402.182	90.81
402.406	81.81
402.63	85.81
402.854	83.81
403.078	88.81
403.302	80.81
403.526	80.81
403.75	83.81
403.974	93.81
404.198	95.81
404.422	93.81
404.645	79.81
404.869	91.81
405.093	82.81
405.317	94.81
405.541	96.81
405.765	97.81
405.988	98.81
406.212	97.81
406.436	89.81
406.66	83.81
406.883	95.81
407.107	88.81
407.331	80.81
407.555	85.81
407.778	83.81
408.002	81.81
408.226	98.81
408.449	101.81
408.673	81.81
408.896	94.81
409.12	72.81
409.344	96.81
409.567	90.81
409.791	101.81
410.014	103.81
410.238	105.81
410.461	100.81
410.685	92.81
410.908	110.81
411.132	102.81
411.355	90.81
411.578	91.81
411.802	90.81
412.025	94.81
412.249	97.81
412.472	101.81
412.695	87.81
412.919	90.81
413.142	79.81
413.365	106.81
413.589	80.81
413.812	84.81
414.035	98.81
414.258	90.81
414.482	99.81
414.705	95.81
414.928	87.81
415.151	102.81
415.374	82.81
415.597	86.81
415.821	105.81
416.044	92.81
416.267	83.81
416.49	95.81
416.713	80.81
416.936	93.81
417.159	93.81
417.382	101.81
417.605	80.81
417.828	94.81
418.051	81.81
418.274	102.81
418.497	97.81
418.72	117.81
418.943	88.81
419.166	86.81
419.389	82.81
419.611	99.81
419.834	98.81
420.057	96.81
420.28	100.81
420.503	94.81
420.726	100.81
420.948	85.81
421.171	89.81
421.394	102.81
421.617	91.81
421.839	99.81
422.062	98.81
422.285	102.81
422.507	104.81
422.73	94.81
422.953	97.81
423.175	93.81
423.398	90.81
423.621	122.81
423.843	101.81
424.066	90.81
424.288	97.81
424.511	89.81
424.733	87.81
424.956	91.81
425.178	104.81
425.401	109.81
425.623	106.81
425.846	99.81
426.068	78.81
426.291	93.81
426.513	94.81
426.735	101.81
426.958	92.81
427.18	90.81
427.402	98.81
427.625	90.81
427.847	88.81
428.069	85.81
428.292	94.81
428.514	103.81
428.736	106.81
428.958	102.81
429.181	86.81
429.403	82.81
429.625	95.81
429.847	93.81
430.069	90.81
430.292	90.81
430.514	86.81
430.736	82.81
430.958	99.81
431.18	92.81
431.402	100.81
431.624	85.81
431.846	94.81
432.068	92.81
432.29	90.81
432.512	81.81
432.734	90.81
432.956	100.81
433.178	96.81
433.4	92.81
433.622	91.81
433.844	101.81
434.066	83.81
434.287	93.81
434.509	89.81
434.731	79.81
434.953	85.81
435.175	100.81
435.397	90.81
435.618	77.81
435.84	78.81
436.062	86.81
436.284	94.81
436.505	81.81
436.727	98.81
436.949	101.81
437.17	94.81
437.392	104.81
437.614	85.81
437.835	86.81
438.057	93.81
438.278	86.81
438.5	90.81
438.721	105.81
438.943	90.81
439.165	82.81
439.386	87.81
439.608	94.81
439.829	102.81
440.05	97.81
440.272	107.81
440.493	97.81
440.715	95.81
440.936	86.81
441.158	90.81
441.379	87.81
441.6	112.81
441.822	100.81
442.043	104.81
442.264	83.81
442.486	92.81
442.707	105.81
442.928	96.81
443.149	89.81
443.371	93.81
443.592	79.81
443.813	89.81
444.034	96.81
444.255	89.81
444.476	94.81
444.698	120.81
444.919	76.81
445.14	219.81
445.361	169.81
445.582	88.81
445.803	110.81
446.024	100.81
446.245	102.81
446.466	109.81
446.687	89.81
446.908	97.81
447.129	91.81
447.35	100.81
447.571	98.81
447.792	92.81
448.013	101.81
448.234	88.81
448.455	94.81
448.675	117.81
448.896	77.81
449.117	80.81
449.338	95.81
449.559	99.81
449.779	94.81
450	90.81
450.221	99.81
450.442	91.81
450.662	105.81
450.883	94.81
451.104	79.81
451.324	102.81
451.545	97.81
451.766	99.81
451.986	88.81
452.207	86.81
452.428	85.81
452.648	88.81
452.869	91.81
453.089	89.81
453.31	89.81
453.53	81.81
453.751	69.81
453.971	85.81
454.192	88.81
454.412	90.81
454.633	110.81
454.853	80.81
455.073	85.81
455.294	98.81
455.514	81.81
455.734	88.81
455.955	87.81
456.175	81.81
456.395	89.81
456.616	96.81
456.836	90.81
457.056	83.81
457.276	93.81
457.497	71.81
457.717	82.81
457.937	90.81
458.157	94.81
458.377	88.81
458.598	87.81
458.818	98.81
459.038	85.81
459.258	82.81
459.478	86.81
459.698	81.81
459.918	80.81
460.138	87.81
460.358	99.81
460.578	92.81
460.798	83.81
461.018	98.81
461.238	99.81
461.458	81.81
461.678	93.81
461.898	96.81
462.118	91.81
462.338	90.81
462.558	91.81
462.777	112.81
462.997	87.81
463.217	95.81
463.437	91.81
463.657	88.81
463.876	96.81
464.096	95.81
464.316	86.81
464.536	85.81
464.755	93.81
464.975	92.81
465.195	87.81
465.414	95.81
465.634	80.81
465.854	95.81
466.073	88.81
466.293	89.81
466.512	86.81
466.732	97.81
466.951	91.81
467.171	83.81
467.391	99.81
467.61	85.81
467.829	99.81
468.049	98.81
468.268	98.81
468.488	93.81
468.707	98.81
468.927	94.81
469.146	82.81
469.365	101.81
469.585	99.81
469.804	106.81
470.023	101.81
470.243	89.81
470.462	119.81
470.681	104.81
470.901	98.81
471.12	100.81
471.339	83.81
471.558	94.81
471.777	88.81
471.997	100.81
472.216	100.81
472.435	87.81
472.654	86.81
472.873	106.81
473.092	93.81
473.311	104.81
473.53	98.81
473.749	93.81
473.968	104.81
474.187	113.81
474.406	93.81
474.625	104.81
474.844	96.81
475.063	93.81
475.282	87.81
475.501	100.81
475.72	95.81
475.939	100.81
476.158	88.81
476.377	82.81
476.596	95.81
476.814	86.81
477.033	74.81
477.252	90.81
477.471	87.81
477.69	98.81
477.908	96.81
478.127	95.81
478.346	99.81
478.564	91.81
478.783	98.81
479.002	79.81
479.22	101.81
479.439	87.81
479.658	114.81
479.876	93.81
480.095	98.81
480.313	94.81
480.532	90.81
480.751	88.81
480.969	81.81
481.188	75.81
481.406	86.81
481.624	70.81
481.843	76.81
482.061	83.81
482.28	99.81
482.498	90.81
482.717	83.81
482.935	94.81
483.153	110.81
483.372	94.81
483.59	96.81
483.808	106.81
484.027	114.81
484.245	99.81
484.463	99.81
484.681	97.81
484.9	103.81
485.118	91.81
485.336	95.81
485.554	95.81
485.772	76.81
485.99	100.81
486.209	72.81
486.427	81.81
486.645	110.81
486.863	86.81
487.081	96.81
487.299	93.81
487.517	106.81
487.735	104.81
487.953	100.81
488.171	111.81
488.389	85.81
488.607	96.81
488.825	98.81
489.043	95.81
489.261	98.81
489.479	114.81
489.696	96.81
489.914	99.81
490.132	89.81
490.35	88.81
490.568	112.81
490.786	104.81
491.003	106.81
491.221	109.81
491.439	113.81
491.657	109.81
491.874	125.81
492.092	105.81
492.31	121.81
492.527	121.81
492.745	115.81
492.963	102.81
493.18	110.81
493.398	112.81
493.615	105.81
493.833	111.81
494.05	117.81
494.268	117.81
494.485	117.81
494.703	101.81
494.92	95.81
495.138	119.81
495.355	98.81
495.573	106.81
495.79	101.81
496.008	103.81
496.225	105.81
496.442	104.81
496.66	105.81
496.877	105.81
497.094	111.81
497.312	96.81
497.529	111.81
497.746	119.81
497.963	105.81
498.181	90.81
498.398	102.81
498.615	84.81
498.832	95.81
499.049	90.81
499.267	85.81
499.484	93.81
499.701	100.81
499.918	91.81
500.135	87.81
500.352	103.81
500.569	94.81
500.786	100.81
501.003	96.81
501.22	90.81
501.437	96.81
501.654	97.81
501.871	104.81
502.088	109.81
502.305	93.81
502.522	87.81
502.739	88.81
502.956	88.81
503.172	91.81
503.389	105.81
503.606	92.81
503.823	79.81
504.04	85.81
504.256	96.81
504.473	90.81
504.69	98.81
504.907	90.81
505.123	77.81
505.34	83.81
505.557	81.81
505.773	92.81
505.99	90.81
506.207	92.81
506.423	101.81
506.64	87.81
506.856	85.81
507.073	98.81
507.289	98.81
507.506	97.81
507.722	90.81
507.939	102.81
508.155	87.81
508.372	87.81
508.588	76.81
508.805	84.81
509.021	89.81
509.238	104.81
509.454	82.81
509.67	85.81
509.887	88.81
510.103	96.81
510.319	77.81
510.536	94.81
510.752	75.81
510.968	83.81
511.184	80.81
511.401	89.81
511.617	95.81
511.833	94.81
512.049	80.81
512.265	89.81
512.481	86.81
512.698	89.81
512.914	87.81
513.13	85.81
513.346	83.81
513.562	89.81
513.778	83.81
513.994	77.81
514.21	86.81
514.426	92.81
514.642	90.81
514.858	91.81
515.074	81.81
515.29	86.81
515.506	90.81
515.721	96.81
515.937	101.81
516.153	88.81
516.369	90.81
516.585	78.81
516.801	85.81
517.016	97.81
517.232	100.81
517.448	96.81
