Data from Location3.07152019.Energy5.Lamp.07192019.3%Agarose_HRD10591_15-17-45-269.txt Node
Date: Fri Jul 19 15:17:45 EDT 2019
User: cochatt
Spectrometer: HR+D1059
Trigger mode: 1
Integration Time (sec): 1.000000E-1
Scans to average: 1
Electric dark correction enabled: true
Nonlinearity correction enabled: false
Boxcar width: 0
XAxis mode: Wavelengths
Number of Pixels in Spectrum: 2048
>>>>>Begin Spectral Data<<<<<
223.165	-16.88
223.4	-16.88
223.635	-16.88
223.869	-19.88
224.104	-12.88
224.338	-4.88
224.573	-32.88
224.808	-12.88
225.042	-6.88
225.277	-0.88
225.511	-10.88
225.746	12.12
225.98	9.12
226.215	5.12
226.449	17.12
226.683	27.12
226.918	16.12
227.152	32.12
227.387	38.12
227.621	28.12
227.856	41.12
228.09	51.12
228.324	53.12
228.559	33.12
228.793	60.12
229.027	63.12
229.262	65.12
229.496	58.12
229.73	71.12
229.964	78.12
230.199	74.12
230.433	77.12
230.667	78.12
230.901	79.12
231.136	85.12
231.37	68.12
231.604	70.12
231.838	84.12
232.072	80.12
232.306	75.12
232.541	91.12
232.775	63.12
233.009	73.12
233.243	100.12
233.477	83.12
233.711	92.12
233.945	74.12
234.179	81.12
234.413	77.12
234.647	80.12
234.881	88.12
235.115	78.12
235.349	75.12
235.583	83.12
235.817	78.12
236.051	63.12
236.285	78.12
236.519	80.12
236.753	83.12
236.987	79.12
237.221	84.12
237.455	81.12
237.689	73.12
237.922	73.12
238.156	79.12
238.39	79.12
238.624	72.12
238.858	87.12
239.091	80.12
239.325	72.12
239.559	81.12
239.793	85.12
240.027	81.12
240.26	80.12
240.494	75.12
240.728	72.12
240.961	80.12
241.195	74.12
241.429	68.12
241.662	71.12
241.896	82.12
242.13	72.12
242.363	85.12
242.597	88.12
242.83	72.12
243.064	80.12
243.298	77.12
243.531	95.12
243.765	76.12
243.998	72.12
244.232	72.12
244.465	85.12
244.699	78.12
244.932	73.12
245.166	71.12
245.399	69.12
245.633	81.12
245.866	77.12
246.099	81.12
246.333	84.12
246.566	67.12
246.8	75.12
247.033	85.12
247.266	79.12
247.5	83.12
247.733	88.12
247.966	67.12
248.2	69.12
248.433	82.12
248.666	79.12
248.899	65.12
249.133	85.12
249.366	89.12
249.599	89.12
249.832	81.12
250.066	85.12
250.299	86.12
250.532	68.12
250.765	72.12
250.998	88.12
251.231	72.12
251.465	69.12
251.698	77.12
251.931	83.12
252.164	78.12
252.397	89.12
252.63	79.12
252.863	78.12
253.096	87.12
253.329	85.12
253.562	96.12
253.795	84.12
254.028	88.12
254.261	82.12
254.494	74.12
254.727	90.12
254.96	80.12
255.193	84.12
255.426	68.12
255.659	93.12
255.892	78.12
256.124	81.12
256.357	65.12
256.59	85.12
256.823	66.12
257.056	80.12
257.289	80.12
257.521	72.12
257.754	93.12
257.987	73.12
258.22	84.12
258.452	99.12
258.685	87.12
258.918	99.12
259.151	86.12
259.383	76.12
259.616	77.12
259.849	72.12
260.081	84.12
260.314	86.12
260.547	75.12
260.779	73.12
261.012	80.12
261.244	99.12
261.477	87.12
261.71	89.12
261.942	77.12
262.175	69.12
262.407	66.12
262.64	85.12
262.872	73.12
263.105	77.12
263.337	76.12
263.57	69.12
263.802	89.12
264.035	83.12
264.267	86.12
264.499	85.12
264.732	74.12
264.964	76.12
265.197	89.12
265.429	92.12
265.661	96.12
265.894	82.12
266.126	84.12
266.358	82.12
266.591	84.12
266.823	66.12
267.055	80.12
267.287	88.12
267.52	77.12
267.752	82.12
267.984	84.12
268.216	71.12
268.448	81.12
268.681	82.12
268.913	87.12
269.145	72.12
269.377	87.12
269.609	86.12
269.841	94.12
270.073	76.12
270.306	80.12
270.538	95.12
270.77	76.12
271.002	88.12
271.234	80.12
271.466	67.12
271.698	91.12
271.93	99.12
272.162	77.12
272.394	96.12
272.626	81.12
272.858	81.12
273.09	84.12
273.322	76.12
273.553	76.12
273.785	86.12
274.017	77.12
274.249	96.12
274.481	73.12
274.713	89.12
274.945	76.12
275.176	86.12
275.408	81.12
275.64	95.12
275.872	83.12
276.104	83.12
276.335	95.12
276.567	72.12
276.799	78.12
277.031	71.12
277.262	105.12
277.494	85.12
277.726	86.12
277.957	93.12
278.189	80.12
278.421	86.12
278.652	75.12
278.884	94.12
279.115	79.12
279.347	71.12
279.579	85.12
279.81	80.12
280.042	90.12
280.273	88.12
280.505	87.12
280.736	92.12
280.968	86.12
281.199	90.12
281.431	84.12
281.662	90.12
281.894	87.12
282.125	79.12
282.356	88.12
282.588	87.12
282.819	71.12
283.051	92.12
283.282	82.12
283.513	85.12
283.745	92.12
283.976	79.12
284.207	82.12
284.439	96.12
284.67	82.12
284.901	87.12
285.132	87.12
285.364	93.12
285.595	82.12
285.826	83.12
286.057	96.12
286.288	98.12
286.52	87.12
286.751	83.12
286.982	90.12
287.213	74.12
287.444	84.12
287.675	75.12
287.906	83.12
288.138	91.12
288.369	86.12
288.6	86.12
288.831	78.12
289.062	89.12
289.293	83.12
289.524	73.12
289.755	79.12
289.986	88.12
290.217	97.12
290.448	81.12
290.679	90.12
290.91	106.12
291.141	62.12
291.371	80.12
291.602	90.12
291.833	81.12
292.064	75.12
292.295	73.12
292.526	96.12
292.757	83.12
292.987	83.12
293.218	79.12
293.449	80.12
293.68	100.12
293.91	81.12
294.141	75.12
294.372	80.12
294.603	85.12
294.833	79.12
295.064	81.12
295.295	94.12
295.525	82.12
295.756	86.12
295.987	80.12
296.217	97.12
296.448	90.12
296.679	80.12
296.909	72.12
297.14	90.12
297.37	86.12
297.601	94.12
297.831	92.12
298.062	80.12
298.292	67.12
298.523	80.12
298.753	90.12
298.984	88.12
299.214	88.12
299.445	91.12
299.675	89.12
299.905	92.12
300.136	77.12
300.366	77.12
300.597	89.12
300.827	86.12
301.057	85.12
301.288	85.12
301.518	84.12
301.748	81.12
301.979	99.12
302.209	86.12
302.439	86.12
302.669	92.12
302.9	85.12
303.13	79.12
303.36	83.12
303.59	88.12
303.82	73.12
304.051	90.12
304.281	90.12
304.511	77.12
304.741	81.12
304.971	96.12
305.201	86.12
305.431	65.12
305.661	97.12
305.891	88.12
306.121	89.12
306.352	83.12
306.582	84.12
306.812	97.12
307.042	90.12
307.272	83.12
307.502	84.12
307.731	88.12
307.961	83.12
308.191	95.12
308.421	81.12
308.651	81.12
308.881	85.12
309.111	91.12
309.341	81.12
309.571	88.12
309.8	73.12
310.03	82.12
310.26	95.12
310.49	86.12
310.72	83.12
310.949	86.12
311.179	95.12
311.409	85.12
311.639	76.12
311.868	87.12
312.098	77.12
312.328	90.12
312.557	87.12
312.787	81.12
313.017	85.12
313.246	95.12
313.476	97.12
313.706	79.12
313.935	82.12
314.165	67.12
314.394	80.12
314.624	80.12
314.853	87.12
315.083	75.12
315.312	89.12
315.542	88.12
315.771	92.12
316.001	81.12
316.23	97.12
316.46	81.12
316.689	85.12
316.919	82.12
317.148	100.12
317.377	81.12
317.607	60.12
317.836	90.12
318.065	70.12
318.295	91.12
318.524	76.12
318.753	87.12
318.983	90.12
319.212	93.12
319.441	72.12
319.67	81.12
319.9	79.12
320.129	93.12
320.358	73.12
320.587	83.12
320.816	84.12
321.046	86.12
321.275	95.12
321.504	83.12
321.733	90.12
321.962	96.12
322.191	80.12
322.42	75.12
322.649	86.12
322.878	82.12
323.108	79.12
323.337	96.12
323.566	84.12
323.795	101.12
324.024	90.12
324.253	82.12
324.482	96.12
324.71	82.12
324.939	87.12
325.168	83.12
325.397	83.12
325.626	85.12
325.855	88.12
326.084	79.12
326.313	86.12
326.542	83.12
326.77	100.12
326.999	84.12
327.228	83.12
327.457	94.12
327.686	87.12
327.914	89.12
328.143	87.12
328.372	93.12
328.6	89.12
328.829	81.12
329.058	77.12
329.287	86.12
329.515	85.12
329.744	109.12
329.972	87.12
330.201	74.12
330.43	75.12
330.658	86.12
330.887	78.12
331.115	85.12
331.344	89.12
331.572	87.12
331.801	82.12
332.03	83.12
332.258	82.12
332.486	102.12
332.715	83.12
332.943	101.12
333.172	86.12
333.4	87.12
333.629	91.12
333.857	72.12
334.085	79.12
334.314	95.12
334.542	85.12
334.771	91.12
334.999	90.12
335.227	91.12
335.455	89.12
335.684	91.12
335.912	92.12
336.14	88.12
336.369	84.12
336.597	89.12
336.825	85.12
337.053	81.12
337.281	80.12
337.51	83.12
337.738	91.12
337.966	77.12
338.194	77.12
338.422	92.12
338.65	105.12
338.878	90.12
339.106	95.12
339.334	74.12
339.562	87.12
339.79	77.12
340.018	75.12
340.246	70.12
340.474	87.12
340.702	81.12
340.93	73.12
341.158	88.12
341.386	76.12
341.614	76.12
341.842	90.12
342.07	89.12
342.298	77.12
342.526	81.12
342.754	97.12
342.981	83.12
343.209	81.12
343.437	91.12
343.665	84.12
343.893	91.12
344.12	90.12
344.348	92.12
344.576	79.12
344.804	87.12
345.031	91.12
345.259	77.12
345.487	102.12
345.714	81.12
345.942	87.12
346.17	95.12
346.397	96.12
346.625	75.12
346.853	75.12
347.08	95.12
347.308	85.12
347.535	83.12
347.763	75.12
347.99	91.12
348.218	88.12
348.445	90.12
348.673	73.12
348.9	76.12
349.128	73.12
349.355	89.12
349.583	90.12
349.81	81.12
350.037	71.12
350.265	76.12
350.492	80.12
350.72	81.12
350.947	77.12
351.174	86.12
351.402	88.12
351.629	83.12
351.856	74.12
352.083	86.12
352.311	91.12
352.538	67.12
352.765	92.12
352.992	91.12
353.22	89.12
353.447	85.12
353.674	93.12
353.901	79.12
354.128	98.12
354.355	81.12
354.583	81.12
354.81	90.12
355.037	81.12
355.264	80.12
355.491	79.12
355.718	92.12
355.945	87.12
356.172	89.12
356.399	86.12
356.626	85.12
356.853	89.12
357.08	82.12
357.307	82.12
357.534	84.12
357.761	88.12
357.988	75.12
358.215	88.12
358.441	80.12
358.668	91.12
358.895	78.12
359.122	86.12
359.349	82.12
359.576	59.12
359.802	84.12
360.029	83.12
360.256	99.12
360.483	84.12
360.709	89.12
360.936	94.12
361.163	84.12
361.39	104.12
361.616	86.12
361.843	88.12
362.07	85.12
362.296	90.12
362.523	82.12
362.749	94.12
362.976	84.12
363.203	87.12
363.429	82.12
363.656	95.12
363.882	89.12
364.109	94.12
364.335	92.12
364.562	98.12
364.788	82.12
365.015	88.12
365.241	80.12
365.468	83.12
365.694	91.12
365.92	76.12
366.147	85.12
366.373	82.12
366.599	89.12
366.826	86.12
367.052	78.12
367.278	76.12
367.505	81.12
367.731	92.12
367.957	84.12
368.184	81.12
368.41	84.12
368.636	75.12
368.862	95.12
369.089	80.12
369.315	88.12
369.541	88.12
369.767	84.12
369.993	91.12
370.219	82.12
370.445	84.12
370.672	79.12
370.898	88.12
371.124	99.12
371.35	85.12
371.576	81.12
371.802	85.12
372.028	82.12
372.254	108.12
372.48	88.12
372.706	90.12
372.932	84.12
373.158	79.12
373.384	80.12
373.61	81.12
373.835	94.12
374.061	76.12
374.287	88.12
374.513	92.12
374.739	82.12
374.965	78.12
375.191	73.12
375.416	91.12
375.642	81.12
375.868	77.12
376.094	85.12
376.319	88.12
376.545	71.12
376.771	80.12
376.997	89.12
377.222	93.12
377.448	87.12
377.674	81.12
377.899	80.12
378.125	84.12
378.35	84.12
378.576	86.12
378.802	85.12
379.027	72.12
379.253	101.12
379.478	92.12
379.704	90.12
379.929	90.12
380.155	96.12
380.38	92.12
380.606	104.12
380.831	77.12
381.057	99.12
381.282	90.12
381.507	86.12
381.733	88.12
381.958	92.12
382.184	94.12
382.409	86.12
382.634	85.12
382.86	94.12
383.085	93.12
383.31	97.12
383.535	88.12
383.761	83.12
383.986	89.12
384.211	91.12
384.436	77.12
384.662	84.12
384.887	83.12
385.112	87.12
385.337	69.12
385.562	85.12
385.787	74.12
386.013	89.12
386.238	76.12
386.463	80.12
386.688	85.12
386.913	71.12
387.138	100.12
387.363	85.12
387.588	96.12
387.813	83.12
388.038	83.12
388.263	89.12
388.488	81.12
388.713	88.12
388.938	88.12
389.163	93.12
389.387	66.12
389.612	82.12
389.837	96.12
390.062	90.12
390.287	84.12
390.512	102.12
390.736	85.12
390.961	85.12
391.186	85.12
391.411	102.12
391.636	108.12
391.86	100.12
392.085	86.12
392.31	99.12
392.534	89.12
392.759	94.12
392.984	88.12
393.208	77.12
393.433	83.12
393.658	86.12
393.882	95.12
394.107	91.12
394.331	76.12
394.556	80.12
394.78	95.12
395.005	94.12
395.229	88.12
395.454	86.12
395.678	99.12
395.903	97.12
396.127	87.12
396.352	89.12
396.576	93.12
396.801	86.12
397.025	84.12
397.249	85.12
397.474	95.12
397.698	87.12
397.922	83.12
398.147	88.12
398.371	83.12
398.595	98.12
398.82	93.12
399.044	73.12
399.268	95.12
399.492	94.12
399.717	86.12
399.941	101.12
400.165	85.12
400.389	84.12
400.613	95.12
400.837	97.12
401.062	96.12
401.286	92.12
401.51	92.12
401.734	82.12
401.958	90.12
402.182	102.12
402.406	91.12
402.63	84.12
402.854	91.12
403.078	83.12
403.302	96.12
403.526	97.12
403.75	73.12
403.974	94.12
404.198	91.12
404.422	81.12
404.645	95.12
404.869	95.12
405.093	100.12
405.317	93.12
405.541	92.12
405.765	84.12
405.988	74.12
406.212	86.12
406.436	78.12
406.66	88.12
406.883	101.12
407.107	98.12
407.331	70.12
407.555	91.12
407.778	85.12
408.002	87.12
408.226	88.12
408.449	90.12
408.673	96.12
408.896	83.12
409.12	88.12
409.344	80.12
409.567	94.12
409.791	103.12
410.014	93.12
410.238	102.12
410.461	92.12
410.685	82.12
410.908	81.12
411.132	85.12
411.355	103.12
411.578	92.12
411.802	89.12
412.025	86.12
412.249	86.12
412.472	90.12
412.695	92.12
412.919	95.12
413.142	90.12
413.365	102.12
413.589	85.12
413.812	95.12
414.035	97.12
414.258	76.12
414.482	103.12
414.705	90.12
414.928	92.12
415.151	77.12
415.374	89.12
415.597	92.12
415.821	114.12
416.044	106.12
416.267	100.12
416.49	92.12
416.713	99.12
416.936	92.12
417.159	96.12
417.382	87.12
417.605	83.12
417.828	80.12
418.051	79.12
418.274	89.12
418.497	101.12
418.72	95.12
418.943	89.12
419.166	102.12
419.389	99.12
419.611	91.12
419.834	96.12
420.057	106.12
420.28	91.12
420.503	93.12
420.726	94.12
420.948	104.12
421.171	108.12
421.394	99.12
421.617	96.12
421.839	105.12
422.062	90.12
422.285	90.12
422.507	103.12
422.73	85.12
422.953	97.12
423.175	103.12
423.398	91.12
423.621	107.12
423.843	93.12
424.066	95.12
424.288	89.12
424.511	96.12
424.733	100.12
424.956	96.12
425.178	98.12
425.401	91.12
425.623	98.12
425.846	88.12
426.068	75.12
426.291	96.12
426.513	76.12
426.735	92.12
426.958	103.12
427.18	90.12
427.402	95.12
427.625	100.12
427.847	92.12
428.069	106.12
428.292	103.12
428.514	96.12
428.736	97.12
428.958	92.12
429.181	92.12
429.403	91.12
429.625	104.12
429.847	97.12
430.069	92.12
430.292	103.12
430.514	88.12
430.736	87.12
430.958	90.12
431.18	99.12
431.402	89.12
431.624	90.12
431.846	80.12
432.068	91.12
432.29	88.12
432.512	77.12
432.734	112.12
432.956	92.12
433.178	82.12
433.4	101.12
433.622	97.12
433.844	102.12
434.066	82.12
434.287	78.12
434.509	82.12
434.731	80.12
434.953	88.12
435.175	101.12
435.397	97.12
435.618	98.12
435.84	103.12
436.062	96.12
436.284	108.12
436.505	100.12
436.727	97.12
436.949	107.12
437.17	98.12
437.392	93.12
437.614	93.12
437.835	90.12
438.057	83.12
438.278	85.12
438.5	95.12
438.721	90.12
438.943	85.12
439.165	101.12
439.386	90.12
439.608	101.12
439.829	101.12
440.05	99.12
440.272	92.12
440.493	90.12
440.715	97.12
440.936	105.12
441.158	99.12
441.379	80.12
441.6	114.12
441.822	99.12
442.043	95.12
442.264	89.12
442.486	102.12
442.707	95.12
442.928	110.12
443.149	84.12
443.371	88.12
443.592	97.12
443.813	93.12
444.034	90.12
444.255	108.12
444.476	90.12
444.698	109.12
444.919	94.12
445.14	210.12
445.361	151.12
445.582	87.12
445.803	100.12
446.024	100.12
446.245	103.12
446.466	96.12
446.687	104.12
446.908	102.12
447.129	108.12
447.35	119.12
447.571	92.12
447.792	101.12
448.013	93.12
448.234	90.12
448.455	116.12
448.675	107.12
448.896	91.12
449.117	99.12
449.338	90.12
449.559	107.12
449.779	99.12
450	105.12
450.221	101.12
450.442	101.12
450.662	97.12
450.883	92.12
451.104	104.12
451.324	95.12
451.545	89.12
451.766	103.12
451.986	97.12
452.207	104.12
452.428	101.12
452.648	89.12
452.869	87.12
453.089	90.12
453.31	87.12
453.53	89.12
453.751	82.12
453.971	83.12
454.192	79.12
454.412	84.12
454.633	78.12
454.853	81.12
455.073	99.12
455.294	96.12
455.514	81.12
455.734	85.12
455.955	86.12
456.175	100.12
456.395	92.12
456.616	81.12
456.836	91.12
457.056	96.12
457.276	87.12
457.497	101.12
457.717	88.12
457.937	84.12
458.157	79.12
458.377	81.12
458.598	88.12
458.818	91.12
459.038	88.12
459.258	71.12
459.478	87.12
459.698	71.12
459.918	97.12
460.138	87.12
460.358	80.12
460.578	92.12
460.798	82.12
461.018	86.12
461.238	96.12
461.458	85.12
461.678	86.12
461.898	88.12
462.118	76.12
462.338	100.12
462.558	97.12
462.777	106.12
462.997	68.12
463.217	97.12
463.437	91.12
463.657	88.12
463.876	87.12
464.096	91.12
464.316	94.12
464.536	86.12
464.755	92.12
464.975	96.12
465.195	96.12
465.414	92.12
465.634	82.12
465.854	88.12
466.073	100.12
466.293	108.12
466.512	104.12
466.732	98.12
466.951	96.12
467.171	82.12
467.391	98.12
467.61	96.12
467.829	97.12
468.049	86.12
468.268	89.12
468.488	103.12
468.707	102.12
468.927	98.12
469.146	100.12
469.365	113.12
469.585	95.12
469.804	86.12
470.023	103.12
470.243	89.12
470.462	98.12
470.681	105.12
470.901	102.12
471.12	90.12
471.339	113.12
471.558	89.12
471.777	109.12
471.997	83.12
472.216	89.12
472.435	83.12
472.654	111.12
472.873	94.12
473.092	95.12
473.311	91.12
473.53	88.12
473.749	89.12
473.968	95.12
474.187	89.12
474.406	91.12
474.625	91.12
474.844	110.12
475.063	94.12
475.282	89.12
475.501	94.12
475.72	106.12
475.939	92.12
476.158	98.12
476.377	101.12
476.596	74.12
476.814	96.12
477.033	93.12
477.252	85.12
477.471	106.12
477.69	90.12
477.908	108.12
478.127	87.12
478.346	97.12
478.564	85.12
478.783	94.12
479.002	107.12
479.22	102.12
479.439	97.12
479.658	81.12
479.876	82.12
480.095	81.12
480.313	72.12
480.532	80.12
480.751	93.12
480.969	80.12
481.188	84.12
481.406	86.12
481.624	90.12
481.843	83.12
482.061	93.12
482.28	87.12
482.498	101.12
482.717	92.12
482.935	92.12
483.153	97.12
483.372	105.12
483.59	85.12
483.808	106.12
484.027	99.12
484.245	93.12
484.463	91.12
484.681	108.12
484.9	89.12
485.118	92.12
485.336	103.12
485.554	104.12
485.772	100.12
485.99	86.12
486.209	103.12
486.427	106.12
486.645	92.12
486.863	100.12
487.081	94.12
487.299	95.12
487.517	92.12
487.735	107.12
487.953	109.12
488.171	105.12
488.389	114.12
488.607	107.12
488.825	102.12
489.043	98.12
489.261	91.12
489.479	98.12
489.696	97.12
489.914	96.12
490.132	106.12
490.35	108.12
490.568	108.12
490.786	108.12
491.003	108.12
491.221	101.12
491.439	106.12
491.657	133.12
491.874	121.12
492.092	132.12
492.31	139.12
492.527	139.12
492.745	119.12
492.963	113.12
493.18	129.12
493.398	114.12
493.615	111.12
493.833	115.12
494.05	117.12
494.268	92.12
494.485	106.12
494.703	119.12
494.92	116.12
495.138	111.12
495.355	107.12
495.573	107.12
495.79	114.12
496.008	120.12
496.225	116.12
496.442	105.12
496.66	120.12
496.877	98.12
497.094	117.12
497.312	100.12
497.529	105.12
497.746	109.12
497.963	102.12
498.181	95.12
498.398	92.12
498.615	88.12
498.832	93.12
499.049	88.12
499.267	69.12
499.484	104.12
499.701	103.12
499.918	95.12
500.135	102.12
500.352	91.12
500.569	96.12
500.786	97.12
501.003	80.12
501.22	109.12
501.437	110.12
501.654	110.12
501.871	84.12
502.088	103.12
502.305	104.12
502.522	91.12
502.739	90.12
502.956	95.12
503.172	102.12
503.389	101.12
503.606	88.12
503.823	98.12
504.04	86.12
504.256	98.12
504.473	87.12
504.69	96.12
504.907	94.12
505.123	99.12
505.34	89.12
505.557	96.12
505.773	107.12
505.99	93.12
506.207	90.12
506.423	83.12
506.64	92.12
506.856	91.12
507.073	107.12
507.289	87.12
507.506	82.12
507.722	83.12
507.939	98.12
508.155	104.12
508.372	91.12
508.588	92.12
508.805	94.12
509.021	94.12
509.238	74.12
509.454	89.12
509.67	104.12
509.887	89.12
510.103	88.12
510.319	82.12
510.536	89.12
510.752	76.12
510.968	75.12
511.184	92.12
511.401	86.12
511.617	92.12
511.833	100.12
512.049	85.12
512.265	84.12
512.481	85.12
512.698	89.12
512.914	77.12
513.13	74.12
513.346	82.12
513.562	90.12
513.778	88.12
513.994	92.12
514.21	81.12
514.426	89.12
514.642	90.12
514.858	93.12
515.074	89.12
515.29	95.12
515.506	87.12
515.721	81.12
515.937	89.12
516.153	75.12
516.369	91.12
516.585	82.12
516.801	86.12
517.016	84.12
