Data from Location3.07152019.Energy5.Lamp.07192019.3%Agarose_HRD10591_15-17-08-269.txt Node
Date: Fri Jul 19 15:17:08 EDT 2019
User: cochatt
Spectrometer: HR+D1059
Trigger mode: 1
Integration Time (sec): 1.000000E-1
Scans to average: 1
Electric dark correction enabled: true
Nonlinearity correction enabled: false
Boxcar width: 0
XAxis mode: Wavelengths
Number of Pixels in Spectrum: 2048
>>>>>Begin Spectral Data<<<<<
223.165	-23.06
223.4	-23.06
223.635	-23.06
223.869	-29.06
224.104	-0.06
224.338	-21.06
224.573	-18.06
224.808	-11.06
225.042	-7.06
225.277	0.94
225.511	-6.06
225.746	2.94
225.98	-5.06
226.215	9.94
226.449	20.94
226.683	35.94
226.918	15.94
227.152	33.94
227.387	34.94
227.621	25.94
227.856	43.94
228.09	50.94
228.324	57.94
228.559	73.94
228.793	60.94
229.027	67.94
229.262	67.94
229.496	61.94
229.73	71.94
229.964	67.94
230.199	77.94
230.433	69.94
230.667	84.94
230.901	76.94
231.136	84.94
231.37	82.94
231.604	85.94
231.838	94.94
232.072	89.94
232.306	73.94
232.541	78.94
232.775	91.94
233.009	75.94
233.243	81.94
233.477	79.94
233.711	73.94
233.945	77.94
234.179	76.94
234.413	74.94
234.647	82.94
234.881	97.94
235.115	91.94
235.349	69.94
235.583	80.94
235.817	60.94
236.051	73.94
236.285	76.94
236.519	78.94
236.753	80.94
236.987	55.94
237.221	77.94
237.455	84.94
237.689	79.94
237.922	81.94
238.156	89.94
238.39	83.94
238.624	89.94
238.858	74.94
239.091	82.94
239.325	85.94
239.559	74.94
239.793	84.94
240.027	79.94
240.26	86.94
240.494	81.94
240.728	82.94
240.961	78.94
241.195	76.94
241.429	69.94
241.662	81.94
241.896	78.94
242.13	73.94
242.363	68.94
242.597	80.94
242.83	87.94
243.064	83.94
243.298	99.94
243.531	75.94
243.765	68.94
243.998	81.94
244.232	76.94
244.465	67.94
244.699	87.94
244.932	79.94
245.166	78.94
245.399	81.94
245.633	85.94
245.866	71.94
246.099	75.94
246.333	77.94
246.566	71.94
246.8	74.94
247.033	88.94
247.266	73.94
247.5	85.94
247.733	85.94
247.966	81.94
248.2	99.94
248.433	90.94
248.666	94.94
248.899	90.94
249.133	78.94
249.366	93.94
249.599	76.94
249.832	79.94
250.066	92.94
250.299	84.94
250.532	87.94
250.765	83.94
250.998	77.94
251.231	81.94
251.465	81.94
251.698	80.94
251.931	88.94
252.164	93.94
252.397	91.94
252.63	78.94
252.863	85.94
253.096	96.94
253.329	87.94
253.562	79.94
253.795	87.94
254.028	90.94
254.261	78.94
254.494	72.94
254.727	85.94
254.96	92.94
255.193	73.94
255.426	78.94
255.659	82.94
255.892	82.94
256.124	74.94
256.357	78.94
256.59	88.94
256.823	86.94
257.056	100.94
257.289	92.94
257.521	85.94
257.754	81.94
257.987	89.94
258.22	84.94
258.452	85.94
258.685	78.94
258.918	94.94
259.151	87.94
259.383	82.94
259.616	91.94
259.849	86.94
260.081	85.94
260.314	83.94
260.547	83.94
260.779	85.94
261.012	104.94
261.244	87.94
261.477	92.94
261.71	88.94
261.942	83.94
262.175	88.94
262.407	79.94
262.64	85.94
262.872	87.94
263.105	72.94
263.337	96.94
263.57	87.94
263.802	82.94
264.035	84.94
264.267	73.94
264.499	74.94
264.732	96.94
264.964	85.94
265.197	86.94
265.429	94.94
265.661	74.94
265.894	88.94
266.126	86.94
266.358	92.94
266.591	83.94
266.823	96.94
267.055	92.94
267.287	75.94
267.52	96.94
267.752	102.94
267.984	73.94
268.216	82.94
268.448	95.94
268.681	92.94
268.913	94.94
269.145	91.94
269.377	83.94
269.609	89.94
269.841	94.94
270.073	83.94
270.306	77.94
270.538	85.94
270.77	86.94
271.002	78.94
271.234	95.94
271.466	92.94
271.698	79.94
271.93	86.94
272.162	75.94
272.394	102.94
272.626	81.94
272.858	89.94
273.09	98.94
273.322	86.94
273.553	91.94
273.785	78.94
274.017	88.94
274.249	88.94
274.481	91.94
274.713	109.94
274.945	86.94
275.176	89.94
275.408	86.94
275.64	90.94
275.872	81.94
276.104	90.94
276.335	83.94
276.567	83.94
276.799	94.94
277.031	75.94
277.262	93.94
277.494	85.94
277.726	87.94
277.957	86.94
278.189	85.94
278.421	79.94
278.652	81.94
278.884	85.94
279.115	86.94
279.347	95.94
279.579	87.94
279.81	92.94
280.042	79.94
280.273	81.94
280.505	69.94
280.736	84.94
280.968	85.94
281.199	74.94
281.431	104.94
281.662	96.94
281.894	92.94
282.125	84.94
282.356	95.94
282.588	84.94
282.819	78.94
283.051	82.94
283.282	90.94
283.513	83.94
283.745	86.94
283.976	88.94
284.207	90.94
284.439	87.94
284.67	81.94
284.901	90.94
285.132	98.94
285.364	92.94
285.595	87.94
285.826	82.94
286.057	93.94
286.288	82.94
286.52	78.94
286.751	94.94
286.982	91.94
287.213	92.94
287.444	86.94
287.675	89.94
287.906	90.94
288.138	92.94
288.369	77.94
288.6	96.94
288.831	93.94
289.062	96.94
289.293	95.94
289.524	93.94
289.755	97.94
289.986	90.94
290.217	90.94
290.448	75.94
290.679	86.94
290.91	79.94
291.141	77.94
291.371	84.94
291.602	82.94
291.833	78.94
292.064	92.94
292.295	89.94
292.526	107.94
292.757	90.94
292.987	83.94
293.218	98.94
293.449	93.94
293.68	86.94
293.91	85.94
294.141	89.94
294.372	89.94
294.603	91.94
294.833	83.94
295.064	90.94
295.295	83.94
295.525	93.94
295.756	101.94
295.987	92.94
296.217	78.94
296.448	74.94
296.679	90.94
296.909	89.94
297.14	82.94
297.37	89.94
297.601	87.94
297.831	85.94
298.062	85.94
298.292	99.94
298.523	108.94
298.753	94.94
298.984	86.94
299.214	78.94
299.445	78.94
299.675	90.94
299.905	87.94
300.136	100.94
300.366	78.94
300.597	85.94
300.827	90.94
301.057	83.94
301.288	84.94
301.518	87.94
301.748	90.94
301.979	97.94
302.209	100.94
302.439	81.94
302.669	78.94
302.9	86.94
303.13	92.94
303.36	103.94
303.59	88.94
303.82	75.94
304.051	94.94
304.281	90.94
304.511	94.94
304.741	88.94
304.971	86.94
305.201	75.94
305.431	77.94
305.661	84.94
305.891	84.94
306.121	84.94
306.352	71.94
306.582	94.94
306.812	95.94
307.042	76.94
307.272	81.94
307.502	89.94
307.731	84.94
307.961	90.94
308.191	75.94
308.421	87.94
308.651	84.94
308.881	101.94
309.111	91.94
309.341	93.94
309.571	92.94
309.8	91.94
310.03	75.94
310.26	94.94
310.49	79.94
310.72	100.94
310.949	94.94
311.179	104.94
311.409	82.94
311.639	94.94
311.868	97.94
312.098	85.94
312.328	76.94
312.557	87.94
312.787	97.94
313.017	87.94
313.246	98.94
313.476	93.94
313.706	78.94
313.935	81.94
314.165	97.94
314.394	104.94
314.624	89.94
314.853	91.94
315.083	90.94
315.312	85.94
315.542	92.94
315.771	90.94
316.001	104.94
316.23	91.94
316.46	89.94
316.689	96.94
316.919	85.94
317.148	93.94
317.377	104.94
317.607	82.94
317.836	83.94
318.065	96.94
318.295	77.94
318.524	85.94
318.753	79.94
318.983	76.94
319.212	75.94
319.441	93.94
319.67	108.94
319.9	79.94
320.129	72.94
320.358	88.94
320.587	95.94
320.816	87.94
321.046	106.94
321.275	88.94
321.504	86.94
321.733	82.94
321.962	82.94
322.191	93.94
322.42	86.94
322.649	93.94
322.878	95.94
323.108	92.94
323.337	92.94
323.566	84.94
323.795	91.94
324.024	85.94
324.253	95.94
324.482	94.94
324.71	93.94
324.939	89.94
325.168	81.94
325.397	74.94
325.626	83.94
325.855	84.94
326.084	90.94
326.313	94.94
326.542	89.94
326.77	88.94
326.999	70.94
327.228	96.94
327.457	87.94
327.686	75.94
327.914	80.94
328.143	92.94
328.372	78.94
328.6	94.94
328.829	88.94
329.058	84.94
329.287	89.94
329.515	97.94
329.744	84.94
329.972	95.94
330.201	99.94
330.43	95.94
330.658	103.94
330.887	76.94
331.115	79.94
331.344	90.94
331.572	85.94
331.801	91.94
332.03	76.94
332.258	90.94
332.486	86.94
332.715	94.94
332.943	78.94
333.172	94.94
333.4	78.94
333.629	82.94
333.857	81.94
334.085	100.94
334.314	97.94
334.542	93.94
334.771	89.94
334.999	78.94
335.227	76.94
335.455	93.94
335.684	84.94
335.912	85.94
336.14	87.94
336.369	84.94
336.597	86.94
336.825	88.94
337.053	83.94
337.281	86.94
337.51	100.94
337.738	80.94
337.966	98.94
338.194	79.94
338.422	79.94
338.65	90.94
338.878	82.94
339.106	79.94
339.334	88.94
339.562	82.94
339.79	98.94
340.018	95.94
340.246	87.94
340.474	82.94
340.702	97.94
340.93	91.94
341.158	92.94
341.386	85.94
341.614	76.94
341.842	89.94
342.07	85.94
342.298	92.94
342.526	90.94
342.754	92.94
342.981	85.94
343.209	79.94
343.437	71.94
343.665	93.94
343.893	90.94
344.12	91.94
344.348	102.94
344.576	83.94
344.804	89.94
345.031	82.94
345.259	82.94
345.487	92.94
345.714	77.94
345.942	89.94
346.17	85.94
346.397	84.94
346.625	85.94
346.853	83.94
347.08	83.94
347.308	91.94
347.535	82.94
347.763	82.94
347.99	91.94
348.218	93.94
348.445	64.94
348.673	92.94
348.9	88.94
349.128	78.94
349.355	91.94
349.583	86.94
349.81	93.94
350.037	72.94
350.265	93.94
350.492	83.94
350.72	89.94
350.947	78.94
351.174	89.94
351.402	87.94
351.629	80.94
351.856	101.94
352.083	82.94
352.311	91.94
352.538	71.94
352.765	89.94
352.992	77.94
353.22	74.94
353.447	87.94
353.674	87.94
353.901	94.94
354.128	74.94
354.355	78.94
354.583	77.94
354.81	82.94
355.037	84.94
355.264	95.94
355.491	79.94
355.718	76.94
355.945	85.94
356.172	90.94
356.399	84.94
356.626	95.94
356.853	93.94
357.08	85.94
357.307	99.94
357.534	74.94
357.761	84.94
357.988	92.94
358.215	70.94
358.441	75.94
358.668	94.94
358.895	84.94
359.122	83.94
359.349	78.94
359.576	81.94
359.802	84.94
360.029	83.94
360.256	72.94
360.483	74.94
360.709	81.94
360.936	91.94
361.163	87.94
361.39	79.94
361.616	82.94
361.843	92.94
362.07	71.94
362.296	89.94
362.523	79.94
362.749	86.94
362.976	84.94
363.203	94.94
363.429	79.94
363.656	78.94
363.882	80.94
364.109	76.94
364.335	87.94
364.562	75.94
364.788	93.94
365.015	77.94
365.241	85.94
365.468	86.94
365.694	98.94
365.92	79.94
366.147	86.94
366.373	82.94
366.599	85.94
366.826	91.94
367.052	91.94
367.278	83.94
367.505	83.94
367.731	97.94
367.957	97.94
368.184	75.94
368.41	97.94
368.636	95.94
368.862	80.94
369.089	90.94
369.315	101.94
369.541	92.94
369.767	90.94
369.993	91.94
370.219	84.94
370.445	85.94
370.672	96.94
370.898	86.94
371.124	84.94
371.35	78.94
371.576	87.94
371.802	75.94
372.028	76.94
372.254	76.94
372.48	78.94
372.706	97.94
372.932	90.94
373.158	79.94
373.384	96.94
373.61	85.94
373.835	85.94
374.061	108.94
374.287	95.94
374.513	86.94
374.739	95.94
374.965	89.94
375.191	99.94
375.416	107.94
375.642	93.94
375.868	71.94
376.094	85.94
376.319	79.94
376.545	87.94
376.771	86.94
376.997	76.94
377.222	87.94
377.448	93.94
377.674	89.94
377.899	87.94
378.125	95.94
378.35	89.94
378.576	89.94
378.802	95.94
379.027	79.94
379.253	100.94
379.478	98.94
379.704	92.94
379.929	99.94
380.155	74.94
380.38	98.94
380.606	85.94
380.831	78.94
381.057	78.94
381.282	78.94
381.507	100.94
381.733	81.94
381.958	94.94
382.184	79.94
382.409	90.94
382.634	91.94
382.86	72.94
383.085	81.94
383.31	77.94
383.535	92.94
383.761	89.94
383.986	89.94
384.211	78.94
384.436	81.94
384.662	79.94
384.887	72.94
385.112	94.94
385.337	88.94
385.562	79.94
385.787	65.94
386.013	91.94
386.238	98.94
386.463	82.94
386.688	77.94
386.913	83.94
387.138	85.94
387.363	85.94
387.588	93.94
387.813	95.94
388.038	95.94
388.263	78.94
388.488	89.94
388.713	93.94
388.938	101.94
389.163	78.94
389.387	84.94
389.612	94.94
389.837	91.94
390.062	91.94
390.287	101.94
390.512	89.94
390.736	76.94
390.961	77.94
391.186	80.94
391.411	79.94
391.636	74.94
391.86	99.94
392.085	97.94
392.31	99.94
392.534	86.94
392.759	93.94
392.984	74.94
393.208	94.94
393.433	95.94
393.658	89.94
393.882	79.94
394.107	88.94
394.331	81.94
394.556	85.94
394.78	95.94
395.005	99.94
395.229	84.94
395.454	95.94
395.678	73.94
395.903	92.94
396.127	84.94
396.352	93.94
396.576	88.94
396.801	96.94
397.025	79.94
397.249	82.94
397.474	107.94
397.698	90.94
397.922	90.94
398.147	92.94
398.371	95.94
398.595	91.94
398.82	97.94
399.044	107.94
399.268	97.94
399.492	80.94
399.717	80.94
399.941	94.94
400.165	93.94
400.389	94.94
400.613	92.94
400.837	91.94
401.062	77.94
401.286	77.94
401.51	82.94
401.734	89.94
401.958	107.94
402.182	102.94
402.406	88.94
402.63	80.94
402.854	87.94
403.078	94.94
403.302	84.94
403.526	84.94
403.75	95.94
403.974	88.94
404.198	85.94
404.422	97.94
404.645	92.94
404.869	93.94
405.093	89.94
405.317	87.94
405.541	83.94
405.765	102.94
405.988	108.94
406.212	90.94
406.436	101.94
406.66	99.94
406.883	99.94
407.107	85.94
407.331	84.94
407.555	94.94
407.778	92.94
408.002	79.94
408.226	100.94
408.449	106.94
408.673	84.94
408.896	98.94
409.12	91.94
409.344	95.94
409.567	94.94
409.791	89.94
410.014	84.94
410.238	89.94
410.461	95.94
410.685	86.94
410.908	84.94
411.132	89.94
411.355	92.94
411.578	92.94
411.802	94.94
412.025	87.94
412.249	99.94
412.472	91.94
412.695	92.94
412.919	92.94
413.142	84.94
413.365	103.94
413.589	97.94
413.812	98.94
414.035	105.94
414.258	96.94
414.482	94.94
414.705	101.94
414.928	88.94
415.151	94.94
415.374	89.94
415.597	93.94
415.821	93.94
416.044	98.94
416.267	84.94
416.49	91.94
416.713	87.94
416.936	88.94
417.159	105.94
417.382	98.94
417.605	92.94
417.828	83.94
418.051	78.94
418.274	92.94
418.497	88.94
418.72	84.94
418.943	79.94
419.166	92.94
419.389	93.94
419.611	83.94
419.834	86.94
420.057	77.94
420.28	97.94
420.503	102.94
420.726	102.94
420.948	103.94
421.171	82.94
421.394	93.94
421.617	95.94
421.839	105.94
422.062	104.94
422.285	84.94
422.507	101.94
422.73	107.94
422.953	103.94
423.175	101.94
423.398	84.94
423.621	105.94
423.843	91.94
424.066	103.94
424.288	105.94
424.511	101.94
424.733	87.94
424.956	95.94
425.178	95.94
425.401	97.94
425.623	102.94
425.846	107.94
426.068	99.94
426.291	91.94
426.513	104.94
426.735	101.94
426.958	94.94
427.18	104.94
427.402	99.94
427.625	97.94
427.847	95.94
428.069	97.94
428.292	97.94
428.514	99.94
428.736	91.94
428.958	104.94
429.181	98.94
429.403	91.94
429.625	93.94
429.847	90.94
430.069	92.94
430.292	104.94
430.514	93.94
430.736	98.94
430.958	103.94
431.18	93.94
431.402	106.94
431.624	88.94
431.846	97.94
432.068	94.94
432.29	73.94
432.512	78.94
432.734	97.94
432.956	81.94
433.178	96.94
433.4	89.94
433.622	102.94
433.844	107.94
434.066	86.94
434.287	86.94
434.509	92.94
434.731	80.94
434.953	100.94
435.175	113.94
435.397	81.94
435.618	80.94
435.84	79.94
436.062	92.94
436.284	99.94
436.505	99.94
436.727	97.94
436.949	85.94
437.17	87.94
437.392	93.94
437.614	84.94
437.835	87.94
438.057	89.94
438.278	94.94
438.5	96.94
438.721	104.94
438.943	102.94
439.165	89.94
439.386	117.94
439.608	105.94
439.829	89.94
440.05	105.94
440.272	113.94
440.493	110.94
440.715	93.94
440.936	94.94
441.158	116.94
441.379	90.94
441.6	93.94
441.822	98.94
442.043	96.94
442.264	97.94
442.486	98.94
442.707	110.94
442.928	104.94
443.149	94.94
443.371	104.94
443.592	109.94
443.813	103.94
444.034	91.94
444.255	90.94
444.476	102.94
444.698	103.94
444.919	109.94
445.14	230.94
445.361	166.94
445.582	91.94
445.803	95.94
446.024	108.94
446.245	105.94
446.466	92.94
446.687	102.94
446.908	113.94
447.129	99.94
447.35	100.94
447.571	109.94
447.792	86.94
448.013	87.94
448.234	101.94
448.455	102.94
448.675	112.94
448.896	103.94
449.117	99.94
449.338	109.94
449.559	89.94
449.779	81.94
450	104.94
450.221	101.94
450.442	90.94
450.662	103.94
450.883	95.94
451.104	98.94
451.324	99.94
451.545	98.94
451.766	102.94
451.986	94.94
452.207	90.94
452.428	91.94
452.648	117.94
452.869	108.94
453.089	105.94
453.31	89.94
453.53	95.94
453.751	93.94
453.971	95.94
454.192	102.94
454.412	106.94
454.633	85.94
454.853	102.94
455.073	86.94
455.294	96.94
455.514	102.94
455.734	91.94
455.955	93.94
456.175	104.94
456.395	84.94
456.616	91.94
456.836	93.94
457.056	85.94
457.276	95.94
457.497	98.94
457.717	81.94
457.937	87.94
458.157	77.94
458.377	91.94
458.598	79.94
458.818	89.94
459.038	76.94
459.258	90.94
459.478	65.94
459.698	98.94
459.918	85.94
460.138	102.94
460.358	93.94
460.578	85.94
460.798	89.94
461.018	94.94
461.238	97.94
461.458	99.94
461.678	78.94
461.898	98.94
462.118	104.94
462.338	92.94
462.558	98.94
462.777	99.94
462.997	98.94
463.217	89.94
463.437	98.94
463.657	81.94
463.876	87.94
464.096	92.94
464.316	99.94
464.536	108.94
464.755	103.94
464.975	101.94
465.195	95.94
465.414	101.94
465.634	105.94
465.854	99.94
466.073	95.94
466.293	92.94
466.512	107.94
466.732	105.94
466.951	105.94
467.171	102.94
467.391	93.94
467.61	101.94
467.829	102.94
468.049	94.94
468.268	94.94
468.488	97.94
468.707	99.94
468.927	98.94
469.146	85.94
469.365	108.94
469.585	100.94
469.804	97.94
470.023	103.94
470.243	104.94
470.462	104.94
470.681	108.94
470.901	93.94
471.12	106.94
471.339	94.94
471.558	92.94
471.777	102.94
471.997	97.94
472.216	85.94
472.435	96.94
472.654	102.94
472.873	102.94
473.092	82.94
473.311	100.94
473.53	89.94
473.749	94.94
473.968	100.94
474.187	83.94
474.406	92.94
474.625	101.94
474.844	104.94
475.063	108.94
475.282	87.94
475.501	94.94
475.72	82.94
475.939	95.94
476.158	88.94
476.377	107.94
476.596	76.94
476.814	101.94
477.033	95.94
477.252	90.94
477.471	90.94
477.69	97.94
477.908	105.94
478.127	103.94
478.346	102.94
478.564	110.94
478.783	109.94
479.002	102.94
479.22	89.94
479.439	93.94
479.658	98.94
479.876	88.94
480.095	86.94
480.313	100.94
480.532	106.94
480.751	88.94
480.969	93.94
481.188	82.94
481.406	86.94
481.624	77.94
481.843	77.94
482.061	84.94
482.28	100.94
482.498	88.94
482.717	96.94
482.935	102.94
483.153	109.94
483.372	102.94
483.59	101.94
483.808	98.94
484.027	114.94
484.245	93.94
484.463	109.94
484.681	103.94
484.9	101.94
485.118	89.94
485.336	91.94
485.554	98.94
485.772	98.94
485.99	102.94
486.209	99.94
486.427	80.94
486.645	101.94
486.863	106.94
487.081	101.94
487.299	101.94
487.517	106.94
487.735	117.94
487.953	122.94
488.171	123.94
488.389	111.94
488.607	100.94
488.825	97.94
489.043	95.94
489.261	107.94
489.479	112.94
489.696	108.94
489.914	98.94
490.132	101.94
490.35	121.94
490.568	107.94
490.786	105.94
491.003	126.94
491.221	109.94
491.439	106.94
491.657	114.94
491.874	114.94
492.092	121.94
492.31	128.94
492.527	126.94
492.745	120.94
492.963	129.94
493.18	117.94
493.398	121.94
493.615	112.94
493.833	109.94
494.05	120.94
494.268	126.94
494.485	113.94
494.703	113.94
494.92	115.94
495.138	114.94
495.355	118.94
495.573	114.94
495.79	108.94
496.008	107.94
496.225	112.94
496.442	123.94
496.66	110.94
496.877	108.94
497.094	113.94
497.312	115.94
497.529	96.94
497.746	95.94
497.963	102.94
498.181	99.94
498.398	92.94
498.615	98.94
498.832	93.94
499.049	91.94
499.267	113.94
499.484	92.94
499.701	97.94
499.918	120.94
500.135	97.94
500.352	86.94
500.569	98.94
500.786	95.94
501.003	97.94
501.22	90.94
501.437	110.94
501.654	103.94
501.871	93.94
502.088	98.94
502.305	102.94
502.522	93.94
502.739	101.94
502.956	98.94
503.172	102.94
503.389	81.94
503.606	94.94
503.823	101.94
504.04	108.94
504.256	114.94
504.473	85.94
504.69	98.94
504.907	101.94
505.123	113.94
505.34	80.94
505.557	106.94
505.773	106.94
505.99	91.94
506.207	102.94
506.423	96.94
506.64	94.94
506.856	89.94
507.073	90.94
507.289	117.94
507.506	94.94
507.722	94.94
507.939	93.94
508.155	96.94
508.372	96.94
508.588	96.94
508.805	99.94
509.021	99.94
509.238	84.94
509.454	100.94
509.67	91.94
509.887	97.94
510.103	95.94
510.319	100.94
510.536	101.94
510.752	92.94
510.968	93.94
511.184	98.94
511.401	83.94
511.617	90.94
511.833	94.94
512.049	94.94
512.265	84.94
512.481	90.94
512.698	84.94
512.914	87.94
513.13	99.94
513.346	84.94
513.562	103.94
513.778	100.94
513.994	80.94
514.21	91.94
514.426	104.94
514.642	105.94
514.858	91.94
515.074	98.94
515.29	83.94
515.506	82.94
515.721	87.94
515.937	81.94
516.153	86.94
