Data from Location3.07152019.Energy5.Lamp.07192019.3%Agarose_HRD10591_15-18-52-276.txt Node
Date: Fri Jul 19 15:18:52 EDT 2019
User: cochatt
Spectrometer: HR+D1059
Trigger mode: 1
Integration Time (sec): 1.000000E-1
Scans to average: 1
Electric dark correction enabled: true
Nonlinearity correction enabled: false
Boxcar width: 0
XAxis mode: Wavelengths
Number of Pixels in Spectrum: 2048
>>>>>Begin Spectral Data<<<<<
223.165	-20.94
223.4	-20.94
223.635	-20.94
223.869	-22.94
224.104	-14.94
224.338	-22.94
224.573	-22.94
224.808	-12.94
225.042	-8.94
225.277	-6.94
225.511	5.06
225.746	-7.94
225.98	10.06
226.215	17.06
226.449	20.06
226.683	23.06
226.918	39.06
227.152	27.06
227.387	36.06
227.621	34.06
227.856	47.06
228.09	46.06
228.324	49.06
228.559	58.06
228.793	69.06
229.027	63.06
229.262	62.06
229.496	57.06
229.73	72.06
229.964	90.06
230.199	72.06
230.433	80.06
230.667	74.06
230.901	82.06
231.136	82.06
231.37	79.06
231.604	74.06
231.838	65.06
232.072	69.06
232.306	82.06
232.541	83.06
232.775	97.06
233.009	72.06
233.243	76.06
233.477	86.06
233.711	80.06
233.945	68.06
234.179	72.06
234.413	85.06
234.647	70.06
234.881	86.06
235.115	71.06
235.349	82.06
235.583	95.06
235.817	75.06
236.051	72.06
236.285	69.06
236.519	69.06
236.753	85.06
236.987	88.06
237.221	71.06
237.455	71.06
237.689	64.06
237.922	97.06
238.156	77.06
238.39	85.06
238.624	82.06
238.858	84.06
239.091	71.06
239.325	75.06
239.559	75.06
239.793	93.06
240.027	73.06
240.26	72.06
240.494	75.06
240.728	68.06
240.961	64.06
241.195	70.06
241.429	73.06
241.662	70.06
241.896	56.06
242.13	72.06
242.363	58.06
242.597	78.06
242.83	82.06
243.064	69.06
243.298	86.06
243.531	73.06
243.765	75.06
243.998	71.06
244.232	74.06
244.465	76.06
244.699	66.06
244.932	74.06
245.166	79.06
245.399	67.06
245.633	75.06
245.866	64.06
246.099	78.06
246.333	69.06
246.566	69.06
246.8	77.06
247.033	96.06
247.266	83.06
247.5	57.06
247.733	84.06
247.966	92.06
248.2	92.06
248.433	66.06
248.666	75.06
248.899	71.06
249.133	72.06
249.366	76.06
249.599	95.06
249.832	73.06
250.066	76.06
250.299	73.06
250.532	87.06
250.765	79.06
250.998	80.06
251.231	72.06
251.465	75.06
251.698	77.06
251.931	79.06
252.164	74.06
252.397	75.06
252.63	71.06
252.863	78.06
253.096	47.06
253.329	87.06
253.562	93.06
253.795	79.06
254.028	78.06
254.261	88.06
254.494	90.06
254.727	78.06
254.96	80.06
255.193	62.06
255.426	69.06
255.659	73.06
255.892	86.06
256.124	94.06
256.357	70.06
256.59	91.06
256.823	71.06
257.056	78.06
257.289	86.06
257.521	63.06
257.754	81.06
257.987	81.06
258.22	83.06
258.452	86.06
258.685	86.06
258.918	85.06
259.151	85.06
259.383	90.06
259.616	74.06
259.849	78.06
260.081	70.06
260.314	81.06
260.547	76.06
260.779	89.06
261.012	85.06
261.244	98.06
261.477	79.06
261.71	75.06
261.942	94.06
262.175	84.06
262.407	72.06
262.64	83.06
262.872	98.06
263.105	82.06
263.337	75.06
263.57	95.06
263.802	87.06
264.035	74.06
264.267	62.06
264.499	74.06
264.732	96.06
264.964	65.06
265.197	72.06
265.429	84.06
265.661	89.06
265.894	79.06
266.126	83.06
266.358	73.06
266.591	85.06
266.823	80.06
267.055	83.06
267.287	95.06
267.52	86.06
267.752	77.06
267.984	95.06
268.216	94.06
268.448	85.06
268.681	99.06
268.913	75.06
269.145	75.06
269.377	80.06
269.609	85.06
269.841	79.06
270.073	77.06
270.306	86.06
270.538	75.06
270.77	89.06
271.002	87.06
271.234	72.06
271.466	96.06
271.698	81.06
271.93	81.06
272.162	86.06
272.394	84.06
272.626	90.06
272.858	84.06
273.09	91.06
273.322	93.06
273.553	85.06
273.785	87.06
274.017	89.06
274.249	71.06
274.481	85.06
274.713	74.06
274.945	80.06
275.176	80.06
275.408	75.06
275.64	74.06
275.872	58.06
276.104	85.06
276.335	97.06
276.567	82.06
276.799	85.06
277.031	73.06
277.262	78.06
277.494	89.06
277.726	80.06
277.957	78.06
278.189	77.06
278.421	78.06
278.652	81.06
278.884	74.06
279.115	94.06
279.347	74.06
279.579	92.06
279.81	90.06
280.042	83.06
280.273	81.06
280.505	81.06
280.736	79.06
280.968	72.06
281.199	85.06
281.431	90.06
281.662	81.06
281.894	78.06
282.125	75.06
282.356	98.06
282.588	77.06
282.819	98.06
283.051	86.06
283.282	79.06
283.513	93.06
283.745	85.06
283.976	81.06
284.207	83.06
284.439	75.06
284.67	82.06
284.901	79.06
285.132	85.06
285.364	74.06
285.595	90.06
285.826	94.06
286.057	80.06
286.288	70.06
286.52	89.06
286.751	82.06
286.982	92.06
287.213	81.06
287.444	93.06
287.675	91.06
287.906	93.06
288.138	94.06
288.369	73.06
288.6	73.06
288.831	75.06
289.062	72.06
289.293	87.06
289.524	86.06
289.755	84.06
289.986	84.06
290.217	70.06
290.448	78.06
290.679	92.06
290.91	80.06
291.141	80.06
291.371	79.06
291.602	88.06
291.833	94.06
292.064	72.06
292.295	67.06
292.526	76.06
292.757	81.06
292.987	96.06
293.218	82.06
293.449	80.06
293.68	73.06
293.91	69.06
294.141	81.06
294.372	86.06
294.603	69.06
294.833	81.06
295.064	82.06
295.295	73.06
295.525	79.06
295.756	87.06
295.987	97.06
296.217	85.06
296.448	77.06
296.679	88.06
296.909	94.06
297.14	86.06
297.37	79.06
297.601	86.06
297.831	98.06
298.062	93.06
298.292	85.06
298.523	87.06
298.753	82.06
298.984	83.06
299.214	78.06
299.445	82.06
299.675	74.06
299.905	73.06
300.136	81.06
300.366	85.06
300.597	89.06
300.827	91.06
301.057	87.06
301.288	103.06
301.518	91.06
301.748	87.06
301.979	82.06
302.209	96.06
302.439	82.06
302.669	89.06
302.9	97.06
303.13	89.06
303.36	81.06
303.59	80.06
303.82	82.06
304.051	88.06
304.281	81.06
304.511	86.06
304.741	88.06
304.971	85.06
305.201	97.06
305.431	90.06
305.661	72.06
305.891	82.06
306.121	85.06
306.352	85.06
306.582	81.06
306.812	80.06
307.042	79.06
307.272	76.06
307.502	95.06
307.731	96.06
307.961	82.06
308.191	82.06
308.421	84.06
308.651	81.06
308.881	75.06
309.111	82.06
309.341	76.06
309.571	80.06
309.8	86.06
310.03	69.06
310.26	73.06
310.49	94.06
310.72	82.06
310.949	81.06
311.179	88.06
311.409	81.06
311.639	101.06
311.868	92.06
312.098	85.06
312.328	92.06
312.557	82.06
312.787	71.06
313.017	88.06
313.246	97.06
313.476	80.06
313.706	75.06
313.935	81.06
314.165	90.06
314.394	90.06
314.624	89.06
314.853	73.06
315.083	78.06
315.312	86.06
315.542	76.06
315.771	97.06
316.001	84.06
316.23	90.06
316.46	86.06
316.689	74.06
316.919	93.06
317.148	80.06
317.377	84.06
317.607	80.06
317.836	93.06
318.065	96.06
318.295	90.06
318.524	102.06
318.753	74.06
318.983	75.06
319.212	88.06
319.441	88.06
319.67	93.06
319.9	73.06
320.129	79.06
320.358	83.06
320.587	88.06
320.816	96.06
321.046	82.06
321.275	74.06
321.504	80.06
321.733	74.06
321.962	81.06
322.191	91.06
322.42	87.06
322.649	82.06
322.878	82.06
323.108	86.06
323.337	80.06
323.566	97.06
323.795	94.06
324.024	89.06
324.253	98.06
324.482	80.06
324.71	85.06
324.939	74.06
325.168	88.06
325.397	91.06
325.626	83.06
325.855	95.06
326.084	76.06
326.313	75.06
326.542	85.06
326.77	79.06
326.999	90.06
327.228	80.06
327.457	78.06
327.686	101.06
327.914	90.06
328.143	86.06
328.372	87.06
328.6	78.06
328.829	92.06
329.058	88.06
329.287	85.06
329.515	87.06
329.744	93.06
329.972	88.06
330.201	82.06
330.43	86.06
330.658	73.06
330.887	74.06
331.115	75.06
331.344	96.06
331.572	90.06
331.801	78.06
332.03	71.06
332.258	88.06
332.486	83.06
332.715	93.06
332.943	80.06
333.172	83.06
333.4	85.06
333.629	92.06
333.857	95.06
334.085	75.06
334.314	84.06
334.542	76.06
334.771	78.06
334.999	79.06
335.227	83.06
335.455	80.06
335.684	86.06
335.912	81.06
336.14	79.06
336.369	89.06
336.597	83.06
336.825	87.06
337.053	87.06
337.281	83.06
337.51	93.06
337.738	77.06
337.966	85.06
338.194	71.06
338.422	75.06
338.65	71.06
338.878	96.06
339.106	85.06
339.334	99.06
339.562	93.06
339.79	62.06
340.018	78.06
340.246	82.06
340.474	87.06
340.702	87.06
340.93	81.06
341.158	79.06
341.386	83.06
341.614	72.06
341.842	78.06
342.07	89.06
342.298	82.06
342.526	96.06
342.754	87.06
342.981	79.06
343.209	88.06
343.437	96.06
343.665	104.06
343.893	83.06
344.12	82.06
344.348	90.06
344.576	89.06
344.804	87.06
345.031	83.06
345.259	85.06
345.487	82.06
345.714	82.06
345.942	69.06
346.17	89.06
346.397	89.06
346.625	86.06
346.853	71.06
347.08	87.06
347.308	98.06
347.535	86.06
347.763	73.06
347.99	86.06
348.218	74.06
348.445	85.06
348.673	89.06
348.9	85.06
349.128	82.06
349.355	92.06
349.583	70.06
349.81	79.06
350.037	90.06
350.265	79.06
350.492	90.06
350.72	81.06
350.947	96.06
351.174	87.06
351.402	84.06
351.629	93.06
351.856	83.06
352.083	82.06
352.311	82.06
352.538	90.06
352.765	71.06
352.992	83.06
353.22	82.06
353.447	83.06
353.674	96.06
353.901	95.06
354.128	86.06
354.355	72.06
354.583	88.06
354.81	85.06
355.037	76.06
355.264	86.06
355.491	66.06
355.718	81.06
355.945	86.06
356.172	88.06
356.399	80.06
356.626	77.06
356.853	76.06
357.08	91.06
357.307	93.06
357.534	83.06
357.761	79.06
357.988	83.06
358.215	79.06
358.441	81.06
358.668	86.06
358.895	86.06
359.122	82.06
359.349	82.06
359.576	87.06
359.802	82.06
360.029	58.06
360.256	85.06
360.483	82.06
360.709	83.06
360.936	89.06
361.163	91.06
361.39	92.06
361.616	79.06
361.843	90.06
362.07	88.06
362.296	83.06
362.523	103.06
362.749	89.06
362.976	83.06
363.203	86.06
363.429	84.06
363.656	85.06
363.882	87.06
364.109	81.06
364.335	73.06
364.562	75.06
364.788	80.06
365.015	86.06
365.241	70.06
365.468	75.06
365.694	77.06
365.92	92.06
366.147	91.06
366.373	81.06
366.599	94.06
366.826	79.06
367.052	84.06
367.278	83.06
367.505	76.06
367.731	86.06
367.957	77.06
368.184	86.06
368.41	93.06
368.636	84.06
368.862	83.06
369.089	72.06
369.315	86.06
369.541	89.06
369.767	93.06
369.993	89.06
370.219	88.06
370.445	85.06
370.672	82.06
370.898	74.06
371.124	84.06
371.35	81.06
371.576	80.06
371.802	79.06
372.028	82.06
372.254	74.06
372.48	74.06
372.706	83.06
372.932	82.06
373.158	94.06
373.384	84.06
373.61	84.06
373.835	85.06
374.061	91.06
374.287	77.06
374.513	78.06
374.739	82.06
374.965	81.06
375.191	89.06
375.416	75.06
375.642	73.06
375.868	85.06
376.094	86.06
376.319	95.06
376.545	89.06
376.771	83.06
376.997	102.06
377.222	90.06
377.448	92.06
377.674	81.06
377.899	75.06
378.125	84.06
378.35	78.06
378.576	78.06
378.802	79.06
379.027	88.06
379.253	81.06
379.478	86.06
379.704	93.06
379.929	102.06
380.155	79.06
380.38	84.06
380.606	89.06
380.831	83.06
381.057	87.06
381.282	85.06
381.507	80.06
381.733	79.06
381.958	100.06
382.184	90.06
382.409	98.06
382.634	70.06
382.86	76.06
383.085	99.06
383.31	93.06
383.535	85.06
383.761	78.06
383.986	79.06
384.211	76.06
384.436	77.06
384.662	89.06
384.887	84.06
385.112	85.06
385.337	87.06
385.562	87.06
385.787	86.06
386.013	91.06
386.238	75.06
386.463	73.06
386.688	97.06
386.913	105.06
387.138	94.06
387.363	79.06
387.588	88.06
387.813	70.06
388.038	81.06
388.263	85.06
388.488	92.06
388.713	85.06
388.938	83.06
389.163	88.06
389.387	75.06
389.612	80.06
389.837	94.06
390.062	95.06
390.287	88.06
390.512	77.06
390.736	91.06
390.961	63.06
391.186	88.06
391.411	91.06
391.636	98.06
391.86	83.06
392.085	88.06
392.31	79.06
392.534	85.06
392.759	85.06
392.984	79.06
393.208	75.06
393.433	90.06
393.658	88.06
393.882	92.06
394.107	83.06
394.331	74.06
394.556	103.06
394.78	102.06
395.005	82.06
395.229	78.06
395.454	83.06
395.678	93.06
395.903	90.06
396.127	90.06
396.352	80.06
396.576	72.06
396.801	79.06
397.025	69.06
397.249	91.06
397.474	91.06
397.698	97.06
397.922	99.06
398.147	78.06
398.371	78.06
398.595	83.06
398.82	83.06
399.044	95.06
399.268	90.06
399.492	72.06
399.717	94.06
399.941	88.06
400.165	83.06
400.389	88.06
400.613	99.06
400.837	85.06
401.062	90.06
401.286	104.06
401.51	90.06
401.734	87.06
401.958	84.06
402.182	97.06
402.406	92.06
402.63	78.06
402.854	88.06
403.078	79.06
403.302	85.06
403.526	78.06
403.75	90.06
403.974	82.06
404.198	82.06
404.422	91.06
404.645	96.06
404.869	77.06
405.093	99.06
405.317	85.06
405.541	77.06
405.765	86.06
405.988	112.06
406.212	97.06
406.436	84.06
406.66	89.06
406.883	90.06
407.107	74.06
407.331	90.06
407.555	85.06
407.778	77.06
408.002	82.06
408.226	93.06
408.449	75.06
408.673	102.06
408.896	81.06
409.12	90.06
409.344	83.06
409.567	89.06
409.791	88.06
410.014	90.06
410.238	98.06
410.461	87.06
410.685	91.06
410.908	91.06
411.132	76.06
411.355	97.06
411.578	89.06
411.802	90.06
412.025	108.06
412.249	79.06
412.472	90.06
412.695	79.06
412.919	71.06
413.142	96.06
413.365	93.06
413.589	93.06
413.812	86.06
414.035	94.06
414.258	94.06
414.482	97.06
414.705	86.06
414.928	85.06
415.151	98.06
415.374	96.06
415.597	79.06
415.821	84.06
416.044	100.06
416.267	85.06
416.49	97.06
416.713	99.06
416.936	90.06
417.159	87.06
417.382	74.06
417.605	89.06
417.828	97.06
418.051	91.06
418.274	89.06
418.497	102.06
418.72	107.06
418.943	97.06
419.166	93.06
419.389	94.06
419.611	86.06
419.834	102.06
420.057	93.06
420.28	106.06
420.503	94.06
420.726	80.06
420.948	83.06
421.171	102.06
421.394	101.06
421.617	109.06
421.839	98.06
422.062	102.06
422.285	95.06
422.507	90.06
422.73	92.06
422.953	91.06
423.175	111.06
423.398	93.06
423.621	91.06
423.843	83.06
424.066	95.06
424.288	91.06
424.511	89.06
424.733	103.06
424.956	92.06
425.178	89.06
425.401	102.06
425.623	91.06
425.846	88.06
426.068	95.06
426.291	95.06
426.513	97.06
426.735	108.06
426.958	93.06
427.18	95.06
427.402	101.06
427.625	102.06
427.847	98.06
428.069	100.06
428.292	89.06
428.514	95.06
428.736	88.06
428.958	72.06
429.181	94.06
429.403	90.06
429.625	91.06
429.847	86.06
430.069	87.06
430.292	88.06
430.514	104.06
430.736	102.06
430.958	87.06
431.18	109.06
431.402	97.06
431.624	104.06
431.846	85.06
432.068	85.06
432.29	80.06
432.512	103.06
432.734	100.06
432.956	83.06
433.178	102.06
433.4	95.06
433.622	97.06
433.844	94.06
434.066	93.06
434.287	71.06
434.509	74.06
434.731	94.06
434.953	86.06
435.175	91.06
435.397	96.06
435.618	104.06
435.84	91.06
436.062	94.06
436.284	86.06
436.505	99.06
436.727	88.06
436.949	99.06
437.17	91.06
437.392	104.06
437.614	87.06
437.835	79.06
438.057	88.06
438.278	81.06
438.5	85.06
438.721	99.06
438.943	97.06
439.165	95.06
439.386	93.06
439.608	105.06
439.829	96.06
440.05	98.06
440.272	110.06
440.493	77.06
440.715	97.06
440.936	86.06
441.158	87.06
441.379	93.06
441.6	91.06
441.822	101.06
442.043	99.06
442.264	91.06
442.486	92.06
442.707	86.06
442.928	85.06
443.149	95.06
443.371	106.06
443.592	85.06
443.813	110.06
444.034	94.06
444.255	98.06
444.476	96.06
444.698	81.06
444.919	90.06
445.14	233.06
445.361	149.06
445.582	87.06
445.803	89.06
446.024	98.06
446.245	98.06
446.466	97.06
446.687	104.06
446.908	80.06
447.129	87.06
447.35	96.06
447.571	94.06
447.792	111.06
448.013	86.06
448.234	102.06
448.455	92.06
448.675	90.06
448.896	87.06
449.117	88.06
449.338	103.06
449.559	89.06
449.779	94.06
450	88.06
450.221	109.06
450.442	97.06
450.662	80.06
450.883	92.06
451.104	86.06
451.324	96.06
451.545	101.06
451.766	121.06
451.986	97.06
452.207	95.06
452.428	88.06
452.648	104.06
452.869	103.06
453.089	102.06
453.31	91.06
453.53	86.06
453.751	97.06
453.971	91.06
454.192	87.06
454.412	80.06
454.633	80.06
454.853	94.06
455.073	96.06
455.294	88.06
455.514	106.06
455.734	93.06
455.955	92.06
456.175	95.06
456.395	94.06
456.616	77.06
456.836	83.06
457.056	89.06
457.276	84.06
457.497	75.06
457.717	92.06
457.937	90.06
458.157	69.06
458.377	95.06
458.598	72.06
458.818	81.06
459.038	69.06
459.258	85.06
459.478	83.06
459.698	80.06
459.918	77.06
460.138	93.06
460.358	83.06
460.578	86.06
460.798	79.06
461.018	94.06
461.238	96.06
461.458	90.06
461.678	91.06
461.898	88.06
462.118	74.06
462.338	74.06
462.558	85.06
462.777	94.06
462.997	93.06
463.217	88.06
463.437	90.06
463.657	90.06
463.876	71.06
464.096	79.06
464.316	71.06
464.536	91.06
464.755	93.06
464.975	86.06
465.195	103.06
465.414	79.06
465.634	86.06
465.854	98.06
466.073	98.06
466.293	90.06
466.512	106.06
466.732	93.06
466.951	103.06
467.171	97.06
467.391	95.06
467.61	97.06
467.829	91.06
468.049	111.06
468.268	78.06
468.488	100.06
468.707	97.06
468.927	92.06
469.146	105.06
469.365	85.06
469.585	93.06
469.804	106.06
470.023	101.06
470.243	93.06
470.462	97.06
470.681	110.06
470.901	111.06
471.12	92.06
471.339	94.06
471.558	97.06
471.777	90.06
471.997	94.06
472.216	90.06
472.435	95.06
472.654	89.06
472.873	87.06
473.092	95.06
473.311	96.06
473.53	86.06
473.749	87.06
473.968	98.06
474.187	94.06
474.406	91.06
474.625	93.06
474.844	94.06
475.063	96.06
475.282	106.06
475.501	101.06
475.72	94.06
475.939	94.06
476.158	94.06
476.377	89.06
476.596	89.06
476.814	88.06
477.033	78.06
477.252	82.06
477.471	102.06
477.69	103.06
477.908	104.06
478.127	105.06
478.346	93.06
478.564	97.06
478.783	82.06
479.002	100.06
479.22	98.06
479.439	92.06
479.658	95.06
479.876	91.06
480.095	97.06
480.313	90.06
480.532	93.06
480.751	81.06
480.969	85.06
481.188	86.06
481.406	78.06
481.624	91.06
481.843	98.06
482.061	81.06
482.28	106.06
482.498	92.06
482.717	84.06
482.935	97.06
483.153	101.06
483.372	93.06
483.59	90.06
483.808	91.06
484.027	96.06
484.245	88.06
484.463	101.06
484.681	106.06
484.9	102.06
485.118	108.06
485.336	87.06
485.554	88.06
485.772	85.06
485.99	85.06
486.209	94.06
486.427	96.06
486.645	93.06
486.863	92.06
487.081	104.06
487.299	92.06
487.517	103.06
487.735	95.06
487.953	117.06
488.171	118.06
488.389	113.06
488.607	114.06
488.825	101.06
489.043	97.06
489.261	103.06
489.479	94.06
489.696	103.06
489.914	110.06
490.132	96.06
490.35	106.06
490.568	116.06
490.786	95.06
491.003	102.06
491.221	120.06
491.439	121.06
491.657	102.06
491.874	116.06
492.092	110.06
492.31	121.06
492.527	121.06
492.745	128.06
492.963	129.06
493.18	104.06
493.398	105.06
493.615	114.06
493.833	109.06
494.05	113.06
494.268	103.06
494.485	98.06
494.703	110.06
494.92	103.06
495.138	115.06
495.355	101.06
495.573	106.06
495.79	109.06
496.008	125.06
496.225	96.06
496.442	121.06
496.66	129.06
496.877	122.06
497.094	110.06
497.312	113.06
497.529	109.06
497.746	95.06
497.963	111.06
498.181	92.06
498.398	98.06
498.615	87.06
498.832	81.06
499.049	91.06
499.267	86.06
499.484	105.06
499.701	90.06
499.918	98.06
500.135	96.06
500.352	91.06
500.569	98.06
500.786	88.06
501.003	115.06
501.22	90.06
501.437	95.06
501.654	105.06
501.871	89.06
502.088	85.06
502.305	102.06
502.522	95.06
502.739	106.06
502.956	98.06
503.172	92.06
503.389	104.06
503.606	101.06
503.823	89.06
504.04	94.06
504.256	78.06
504.473	83.06
504.69	101.06
504.907	103.06
505.123	111.06
505.34	89.06
505.557	104.06
505.773	86.06
505.99	83.06
506.207	103.06
506.423	89.06
506.64	99.06
506.856	86.06
507.073	100.06
507.289	88.06
507.506	102.06
507.722	88.06
507.939	99.06
508.155	99.06
508.372	83.06
508.588	94.06
508.805	90.06
509.021	93.06
509.238	95.06
509.454	91.06
509.67	85.06
509.887	90.06
510.103	102.06
510.319	105.06
510.536	90.06
510.752	75.06
510.968	72.06
511.184	87.06
511.401	86.06
511.617	80.06
511.833	100.06
512.049	84.06
512.265	91.06
512.481	78.06
512.698	94.06
512.914	81.06
513.13	87.06
513.346	79.06
513.562	74.06
513.778	90.06
513.994	90.06
514.21	81.06
514.426	99.06
514.642	82.06
514.858	87.06
515.074	78.06
515.29	98.06
515.506	89.06
515.721	84.06
515.937	87.06
516.153	75.06
516.369	89.06
516.585	84.06
516.801	93.06
517.016	96.06
517.232	88.06
517.448	88.06
