Data from Location3.07152019.Energy5.Lamp.07192019.3%Agarose_HRD10591_15-18-10-270.txt Node
Date: Fri Jul 19 15:18:10 EDT 2019
User: cochatt
Spectrometer: HR+D1059
Trigger mode: 1
Integration Time (sec): 1.000000E-1
Scans to average: 1
Electric dark correction enabled: true
Nonlinearity correction enabled: false
Boxcar width: 0
XAxis mode: Wavelengths
Number of Pixels in Spectrum: 2048
>>>>>Begin Spectral Data<<<<<
223.165	-27.56
223.4	-27.56
223.635	-27.56
223.869	-18.56
224.104	-24.56
224.338	-16.56
224.573	-13.56
224.808	-23.56
225.042	-10.56
225.277	1.44
225.511	6.44
225.746	4.44
225.98	12.44
226.215	25.44
226.449	6.44
226.683	16.44
226.918	42.44
227.152	19.44
227.387	21.44
227.621	38.44
227.856	32.44
228.09	33.44
228.324	49.44
228.559	56.44
228.793	52.44
229.027	57.44
229.262	61.44
229.496	75.44
229.73	76.44
229.964	75.44
230.199	69.44
230.433	71.44
230.667	79.44
230.901	73.44
231.136	72.44
231.37	83.44
231.604	87.44
231.838	85.44
232.072	75.44
232.306	93.44
232.541	84.44
232.775	96.44
233.009	84.44
233.243	84.44
233.477	86.44
233.711	83.44
233.945	78.44
234.179	83.44
234.413	86.44
234.647	77.44
234.881	76.44
235.115	69.44
235.349	67.44
235.583	83.44
235.817	69.44
236.051	81.44
236.285	89.44
236.519	75.44
236.753	84.44
236.987	79.44
237.221	86.44
237.455	73.44
237.689	76.44
237.922	81.44
238.156	76.44
238.39	85.44
238.624	72.44
238.858	82.44
239.091	89.44
239.325	75.44
239.559	79.44
239.793	81.44
240.027	75.44
240.26	69.44
240.494	79.44
240.728	75.44
240.961	76.44
241.195	74.44
241.429	73.44
241.662	80.44
241.896	73.44
242.13	90.44
242.363	91.44
242.597	73.44
242.83	64.44
243.064	92.44
243.298	77.44
243.531	82.44
243.765	75.44
243.998	75.44
244.232	73.44
244.465	90.44
244.699	90.44
244.932	80.44
245.166	66.44
245.399	72.44
245.633	78.44
245.866	93.44
246.099	75.44
246.333	79.44
246.566	90.44
246.8	73.44
247.033	66.44
247.266	64.44
247.5	81.44
247.733	79.44
247.966	69.44
248.2	87.44
248.433	77.44
248.666	77.44
248.899	69.44
249.133	81.44
249.366	80.44
249.599	80.44
249.832	82.44
250.066	78.44
250.299	70.44
250.532	77.44
250.765	86.44
250.998	95.44
251.231	71.44
251.465	87.44
251.698	72.44
251.931	62.44
252.164	78.44
252.397	84.44
252.63	78.44
252.863	90.44
253.096	88.44
253.329	81.44
253.562	83.44
253.795	90.44
254.028	81.44
254.261	94.44
254.494	78.44
254.727	62.44
254.96	72.44
255.193	83.44
255.426	81.44
255.659	83.44
255.892	85.44
256.124	64.44
256.357	90.44
256.59	72.44
256.823	67.44
257.056	83.44
257.289	81.44
257.521	90.44
257.754	78.44
257.987	94.44
258.22	78.44
258.452	74.44
258.685	84.44
258.918	83.44
259.151	88.44
259.383	73.44
259.616	72.44
259.849	79.44
260.081	66.44
260.314	81.44
260.547	89.44
260.779	83.44
261.012	76.44
261.244	75.44
261.477	75.44
261.71	89.44
261.942	70.44
262.175	67.44
262.407	92.44
262.64	77.44
262.872	68.44
263.105	79.44
263.337	80.44
263.57	79.44
263.802	78.44
264.035	67.44
264.267	74.44
264.499	84.44
264.732	85.44
264.964	84.44
265.197	71.44
265.429	83.44
265.661	84.44
265.894	72.44
266.126	81.44
266.358	66.44
266.591	80.44
266.823	71.44
267.055	92.44
267.287	79.44
267.52	83.44
267.752	96.44
267.984	78.44
268.216	73.44
268.448	87.44
268.681	74.44
268.913	86.44
269.145	82.44
269.377	87.44
269.609	84.44
269.841	63.44
270.073	91.44
270.306	76.44
270.538	79.44
270.77	96.44
271.002	81.44
271.234	80.44
271.466	77.44
271.698	85.44
271.93	88.44
272.162	69.44
272.394	96.44
272.626	84.44
272.858	72.44
273.09	81.44
273.322	81.44
273.553	76.44
273.785	77.44
274.017	92.44
274.249	79.44
274.481	96.44
274.713	78.44
274.945	80.44
275.176	82.44
275.408	71.44
275.64	80.44
275.872	80.44
276.104	91.44
276.335	78.44
276.567	88.44
276.799	81.44
277.031	94.44
277.262	87.44
277.494	95.44
277.726	87.44
277.957	82.44
278.189	69.44
278.421	85.44
278.652	86.44
278.884	85.44
279.115	80.44
279.347	91.44
279.579	86.44
279.81	79.44
280.042	77.44
280.273	86.44
280.505	73.44
280.736	79.44
280.968	72.44
281.199	84.44
281.431	88.44
281.662	94.44
281.894	92.44
282.125	72.44
282.356	79.44
282.588	88.44
282.819	93.44
283.051	91.44
283.282	89.44
283.513	87.44
283.745	85.44
283.976	64.44
284.207	90.44
284.439	72.44
284.67	89.44
284.901	87.44
285.132	85.44
285.364	81.44
285.595	83.44
285.826	102.44
286.057	83.44
286.288	81.44
286.52	84.44
286.751	89.44
286.982	88.44
287.213	69.44
287.444	83.44
287.675	80.44
287.906	78.44
288.138	75.44
288.369	81.44
288.6	94.44
288.831	82.44
289.062	85.44
289.293	75.44
289.524	89.44
289.755	77.44
289.986	81.44
290.217	72.44
290.448	86.44
290.679	73.44
290.91	80.44
291.141	89.44
291.371	83.44
291.602	90.44
291.833	69.44
292.064	80.44
292.295	83.44
292.526	67.44
292.757	82.44
292.987	93.44
293.218	81.44
293.449	93.44
293.68	81.44
293.91	89.44
294.141	89.44
294.372	86.44
294.603	70.44
294.833	87.44
295.064	87.44
295.295	81.44
295.525	87.44
295.756	83.44
295.987	86.44
296.217	85.44
296.448	82.44
296.679	97.44
296.909	94.44
297.14	89.44
297.37	86.44
297.601	84.44
297.831	88.44
298.062	87.44
298.292	83.44
298.523	79.44
298.753	87.44
298.984	75.44
299.214	84.44
299.445	93.44
299.675	83.44
299.905	90.44
300.136	95.44
300.366	95.44
300.597	80.44
300.827	92.44
301.057	87.44
301.288	78.44
301.518	81.44
301.748	71.44
301.979	81.44
302.209	89.44
302.439	76.44
302.669	75.44
302.9	81.44
303.13	82.44
303.36	81.44
303.59	83.44
303.82	87.44
304.051	66.44
304.281	91.44
304.511	79.44
304.741	84.44
304.971	82.44
305.201	88.44
305.431	97.44
305.661	91.44
305.891	92.44
306.121	79.44
306.352	88.44
306.582	85.44
306.812	85.44
307.042	95.44
307.272	75.44
307.502	81.44
307.731	71.44
307.961	75.44
308.191	87.44
308.421	95.44
308.651	98.44
308.881	88.44
309.111	83.44
309.341	91.44
309.571	87.44
309.8	70.44
310.03	73.44
310.26	97.44
310.49	74.44
310.72	88.44
310.949	89.44
311.179	90.44
311.409	87.44
311.639	85.44
311.868	70.44
312.098	72.44
312.328	97.44
312.557	98.44
312.787	90.44
313.017	97.44
313.246	81.44
313.476	88.44
313.706	94.44
313.935	87.44
314.165	71.44
314.394	61.44
314.624	83.44
314.853	95.44
315.083	94.44
315.312	84.44
315.542	86.44
315.771	86.44
316.001	75.44
316.23	85.44
316.46	77.44
316.689	101.44
316.919	107.44
317.148	91.44
317.377	82.44
317.607	78.44
317.836	87.44
318.065	83.44
318.295	80.44
318.524	78.44
318.753	79.44
318.983	81.44
319.212	77.44
319.441	87.44
319.67	85.44
319.9	95.44
320.129	88.44
320.358	84.44
320.587	79.44
320.816	73.44
321.046	75.44
321.275	86.44
321.504	86.44
321.733	78.44
321.962	93.44
322.191	84.44
322.42	76.44
322.649	94.44
322.878	80.44
323.108	75.44
323.337	76.44
323.566	81.44
323.795	87.44
324.024	74.44
324.253	82.44
324.482	82.44
324.71	84.44
324.939	85.44
325.168	94.44
325.397	86.44
325.626	83.44
325.855	93.44
326.084	85.44
326.313	81.44
326.542	71.44
326.77	91.44
326.999	95.44
327.228	85.44
327.457	78.44
327.686	93.44
327.914	102.44
328.143	97.44
328.372	83.44
328.6	87.44
328.829	78.44
329.058	79.44
329.287	71.44
329.515	70.44
329.744	87.44
329.972	62.44
330.201	83.44
330.43	97.44
330.658	83.44
330.887	86.44
331.115	73.44
331.344	82.44
331.572	93.44
331.801	80.44
332.03	88.44
332.258	73.44
332.486	87.44
332.715	76.44
332.943	77.44
333.172	82.44
333.4	94.44
333.629	97.44
333.857	71.44
334.085	88.44
334.314	78.44
334.542	91.44
334.771	84.44
334.999	84.44
335.227	89.44
335.455	99.44
335.684	96.44
335.912	103.44
336.14	80.44
336.369	77.44
336.597	105.44
336.825	80.44
337.053	78.44
337.281	80.44
337.51	81.44
337.738	83.44
337.966	83.44
338.194	94.44
338.422	81.44
338.65	84.44
338.878	91.44
339.106	85.44
339.334	90.44
339.562	89.44
339.79	78.44
340.018	87.44
340.246	88.44
340.474	83.44
340.702	86.44
340.93	86.44
341.158	81.44
341.386	70.44
341.614	79.44
341.842	89.44
342.07	88.44
342.298	91.44
342.526	97.44
342.754	72.44
342.981	73.44
343.209	79.44
343.437	102.44
343.665	66.44
343.893	82.44
344.12	84.44
344.348	82.44
344.576	76.44
344.804	71.44
345.031	93.44
345.259	81.44
345.487	85.44
345.714	93.44
345.942	80.44
346.17	93.44
346.397	86.44
346.625	82.44
346.853	88.44
347.08	65.44
347.308	80.44
347.535	72.44
347.763	82.44
347.99	84.44
348.218	87.44
348.445	80.44
348.673	74.44
348.9	82.44
349.128	90.44
349.355	84.44
349.583	83.44
349.81	70.44
350.037	95.44
350.265	89.44
350.492	87.44
350.72	91.44
350.947	80.44
351.174	91.44
351.402	93.44
351.629	95.44
351.856	88.44
352.083	81.44
352.311	97.44
352.538	77.44
352.765	83.44
352.992	79.44
353.22	83.44
353.447	74.44
353.674	80.44
353.901	93.44
354.128	75.44
354.355	86.44
354.583	82.44
354.81	73.44
355.037	84.44
355.264	85.44
355.491	88.44
355.718	75.44
355.945	97.44
356.172	92.44
356.399	84.44
356.626	81.44
356.853	84.44
357.08	85.44
357.307	85.44
357.534	87.44
357.761	79.44
357.988	95.44
358.215	89.44
358.441	83.44
358.668	84.44
358.895	87.44
359.122	90.44
359.349	83.44
359.576	77.44
359.802	73.44
360.029	93.44
360.256	91.44
360.483	82.44
360.709	85.44
360.936	95.44
361.163	73.44
361.39	72.44
361.616	84.44
361.843	81.44
362.07	89.44
362.296	88.44
362.523	79.44
362.749	83.44
362.976	92.44
363.203	86.44
363.429	78.44
363.656	73.44
363.882	82.44
364.109	80.44
364.335	71.44
364.562	77.44
364.788	78.44
365.015	85.44
365.241	83.44
365.468	91.44
365.694	86.44
365.92	86.44
366.147	79.44
366.373	75.44
366.599	71.44
366.826	76.44
367.052	81.44
367.278	93.44
367.505	83.44
367.731	97.44
367.957	75.44
368.184	93.44
368.41	88.44
368.636	93.44
368.862	83.44
369.089	84.44
369.315	86.44
369.541	86.44
369.767	91.44
369.993	84.44
370.219	90.44
370.445	84.44
370.672	106.44
370.898	84.44
371.124	82.44
371.35	97.44
371.576	88.44
371.802	85.44
372.028	86.44
372.254	86.44
372.48	84.44
372.706	82.44
372.932	71.44
373.158	88.44
373.384	85.44
373.61	87.44
373.835	87.44
374.061	87.44
374.287	77.44
374.513	83.44
374.739	83.44
374.965	86.44
375.191	85.44
375.416	78.44
375.642	70.44
375.868	79.44
376.094	105.44
376.319	76.44
376.545	72.44
376.771	88.44
376.997	79.44
377.222	88.44
377.448	86.44
377.674	76.44
377.899	93.44
378.125	74.44
378.35	101.44
378.576	85.44
378.802	96.44
379.027	98.44
379.253	80.44
379.478	79.44
379.704	86.44
379.929	74.44
380.155	75.44
380.38	87.44
380.606	85.44
380.831	75.44
381.057	87.44
381.282	94.44
381.507	82.44
381.733	88.44
381.958	89.44
382.184	87.44
382.409	84.44
382.634	88.44
382.86	81.44
383.085	88.44
383.31	89.44
383.535	98.44
383.761	83.44
383.986	97.44
384.211	77.44
384.436	91.44
384.662	75.44
384.887	95.44
385.112	80.44
385.337	77.44
385.562	88.44
385.787	97.44
386.013	97.44
386.238	86.44
386.463	85.44
386.688	79.44
386.913	75.44
387.138	77.44
387.363	75.44
387.588	86.44
387.813	72.44
388.038	74.44
388.263	86.44
388.488	83.44
388.713	84.44
388.938	78.44
389.163	83.44
389.387	75.44
389.612	79.44
389.837	90.44
390.062	86.44
390.287	84.44
390.512	90.44
390.736	76.44
390.961	88.44
391.186	88.44
391.411	83.44
391.636	99.44
391.86	83.44
392.085	91.44
392.31	88.44
392.534	93.44
392.759	84.44
392.984	91.44
393.208	75.44
393.433	79.44
393.658	73.44
393.882	83.44
394.107	78.44
394.331	85.44
394.556	87.44
394.78	96.44
395.005	81.44
395.229	82.44
395.454	83.44
395.678	87.44
395.903	80.44
396.127	82.44
396.352	81.44
396.576	98.44
396.801	77.44
397.025	93.44
397.249	65.44
397.474	85.44
397.698	85.44
397.922	80.44
398.147	80.44
398.371	100.44
398.595	95.44
398.82	78.44
399.044	93.44
399.268	71.44
399.492	90.44
399.717	76.44
399.941	89.44
400.165	88.44
400.389	82.44
400.613	85.44
400.837	85.44
401.062	89.44
401.286	83.44
401.51	86.44
401.734	83.44
401.958	96.44
402.182	81.44
402.406	92.44
402.63	94.44
402.854	68.44
403.078	90.44
403.302	86.44
403.526	95.44
403.75	93.44
403.974	87.44
404.198	83.44
404.422	86.44
404.645	83.44
404.869	84.44
405.093	92.44
405.317	83.44
405.541	93.44
405.765	103.44
405.988	101.44
406.212	91.44
406.436	94.44
406.66	95.44
406.883	95.44
407.107	80.44
407.331	86.44
407.555	91.44
407.778	76.44
408.002	105.44
408.226	102.44
408.449	89.44
408.673	86.44
408.896	85.44
409.12	88.44
409.344	105.44
409.567	94.44
409.791	87.44
410.014	84.44
410.238	84.44
410.461	103.44
410.685	88.44
410.908	90.44
411.132	90.44
411.355	91.44
411.578	92.44
411.802	78.44
412.025	93.44
412.249	97.44
412.472	86.44
412.695	90.44
412.919	88.44
413.142	89.44
413.365	82.44
413.589	74.44
413.812	93.44
414.035	97.44
414.258	95.44
414.482	76.44
414.705	105.44
414.928	92.44
415.151	94.44
415.374	86.44
415.597	95.44
415.821	92.44
416.044	79.44
416.267	83.44
416.49	86.44
416.713	98.44
416.936	99.44
417.159	90.44
417.382	83.44
417.605	83.44
417.828	93.44
418.051	67.44
418.274	100.44
418.497	93.44
418.72	88.44
418.943	111.44
419.166	87.44
419.389	109.44
419.611	90.44
419.834	98.44
420.057	92.44
420.28	98.44
420.503	85.44
420.726	96.44
420.948	93.44
421.171	91.44
421.394	92.44
421.617	94.44
421.839	100.44
422.062	99.44
422.285	106.44
422.507	101.44
422.73	99.44
422.953	98.44
423.175	93.44
423.398	97.44
423.621	85.44
423.843	101.44
424.066	94.44
424.288	100.44
424.511	107.44
424.733	99.44
424.956	97.44
425.178	100.44
425.401	95.44
425.623	98.44
425.846	103.44
426.068	101.44
426.291	96.44
426.513	101.44
426.735	85.44
426.958	107.44
427.18	80.44
427.402	94.44
427.625	86.44
427.847	94.44
428.069	96.44
428.292	94.44
428.514	96.44
428.736	99.44
428.958	81.44
429.181	90.44
429.403	102.44
429.625	105.44
429.847	94.44
430.069	91.44
430.292	102.44
430.514	81.44
430.736	96.44
430.958	83.44
431.18	77.44
431.402	86.44
431.624	80.44
431.846	81.44
432.068	83.44
432.29	82.44
432.512	79.44
432.734	96.44
432.956	97.44
433.178	95.44
433.4	96.44
433.622	92.44
433.844	98.44
434.066	84.44
434.287	92.44
434.509	93.44
434.731	98.44
434.953	91.44
435.175	84.44
435.397	75.44
435.618	98.44
435.84	95.44
436.062	88.44
436.284	85.44
436.505	103.44
436.727	85.44
436.949	78.44
437.17	90.44
437.392	95.44
437.614	83.44
437.835	85.44
438.057	96.44
438.278	83.44
438.5	81.44
438.721	80.44
438.943	99.44
439.165	85.44
439.386	96.44
439.608	98.44
439.829	86.44
440.05	94.44
440.272	102.44
440.493	104.44
440.715	85.44
440.936	116.44
441.158	97.44
441.379	93.44
441.6	106.44
441.822	86.44
442.043	92.44
442.264	105.44
442.486	85.44
442.707	98.44
442.928	107.44
443.149	99.44
443.371	105.44
443.592	97.44
443.813	77.44
444.034	95.44
444.255	82.44
444.476	83.44
444.698	97.44
444.919	101.44
445.14	170.44
445.361	143.44
445.582	93.44
445.803	98.44
446.024	91.44
446.245	98.44
446.466	107.44
446.687	99.44
446.908	101.44
447.129	106.44
447.35	97.44
447.571	105.44
447.792	86.44
448.013	97.44
448.234	92.44
448.455	89.44
448.675	90.44
448.896	79.44
449.117	106.44
449.338	100.44
449.559	88.44
449.779	98.44
450	90.44
450.221	92.44
450.442	99.44
450.662	94.44
450.883	92.44
451.104	109.44
451.324	84.44
451.545	95.44
451.766	101.44
451.986	88.44
452.207	85.44
452.428	99.44
452.648	91.44
452.869	88.44
453.089	98.44
453.31	86.44
453.53	90.44
453.751	93.44
453.971	81.44
454.192	94.44
454.412	78.44
454.633	97.44
454.853	111.44
455.073	86.44
455.294	101.44
455.514	81.44
455.734	98.44
455.955	97.44
456.175	97.44
456.395	94.44
456.616	83.44
456.836	90.44
457.056	89.44
457.276	79.44
457.497	89.44
457.717	73.44
457.937	83.44
458.157	70.44
458.377	77.44
458.598	90.44
458.818	88.44
459.038	69.44
459.258	74.44
459.478	66.44
459.698	87.44
459.918	89.44
460.138	93.44
460.358	79.44
460.578	90.44
460.798	112.44
461.018	95.44
461.238	96.44
461.458	96.44
461.678	89.44
461.898	102.44
462.118	90.44
462.338	88.44
462.558	91.44
462.777	94.44
462.997	89.44
463.217	83.44
463.437	80.44
463.657	89.44
463.876	93.44
464.096	82.44
464.316	95.44
464.536	97.44
464.755	93.44
464.975	97.44
465.195	95.44
465.414	85.44
465.634	95.44
465.854	85.44
466.073	97.44
466.293	101.44
466.512	83.44
466.732	90.44
466.951	93.44
467.171	100.44
467.391	100.44
467.61	95.44
467.829	92.44
468.049	99.44
468.268	99.44
468.488	94.44
468.707	95.44
468.927	88.44
469.146	89.44
469.365	98.44
469.585	102.44
469.804	93.44
470.023	108.44
470.243	88.44
470.462	83.44
470.681	96.44
470.901	89.44
471.12	86.44
471.339	103.44
471.558	89.44
471.777	86.44
471.997	86.44
472.216	87.44
472.435	99.44
472.654	105.44
472.873	102.44
473.092	93.44
473.311	81.44
473.53	89.44
473.749	98.44
473.968	102.44
474.187	94.44
474.406	89.44
474.625	97.44
474.844	100.44
475.063	103.44
475.282	97.44
475.501	86.44
475.72	92.44
475.939	86.44
476.158	95.44
476.377	98.44
476.596	69.44
476.814	91.44
477.033	70.44
477.252	80.44
477.471	102.44
477.69	105.44
477.908	95.44
478.127	109.44
478.346	93.44
478.564	89.44
478.783	86.44
479.002	81.44
479.22	82.44
479.439	101.44
479.658	96.44
479.876	88.44
480.095	78.44
480.313	84.44
480.532	83.44
480.751	96.44
480.969	89.44
481.188	87.44
481.406	84.44
481.624	82.44
481.843	80.44
482.061	69.44
482.28	96.44
482.498	110.44
482.717	90.44
482.935	90.44
483.153	111.44
483.372	101.44
483.59	100.44
483.808	102.44
484.027	98.44
484.245	106.44
484.463	102.44
484.681	105.44
484.9	97.44
485.118	93.44
485.336	92.44
485.554	85.44
485.772	77.44
485.99	88.44
486.209	90.44
486.427	93.44
486.645	89.44
486.863	101.44
487.081	91.44
487.299	84.44
487.517	95.44
487.735	123.44
487.953	98.44
488.171	109.44
488.389	123.44
488.607	119.44
488.825	101.44
489.043	111.44
489.261	95.44
489.479	95.44
489.696	91.44
489.914	95.44
490.132	90.44
490.35	104.44
490.568	104.44
490.786	98.44
491.003	103.44
491.221	103.44
491.439	102.44
491.657	118.44
491.874	112.44
492.092	110.44
492.31	117.44
492.527	106.44
492.745	113.44
492.963	118.44
493.18	112.44
493.398	121.44
493.615	100.44
493.833	114.44
494.05	99.44
494.268	109.44
494.485	118.44
494.703	103.44
494.92	103.44
495.138	113.44
495.355	109.44
495.573	106.44
495.79	111.44
496.008	99.44
496.225	92.44
496.442	116.44
496.66	117.44
496.877	116.44
497.094	115.44
497.312	98.44
497.529	105.44
497.746	106.44
497.963	100.44
498.181	99.44
498.398	85.44
498.615	94.44
498.832	83.44
499.049	102.44
499.267	89.44
499.484	98.44
499.701	85.44
499.918	97.44
500.135	107.44
500.352	95.44
500.569	94.44
500.786	98.44
501.003	113.44
501.22	102.44
501.437	114.44
501.654	99.44
501.871	110.44
502.088	97.44
502.305	96.44
502.522	81.44
502.739	103.44
502.956	103.44
503.172	85.44
503.389	90.44
503.606	93.44
503.823	92.44
504.04	100.44
504.256	110.44
504.473	87.44
504.69	104.44
504.907	99.44
505.123	97.44
505.34	104.44
505.557	102.44
505.773	89.44
505.99	105.44
506.207	86.44
506.423	94.44
506.64	86.44
506.856	74.44
507.073	88.44
507.289	112.44
507.506	86.44
507.722	85.44
507.939	94.44
508.155	93.44
508.372	84.44
508.588	90.44
508.805	75.44
509.021	80.44
509.238	94.44
509.454	86.44
509.67	71.44
509.887	89.44
510.103	83.44
510.319	83.44
510.536	79.44
510.752	84.44
510.968	92.44
511.184	78.44
511.401	89.44
511.617	75.44
511.833	82.44
512.049	88.44
512.265	92.44
512.481	84.44
512.698	78.44
512.914	75.44
513.13	66.44
513.346	85.44
513.562	79.44
513.778	79.44
513.994	82.44
514.21	88.44
514.426	94.44
514.642	81.44
514.858	79.44
515.074	64.44
515.29	72.44
515.506	84.44
515.721	82.44
515.937	79.44
516.153	86.44
516.369	71.44
516.585	84.44
516.801	74.44
517.016	77.44
517.232	86.44
517.448	87.44
517.664	77.44
