Data from Location3.07152019.Energy5.Lamp.07192019.3%Agarose_HRD10591_15-18-03-269.txt Node
Date: Fri Jul 19 15:18:03 EDT 2019
User: cochatt
Spectrometer: HR+D1059
Trigger mode: 1
Integration Time (sec): 1.000000E-1
Scans to average: 1
Electric dark correction enabled: true
Nonlinearity correction enabled: false
Boxcar width: 0
XAxis mode: Wavelengths
Number of Pixels in Spectrum: 2048
>>>>>Begin Spectral Data<<<<<
223.165	-26.19
223.4	-26.19
223.635	-26.19
223.869	-10.19
224.104	-7.19
224.338	-25.19
224.573	-10.19
224.808	-6.19
225.042	1.81
225.277	-0.19
225.511	-8.19
225.746	-3.19
225.98	10.81
226.215	14.81
226.449	10.81
226.683	11.81
226.918	22.81
227.152	23.81
227.387	23.81
227.621	34.81
227.856	49.81
228.09	49.81
228.324	44.81
228.559	62.81
228.793	52.81
229.027	57.81
229.262	58.81
229.496	59.81
229.73	74.81
229.964	78.81
230.199	75.81
230.433	73.81
230.667	74.81
230.901	76.81
231.136	76.81
231.37	62.81
231.604	76.81
231.838	79.81
232.072	84.81
232.306	77.81
232.541	76.81
232.775	91.81
233.009	74.81
233.243	84.81
233.477	71.81
233.711	79.81
233.945	75.81
234.179	69.81
234.413	81.81
234.647	75.81
234.881	68.81
235.115	77.81
235.349	79.81
235.583	80.81
235.817	82.81
236.051	84.81
236.285	68.81
236.519	80.81
236.753	79.81
236.987	69.81
237.221	72.81
237.455	78.81
237.689	82.81
237.922	73.81
238.156	61.81
238.39	75.81
238.624	79.81
238.858	94.81
239.091	71.81
239.325	59.81
239.559	82.81
239.793	65.81
240.027	88.81
240.26	89.81
240.494	63.81
240.728	81.81
240.961	80.81
241.195	73.81
241.429	70.81
241.662	56.81
241.896	80.81
242.13	74.81
242.363	81.81
242.597	68.81
242.83	65.81
243.064	77.81
243.298	71.81
243.531	79.81
243.765	79.81
243.998	75.81
244.232	65.81
244.465	81.81
244.699	87.81
244.932	81.81
245.166	85.81
245.399	79.81
245.633	65.81
245.866	57.81
246.099	84.81
246.333	85.81
246.566	94.81
246.8	70.81
247.033	70.81
247.266	87.81
247.5	77.81
247.733	82.81
247.966	88.81
248.2	82.81
248.433	81.81
248.666	74.81
248.899	73.81
249.133	80.81
249.366	85.81
249.599	89.81
249.832	80.81
250.066	92.81
250.299	74.81
250.532	73.81
250.765	79.81
250.998	85.81
251.231	89.81
251.465	79.81
251.698	64.81
251.931	75.81
252.164	56.81
252.397	68.81
252.63	71.81
252.863	87.81
253.096	81.81
253.329	86.81
253.562	73.81
253.795	75.81
254.028	83.81
254.261	77.81
254.494	72.81
254.727	86.81
254.96	87.81
255.193	90.81
255.426	73.81
255.659	85.81
255.892	94.81
256.124	77.81
256.357	84.81
256.59	72.81
256.823	82.81
257.056	82.81
257.289	84.81
257.521	74.81
257.754	65.81
257.987	73.81
258.22	85.81
258.452	82.81
258.685	80.81
258.918	83.81
259.151	82.81
259.383	91.81
259.616	81.81
259.849	77.81
260.081	67.81
260.314	87.81
260.547	95.81
260.779	73.81
261.012	76.81
261.244	77.81
261.477	84.81
261.71	81.81
261.942	74.81
262.175	81.81
262.407	81.81
262.64	99.81
262.872	84.81
263.105	90.81
263.337	86.81
263.57	88.81
263.802	84.81
264.035	81.81
264.267	85.81
264.499	88.81
264.732	75.81
264.964	95.81
265.197	73.81
265.429	85.81
265.661	74.81
265.894	94.81
266.126	79.81
266.358	67.81
266.591	82.81
266.823	92.81
267.055	83.81
267.287	87.81
267.52	85.81
267.752	72.81
267.984	84.81
268.216	81.81
268.448	79.81
268.681	69.81
268.913	83.81
269.145	87.81
269.377	92.81
269.609	91.81
269.841	83.81
270.073	81.81
270.306	81.81
270.538	76.81
270.77	74.81
271.002	74.81
271.234	82.81
271.466	79.81
271.698	98.81
271.93	97.81
272.162	86.81
272.394	90.81
272.626	90.81
272.858	82.81
273.09	79.81
273.322	86.81
273.553	76.81
273.785	86.81
274.017	91.81
274.249	86.81
274.481	74.81
274.713	79.81
274.945	81.81
275.176	76.81
275.408	80.81
275.64	85.81
275.872	88.81
276.104	74.81
276.335	67.81
276.567	87.81
276.799	90.81
277.031	87.81
277.262	68.81
277.494	81.81
277.726	71.81
277.957	88.81
278.189	91.81
278.421	86.81
278.652	73.81
278.884	74.81
279.115	83.81
279.347	75.81
279.579	81.81
279.81	79.81
280.042	85.81
280.273	77.81
280.505	88.81
280.736	82.81
280.968	67.81
281.199	74.81
281.431	79.81
281.662	84.81
281.894	81.81
282.125	79.81
282.356	84.81
282.588	77.81
282.819	105.81
283.051	86.81
283.282	83.81
283.513	87.81
283.745	84.81
283.976	70.81
284.207	83.81
284.439	92.81
284.67	79.81
284.901	93.81
285.132	73.81
285.364	79.81
285.595	79.81
285.826	78.81
286.057	87.81
286.288	75.81
286.52	77.81
286.751	72.81
286.982	80.81
287.213	91.81
287.444	93.81
287.675	74.81
287.906	80.81
288.138	76.81
288.369	74.81
288.6	87.81
288.831	81.81
289.062	80.81
289.293	86.81
289.524	86.81
289.755	83.81
289.986	82.81
290.217	64.81
290.448	91.81
290.679	91.81
290.91	88.81
291.141	87.81
291.371	99.81
291.602	86.81
291.833	65.81
292.064	77.81
292.295	74.81
292.526	78.81
292.757	90.81
292.987	85.81
293.218	93.81
293.449	74.81
293.68	70.81
293.91	82.81
294.141	79.81
294.372	94.81
294.603	63.81
294.833	94.81
295.064	88.81
295.295	88.81
295.525	101.81
295.756	73.81
295.987	91.81
296.217	83.81
296.448	86.81
296.679	83.81
296.909	90.81
297.14	83.81
297.37	74.81
297.601	87.81
297.831	74.81
298.062	80.81
298.292	84.81
298.523	88.81
298.753	89.81
298.984	84.81
299.214	93.81
299.445	87.81
299.675	87.81
299.905	76.81
300.136	82.81
300.366	92.81
300.597	90.81
300.827	90.81
301.057	71.81
301.288	70.81
301.518	87.81
301.748	86.81
301.979	83.81
302.209	78.81
302.439	82.81
302.669	79.81
302.9	85.81
303.13	90.81
303.36	85.81
303.59	89.81
303.82	86.81
304.051	90.81
304.281	88.81
304.511	92.81
304.741	94.81
304.971	82.81
305.201	73.81
305.431	74.81
305.661	88.81
305.891	87.81
306.121	81.81
306.352	77.81
306.582	94.81
306.812	75.81
307.042	75.81
307.272	82.81
307.502	86.81
307.731	79.81
307.961	102.81
308.191	86.81
308.421	90.81
308.651	83.81
308.881	95.81
309.111	78.81
309.341	93.81
309.571	89.81
309.8	103.81
310.03	84.81
310.26	90.81
310.49	88.81
310.72	84.81
310.949	70.81
311.179	82.81
311.409	70.81
311.639	79.81
311.868	79.81
312.098	79.81
312.328	85.81
312.557	89.81
312.787	78.81
313.017	90.81
313.246	85.81
313.476	87.81
313.706	89.81
313.935	78.81
314.165	94.81
314.394	74.81
314.624	97.81
314.853	88.81
315.083	86.81
315.312	85.81
315.542	87.81
315.771	101.81
316.001	74.81
316.23	84.81
316.46	78.81
316.689	73.81
316.919	70.81
317.148	92.81
317.377	87.81
317.607	74.81
317.836	84.81
318.065	83.81
318.295	81.81
318.524	88.81
318.753	66.81
318.983	88.81
319.212	92.81
319.441	78.81
319.67	87.81
319.9	84.81
320.129	71.81
320.358	80.81
320.587	76.81
320.816	67.81
321.046	71.81
321.275	90.81
321.504	72.81
321.733	92.81
321.962	76.81
322.191	92.81
322.42	102.81
322.649	91.81
322.878	78.81
323.108	89.81
323.337	90.81
323.566	80.81
323.795	94.81
324.024	92.81
324.253	89.81
324.482	67.81
324.71	87.81
324.939	75.81
325.168	104.81
325.397	86.81
325.626	72.81
325.855	88.81
326.084	93.81
326.313	85.81
326.542	93.81
326.77	87.81
326.999	90.81
327.228	84.81
327.457	74.81
327.686	93.81
327.914	83.81
328.143	76.81
328.372	83.81
328.6	77.81
328.829	75.81
329.058	98.81
329.287	75.81
329.515	79.81
329.744	78.81
329.972	73.81
330.201	86.81
330.43	86.81
330.658	81.81
330.887	78.81
331.115	83.81
331.344	79.81
331.572	87.81
331.801	74.81
332.03	89.81
332.258	82.81
332.486	74.81
332.715	69.81
332.943	95.81
333.172	75.81
333.4	87.81
333.629	79.81
333.857	83.81
334.085	81.81
334.314	83.81
334.542	65.81
334.771	74.81
334.999	93.81
335.227	81.81
335.455	88.81
335.684	99.81
335.912	98.81
336.14	79.81
336.369	85.81
336.597	80.81
336.825	89.81
337.053	91.81
337.281	83.81
337.51	87.81
337.738	79.81
337.966	89.81
338.194	97.81
338.422	96.81
338.65	88.81
338.878	90.81
339.106	85.81
339.334	87.81
339.562	93.81
339.79	93.81
340.018	96.81
340.246	78.81
340.474	84.81
340.702	78.81
340.93	86.81
341.158	87.81
341.386	84.81
341.614	81.81
341.842	88.81
342.07	72.81
342.298	74.81
342.526	78.81
342.754	90.81
342.981	80.81
343.209	66.81
343.437	86.81
343.665	84.81
343.893	83.81
344.12	93.81
344.348	85.81
344.576	85.81
344.804	95.81
345.031	89.81
345.259	94.81
345.487	74.81
345.714	84.81
345.942	78.81
346.17	79.81
346.397	85.81
346.625	73.81
346.853	75.81
347.08	90.81
347.308	75.81
347.535	86.81
347.763	91.81
347.99	78.81
348.218	83.81
348.445	80.81
348.673	78.81
348.9	96.81
349.128	94.81
349.355	90.81
349.583	84.81
349.81	76.81
350.037	77.81
350.265	98.81
350.492	85.81
350.72	85.81
350.947	74.81
351.174	68.81
351.402	93.81
351.629	65.81
351.856	74.81
352.083	81.81
352.311	96.81
352.538	96.81
352.765	70.81
352.992	69.81
353.22	87.81
353.447	81.81
353.674	85.81
353.901	76.81
354.128	86.81
354.355	81.81
354.583	94.81
354.81	72.81
355.037	89.81
355.264	81.81
355.491	80.81
355.718	81.81
355.945	78.81
356.172	73.81
356.399	85.81
356.626	82.81
356.853	79.81
357.08	89.81
357.307	76.81
357.534	79.81
357.761	80.81
357.988	91.81
358.215	83.81
358.441	74.81
358.668	79.81
358.895	73.81
359.122	83.81
359.349	83.81
359.576	79.81
359.802	79.81
360.029	83.81
360.256	83.81
360.483	93.81
360.709	88.81
360.936	90.81
361.163	79.81
361.39	72.81
361.616	73.81
361.843	86.81
362.07	87.81
362.296	91.81
362.523	87.81
362.749	76.81
362.976	68.81
363.203	88.81
363.429	100.81
363.656	86.81
363.882	80.81
364.109	86.81
364.335	80.81
364.562	82.81
364.788	62.81
365.015	86.81
365.241	75.81
365.468	74.81
365.694	78.81
365.92	98.81
366.147	85.81
366.373	70.81
366.599	77.81
366.826	69.81
367.052	85.81
367.278	81.81
367.505	89.81
367.731	85.81
367.957	84.81
368.184	85.81
368.41	74.81
368.636	76.81
368.862	72.81
369.089	80.81
369.315	84.81
369.541	75.81
369.767	92.81
369.993	71.81
370.219	95.81
370.445	77.81
370.672	81.81
370.898	89.81
371.124	80.81
371.35	91.81
371.576	89.81
371.802	83.81
372.028	84.81
372.254	100.81
372.48	80.81
372.706	85.81
372.932	81.81
373.158	69.81
373.384	87.81
373.61	85.81
373.835	72.81
374.061	78.81
374.287	73.81
374.513	89.81
374.739	79.81
374.965	91.81
375.191	90.81
375.416	92.81
375.642	79.81
375.868	93.81
376.094	85.81
376.319	66.81
376.545	89.81
376.771	81.81
376.997	73.81
377.222	90.81
377.448	92.81
377.674	84.81
377.899	79.81
378.125	70.81
378.35	77.81
378.576	77.81
378.802	88.81
379.027	84.81
379.253	79.81
379.478	73.81
379.704	81.81
379.929	78.81
380.155	90.81
380.38	85.81
380.606	89.81
380.831	70.81
381.057	83.81
381.282	89.81
381.507	90.81
381.733	87.81
381.958	76.81
382.184	91.81
382.409	88.81
382.634	90.81
382.86	85.81
383.085	96.81
383.31	72.81
383.535	93.81
383.761	95.81
383.986	84.81
384.211	72.81
384.436	69.81
384.662	75.81
384.887	88.81
385.112	104.81
385.337	87.81
385.562	99.81
385.787	81.81
386.013	87.81
386.238	75.81
386.463	86.81
386.688	88.81
386.913	78.81
387.138	73.81
387.363	68.81
387.588	72.81
387.813	87.81
388.038	85.81
388.263	81.81
388.488	74.81
388.713	76.81
388.938	82.81
389.163	87.81
389.387	92.81
389.612	95.81
389.837	80.81
390.062	85.81
390.287	89.81
390.512	95.81
390.736	92.81
390.961	88.81
391.186	84.81
391.411	88.81
391.636	87.81
391.86	80.81
392.085	76.81
392.31	81.81
392.534	93.81
392.759	88.81
392.984	80.81
393.208	75.81
393.433	82.81
393.658	98.81
393.882	90.81
394.107	89.81
394.331	78.81
394.556	75.81
394.78	72.81
395.005	67.81
395.229	85.81
395.454	84.81
395.678	73.81
395.903	78.81
396.127	104.81
396.352	84.81
396.576	77.81
396.801	83.81
397.025	77.81
397.249	89.81
397.474	98.81
397.698	69.81
397.922	92.81
398.147	83.81
398.371	74.81
398.595	95.81
398.82	93.81
399.044	67.81
399.268	85.81
399.492	73.81
399.717	82.81
399.941	93.81
400.165	72.81
400.389	76.81
400.613	89.81
400.837	90.81
401.062	88.81
401.286	87.81
401.51	95.81
401.734	78.81
401.958	75.81
402.182	87.81
402.406	89.81
402.63	105.81
402.854	74.81
403.078	96.81
403.302	78.81
403.526	81.81
403.75	84.81
403.974	82.81
404.198	90.81
404.422	97.81
404.645	90.81
404.869	78.81
405.093	94.81
405.317	92.81
405.541	83.81
405.765	97.81
405.988	86.81
406.212	89.81
406.436	85.81
406.66	86.81
406.883	110.81
407.107	86.81
407.331	99.81
407.555	81.81
407.778	68.81
408.002	105.81
408.226	83.81
408.449	91.81
408.673	95.81
408.896	85.81
409.12	88.81
409.344	86.81
409.567	96.81
409.791	91.81
410.014	86.81
410.238	83.81
410.461	70.81
410.685	88.81
410.908	88.81
411.132	91.81
411.355	86.81
411.578	96.81
411.802	75.81
412.025	87.81
412.249	98.81
412.472	89.81
412.695	88.81
412.919	89.81
413.142	94.81
413.365	81.81
413.589	92.81
413.812	84.81
414.035	80.81
414.258	97.81
414.482	99.81
414.705	80.81
414.928	87.81
415.151	87.81
415.374	80.81
415.597	78.81
415.821	93.81
416.044	105.81
416.267	91.81
416.49	89.81
416.713	80.81
416.936	85.81
417.159	94.81
417.382	91.81
417.605	86.81
417.828	96.81
418.051	83.81
418.274	94.81
418.497	82.81
418.72	101.81
418.943	96.81
419.166	106.81
419.389	87.81
419.611	74.81
419.834	75.81
420.057	89.81
420.28	90.81
420.503	90.81
420.726	86.81
420.948	105.81
421.171	98.81
421.394	89.81
421.617	97.81
421.839	88.81
422.062	83.81
422.285	90.81
422.507	100.81
422.73	91.81
422.953	91.81
423.175	97.81
423.398	75.81
423.621	95.81
423.843	81.81
424.066	93.81
424.288	94.81
424.511	93.81
424.733	95.81
424.956	86.81
425.178	87.81
425.401	105.81
425.623	81.81
425.846	101.81
426.068	87.81
426.291	91.81
426.513	68.81
426.735	85.81
426.958	98.81
427.18	84.81
427.402	88.81
427.625	83.81
427.847	89.81
428.069	95.81
428.292	72.81
428.514	85.81
428.736	91.81
428.958	106.81
429.181	89.81
429.403	101.81
429.625	83.81
429.847	90.81
430.069	105.81
430.292	96.81
430.514	91.81
430.736	90.81
430.958	94.81
431.18	82.81
431.402	78.81
431.624	87.81
431.846	95.81
432.068	75.81
432.29	94.81
432.512	85.81
432.734	78.81
432.956	101.81
433.178	86.81
433.4	102.81
433.622	98.81
433.844	111.81
434.066	96.81
434.287	89.81
434.509	78.81
434.731	64.81
434.953	75.81
435.175	89.81
435.397	103.81
435.618	75.81
435.84	77.81
436.062	86.81
436.284	94.81
436.505	88.81
436.727	81.81
436.949	104.81
437.17	82.81
437.392	95.81
437.614	85.81
437.835	89.81
438.057	88.81
438.278	84.81
438.5	89.81
438.721	99.81
438.943	88.81
439.165	106.81
439.386	93.81
439.608	95.81
439.829	81.81
440.05	89.81
440.272	103.81
440.493	94.81
440.715	86.81
440.936	92.81
441.158	80.81
441.379	93.81
441.6	84.81
441.822	95.81
442.043	92.81
442.264	109.81
442.486	86.81
442.707	84.81
442.928	91.81
443.149	97.81
443.371	88.81
443.592	89.81
443.813	103.81
444.034	81.81
444.255	103.81
444.476	82.81
444.698	93.81
444.919	93.81
445.14	194.81
445.361	139.81
445.582	90.81
445.803	88.81
446.024	85.81
446.245	94.81
446.466	106.81
446.687	95.81
446.908	97.81
447.129	103.81
447.35	109.81
447.571	86.81
447.792	94.81
448.013	84.81
448.234	107.81
448.455	100.81
448.675	82.81
448.896	83.81
449.117	84.81
449.338	85.81
449.559	102.81
449.779	108.81
450	82.81
450.221	92.81
450.442	79.81
450.662	85.81
450.883	104.81
451.104	95.81
451.324	94.81
451.545	88.81
451.766	101.81
451.986	82.81
452.207	94.81
452.428	89.81
452.648	82.81
452.869	92.81
453.089	73.81
453.31	88.81
453.53	80.81
453.751	75.81
453.971	66.81
454.192	87.81
454.412	85.81
454.633	88.81
454.853	94.81
455.073	91.81
455.294	91.81
455.514	84.81
455.734	79.81
455.955	90.81
456.175	83.81
456.395	80.81
456.616	87.81
456.836	75.81
457.056	92.81
457.276	81.81
457.497	79.81
457.717	96.81
457.937	87.81
458.157	89.81
458.377	88.81
458.598	99.81
458.818	75.81
459.038	94.81
459.258	70.81
459.478	80.81
459.698	83.81
459.918	82.81
460.138	79.81
460.358	77.81
460.578	97.81
460.798	91.81
461.018	85.81
461.238	83.81
461.458	99.81
461.678	81.81
461.898	105.81
462.118	102.81
462.338	87.81
462.558	80.81
462.777	75.81
462.997	75.81
463.217	88.81
463.437	82.81
463.657	94.81
463.876	77.81
464.096	82.81
464.316	70.81
464.536	86.81
464.755	82.81
464.975	77.81
465.195	87.81
465.414	86.81
465.634	82.81
465.854	87.81
466.073	80.81
466.293	86.81
466.512	88.81
466.732	94.81
466.951	93.81
467.171	85.81
467.391	99.81
467.61	95.81
467.829	99.81
468.049	102.81
468.268	73.81
468.488	95.81
468.707	88.81
468.927	88.81
469.146	81.81
469.365	83.81
469.585	93.81
469.804	95.81
470.023	98.81
470.243	91.81
470.462	100.81
470.681	102.81
470.901	97.81
471.12	97.81
471.339	94.81
471.558	87.81
471.777	82.81
471.997	94.81
472.216	83.81
472.435	80.81
472.654	90.81
472.873	91.81
473.092	96.81
473.311	88.81
473.53	89.81
473.749	101.81
473.968	89.81
474.187	104.81
474.406	89.81
474.625	81.81
474.844	88.81
475.063	99.81
475.282	104.81
475.501	98.81
475.72	96.81
475.939	88.81
476.158	87.81
476.377	96.81
476.596	83.81
476.814	85.81
477.033	101.81
477.252	89.81
477.471	90.81
477.69	95.81
477.908	111.81
478.127	92.81
478.346	101.81
478.564	109.81
478.783	87.81
479.002	100.81
479.22	103.81
479.439	89.81
479.658	91.81
479.876	84.81
480.095	83.81
480.313	89.81
480.532	92.81
480.751	88.81
480.969	82.81
481.188	93.81
481.406	96.81
481.624	89.81
481.843	82.81
482.061	84.81
482.28	89.81
482.498	78.81
482.717	85.81
482.935	90.81
483.153	105.81
483.372	86.81
483.59	97.81
483.808	103.81
484.027	93.81
484.245	86.81
484.463	95.81
484.681	121.81
484.9	94.81
485.118	113.81
485.336	109.81
485.554	92.81
485.772	101.81
485.99	102.81
486.209	81.81
486.427	83.81
486.645	91.81
486.863	94.81
487.081	93.81
487.299	85.81
487.517	101.81
487.735	110.81
487.953	106.81
488.171	107.81
488.389	98.81
488.607	103.81
488.825	105.81
489.043	101.81
489.261	94.81
489.479	98.81
489.696	101.81
489.914	111.81
490.132	89.81
490.35	93.81
490.568	94.81
490.786	99.81
491.003	105.81
491.221	107.81
491.439	109.81
491.657	116.81
491.874	137.81
492.092	121.81
492.31	127.81
492.527	125.81
492.745	125.81
492.963	116.81
493.18	112.81
493.398	114.81
493.615	114.81
493.833	123.81
494.05	105.81
494.268	106.81
494.485	101.81
494.703	110.81
494.92	104.81
495.138	111.81
495.355	111.81
495.573	120.81
495.79	105.81
496.008	97.81
496.225	104.81
496.442	99.81
496.66	111.81
496.877	96.81
497.094	113.81
497.312	90.81
497.529	118.81
497.746	89.81
497.963	95.81
498.181	97.81
498.398	90.81
498.615	83.81
498.832	97.81
499.049	103.81
499.267	93.81
499.484	98.81
499.701	104.81
499.918	112.81
500.135	105.81
500.352	87.81
500.569	100.81
500.786	94.81
501.003	109.81
501.22	95.81
501.437	101.81
501.654	86.81
501.871	102.81
502.088	101.81
502.305	97.81
502.522	87.81
502.739	100.81
502.956	98.81
503.172	90.81
503.389	99.81
503.606	82.81
503.823	81.81
504.04	81.81
504.256	96.81
504.473	83.81
504.69	91.81
504.907	97.81
505.123	96.81
505.34	95.81
505.557	86.81
505.773	93.81
505.99	97.81
506.207	83.81
506.423	97.81
506.64	95.81
506.856	97.81
507.073	90.81
507.289	95.81
507.506	99.81
507.722	85.81
507.939	92.81
508.155	100.81
508.372	101.81
508.588	84.81
508.805	94.81
509.021	82.81
509.238	93.81
509.454	76.81
509.67	85.81
509.887	78.81
510.103	82.81
510.319	80.81
510.536	83.81
510.752	65.81
510.968	79.81
511.184	72.81
511.401	88.81
511.617	81.81
511.833	93.81
512.049	72.81
512.265	82.81
512.481	67.81
512.698	70.81
512.914	93.81
513.13	101.81
513.346	78.81
513.562	87.81
513.778	81.81
513.994	85.81
514.21	77.81
514.426	72.81
514.642	65.81
514.858	75.81
515.074	81.81
515.29	97.81
515.506	86.81
515.721	97.81
515.937	75.81
516.153	94.81
516.369	74.81
516.585	81.81
516.801	102.81
517.016	84.81
517.232	82.81
517.448	94.81
517.664	86.81
517.879	84.81
