Data from Location3.07152019.Energy5.Lamp.07192019.3%Agarose_HRD10591_15-17-09-268.txt Node
Date: Fri Jul 19 15:17:09 EDT 2019
User: cochatt
Spectrometer: HR+D1059
Trigger mode: 1
Integration Time (sec): 1.000000E-1
Scans to average: 1
Electric dark correction enabled: true
Nonlinearity correction enabled: false
Boxcar width: 0
XAxis mode: Wavelengths
Number of Pixels in Spectrum: 2048
>>>>>Begin Spectral Data<<<<<
223.165	-19.19
223.4	-19.19
223.635	-19.19
223.869	-6.19
224.104	-18.19
224.338	-9.19
224.573	-19.19
224.808	-7.19
225.042	-15.19
225.277	0.81
225.511	7.81
225.746	3.81
225.98	1.81
226.215	0.81
226.449	8.81
226.683	15.81
226.918	26.81
227.152	27.81
227.387	39.81
227.621	42.81
227.856	42.81
228.09	47.81
228.324	48.81
228.559	66.81
228.793	56.81
229.027	51.81
229.262	72.81
229.496	56.81
229.73	65.81
229.964	61.81
230.199	74.81
230.433	82.81
230.667	76.81
230.901	75.81
231.136	84.81
231.37	71.81
231.604	77.81
231.838	73.81
232.072	66.81
232.306	74.81
232.541	85.81
232.775	93.81
233.009	86.81
233.243	75.81
233.477	81.81
233.711	82.81
233.945	79.81
234.179	65.81
234.413	91.81
234.647	70.81
234.881	65.81
235.115	87.81
235.349	73.81
235.583	84.81
235.817	88.81
236.051	66.81
236.285	80.81
236.519	79.81
236.753	66.81
236.987	74.81
237.221	92.81
237.455	77.81
237.689	80.81
237.922	83.81
238.156	70.81
238.39	70.81
238.624	83.81
238.858	64.81
239.091	93.81
239.325	80.81
239.559	67.81
239.793	69.81
240.027	86.81
240.26	80.81
240.494	64.81
240.728	67.81
240.961	82.81
241.195	68.81
241.429	76.81
241.662	67.81
241.896	72.81
242.13	82.81
242.363	90.81
242.597	88.81
242.83	65.81
243.064	71.81
243.298	68.81
243.531	66.81
243.765	74.81
243.998	77.81
244.232	72.81
244.465	77.81
244.699	81.81
244.932	82.81
245.166	63.81
245.399	69.81
245.633	72.81
245.866	68.81
246.099	77.81
246.333	79.81
246.566	78.81
246.8	79.81
247.033	77.81
247.266	74.81
247.5	97.81
247.733	77.81
247.966	66.81
248.2	78.81
248.433	78.81
248.666	77.81
248.899	72.81
249.133	72.81
249.366	87.81
249.599	75.81
249.832	85.81
250.066	90.81
250.299	87.81
250.532	90.81
250.765	82.81
250.998	74.81
251.231	72.81
251.465	88.81
251.698	75.81
251.931	68.81
252.164	67.81
252.397	81.81
252.63	86.81
252.863	83.81
253.096	71.81
253.329	68.81
253.562	81.81
253.795	80.81
254.028	83.81
254.261	74.81
254.494	77.81
254.727	82.81
254.96	74.81
255.193	80.81
255.426	77.81
255.659	73.81
255.892	85.81
256.124	86.81
256.357	86.81
256.59	75.81
256.823	75.81
257.056	78.81
257.289	74.81
257.521	87.81
257.754	85.81
257.987	79.81
258.22	85.81
258.452	73.81
258.685	71.81
258.918	70.81
259.151	74.81
259.383	86.81
259.616	80.81
259.849	76.81
260.081	87.81
260.314	88.81
260.547	83.81
260.779	92.81
261.012	74.81
261.244	84.81
261.477	95.81
261.71	85.81
261.942	75.81
262.175	81.81
262.407	80.81
262.64	87.81
262.872	70.81
263.105	87.81
263.337	97.81
263.57	84.81
263.802	74.81
264.035	82.81
264.267	62.81
264.499	85.81
264.732	84.81
264.964	92.81
265.197	83.81
265.429	80.81
265.661	84.81
265.894	77.81
266.126	84.81
266.358	74.81
266.591	93.81
266.823	74.81
267.055	90.81
267.287	79.81
267.52	74.81
267.752	85.81
267.984	81.81
268.216	76.81
268.448	84.81
268.681	69.81
268.913	85.81
269.145	78.81
269.377	80.81
269.609	74.81
269.841	84.81
270.073	84.81
270.306	94.81
270.538	71.81
270.77	82.81
271.002	68.81
271.234	76.81
271.466	78.81
271.698	63.81
271.93	73.81
272.162	67.81
272.394	84.81
272.626	85.81
272.858	95.81
273.09	91.81
273.322	94.81
273.553	68.81
273.785	71.81
274.017	88.81
274.249	81.81
274.481	102.81
274.713	78.81
274.945	64.81
275.176	77.81
275.408	93.81
275.64	87.81
275.872	87.81
276.104	84.81
276.335	73.81
276.567	96.81
276.799	84.81
277.031	85.81
277.262	71.81
277.494	85.81
277.726	87.81
277.957	84.81
278.189	69.81
278.421	68.81
278.652	87.81
278.884	79.81
279.115	81.81
279.347	85.81
279.579	75.81
279.81	84.81
280.042	81.81
280.273	70.81
280.505	72.81
280.736	80.81
280.968	82.81
281.199	85.81
281.431	80.81
281.662	85.81
281.894	88.81
282.125	88.81
282.356	85.81
282.588	74.81
282.819	88.81
283.051	81.81
283.282	78.81
283.513	80.81
283.745	88.81
283.976	90.81
284.207	80.81
284.439	80.81
284.67	85.81
284.901	88.81
285.132	80.81
285.364	80.81
285.595	93.81
285.826	82.81
286.057	81.81
286.288	87.81
286.52	77.81
286.751	79.81
286.982	79.81
287.213	84.81
287.444	72.81
287.675	97.81
287.906	77.81
288.138	67.81
288.369	92.81
288.6	77.81
288.831	83.81
289.062	83.81
289.293	80.81
289.524	75.81
289.755	81.81
289.986	82.81
290.217	84.81
290.448	75.81
290.679	89.81
290.91	81.81
291.141	95.81
291.371	89.81
291.602	86.81
291.833	77.81
292.064	74.81
292.295	87.81
292.526	83.81
292.757	76.81
292.987	88.81
293.218	92.81
293.449	84.81
293.68	88.81
293.91	94.81
294.141	70.81
294.372	79.81
294.603	83.81
294.833	89.81
295.064	79.81
295.295	82.81
295.525	69.81
295.756	85.81
295.987	77.81
296.217	83.81
296.448	87.81
296.679	83.81
296.909	87.81
297.14	85.81
297.37	81.81
297.601	86.81
297.831	77.81
298.062	87.81
298.292	96.81
298.523	97.81
298.753	72.81
298.984	91.81
299.214	70.81
299.445	78.81
299.675	85.81
299.905	79.81
300.136	77.81
300.366	92.81
300.597	86.81
300.827	83.81
301.057	85.81
301.288	80.81
301.518	78.81
301.748	80.81
301.979	73.81
302.209	89.81
302.439	85.81
302.669	82.81
302.9	77.81
303.13	82.81
303.36	81.81
303.59	99.81
303.82	87.81
304.051	83.81
304.281	98.81
304.511	100.81
304.741	67.81
304.971	77.81
305.201	92.81
305.431	78.81
305.661	69.81
305.891	88.81
306.121	79.81
306.352	99.81
306.582	67.81
306.812	76.81
307.042	78.81
307.272	69.81
307.502	78.81
307.731	86.81
307.961	81.81
308.191	84.81
308.421	70.81
308.651	89.81
308.881	97.81
309.111	84.81
309.341	82.81
309.571	70.81
309.8	76.81
310.03	71.81
310.26	65.81
310.49	79.81
310.72	96.81
310.949	83.81
311.179	80.81
311.409	70.81
311.639	97.81
311.868	79.81
312.098	85.81
312.328	93.81
312.557	78.81
312.787	71.81
313.017	86.81
313.246	82.81
313.476	87.81
313.706	89.81
313.935	97.81
314.165	78.81
314.394	80.81
314.624	81.81
314.853	89.81
315.083	86.81
315.312	75.81
315.542	87.81
315.771	87.81
316.001	79.81
316.23	83.81
316.46	86.81
316.689	74.81
316.919	74.81
317.148	87.81
317.377	79.81
317.607	86.81
317.836	87.81
318.065	87.81
318.295	76.81
318.524	79.81
318.753	78.81
318.983	86.81
319.212	70.81
319.441	78.81
319.67	90.81
319.9	80.81
320.129	94.81
320.358	94.81
320.587	87.81
320.816	94.81
321.046	82.81
321.275	68.81
321.504	71.81
321.733	87.81
321.962	81.81
322.191	92.81
322.42	74.81
322.649	82.81
322.878	79.81
323.108	87.81
323.337	82.81
323.566	79.81
323.795	84.81
324.024	68.81
324.253	91.81
324.482	89.81
324.71	72.81
324.939	97.81
325.168	90.81
325.397	87.81
325.626	90.81
325.855	80.81
326.084	82.81
326.313	82.81
326.542	89.81
326.77	90.81
326.999	85.81
327.228	100.81
327.457	82.81
327.686	85.81
327.914	93.81
328.143	100.81
328.372	79.81
328.6	88.81
328.829	77.81
329.058	72.81
329.287	81.81
329.515	81.81
329.744	96.81
329.972	93.81
330.201	84.81
330.43	74.81
330.658	81.81
330.887	71.81
331.115	84.81
331.344	80.81
331.572	89.81
331.801	100.81
332.03	82.81
332.258	77.81
332.486	82.81
332.715	80.81
332.943	89.81
333.172	81.81
333.4	85.81
333.629	92.81
333.857	77.81
334.085	81.81
334.314	80.81
334.542	78.81
334.771	74.81
334.999	77.81
335.227	96.81
335.455	88.81
335.684	72.81
335.912	83.81
336.14	78.81
336.369	92.81
336.597	82.81
336.825	91.81
337.053	63.81
337.281	79.81
337.51	86.81
337.738	69.81
337.966	74.81
338.194	84.81
338.422	83.81
338.65	83.81
338.878	87.81
339.106	79.81
339.334	94.81
339.562	79.81
339.79	89.81
340.018	83.81
340.246	80.81
340.474	75.81
340.702	86.81
340.93	85.81
341.158	82.81
341.386	80.81
341.614	97.81
341.842	81.81
342.07	78.81
342.298	75.81
342.526	82.81
342.754	88.81
342.981	85.81
343.209	79.81
343.437	92.81
343.665	70.81
343.893	83.81
344.12	82.81
344.348	90.81
344.576	85.81
344.804	75.81
345.031	77.81
345.259	86.81
345.487	96.81
345.714	68.81
345.942	89.81
346.17	84.81
346.397	74.81
346.625	75.81
346.853	74.81
347.08	87.81
347.308	85.81
347.535	65.81
347.763	104.81
347.99	89.81
348.218	82.81
348.445	88.81
348.673	75.81
348.9	89.81
349.128	92.81
349.355	89.81
349.583	82.81
349.81	88.81
350.037	71.81
350.265	79.81
350.492	73.81
350.72	73.81
350.947	79.81
351.174	70.81
351.402	82.81
351.629	80.81
351.856	87.81
352.083	71.81
352.311	76.81
352.538	94.81
352.765	79.81
352.992	81.81
353.22	79.81
353.447	79.81
353.674	82.81
353.901	81.81
354.128	85.81
354.355	82.81
354.583	85.81
354.81	90.81
355.037	91.81
355.264	82.81
355.491	76.81
355.718	85.81
355.945	73.81
356.172	86.81
356.399	90.81
356.626	75.81
356.853	81.81
357.08	68.81
357.307	76.81
357.534	83.81
357.761	76.81
357.988	82.81
358.215	78.81
358.441	87.81
358.668	91.81
358.895	85.81
359.122	91.81
359.349	82.81
359.576	85.81
359.802	65.81
360.029	85.81
360.256	87.81
360.483	88.81
360.709	81.81
360.936	94.81
361.163	84.81
361.39	80.81
361.616	83.81
361.843	97.81
362.07	83.81
362.296	68.81
362.523	86.81
362.749	94.81
362.976	84.81
363.203	97.81
363.429	83.81
363.656	77.81
363.882	76.81
364.109	89.81
364.335	81.81
364.562	78.81
364.788	73.81
365.015	66.81
365.241	77.81
365.468	77.81
365.694	74.81
365.92	89.81
366.147	87.81
366.373	84.81
366.599	88.81
366.826	84.81
367.052	78.81
367.278	87.81
367.505	83.81
367.731	71.81
367.957	74.81
368.184	86.81
368.41	74.81
368.636	88.81
368.862	76.81
369.089	91.81
369.315	97.81
369.541	78.81
369.767	95.81
369.993	79.81
370.219	86.81
370.445	88.81
370.672	90.81
370.898	87.81
371.124	79.81
371.35	105.81
371.576	79.81
371.802	78.81
372.028	78.81
372.254	82.81
372.48	88.81
372.706	77.81
372.932	79.81
373.158	82.81
373.384	94.81
373.61	95.81
373.835	85.81
374.061	89.81
374.287	82.81
374.513	77.81
374.739	64.81
374.965	92.81
375.191	88.81
375.416	81.81
375.642	85.81
375.868	80.81
376.094	77.81
376.319	88.81
376.545	99.81
376.771	74.81
376.997	93.81
377.222	85.81
377.448	99.81
377.674	81.81
377.899	89.81
378.125	90.81
378.35	71.81
378.576	91.81
378.802	79.81
379.027	92.81
379.253	74.81
379.478	95.81
379.704	74.81
379.929	89.81
380.155	84.81
380.38	72.81
380.606	80.81
380.831	98.81
381.057	87.81
381.282	71.81
381.507	83.81
381.733	87.81
381.958	87.81
382.184	95.81
382.409	86.81
382.634	83.81
382.86	94.81
383.085	82.81
383.31	90.81
383.535	80.81
383.761	85.81
383.986	83.81
384.211	88.81
384.436	86.81
384.662	76.81
384.887	89.81
385.112	74.81
385.337	72.81
385.562	88.81
385.787	80.81
386.013	95.81
386.238	74.81
386.463	78.81
386.688	81.81
386.913	77.81
387.138	85.81
387.363	86.81
387.588	84.81
387.813	87.81
388.038	91.81
388.263	81.81
388.488	87.81
388.713	91.81
388.938	93.81
389.163	90.81
389.387	85.81
389.612	85.81
389.837	101.81
390.062	94.81
390.287	81.81
390.512	77.81
390.736	94.81
390.961	71.81
391.186	83.81
391.411	88.81
391.636	85.81
391.86	85.81
392.085	83.81
392.31	68.81
392.534	88.81
392.759	78.81
392.984	80.81
393.208	87.81
393.433	89.81
393.658	84.81
393.882	88.81
394.107	87.81
394.331	80.81
394.556	73.81
394.78	92.81
395.005	85.81
395.229	87.81
395.454	86.81
395.678	80.81
395.903	85.81
396.127	84.81
396.352	77.81
396.576	80.81
396.801	88.81
397.025	84.81
397.249	84.81
397.474	84.81
397.698	86.81
397.922	92.81
398.147	70.81
398.371	96.81
398.595	88.81
398.82	87.81
399.044	85.81
399.268	78.81
399.492	92.81
399.717	84.81
399.941	76.81
400.165	69.81
400.389	92.81
400.613	96.81
400.837	84.81
401.062	77.81
401.286	89.81
401.51	87.81
401.734	89.81
401.958	71.81
402.182	96.81
402.406	90.81
402.63	96.81
402.854	96.81
403.078	87.81
403.302	98.81
403.526	88.81
403.75	94.81
403.974	80.81
404.198	88.81
404.422	86.81
404.645	71.81
404.869	80.81
405.093	87.81
405.317	79.81
405.541	96.81
405.765	95.81
405.988	93.81
406.212	74.81
406.436	95.81
406.66	68.81
406.883	96.81
407.107	110.81
407.331	95.81
407.555	110.81
407.778	100.81
408.002	82.81
408.226	95.81
408.449	84.81
408.673	94.81
408.896	80.81
409.12	98.81
409.344	86.81
409.567	89.81
409.791	82.81
410.014	94.81
410.238	83.81
410.461	97.81
410.685	94.81
410.908	94.81
411.132	96.81
411.355	94.81
411.578	97.81
411.802	93.81
412.025	101.81
412.249	89.81
412.472	82.81
412.695	97.81
412.919	88.81
413.142	73.81
413.365	92.81
413.589	76.81
413.812	103.81
414.035	95.81
414.258	89.81
414.482	82.81
414.705	90.81
414.928	73.81
415.151	104.81
415.374	85.81
415.597	89.81
415.821	100.81
416.044	91.81
416.267	89.81
416.49	87.81
416.713	82.81
416.936	89.81
417.159	96.81
417.382	97.81
417.605	83.81
417.828	69.81
418.051	87.81
418.274	102.81
418.497	88.81
418.72	95.81
418.943	87.81
419.166	92.81
419.389	99.81
419.611	96.81
419.834	107.81
420.057	91.81
420.28	90.81
420.503	102.81
420.726	94.81
420.948	90.81
421.171	83.81
421.394	74.81
421.617	94.81
421.839	86.81
422.062	103.81
422.285	81.81
422.507	87.81
422.73	86.81
422.953	90.81
423.175	92.81
423.398	89.81
423.621	79.81
423.843	94.81
424.066	105.81
424.288	100.81
424.511	84.81
424.733	94.81
424.956	93.81
425.178	92.81
425.401	95.81
425.623	101.81
425.846	71.81
426.068	90.81
426.291	93.81
426.513	92.81
426.735	110.81
426.958	84.81
427.18	85.81
427.402	98.81
427.625	106.81
427.847	96.81
428.069	88.81
428.292	102.81
428.514	92.81
428.736	94.81
428.958	90.81
429.181	89.81
429.403	88.81
429.625	80.81
429.847	107.81
430.069	88.81
430.292	92.81
430.514	93.81
430.736	97.81
430.958	88.81
431.18	84.81
431.402	87.81
431.624	92.81
431.846	82.81
432.068	78.81
432.29	79.81
432.512	112.81
432.734	89.81
432.956	95.81
433.178	101.81
433.4	94.81
433.622	80.81
433.844	93.81
434.066	83.81
434.287	85.81
434.509	96.81
434.731	80.81
434.953	94.81
435.175	89.81
435.397	92.81
435.618	82.81
435.84	81.81
436.062	79.81
436.284	93.81
436.505	79.81
436.727	92.81
436.949	95.81
437.17	93.81
437.392	96.81
437.614	103.81
437.835	94.81
438.057	103.81
438.278	110.81
438.5	86.81
438.721	98.81
438.943	93.81
439.165	93.81
439.386	98.81
439.608	100.81
439.829	94.81
440.05	93.81
440.272	97.81
440.493	105.81
440.715	103.81
440.936	98.81
441.158	96.81
441.379	96.81
441.6	85.81
441.822	97.81
442.043	103.81
442.264	102.81
442.486	102.81
442.707	98.81
442.928	81.81
443.149	87.81
443.371	106.81
443.592	102.81
443.813	100.81
444.034	97.81
444.255	99.81
444.476	106.81
444.698	93.81
444.919	103.81
445.14	227.81
445.361	167.81
445.582	90.81
445.803	97.81
446.024	94.81
446.245	109.81
446.466	104.81
446.687	95.81
446.908	94.81
447.129	93.81
447.35	101.81
447.571	98.81
447.792	94.81
448.013	93.81
448.234	99.81
448.455	95.81
448.675	86.81
448.896	99.81
449.117	97.81
449.338	108.81
449.559	93.81
449.779	85.81
450	90.81
450.221	104.81
450.442	85.81
450.662	99.81
450.883	107.81
451.104	91.81
451.324	81.81
451.545	92.81
451.766	78.81
451.986	105.81
452.207	97.81
452.428	70.81
452.648	106.81
452.869	81.81
453.089	82.81
453.31	87.81
453.53	82.81
453.751	91.81
453.971	91.81
454.192	94.81
454.412	83.81
454.633	77.81
454.853	81.81
455.073	85.81
455.294	103.81
455.514	104.81
455.734	91.81
455.955	103.81
456.175	83.81
456.395	79.81
456.616	81.81
456.836	82.81
457.056	88.81
457.276	74.81
457.497	88.81
457.717	72.81
457.937	92.81
458.157	93.81
458.377	95.81
458.598	77.81
458.818	73.81
459.038	81.81
459.258	81.81
459.478	79.81
459.698	78.81
459.918	94.81
460.138	94.81
460.358	81.81
460.578	89.81
460.798	94.81
461.018	89.81
461.238	81.81
461.458	88.81
461.678	105.81
461.898	84.81
462.118	81.81
462.338	93.81
462.558	89.81
462.777	100.81
462.997	90.81
463.217	71.81
463.437	92.81
463.657	84.81
463.876	86.81
464.096	81.81
464.316	73.81
464.536	89.81
464.755	81.81
464.975	90.81
465.195	85.81
465.414	95.81
465.634	96.81
465.854	104.81
466.073	100.81
466.293	93.81
466.512	98.81
466.732	87.81
466.951	82.81
467.171	84.81
467.391	75.81
467.61	90.81
467.829	94.81
468.049	94.81
468.268	103.81
468.488	84.81
468.707	78.81
468.927	88.81
469.146	103.81
469.365	85.81
469.585	100.81
469.804	96.81
470.023	87.81
470.243	106.81
470.462	99.81
470.681	104.81
470.901	83.81
471.12	81.81
471.339	100.81
471.558	96.81
471.777	116.81
471.997	87.81
472.216	90.81
472.435	87.81
472.654	88.81
472.873	89.81
473.092	88.81
473.311	85.81
473.53	96.81
473.749	98.81
473.968	87.81
474.187	92.81
474.406	82.81
474.625	90.81
474.844	108.81
475.063	94.81
475.282	91.81
475.501	84.81
475.72	106.81
475.939	98.81
476.158	85.81
476.377	89.81
476.596	85.81
476.814	100.81
477.033	94.81
477.252	81.81
477.471	89.81
477.69	114.81
477.908	97.81
478.127	106.81
478.346	98.81
478.564	89.81
478.783	102.81
479.002	86.81
479.22	98.81
479.439	99.81
479.658	86.81
479.876	97.81
480.095	92.81
480.313	89.81
480.532	95.81
480.751	85.81
480.969	86.81
481.188	80.81
481.406	94.81
481.624	86.81
481.843	80.81
482.061	83.81
482.28	83.81
482.498	81.81
482.717	89.81
482.935	108.81
483.153	100.81
483.372	99.81
483.59	103.81
483.808	89.81
484.027	99.81
484.245	112.81
484.463	95.81
484.681	113.81
484.9	101.81
485.118	91.81
485.336	109.81
485.554	88.81
485.772	100.81
485.99	81.81
486.209	88.81
486.427	92.81
486.645	89.81
486.863	89.81
487.081	95.81
487.299	103.81
487.517	90.81
487.735	105.81
487.953	108.81
488.171	134.81
488.389	102.81
488.607	101.81
488.825	88.81
489.043	95.81
489.261	100.81
489.479	97.81
489.696	102.81
489.914	92.81
490.132	112.81
490.35	101.81
490.568	101.81
490.786	110.81
491.003	106.81
491.221	118.81
491.439	110.81
491.657	114.81
491.874	120.81
492.092	126.81
492.31	131.81
492.527	124.81
492.745	118.81
492.963	126.81
493.18	111.81
493.398	100.81
493.615	106.81
493.833	113.81
494.05	122.81
494.268	111.81
494.485	113.81
494.703	106.81
494.92	103.81
495.138	118.81
495.355	101.81
495.573	110.81
495.79	98.81
496.008	114.81
496.225	100.81
496.442	124.81
496.66	112.81
496.877	103.81
497.094	105.81
497.312	114.81
497.529	100.81
497.746	101.81
497.963	105.81
498.181	84.81
498.398	98.81
498.615	87.81
498.832	103.81
499.049	92.81
499.267	87.81
499.484	96.81
499.701	102.81
499.918	100.81
500.135	101.81
500.352	105.81
500.569	99.81
500.786	108.81
501.003	97.81
501.22	96.81
501.437	97.81
501.654	103.81
501.871	88.81
502.088	83.81
502.305	92.81
502.522	90.81
502.739	115.81
502.956	88.81
503.172	85.81
503.389	88.81
503.606	76.81
503.823	92.81
504.04	97.81
504.256	116.81
504.473	82.81
504.69	93.81
504.907	95.81
505.123	95.81
505.34	92.81
505.557	95.81
505.773	82.81
505.99	92.81
506.207	92.81
506.423	85.81
506.64	92.81
506.856	92.81
507.073	97.81
507.289	103.81
507.506	100.81
507.722	95.81
507.939	95.81
508.155	97.81
508.372	98.81
508.588	86.81
508.805	87.81
509.021	93.81
509.238	95.81
509.454	85.81
509.67	80.81
509.887	90.81
510.103	88.81
510.319	88.81
510.536	74.81
510.752	77.81
510.968	74.81
511.184	74.81
511.401	89.81
511.617	94.81
511.833	90.81
512.049	86.81
512.265	85.81
512.481	89.81
512.698	67.81
512.914	84.81
513.13	83.81
513.346	81.81
513.562	89.81
513.778	79.81
513.994	82.81
514.21	92.81
514.426	76.81
514.642	93.81
514.858	102.81
515.074	84.81
515.29	98.81
515.506	97.81
515.721	80.81
515.937	85.81
516.153	75.81
516.369	79.81
516.585	80.81
516.801	78.81
517.016	73.81
517.232	91.81
517.448	85.81
517.664	95.81
