Data from Location3.07152019.Energy5.Lamp.07192019.3%Agarose_HRD10591_15-17-04-269.txt Node
Date: Fri Jul 19 15:17:04 EDT 2019
User: cochatt
Spectrometer: HR+D1059
Trigger mode: 1
Integration Time (sec): 1.000000E-1
Scans to average: 1
Electric dark correction enabled: true
Nonlinearity correction enabled: false
Boxcar width: 0
XAxis mode: Wavelengths
Number of Pixels in Spectrum: 2048
>>>>>Begin Spectral Data<<<<<
223.165	-30.06
223.4	-30.06
223.635	-30.06
223.869	-3.06
224.104	-23.06
224.338	-26.06
224.573	-17.06
224.808	-12.06
225.042	0.94
225.277	9.94
225.511	5.94
225.746	-16.06
225.98	12.94
226.215	6.94
226.449	10.94
226.683	19.94
226.918	20.94
227.152	38.94
227.387	34.94
227.621	24.94
227.856	59.94
228.09	46.94
228.324	49.94
228.559	54.94
228.793	66.94
229.027	77.94
229.262	72.94
229.496	52.94
229.73	62.94
229.964	65.94
230.199	86.94
230.433	82.94
230.667	67.94
230.901	84.94
231.136	78.94
231.37	69.94
231.604	70.94
231.838	82.94
232.072	86.94
232.306	88.94
232.541	85.94
232.775	93.94
233.009	78.94
233.243	84.94
233.477	85.94
233.711	83.94
233.945	81.94
234.179	80.94
234.413	78.94
234.647	90.94
234.881	87.94
235.115	81.94
235.349	77.94
235.583	66.94
235.817	70.94
236.051	77.94
236.285	82.94
236.519	80.94
236.753	72.94
236.987	60.94
237.221	72.94
237.455	70.94
237.689	94.94
237.922	84.94
238.156	74.94
238.39	66.94
238.624	68.94
238.858	74.94
239.091	74.94
239.325	71.94
239.559	61.94
239.793	78.94
240.027	80.94
240.26	77.94
240.494	80.94
240.728	57.94
240.961	80.94
241.195	85.94
241.429	93.94
241.662	73.94
241.896	71.94
242.13	67.94
242.363	69.94
242.597	77.94
242.83	59.94
243.064	74.94
243.298	81.94
243.531	74.94
243.765	77.94
243.998	97.94
244.232	94.94
244.465	92.94
244.699	79.94
244.932	72.94
245.166	71.94
245.399	83.94
245.633	88.94
245.866	89.94
246.099	88.94
246.333	72.94
246.566	71.94
246.8	81.94
247.033	70.94
247.266	80.94
247.5	75.94
247.733	84.94
247.966	59.94
248.2	81.94
248.433	80.94
248.666	90.94
248.899	85.94
249.133	79.94
249.366	85.94
249.599	69.94
249.832	74.94
250.066	78.94
250.299	76.94
250.532	74.94
250.765	81.94
250.998	78.94
251.231	78.94
251.465	76.94
251.698	66.94
251.931	85.94
252.164	81.94
252.397	77.94
252.63	86.94
252.863	81.94
253.096	80.94
253.329	74.94
253.562	75.94
253.795	87.94
254.028	59.94
254.261	80.94
254.494	87.94
254.727	69.94
254.96	84.94
255.193	68.94
255.426	73.94
255.659	59.94
255.892	80.94
256.124	68.94
256.357	74.94
256.59	81.94
256.823	69.94
257.056	74.94
257.289	90.94
257.521	81.94
257.754	80.94
257.987	75.94
258.22	72.94
258.452	86.94
258.685	82.94
258.918	84.94
259.151	90.94
259.383	85.94
259.616	90.94
259.849	69.94
260.081	81.94
260.314	76.94
260.547	82.94
260.779	88.94
261.012	87.94
261.244	72.94
261.477	82.94
261.71	74.94
261.942	71.94
262.175	68.94
262.407	75.94
262.64	81.94
262.872	82.94
263.105	78.94
263.337	79.94
263.57	90.94
263.802	83.94
264.035	72.94
264.267	70.94
264.499	81.94
264.732	73.94
264.964	82.94
265.197	77.94
265.429	72.94
265.661	71.94
265.894	85.94
266.126	68.94
266.358	62.94
266.591	77.94
266.823	82.94
267.055	80.94
267.287	79.94
267.52	86.94
267.752	99.94
267.984	80.94
268.216	73.94
268.448	86.94
268.681	74.94
268.913	87.94
269.145	75.94
269.377	80.94
269.609	73.94
269.841	73.94
270.073	72.94
270.306	89.94
270.538	90.94
270.77	74.94
271.002	86.94
271.234	85.94
271.466	73.94
271.698	72.94
271.93	93.94
272.162	82.94
272.394	81.94
272.626	77.94
272.858	73.94
273.09	85.94
273.322	91.94
273.553	77.94
273.785	93.94
274.017	78.94
274.249	81.94
274.481	85.94
274.713	85.94
274.945	81.94
275.176	89.94
275.408	79.94
275.64	82.94
275.872	79.94
276.104	73.94
276.335	76.94
276.567	91.94
276.799	84.94
277.031	80.94
277.262	82.94
277.494	81.94
277.726	81.94
277.957	92.94
278.189	75.94
278.421	80.94
278.652	88.94
278.884	77.94
279.115	83.94
279.347	82.94
279.579	89.94
279.81	87.94
280.042	66.94
280.273	84.94
280.505	88.94
280.736	90.94
280.968	74.94
281.199	82.94
281.431	87.94
281.662	87.94
281.894	76.94
282.125	69.94
282.356	81.94
282.588	84.94
282.819	82.94
283.051	77.94
283.282	84.94
283.513	90.94
283.745	81.94
283.976	86.94
284.207	89.94
284.439	82.94
284.67	81.94
284.901	87.94
285.132	84.94
285.364	84.94
285.595	64.94
285.826	71.94
286.057	81.94
286.288	72.94
286.52	81.94
286.751	89.94
286.982	85.94
287.213	83.94
287.444	87.94
287.675	85.94
287.906	86.94
288.138	80.94
288.369	85.94
288.6	70.94
288.831	74.94
289.062	93.94
289.293	83.94
289.524	80.94
289.755	89.94
289.986	81.94
290.217	82.94
290.448	97.94
290.679	86.94
290.91	81.94
291.141	83.94
291.371	71.94
291.602	80.94
291.833	77.94
292.064	72.94
292.295	69.94
292.526	85.94
292.757	75.94
292.987	77.94
293.218	83.94
293.449	92.94
293.68	86.94
293.91	80.94
294.141	90.94
294.372	80.94
294.603	78.94
294.833	80.94
295.064	83.94
295.295	84.94
295.525	81.94
295.756	86.94
295.987	82.94
296.217	90.94
296.448	73.94
296.679	96.94
296.909	88.94
297.14	91.94
297.37	96.94
297.601	77.94
297.831	75.94
298.062	90.94
298.292	75.94
298.523	84.94
298.753	79.94
298.984	75.94
299.214	84.94
299.445	85.94
299.675	95.94
299.905	87.94
300.136	73.94
300.366	80.94
300.597	71.94
300.827	95.94
301.057	73.94
301.288	85.94
301.518	89.94
301.748	93.94
301.979	66.94
302.209	80.94
302.439	70.94
302.669	90.94
302.9	74.94
303.13	79.94
303.36	84.94
303.59	82.94
303.82	70.94
304.051	86.94
304.281	87.94
304.511	84.94
304.741	79.94
304.971	68.94
305.201	76.94
305.431	87.94
305.661	76.94
305.891	85.94
306.121	88.94
306.352	89.94
306.582	96.94
306.812	93.94
307.042	87.94
307.272	72.94
307.502	87.94
307.731	85.94
307.961	95.94
308.191	94.94
308.421	96.94
308.651	86.94
308.881	89.94
309.111	76.94
309.341	91.94
309.571	80.94
309.8	72.94
310.03	83.94
310.26	80.94
310.49	66.94
310.72	84.94
310.949	80.94
311.179	77.94
311.409	76.94
311.639	72.94
311.868	83.94
312.098	82.94
312.328	82.94
312.557	86.94
312.787	79.94
313.017	68.94
313.246	82.94
313.476	67.94
313.706	81.94
313.935	73.94
314.165	90.94
314.394	91.94
314.624	78.94
314.853	69.94
315.083	80.94
315.312	88.94
315.542	94.94
315.771	74.94
316.001	74.94
316.23	84.94
316.46	75.94
316.689	93.94
316.919	70.94
317.148	74.94
317.377	86.94
317.607	81.94
317.836	77.94
318.065	78.94
318.295	88.94
318.524	77.94
318.753	80.94
318.983	82.94
319.212	81.94
319.441	104.94
319.67	83.94
319.9	82.94
320.129	88.94
320.358	81.94
320.587	88.94
320.816	86.94
321.046	76.94
321.275	79.94
321.504	84.94
321.733	82.94
321.962	84.94
322.191	83.94
322.42	92.94
322.649	93.94
322.878	90.94
323.108	95.94
323.337	72.94
323.566	83.94
323.795	93.94
324.024	89.94
324.253	83.94
324.482	74.94
324.71	82.94
324.939	80.94
325.168	83.94
325.397	91.94
325.626	73.94
325.855	91.94
326.084	83.94
326.313	87.94
326.542	97.94
326.77	82.94
326.999	85.94
327.228	75.94
327.457	93.94
327.686	85.94
327.914	93.94
328.143	84.94
328.372	76.94
328.6	68.94
328.829	96.94
329.058	71.94
329.287	94.94
329.515	80.94
329.744	76.94
329.972	86.94
330.201	87.94
330.43	86.94
330.658	74.94
330.887	87.94
331.115	81.94
331.344	75.94
331.572	89.94
331.801	82.94
332.03	91.94
332.258	78.94
332.486	77.94
332.715	86.94
332.943	83.94
333.172	73.94
333.4	94.94
333.629	83.94
333.857	89.94
334.085	82.94
334.314	83.94
334.542	96.94
334.771	92.94
334.999	82.94
335.227	85.94
335.455	89.94
335.684	95.94
335.912	95.94
336.14	85.94
336.369	79.94
336.597	73.94
336.825	72.94
337.053	94.94
337.281	79.94
337.51	75.94
337.738	102.94
337.966	85.94
338.194	96.94
338.422	82.94
338.65	66.94
338.878	74.94
339.106	78.94
339.334	76.94
339.562	88.94
339.79	89.94
340.018	86.94
340.246	80.94
340.474	79.94
340.702	85.94
340.93	94.94
341.158	97.94
341.386	75.94
341.614	76.94
341.842	79.94
342.07	80.94
342.298	87.94
342.526	74.94
342.754	68.94
342.981	80.94
343.209	87.94
343.437	89.94
343.665	62.94
343.893	70.94
344.12	73.94
344.348	86.94
344.576	80.94
344.804	76.94
345.031	85.94
345.259	80.94
345.487	80.94
345.714	91.94
345.942	86.94
346.17	86.94
346.397	82.94
346.625	80.94
346.853	82.94
347.08	84.94
347.308	80.94
347.535	83.94
347.763	71.94
347.99	82.94
348.218	87.94
348.445	71.94
348.673	86.94
348.9	85.94
349.128	75.94
349.355	81.94
349.583	78.94
349.81	76.94
350.037	85.94
350.265	80.94
350.492	67.94
350.72	78.94
350.947	85.94
351.174	89.94
351.402	75.94
351.629	93.94
351.856	87.94
352.083	71.94
352.311	70.94
352.538	84.94
352.765	75.94
352.992	76.94
353.22	77.94
353.447	87.94
353.674	87.94
353.901	83.94
354.128	84.94
354.355	66.94
354.583	75.94
354.81	72.94
355.037	81.94
355.264	82.94
355.491	89.94
355.718	102.94
355.945	81.94
356.172	87.94
356.399	76.94
356.626	68.94
356.853	91.94
357.08	66.94
357.307	87.94
357.534	68.94
357.761	77.94
357.988	92.94
358.215	89.94
358.441	85.94
358.668	85.94
358.895	91.94
359.122	93.94
359.349	96.94
359.576	91.94
359.802	79.94
360.029	92.94
360.256	76.94
360.483	83.94
360.709	90.94
360.936	74.94
361.163	82.94
361.39	96.94
361.616	75.94
361.843	76.94
362.07	75.94
362.296	77.94
362.523	89.94
362.749	77.94
362.976	77.94
363.203	73.94
363.429	82.94
363.656	72.94
363.882	79.94
364.109	76.94
364.335	82.94
364.562	79.94
364.788	81.94
365.015	99.94
365.241	78.94
365.468	84.94
365.694	75.94
365.92	91.94
366.147	84.94
366.373	89.94
366.599	84.94
366.826	79.94
367.052	94.94
367.278	76.94
367.505	90.94
367.731	85.94
367.957	71.94
368.184	74.94
368.41	97.94
368.636	91.94
368.862	85.94
369.089	85.94
369.315	78.94
369.541	105.94
369.767	89.94
369.993	85.94
370.219	82.94
370.445	65.94
370.672	90.94
370.898	88.94
371.124	78.94
371.35	88.94
371.576	84.94
371.802	80.94
372.028	96.94
372.254	71.94
372.48	78.94
372.706	73.94
372.932	78.94
373.158	83.94
373.384	88.94
373.61	79.94
373.835	88.94
374.061	90.94
374.287	89.94
374.513	80.94
374.739	85.94
374.965	85.94
375.191	82.94
375.416	74.94
375.642	86.94
375.868	91.94
376.094	77.94
376.319	89.94
376.545	75.94
376.771	87.94
376.997	96.94
377.222	90.94
377.448	89.94
377.674	76.94
377.899	83.94
378.125	88.94
378.35	96.94
378.576	84.94
378.802	102.94
379.027	93.94
379.253	84.94
379.478	79.94
379.704	84.94
379.929	105.94
380.155	93.94
380.38	89.94
380.606	79.94
380.831	84.94
381.057	90.94
381.282	94.94
381.507	80.94
381.733	91.94
381.958	76.94
382.184	88.94
382.409	94.94
382.634	87.94
382.86	87.94
383.085	83.94
383.31	87.94
383.535	98.94
383.761	89.94
383.986	84.94
384.211	79.94
384.436	76.94
384.662	85.94
384.887	84.94
385.112	94.94
385.337	93.94
385.562	87.94
385.787	79.94
386.013	85.94
386.238	84.94
386.463	91.94
386.688	87.94
386.913	81.94
387.138	87.94
387.363	82.94
387.588	78.94
387.813	74.94
388.038	85.94
388.263	68.94
388.488	85.94
388.713	87.94
388.938	88.94
389.163	81.94
389.387	90.94
389.612	79.94
389.837	82.94
390.062	80.94
390.287	83.94
390.512	101.94
390.736	92.94
390.961	79.94
391.186	86.94
391.411	96.94
391.636	99.94
391.86	91.94
392.085	74.94
392.31	90.94
392.534	86.94
392.759	93.94
392.984	94.94
393.208	94.94
393.433	85.94
393.658	93.94
393.882	94.94
394.107	83.94
394.331	83.94
394.556	85.94
394.78	73.94
395.005	79.94
395.229	82.94
395.454	77.94
395.678	84.94
395.903	73.94
396.127	98.94
396.352	82.94
396.576	78.94
396.801	92.94
397.025	77.94
397.249	103.94
397.474	102.94
397.698	78.94
397.922	96.94
398.147	88.94
398.371	91.94
398.595	98.94
398.82	89.94
399.044	80.94
399.268	79.94
399.492	87.94
399.717	69.94
399.941	83.94
400.165	84.94
400.389	90.94
400.613	84.94
400.837	85.94
401.062	85.94
401.286	93.94
401.51	80.94
401.734	89.94
401.958	84.94
402.182	84.94
402.406	87.94
402.63	65.94
402.854	72.94
403.078	94.94
403.302	96.94
403.526	76.94
403.75	78.94
403.974	90.94
404.198	88.94
404.422	83.94
404.645	90.94
404.869	84.94
405.093	64.94
405.317	100.94
405.541	89.94
405.765	90.94
405.988	96.94
406.212	74.94
406.436	82.94
406.66	87.94
406.883	74.94
407.107	79.94
407.331	86.94
407.555	79.94
407.778	82.94
408.002	95.94
408.226	90.94
408.449	84.94
408.673	82.94
408.896	90.94
409.12	86.94
409.344	95.94
409.567	88.94
409.791	93.94
410.014	98.94
410.238	90.94
410.461	92.94
410.685	92.94
410.908	85.94
411.132	101.94
411.355	90.94
411.578	92.94
411.802	78.94
412.025	91.94
412.249	99.94
412.472	93.94
412.695	74.94
412.919	88.94
413.142	90.94
413.365	89.94
413.589	82.94
413.812	81.94
414.035	81.94
414.258	76.94
414.482	93.94
414.705	79.94
414.928	87.94
415.151	96.94
415.374	88.94
415.597	104.94
415.821	97.94
416.044	104.94
416.267	85.94
416.49	90.94
416.713	87.94
416.936	93.94
417.159	104.94
417.382	94.94
417.605	94.94
417.828	86.94
418.051	96.94
418.274	95.94
418.497	100.94
418.72	105.94
418.943	92.94
419.166	87.94
419.389	89.94
419.611	96.94
419.834	100.94
420.057	105.94
420.28	97.94
420.503	92.94
420.726	102.94
420.948	99.94
421.171	87.94
421.394	87.94
421.617	106.94
421.839	102.94
422.062	96.94
422.285	101.94
422.507	91.94
422.73	92.94
422.953	79.94
423.175	86.94
423.398	92.94
423.621	83.94
423.843	88.94
424.066	91.94
424.288	81.94
424.511	90.94
424.733	109.94
424.956	103.94
425.178	106.94
425.401	96.94
425.623	79.94
425.846	94.94
426.068	86.94
426.291	87.94
426.513	91.94
426.735	94.94
426.958	88.94
427.18	91.94
427.402	106.94
427.625	85.94
427.847	89.94
428.069	84.94
428.292	88.94
428.514	83.94
428.736	83.94
428.958	96.94
429.181	86.94
429.403	86.94
429.625	92.94
429.847	98.94
430.069	89.94
430.292	94.94
430.514	100.94
430.736	91.94
430.958	93.94
431.18	97.94
431.402	94.94
431.624	97.94
431.846	93.94
432.068	83.94
432.29	87.94
432.512	95.94
432.734	87.94
432.956	90.94
433.178	109.94
433.4	86.94
433.622	84.94
433.844	98.94
434.066	89.94
434.287	88.94
434.509	78.94
434.731	76.94
434.953	95.94
435.175	99.94
435.397	91.94
435.618	90.94
435.84	86.94
436.062	98.94
436.284	107.94
436.505	90.94
436.727	100.94
436.949	93.94
437.17	93.94
437.392	95.94
437.614	89.94
437.835	85.94
438.057	85.94
438.278	83.94
438.5	85.94
438.721	90.94
438.943	86.94
439.165	102.94
439.386	106.94
439.608	93.94
439.829	89.94
440.05	90.94
440.272	103.94
440.493	101.94
440.715	100.94
440.936	112.94
441.158	115.94
441.379	89.94
441.6	106.94
441.822	98.94
442.043	99.94
442.264	88.94
442.486	93.94
442.707	94.94
442.928	106.94
443.149	95.94
443.371	94.94
443.592	98.94
443.813	100.94
444.034	108.94
444.255	101.94
444.476	103.94
444.698	102.94
444.919	102.94
445.14	217.94
445.361	160.94
445.582	119.94
445.803	113.94
446.024	83.94
446.245	100.94
446.466	94.94
446.687	105.94
446.908	108.94
447.129	102.94
447.35	98.94
447.571	97.94
447.792	95.94
448.013	105.94
448.234	110.94
448.455	99.94
448.675	99.94
448.896	104.94
449.117	86.94
449.338	91.94
449.559	90.94
449.779	70.94
450	96.94
450.221	103.94
450.442	92.94
450.662	91.94
450.883	93.94
451.104	86.94
451.324	84.94
451.545	89.94
451.766	90.94
451.986	91.94
452.207	89.94
452.428	87.94
452.648	98.94
452.869	101.94
453.089	91.94
453.31	90.94
453.53	89.94
453.751	90.94
453.971	82.94
454.192	74.94
454.412	86.94
454.633	80.94
454.853	90.94
455.073	109.94
455.294	84.94
455.514	98.94
455.734	94.94
455.955	100.94
456.175	92.94
456.395	78.94
456.616	90.94
456.836	100.94
457.056	97.94
457.276	89.94
457.497	80.94
457.717	85.94
457.937	89.94
458.157	90.94
458.377	79.94
458.598	73.94
458.818	92.94
459.038	87.94
459.258	76.94
459.478	78.94
459.698	79.94
459.918	91.94
460.138	96.94
460.358	83.94
460.578	87.94
460.798	92.94
461.018	92.94
461.238	90.94
461.458	97.94
461.678	84.94
461.898	91.94
462.118	86.94
462.338	86.94
462.558	88.94
462.777	87.94
462.997	80.94
463.217	96.94
463.437	87.94
463.657	100.94
463.876	103.94
464.096	95.94
464.316	87.94
464.536	86.94
464.755	84.94
464.975	69.94
465.195	99.94
465.414	104.94
465.634	96.94
465.854	97.94
466.073	80.94
466.293	96.94
466.512	87.94
466.732	87.94
466.951	90.94
467.171	77.94
467.391	84.94
467.61	96.94
467.829	96.94
468.049	81.94
468.268	101.94
468.488	101.94
468.707	73.94
468.927	84.94
469.146	99.94
469.365	95.94
469.585	91.94
469.804	98.94
470.023	101.94
470.243	98.94
470.462	81.94
470.681	82.94
470.901	90.94
471.12	97.94
471.339	110.94
471.558	96.94
471.777	91.94
471.997	101.94
472.216	89.94
472.435	88.94
472.654	88.94
472.873	96.94
473.092	91.94
473.311	97.94
473.53	89.94
473.749	98.94
473.968	81.94
474.187	77.94
474.406	82.94
474.625	95.94
474.844	95.94
475.063	94.94
475.282	69.94
475.501	83.94
475.72	93.94
475.939	83.94
476.158	72.94
476.377	76.94
476.596	95.94
476.814	93.94
477.033	93.94
477.252	94.94
477.471	96.94
477.69	80.94
477.908	101.94
478.127	110.94
478.346	87.94
478.564	87.94
478.783	80.94
479.002	109.94
479.22	94.94
479.439	93.94
479.658	100.94
479.876	86.94
480.095	82.94
480.313	92.94
480.532	86.94
480.751	101.94
480.969	78.94
481.188	83.94
481.406	84.94
481.624	83.94
481.843	77.94
482.061	87.94
482.28	83.94
482.498	84.94
482.717	80.94
482.935	92.94
483.153	106.94
483.372	93.94
483.59	111.94
483.808	96.94
484.027	93.94
484.245	92.94
484.463	113.94
484.681	100.94
484.9	97.94
485.118	103.94
485.336	100.94
485.554	95.94
485.772	84.94
485.99	90.94
486.209	89.94
486.427	93.94
486.645	95.94
486.863	86.94
487.081	106.94
487.299	106.94
487.517	103.94
487.735	101.94
487.953	108.94
488.171	130.94
488.389	100.94
488.607	94.94
488.825	94.94
489.043	97.94
489.261	92.94
489.479	89.94
489.696	105.94
489.914	98.94
490.132	102.94
490.35	100.94
490.568	98.94
490.786	100.94
491.003	94.94
491.221	116.94
491.439	106.94
491.657	112.94
491.874	109.94
492.092	130.94
492.31	135.94
492.527	128.94
492.745	120.94
492.963	121.94
493.18	107.94
493.398	105.94
493.615	120.94
493.833	104.94
494.05	90.94
494.268	107.94
494.485	102.94
494.703	119.94
494.92	113.94
495.138	106.94
495.355	106.94
495.573	105.94
495.79	112.94
496.008	107.94
496.225	104.94
496.442	108.94
496.66	108.94
496.877	98.94
497.094	108.94
497.312	90.94
497.529	110.94
497.746	108.94
497.963	88.94
498.181	80.94
498.398	102.94
498.615	98.94
498.832	105.94
499.049	90.94
499.267	78.94
499.484	86.94
499.701	98.94
499.918	104.94
500.135	90.94
500.352	92.94
500.569	106.94
500.786	103.94
501.003	92.94
501.22	92.94
501.437	100.94
501.654	78.94
501.871	78.94
502.088	106.94
502.305	111.94
502.522	92.94
502.739	78.94
502.956	93.94
503.172	99.94
503.389	87.94
503.606	85.94
503.823	86.94
504.04	74.94
504.256	92.94
504.473	94.94
504.69	111.94
504.907	84.94
505.123	92.94
505.34	88.94
505.557	94.94
505.773	101.94
505.99	88.94
506.207	90.94
506.423	93.94
506.64	96.94
506.856	86.94
507.073	88.94
507.289	83.94
507.506	84.94
507.722	97.94
507.939	90.94
508.155	84.94
508.372	92.94
508.588	94.94
508.805	105.94
509.021	84.94
509.238	91.94
509.454	73.94
509.67	72.94
509.887	88.94
510.103	79.94
510.319	80.94
510.536	77.94
510.752	81.94
510.968	96.94
511.184	81.94
511.401	96.94
511.617	86.94
511.833	72.94
512.049	86.94
512.265	81.94
512.481	68.94
512.698	80.94
512.914	84.94
513.13	79.94
513.346	82.94
513.562	97.94
513.778	76.94
513.994	89.94
514.21	86.94
514.426	86.94
514.642	68.94
514.858	85.94
515.074	79.94
515.29	89.94
515.506	75.94
515.721	84.94
515.937	90.94
516.153	88.94
516.369	84.94
516.585	80.94
516.801	83.94
517.016	86.94
517.232	72.94
517.448	94.94
517.664	81.94
