Data from Location3.07152019.Energy5.Lamp.07192019.3%Agarose_HRD10591_15-18-57-270.txt Node
Date: Fri Jul 19 15:18:57 EDT 2019
User: cochatt
Spectrometer: HR+D1059
Trigger mode: 1
Integration Time (sec): 1.000000E-1
Scans to average: 1
Electric dark correction enabled: true
Nonlinearity correction enabled: false
Boxcar width: 0
XAxis mode: Wavelengths
Number of Pixels in Spectrum: 2048
>>>>>Begin Spectral Data<<<<<
223.165	-4.75
223.4	-4.75
223.635	-4.75
223.869	-14.75
224.104	-33.75
224.338	-6.75
224.573	-11.75
224.808	-16.75
225.042	-0.75
225.277	4.25
225.511	-11.75
225.746	-7.75
225.98	6.25
226.215	4.25
226.449	14.25
226.683	19.25
226.918	38.25
227.152	22.25
227.387	48.25
227.621	39.25
227.856	31.25
228.09	48.25
228.324	59.25
228.559	52.25
228.793	57.25
229.027	58.25
229.262	60.25
229.496	63.25
229.73	66.25
229.964	70.25
230.199	76.25
230.433	70.25
230.667	81.25
230.901	75.25
231.136	89.25
231.37	76.25
231.604	76.25
231.838	82.25
232.072	76.25
232.306	76.25
232.541	81.25
232.775	85.25
233.009	82.25
233.243	85.25
233.477	79.25
233.711	90.25
233.945	71.25
234.179	73.25
234.413	71.25
234.647	75.25
234.881	74.25
235.115	79.25
235.349	84.25
235.583	78.25
235.817	88.25
236.051	85.25
236.285	67.25
236.519	75.25
236.753	75.25
236.987	76.25
237.221	69.25
237.455	80.25
237.689	88.25
237.922	84.25
238.156	89.25
238.39	82.25
238.624	75.25
238.858	75.25
239.091	89.25
239.325	67.25
239.559	86.25
239.793	85.25
240.027	82.25
240.26	75.25
240.494	73.25
240.728	68.25
240.961	69.25
241.195	69.25
241.429	75.25
241.662	77.25
241.896	70.25
242.13	83.25
242.363	87.25
242.597	73.25
242.83	81.25
243.064	76.25
243.298	68.25
243.531	85.25
243.765	76.25
243.998	64.25
244.232	84.25
244.465	80.25
244.699	85.25
244.932	81.25
245.166	58.25
245.399	71.25
245.633	69.25
245.866	65.25
246.099	71.25
246.333	75.25
246.566	74.25
246.8	68.25
247.033	78.25
247.266	82.25
247.5	76.25
247.733	65.25
247.966	79.25
248.2	86.25
248.433	87.25
248.666	91.25
248.899	87.25
249.133	91.25
249.366	88.25
249.599	83.25
249.832	70.25
250.066	78.25
250.299	76.25
250.532	76.25
250.765	76.25
250.998	83.25
251.231	70.25
251.465	71.25
251.698	74.25
251.931	78.25
252.164	93.25
252.397	82.25
252.63	83.25
252.863	84.25
253.096	81.25
253.329	82.25
253.562	88.25
253.795	84.25
254.028	87.25
254.261	66.25
254.494	75.25
254.727	89.25
254.96	73.25
255.193	84.25
255.426	80.25
255.659	79.25
255.892	86.25
256.124	79.25
256.357	74.25
256.59	84.25
256.823	89.25
257.056	67.25
257.289	84.25
257.521	87.25
257.754	86.25
257.987	79.25
258.22	82.25
258.452	102.25
258.685	81.25
258.918	76.25
259.151	76.25
259.383	80.25
259.616	74.25
259.849	72.25
260.081	83.25
260.314	63.25
260.547	82.25
260.779	66.25
261.012	83.25
261.244	73.25
261.477	79.25
261.71	89.25
261.942	84.25
262.175	67.25
262.407	83.25
262.64	76.25
262.872	77.25
263.105	82.25
263.337	91.25
263.57	91.25
263.802	91.25
264.035	78.25
264.267	92.25
264.499	73.25
264.732	87.25
264.964	89.25
265.197	88.25
265.429	76.25
265.661	80.25
265.894	78.25
266.126	72.25
266.358	82.25
266.591	73.25
266.823	81.25
267.055	70.25
267.287	87.25
267.52	89.25
267.752	74.25
267.984	71.25
268.216	83.25
268.448	80.25
268.681	82.25
268.913	88.25
269.145	81.25
269.377	70.25
269.609	64.25
269.841	78.25
270.073	84.25
270.306	76.25
270.538	88.25
270.77	83.25
271.002	86.25
271.234	91.25
271.466	93.25
271.698	92.25
271.93	91.25
272.162	91.25
272.394	79.25
272.626	92.25
272.858	71.25
273.09	87.25
273.322	75.25
273.553	84.25
273.785	88.25
274.017	89.25
274.249	87.25
274.481	67.25
274.713	91.25
274.945	100.25
275.176	86.25
275.408	81.25
275.64	110.25
275.872	95.25
276.104	90.25
276.335	84.25
276.567	76.25
276.799	88.25
277.031	83.25
277.262	74.25
277.494	89.25
277.726	81.25
277.957	95.25
278.189	82.25
278.421	68.25
278.652	79.25
278.884	83.25
279.115	81.25
279.347	89.25
279.579	82.25
279.81	75.25
280.042	82.25
280.273	79.25
280.505	82.25
280.736	83.25
280.968	75.25
281.199	67.25
281.431	81.25
281.662	96.25
281.894	82.25
282.125	84.25
282.356	74.25
282.588	89.25
282.819	79.25
283.051	83.25
283.282	83.25
283.513	78.25
283.745	74.25
283.976	79.25
284.207	100.25
284.439	73.25
284.67	92.25
284.901	100.25
285.132	82.25
285.364	91.25
285.595	94.25
285.826	90.25
286.057	91.25
286.288	103.25
286.52	81.25
286.751	73.25
286.982	77.25
287.213	82.25
287.444	79.25
287.675	82.25
287.906	92.25
288.138	70.25
288.369	90.25
288.6	88.25
288.831	84.25
289.062	85.25
289.293	78.25
289.524	77.25
289.755	88.25
289.986	75.25
290.217	92.25
290.448	86.25
290.679	95.25
290.91	76.25
291.141	82.25
291.371	78.25
291.602	84.25
291.833	73.25
292.064	89.25
292.295	76.25
292.526	96.25
292.757	86.25
292.987	87.25
293.218	76.25
293.449	97.25
293.68	84.25
293.91	76.25
294.141	83.25
294.372	69.25
294.603	84.25
294.833	77.25
295.064	80.25
295.295	79.25
295.525	77.25
295.756	88.25
295.987	86.25
296.217	95.25
296.448	92.25
296.679	85.25
296.909	83.25
297.14	76.25
297.37	94.25
297.601	89.25
297.831	81.25
298.062	91.25
298.292	87.25
298.523	90.25
298.753	83.25
298.984	84.25
299.214	81.25
299.445	94.25
299.675	92.25
299.905	88.25
300.136	82.25
300.366	84.25
300.597	78.25
300.827	80.25
301.057	78.25
301.288	80.25
301.518	95.25
301.748	95.25
301.979	79.25
302.209	86.25
302.439	70.25
302.669	94.25
302.9	98.25
303.13	91.25
303.36	76.25
303.59	81.25
303.82	84.25
304.051	86.25
304.281	84.25
304.511	74.25
304.741	89.25
304.971	76.25
305.201	84.25
305.431	81.25
305.661	90.25
305.891	70.25
306.121	74.25
306.352	100.25
306.582	86.25
306.812	77.25
307.042	97.25
307.272	87.25
307.502	80.25
307.731	92.25
307.961	95.25
308.191	86.25
308.421	95.25
308.651	102.25
308.881	89.25
309.111	84.25
309.341	96.25
309.571	89.25
309.8	82.25
310.03	89.25
310.26	91.25
310.49	85.25
310.72	85.25
310.949	74.25
311.179	93.25
311.409	91.25
311.639	78.25
311.868	89.25
312.098	88.25
312.328	86.25
312.557	97.25
312.787	87.25
313.017	97.25
313.246	78.25
313.476	85.25
313.706	90.25
313.935	88.25
314.165	78.25
314.394	87.25
314.624	96.25
314.853	81.25
315.083	101.25
315.312	91.25
315.542	81.25
315.771	91.25
316.001	86.25
316.23	95.25
316.46	86.25
316.689	79.25
316.919	82.25
317.148	82.25
317.377	94.25
317.607	88.25
317.836	94.25
318.065	97.25
318.295	87.25
318.524	80.25
318.753	95.25
318.983	88.25
319.212	91.25
319.441	87.25
319.67	77.25
319.9	87.25
320.129	82.25
320.358	86.25
320.587	91.25
320.816	92.25
321.046	83.25
321.275	85.25
321.504	74.25
321.733	95.25
321.962	92.25
322.191	103.25
322.42	96.25
322.649	100.25
322.878	68.25
323.108	89.25
323.337	88.25
323.566	75.25
323.795	86.25
324.024	85.25
324.253	91.25
324.482	86.25
324.71	75.25
324.939	85.25
325.168	80.25
325.397	87.25
325.626	91.25
325.855	77.25
326.084	92.25
326.313	66.25
326.542	85.25
326.77	92.25
326.999	84.25
327.228	79.25
327.457	74.25
327.686	84.25
327.914	75.25
328.143	85.25
328.372	94.25
328.6	74.25
328.829	88.25
329.058	87.25
329.287	86.25
329.515	80.25
329.744	87.25
329.972	77.25
330.201	73.25
330.43	82.25
330.658	90.25
330.887	67.25
331.115	87.25
331.344	85.25
331.572	94.25
331.801	90.25
332.03	81.25
332.258	85.25
332.486	83.25
332.715	90.25
332.943	86.25
333.172	65.25
333.4	93.25
333.629	80.25
333.857	81.25
334.085	87.25
334.314	89.25
334.542	93.25
334.771	90.25
334.999	86.25
335.227	75.25
335.455	70.25
335.684	87.25
335.912	88.25
336.14	84.25
336.369	77.25
336.597	81.25
336.825	84.25
337.053	84.25
337.281	87.25
337.51	77.25
337.738	88.25
337.966	85.25
338.194	83.25
338.422	94.25
338.65	92.25
338.878	98.25
339.106	76.25
339.334	82.25
339.562	90.25
339.79	86.25
340.018	95.25
340.246	99.25
340.474	79.25
340.702	91.25
340.93	86.25
341.158	92.25
341.386	88.25
341.614	92.25
341.842	84.25
342.07	90.25
342.298	88.25
342.526	70.25
342.754	77.25
342.981	90.25
343.209	83.25
343.437	86.25
343.665	77.25
343.893	78.25
344.12	77.25
344.348	70.25
344.576	90.25
344.804	70.25
345.031	88.25
345.259	96.25
345.487	74.25
345.714	85.25
345.942	91.25
346.17	82.25
346.397	81.25
346.625	90.25
346.853	85.25
347.08	67.25
347.308	82.25
347.535	78.25
347.763	75.25
347.99	107.25
348.218	92.25
348.445	84.25
348.673	88.25
348.9	79.25
349.128	81.25
349.355	92.25
349.583	71.25
349.81	86.25
350.037	96.25
350.265	89.25
350.492	92.25
350.72	81.25
350.947	86.25
351.174	91.25
351.402	92.25
351.629	89.25
351.856	88.25
352.083	89.25
352.311	74.25
352.538	82.25
352.765	71.25
352.992	77.25
353.22	89.25
353.447	79.25
353.674	91.25
353.901	95.25
354.128	87.25
354.355	82.25
354.583	82.25
354.81	75.25
355.037	88.25
355.264	90.25
355.491	74.25
355.718	80.25
355.945	82.25
356.172	84.25
356.399	89.25
356.626	84.25
356.853	76.25
357.08	83.25
357.307	80.25
357.534	84.25
357.761	84.25
357.988	92.25
358.215	91.25
358.441	80.25
358.668	82.25
358.895	87.25
359.122	82.25
359.349	99.25
359.576	87.25
359.802	85.25
360.029	87.25
360.256	78.25
360.483	80.25
360.709	90.25
360.936	84.25
361.163	82.25
361.39	75.25
361.616	100.25
361.843	71.25
362.07	71.25
362.296	83.25
362.523	91.25
362.749	79.25
362.976	83.25
363.203	74.25
363.429	73.25
363.656	78.25
363.882	91.25
364.109	68.25
364.335	89.25
364.562	80.25
364.788	80.25
365.015	73.25
365.241	71.25
365.468	82.25
365.694	69.25
365.92	88.25
366.147	82.25
366.373	91.25
366.599	85.25
366.826	82.25
367.052	79.25
367.278	77.25
367.505	76.25
367.731	83.25
367.957	77.25
368.184	95.25
368.41	88.25
368.636	88.25
368.862	95.25
369.089	90.25
369.315	84.25
369.541	71.25
369.767	88.25
369.993	82.25
370.219	85.25
370.445	84.25
370.672	87.25
370.898	108.25
371.124	76.25
371.35	78.25
371.576	82.25
371.802	76.25
372.028	101.25
372.254	89.25
372.48	79.25
372.706	69.25
372.932	88.25
373.158	81.25
373.384	79.25
373.61	72.25
373.835	86.25
374.061	81.25
374.287	81.25
374.513	82.25
374.739	79.25
374.965	71.25
375.191	83.25
375.416	87.25
375.642	92.25
375.868	87.25
376.094	87.25
376.319	75.25
376.545	84.25
376.771	94.25
376.997	101.25
377.222	76.25
377.448	86.25
377.674	75.25
377.899	83.25
378.125	84.25
378.35	81.25
378.576	80.25
378.802	86.25
379.027	95.25
379.253	91.25
379.478	86.25
379.704	87.25
379.929	86.25
380.155	89.25
380.38	87.25
380.606	81.25
380.831	80.25
381.057	87.25
381.282	88.25
381.507	87.25
381.733	74.25
381.958	72.25
382.184	74.25
382.409	96.25
382.634	72.25
382.86	74.25
383.085	87.25
383.31	88.25
383.535	83.25
383.761	80.25
383.986	91.25
384.211	84.25
384.436	86.25
384.662	84.25
384.887	87.25
385.112	75.25
385.337	77.25
385.562	90.25
385.787	88.25
386.013	87.25
386.238	95.25
386.463	91.25
386.688	85.25
386.913	93.25
387.138	83.25
387.363	74.25
387.588	78.25
387.813	91.25
388.038	85.25
388.263	84.25
388.488	77.25
388.713	96.25
388.938	91.25
389.163	96.25
389.387	78.25
389.612	73.25
389.837	76.25
390.062	79.25
390.287	101.25
390.512	86.25
390.736	84.25
390.961	82.25
391.186	83.25
391.411	71.25
391.636	85.25
391.86	80.25
392.085	76.25
392.31	89.25
392.534	81.25
392.759	95.25
392.984	89.25
393.208	83.25
393.433	88.25
393.658	89.25
393.882	85.25
394.107	91.25
394.331	83.25
394.556	86.25
394.78	94.25
395.005	87.25
395.229	72.25
395.454	90.25
395.678	90.25
395.903	85.25
396.127	69.25
396.352	91.25
396.576	97.25
396.801	87.25
397.025	83.25
397.249	83.25
397.474	83.25
397.698	88.25
397.922	79.25
398.147	80.25
398.371	85.25
398.595	98.25
398.82	97.25
399.044	85.25
399.268	94.25
399.492	77.25
399.717	104.25
399.941	106.25
400.165	88.25
400.389	82.25
400.613	86.25
400.837	96.25
401.062	83.25
401.286	103.25
401.51	88.25
401.734	97.25
401.958	79.25
402.182	91.25
402.406	99.25
402.63	88.25
402.854	90.25
403.078	92.25
403.302	91.25
403.526	90.25
403.75	95.25
403.974	95.25
404.198	90.25
404.422	94.25
404.645	85.25
404.869	83.25
405.093	84.25
405.317	87.25
405.541	96.25
405.765	100.25
405.988	102.25
406.212	92.25
406.436	86.25
406.66	89.25
406.883	94.25
407.107	87.25
407.331	79.25
407.555	83.25
407.778	91.25
408.002	90.25
408.226	86.25
408.449	85.25
408.673	102.25
408.896	90.25
409.12	96.25
409.344	83.25
409.567	84.25
409.791	101.25
410.014	95.25
410.238	85.25
410.461	98.25
410.685	83.25
410.908	91.25
411.132	82.25
411.355	88.25
411.578	76.25
411.802	95.25
412.025	97.25
412.249	88.25
412.472	95.25
412.695	84.25
412.919	89.25
413.142	90.25
413.365	88.25
413.589	93.25
413.812	92.25
414.035	108.25
414.258	96.25
414.482	76.25
414.705	87.25
414.928	98.25
415.151	105.25
415.374	83.25
415.597	84.25
415.821	85.25
416.044	94.25
416.267	86.25
416.49	90.25
416.713	92.25
416.936	97.25
417.159	88.25
417.382	91.25
417.605	91.25
417.828	81.25
418.051	89.25
418.274	100.25
418.497	107.25
418.72	86.25
418.943	126.25
419.166	91.25
419.389	96.25
419.611	94.25
419.834	100.25
420.057	105.25
420.28	87.25
420.503	106.25
420.726	107.25
420.948	102.25
421.171	101.25
421.394	93.25
421.617	90.25
421.839	100.25
422.062	99.25
422.285	108.25
422.507	91.25
422.73	81.25
422.953	92.25
423.175	87.25
423.398	86.25
423.621	92.25
423.843	91.25
424.066	91.25
424.288	90.25
424.511	81.25
424.733	84.25
424.956	97.25
425.178	87.25
425.401	84.25
425.623	94.25
425.846	103.25
426.068	99.25
426.291	90.25
426.513	99.25
426.735	96.25
426.958	90.25
427.18	90.25
427.402	106.25
427.625	114.25
427.847	102.25
428.069	91.25
428.292	87.25
428.514	107.25
428.736	96.25
428.958	88.25
429.181	82.25
429.403	93.25
429.625	105.25
429.847	105.25
430.069	84.25
430.292	98.25
430.514	88.25
430.736	90.25
430.958	86.25
431.18	98.25
431.402	88.25
431.624	84.25
431.846	78.25
432.068	95.25
432.29	92.25
432.512	100.25
432.734	103.25
432.956	94.25
433.178	92.25
433.4	73.25
433.622	95.25
433.844	102.25
434.066	96.25
434.287	94.25
434.509	86.25
434.731	87.25
434.953	100.25
435.175	95.25
435.397	101.25
435.618	93.25
435.84	85.25
436.062	85.25
436.284	104.25
436.505	111.25
436.727	104.25
436.949	89.25
437.17	102.25
437.392	92.25
437.614	98.25
437.835	83.25
438.057	91.25
438.278	77.25
438.5	81.25
438.721	100.25
438.943	84.25
439.165	93.25
439.386	97.25
439.608	98.25
439.829	87.25
440.05	87.25
440.272	99.25
440.493	99.25
440.715	103.25
440.936	91.25
441.158	99.25
441.379	87.25
441.6	107.25
441.822	90.25
442.043	96.25
442.264	86.25
442.486	100.25
442.707	94.25
442.928	107.25
443.149	96.25
443.371	99.25
443.592	107.25
443.813	102.25
444.034	81.25
444.255	103.25
444.476	104.25
444.698	110.25
444.919	96.25
445.14	208.25
445.361	142.25
445.582	113.25
445.803	97.25
446.024	94.25
446.245	88.25
446.466	110.25
446.687	106.25
446.908	103.25
447.129	108.25
447.35	98.25
447.571	101.25
447.792	105.25
448.013	91.25
448.234	92.25
448.455	115.25
448.675	97.25
448.896	86.25
449.117	113.25
449.338	99.25
449.559	103.25
449.779	102.25
450	87.25
450.221	77.25
450.442	95.25
450.662	88.25
450.883	86.25
451.104	92.25
451.324	94.25
451.545	99.25
451.766	107.25
451.986	98.25
452.207	90.25
452.428	118.25
452.648	98.25
452.869	84.25
453.089	107.25
453.31	86.25
453.53	76.25
453.751	86.25
453.971	101.25
454.192	88.25
454.412	86.25
454.633	95.25
454.853	89.25
455.073	80.25
455.294	92.25
455.514	103.25
455.734	105.25
455.955	104.25
456.175	99.25
456.395	91.25
456.616	87.25
456.836	80.25
457.056	66.25
457.276	87.25
457.497	83.25
457.717	80.25
457.937	86.25
458.157	83.25
458.377	76.25
458.598	84.25
458.818	83.25
459.038	95.25
459.258	88.25
459.478	86.25
459.698	84.25
459.918	71.25
460.138	79.25
460.358	82.25
460.578	96.25
460.798	114.25
461.018	85.25
461.238	88.25
461.458	87.25
461.678	89.25
461.898	102.25
462.118	95.25
462.338	85.25
462.558	95.25
462.777	94.25
462.997	99.25
463.217	85.25
463.437	99.25
463.657	100.25
463.876	90.25
464.096	98.25
464.316	79.25
464.536	91.25
464.755	105.25
464.975	88.25
465.195	84.25
465.414	91.25
465.634	90.25
465.854	87.25
466.073	86.25
466.293	79.25
466.512	94.25
466.732	107.25
466.951	94.25
467.171	87.25
467.391	103.25
467.61	86.25
467.829	93.25
468.049	87.25
468.268	78.25
468.488	97.25
468.707	92.25
468.927	83.25
469.146	99.25
469.365	102.25
469.585	101.25
469.804	103.25
470.023	99.25
470.243	88.25
470.462	87.25
470.681	97.25
470.901	106.25
471.12	99.25
471.339	104.25
471.558	101.25
471.777	98.25
471.997	92.25
472.216	89.25
472.435	86.25
472.654	87.25
472.873	97.25
473.092	89.25
473.311	83.25
473.53	102.25
473.749	91.25
473.968	91.25
474.187	106.25
474.406	92.25
474.625	97.25
474.844	97.25
475.063	86.25
475.282	98.25
475.501	90.25
475.72	98.25
475.939	100.25
476.158	100.25
476.377	98.25
476.596	88.25
476.814	92.25
477.033	92.25
477.252	103.25
477.471	78.25
477.69	77.25
477.908	121.25
478.127	105.25
478.346	101.25
478.564	103.25
478.783	104.25
479.002	89.25
479.22	110.25
479.439	100.25
479.658	96.25
479.876	83.25
480.095	92.25
480.313	91.25
480.532	79.25
480.751	93.25
480.969	85.25
481.188	81.25
481.406	99.25
481.624	88.25
481.843	73.25
482.061	78.25
482.28	80.25
482.498	73.25
482.717	84.25
482.935	87.25
483.153	106.25
483.372	98.25
483.59	91.25
483.808	107.25
484.027	92.25
484.245	89.25
484.463	94.25
484.681	100.25
484.9	90.25
485.118	98.25
485.336	90.25
485.554	90.25
485.772	80.25
485.99	83.25
486.209	84.25
486.427	95.25
486.645	77.25
486.863	102.25
487.081	110.25
487.299	91.25
487.517	90.25
487.735	93.25
487.953	124.25
488.171	99.25
488.389	105.25
488.607	98.25
488.825	116.25
489.043	94.25
489.261	91.25
489.479	101.25
489.696	100.25
489.914	94.25
490.132	91.25
490.35	105.25
490.568	105.25
490.786	101.25
491.003	100.25
491.221	115.25
491.439	120.25
491.657	100.25
491.874	122.25
492.092	122.25
492.31	129.25
492.527	126.25
492.745	100.25
492.963	120.25
493.18	112.25
493.398	116.25
493.615	105.25
493.833	107.25
494.05	91.25
494.268	110.25
494.485	94.25
494.703	118.25
494.92	112.25
495.138	124.25
495.355	105.25
495.573	112.25
495.79	106.25
496.008	116.25
496.225	99.25
496.442	103.25
496.66	111.25
496.877	114.25
497.094	123.25
497.312	114.25
497.529	105.25
497.746	102.25
497.963	103.25
498.181	88.25
498.398	93.25
498.615	97.25
498.832	102.25
499.049	85.25
499.267	92.25
499.484	94.25
499.701	92.25
499.918	103.25
500.135	105.25
500.352	108.25
500.569	103.25
500.786	104.25
501.003	114.25
501.22	100.25
501.437	91.25
501.654	109.25
501.871	94.25
502.088	99.25
502.305	99.25
502.522	92.25
502.739	100.25
502.956	99.25
503.172	104.25
503.389	91.25
503.606	96.25
503.823	81.25
504.04	81.25
504.256	104.25
504.473	100.25
504.69	107.25
504.907	96.25
505.123	95.25
505.34	95.25
505.557	93.25
505.773	99.25
505.99	112.25
506.207	93.25
506.423	98.25
506.64	95.25
506.856	91.25
507.073	87.25
507.289	103.25
507.506	91.25
507.722	93.25
507.939	94.25
508.155	90.25
508.372	92.25
508.588	104.25
508.805	88.25
509.021	87.25
509.238	83.25
509.454	86.25
509.67	101.25
509.887	80.25
510.103	75.25
510.319	78.25
510.536	83.25
510.752	77.25
510.968	84.25
511.184	87.25
511.401	81.25
511.617	73.25
511.833	87.25
512.049	90.25
512.265	79.25
512.481	98.25
512.698	84.25
512.914	78.25
513.13	91.25
513.346	76.25
513.562	81.25
513.778	93.25
513.994	79.25
514.21	86.25
514.426	97.25
514.642	92.25
514.858	92.25
515.074	79.25
515.29	86.25
515.506	75.25
515.721	75.25
515.937	79.25
516.153	86.25
516.369	100.25
516.585	76.25
516.801	79.25
517.016	92.25
517.232	92.25
