Data from Location3.07152019.Energy5.Lamp.07192019.3%Agarose_HRD10591_15-17-32-269.txt Node
Date: Fri Jul 19 15:17:32 EDT 2019
User: cochatt
Spectrometer: HR+D1059
Trigger mode: 1
Integration Time (sec): 1.000000E-1
Scans to average: 1
Electric dark correction enabled: true
Nonlinearity correction enabled: false
Boxcar width: 0
XAxis mode: Wavelengths
Number of Pixels in Spectrum: 2048
>>>>>Begin Spectral Data<<<<<
223.165	-21.25
223.4	-21.25
223.635	-21.25
223.869	-20.25
224.104	-22.25
224.338	-19.25
224.573	-17.25
224.808	-11.25
225.042	-0.25
225.277	7.75
225.511	-1.25
225.746	0.75
225.98	6.75
226.215	15.75
226.449	22.75
226.683	6.75
226.918	15.75
227.152	36.75
227.387	26.75
227.621	43.75
227.856	44.75
228.09	49.75
228.324	48.75
228.559	57.75
228.793	64.75
229.027	56.75
229.262	65.75
229.496	68.75
229.73	79.75
229.964	67.75
230.199	68.75
230.433	75.75
230.667	84.75
230.901	75.75
231.136	64.75
231.37	64.75
231.604	86.75
231.838	89.75
232.072	70.75
232.306	81.75
232.541	84.75
232.775	95.75
233.009	93.75
233.243	82.75
233.477	70.75
233.711	82.75
233.945	96.75
234.179	90.75
234.413	70.75
234.647	79.75
234.881	83.75
235.115	71.75
235.349	70.75
235.583	92.75
235.817	79.75
236.051	90.75
236.285	80.75
236.519	97.75
236.753	88.75
236.987	70.75
237.221	86.75
237.455	72.75
237.689	75.75
237.922	86.75
238.156	83.75
238.39	76.75
238.624	64.75
238.858	81.75
239.091	84.75
239.325	92.75
239.559	90.75
239.793	75.75
240.027	76.75
240.26	66.75
240.494	71.75
240.728	71.75
240.961	76.75
241.195	75.75
241.429	77.75
241.662	79.75
241.896	95.75
242.13	90.75
242.363	73.75
242.597	83.75
242.83	82.75
243.064	73.75
243.298	83.75
243.531	70.75
243.765	79.75
243.998	68.75
244.232	64.75
244.465	85.75
244.699	87.75
244.932	70.75
245.166	87.75
245.399	72.75
245.633	64.75
245.866	80.75
246.099	76.75
246.333	87.75
246.566	77.75
246.8	63.75
247.033	75.75
247.266	68.75
247.5	68.75
247.733	64.75
247.966	78.75
248.2	103.75
248.433	86.75
248.666	73.75
248.899	71.75
249.133	77.75
249.366	97.75
249.599	80.75
249.832	72.75
250.066	75.75
250.299	78.75
250.532	83.75
250.765	88.75
250.998	81.75
251.231	92.75
251.465	87.75
251.698	91.75
251.931	77.75
252.164	84.75
252.397	76.75
252.63	85.75
252.863	77.75
253.096	89.75
253.329	88.75
253.562	87.75
253.795	76.75
254.028	88.75
254.261	80.75
254.494	79.75
254.727	92.75
254.96	87.75
255.193	71.75
255.426	83.75
255.659	76.75
255.892	88.75
256.124	77.75
256.357	80.75
256.59	85.75
256.823	83.75
257.056	89.75
257.289	75.75
257.521	84.75
257.754	76.75
257.987	85.75
258.22	90.75
258.452	75.75
258.685	74.75
258.918	97.75
259.151	83.75
259.383	80.75
259.616	90.75
259.849	75.75
260.081	95.75
260.314	82.75
260.547	88.75
260.779	82.75
261.012	77.75
261.244	81.75
261.477	88.75
261.71	88.75
261.942	84.75
262.175	88.75
262.407	71.75
262.64	81.75
262.872	75.75
263.105	80.75
263.337	77.75
263.57	73.75
263.802	83.75
264.035	75.75
264.267	83.75
264.499	82.75
264.732	85.75
264.964	87.75
265.197	81.75
265.429	76.75
265.661	74.75
265.894	74.75
266.126	79.75
266.358	73.75
266.591	82.75
266.823	77.75
267.055	73.75
267.287	94.75
267.52	87.75
267.752	83.75
267.984	80.75
268.216	84.75
268.448	91.75
268.681	79.75
268.913	84.75
269.145	92.75
269.377	87.75
269.609	76.75
269.841	88.75
270.073	76.75
270.306	84.75
270.538	76.75
270.77	84.75
271.002	75.75
271.234	68.75
271.466	90.75
271.698	75.75
271.93	92.75
272.162	74.75
272.394	80.75
272.626	81.75
272.858	83.75
273.09	88.75
273.322	87.75
273.553	83.75
273.785	78.75
274.017	82.75
274.249	92.75
274.481	82.75
274.713	73.75
274.945	86.75
275.176	80.75
275.408	94.75
275.64	80.75
275.872	90.75
276.104	84.75
276.335	87.75
276.567	89.75
276.799	81.75
277.031	85.75
277.262	70.75
277.494	95.75
277.726	81.75
277.957	93.75
278.189	97.75
278.421	85.75
278.652	71.75
278.884	75.75
279.115	83.75
279.347	76.75
279.579	82.75
279.81	83.75
280.042	83.75
280.273	86.75
280.505	75.75
280.736	87.75
280.968	94.75
281.199	88.75
281.431	80.75
281.662	90.75
281.894	60.75
282.125	93.75
282.356	96.75
282.588	88.75
282.819	89.75
283.051	80.75
283.282	94.75
283.513	84.75
283.745	65.75
283.976	91.75
284.207	82.75
284.439	92.75
284.67	92.75
284.901	82.75
285.132	92.75
285.364	64.75
285.595	85.75
285.826	87.75
286.057	86.75
286.288	83.75
286.52	85.75
286.751	92.75
286.982	84.75
287.213	71.75
287.444	82.75
287.675	96.75
287.906	90.75
288.138	80.75
288.369	86.75
288.6	95.75
288.831	87.75
289.062	82.75
289.293	90.75
289.524	84.75
289.755	90.75
289.986	80.75
290.217	73.75
290.448	78.75
290.679	83.75
290.91	75.75
291.141	80.75
291.371	79.75
291.602	82.75
291.833	70.75
292.064	84.75
292.295	93.75
292.526	88.75
292.757	83.75
292.987	86.75
293.218	83.75
293.449	98.75
293.68	92.75
293.91	99.75
294.141	76.75
294.372	87.75
294.603	90.75
294.833	80.75
295.064	75.75
295.295	73.75
295.525	82.75
295.756	72.75
295.987	85.75
296.217	81.75
296.448	71.75
296.679	90.75
296.909	91.75
297.14	66.75
297.37	76.75
297.601	69.75
297.831	72.75
298.062	86.75
298.292	81.75
298.523	84.75
298.753	82.75
298.984	84.75
299.214	83.75
299.445	84.75
299.675	78.75
299.905	82.75
300.136	82.75
300.366	88.75
300.597	88.75
300.827	97.75
301.057	86.75
301.288	85.75
301.518	79.75
301.748	87.75
301.979	74.75
302.209	92.75
302.439	90.75
302.669	87.75
302.9	77.75
303.13	75.75
303.36	86.75
303.59	85.75
303.82	85.75
304.051	89.75
304.281	82.75
304.511	86.75
304.741	84.75
304.971	61.75
305.201	82.75
305.431	81.75
305.661	86.75
305.891	87.75
306.121	83.75
306.352	91.75
306.582	79.75
306.812	69.75
307.042	71.75
307.272	83.75
307.502	98.75
307.731	99.75
307.961	105.75
308.191	81.75
308.421	89.75
308.651	93.75
308.881	97.75
309.111	84.75
309.341	85.75
309.571	84.75
309.8	89.75
310.03	83.75
310.26	89.75
310.49	91.75
310.72	86.75
310.949	81.75
311.179	71.75
311.409	75.75
311.639	75.75
311.868	83.75
312.098	97.75
312.328	82.75
312.557	70.75
312.787	84.75
313.017	84.75
313.246	87.75
313.476	73.75
313.706	81.75
313.935	80.75
314.165	85.75
314.394	97.75
314.624	79.75
314.853	79.75
315.083	88.75
315.312	91.75
315.542	74.75
315.771	81.75
316.001	79.75
316.23	89.75
316.46	87.75
316.689	85.75
316.919	81.75
317.148	92.75
317.377	75.75
317.607	93.75
317.836	92.75
318.065	81.75
318.295	84.75
318.524	79.75
318.753	83.75
318.983	76.75
319.212	78.75
319.441	80.75
319.67	79.75
319.9	79.75
320.129	91.75
320.358	93.75
320.587	96.75
320.816	85.75
321.046	68.75
321.275	81.75
321.504	86.75
321.733	79.75
321.962	92.75
322.191	95.75
322.42	89.75
322.649	77.75
322.878	86.75
323.108	82.75
323.337	92.75
323.566	90.75
323.795	83.75
324.024	90.75
324.253	89.75
324.482	82.75
324.71	75.75
324.939	92.75
325.168	83.75
325.397	65.75
325.626	95.75
325.855	81.75
326.084	79.75
326.313	79.75
326.542	89.75
326.77	86.75
326.999	88.75
327.228	78.75
327.457	76.75
327.686	87.75
327.914	87.75
328.143	71.75
328.372	91.75
328.6	87.75
328.829	81.75
329.058	71.75
329.287	89.75
329.515	82.75
329.744	79.75
329.972	79.75
330.201	94.75
330.43	82.75
330.658	80.75
330.887	92.75
331.115	90.75
331.344	92.75
331.572	100.75
331.801	80.75
332.03	78.75
332.258	73.75
332.486	72.75
332.715	92.75
332.943	78.75
333.172	69.75
333.4	82.75
333.629	76.75
333.857	91.75
334.085	88.75
334.314	74.75
334.542	75.75
334.771	75.75
334.999	76.75
335.227	81.75
335.455	87.75
335.684	80.75
335.912	81.75
336.14	73.75
336.369	74.75
336.597	87.75
336.825	81.75
337.053	87.75
337.281	82.75
337.51	98.75
337.738	77.75
337.966	87.75
338.194	82.75
338.422	87.75
338.65	90.75
338.878	88.75
339.106	99.75
339.334	90.75
339.562	80.75
339.79	88.75
340.018	91.75
340.246	86.75
340.474	65.75
340.702	74.75
340.93	79.75
341.158	80.75
341.386	88.75
341.614	86.75
341.842	90.75
342.07	83.75
342.298	89.75
342.526	70.75
342.754	90.75
342.981	97.75
343.209	87.75
343.437	97.75
343.665	84.75
343.893	87.75
344.12	90.75
344.348	94.75
344.576	84.75
344.804	95.75
345.031	83.75
345.259	87.75
345.487	76.75
345.714	94.75
345.942	82.75
346.17	69.75
346.397	84.75
346.625	89.75
346.853	87.75
347.08	89.75
347.308	80.75
347.535	71.75
347.763	85.75
347.99	77.75
348.218	80.75
348.445	96.75
348.673	90.75
348.9	69.75
349.128	90.75
349.355	82.75
349.583	78.75
349.81	98.75
350.037	82.75
350.265	79.75
350.492	89.75
350.72	85.75
350.947	93.75
351.174	90.75
351.402	86.75
351.629	80.75
351.856	87.75
352.083	81.75
352.311	84.75
352.538	87.75
352.765	85.75
352.992	82.75
353.22	76.75
353.447	101.75
353.674	89.75
353.901	90.75
354.128	86.75
354.355	81.75
354.583	61.75
354.81	95.75
355.037	79.75
355.264	83.75
355.491	69.75
355.718	76.75
355.945	90.75
356.172	83.75
356.399	75.75
356.626	79.75
356.853	91.75
357.08	80.75
357.307	78.75
357.534	83.75
357.761	85.75
357.988	80.75
358.215	79.75
358.441	84.75
358.668	67.75
358.895	71.75
359.122	80.75
359.349	83.75
359.576	89.75
359.802	84.75
360.029	84.75
360.256	75.75
360.483	68.75
360.709	84.75
360.936	79.75
361.163	80.75
361.39	89.75
361.616	75.75
361.843	86.75
362.07	84.75
362.296	88.75
362.523	74.75
362.749	85.75
362.976	95.75
363.203	64.75
363.429	87.75
363.656	85.75
363.882	76.75
364.109	83.75
364.335	89.75
364.562	93.75
364.788	98.75
365.015	82.75
365.241	89.75
365.468	80.75
365.694	74.75
365.92	89.75
366.147	84.75
366.373	79.75
366.599	91.75
366.826	81.75
367.052	91.75
367.278	74.75
367.505	54.75
367.731	91.75
367.957	80.75
368.184	97.75
368.41	67.75
368.636	78.75
368.862	91.75
369.089	91.75
369.315	84.75
369.541	82.75
369.767	75.75
369.993	76.75
370.219	59.75
370.445	75.75
370.672	85.75
370.898	81.75
371.124	89.75
371.35	84.75
371.576	88.75
371.802	90.75
372.028	83.75
372.254	82.75
372.48	103.75
372.706	99.75
372.932	83.75
373.158	81.75
373.384	66.75
373.61	83.75
373.835	88.75
374.061	82.75
374.287	84.75
374.513	87.75
374.739	80.75
374.965	82.75
375.191	92.75
375.416	101.75
375.642	86.75
375.868	91.75
376.094	88.75
376.319	87.75
376.545	73.75
376.771	77.75
376.997	74.75
377.222	86.75
377.448	97.75
377.674	85.75
377.899	81.75
378.125	72.75
378.35	110.75
378.576	82.75
378.802	65.75
379.027	94.75
379.253	82.75
379.478	97.75
379.704	91.75
379.929	79.75
380.155	87.75
380.38	92.75
380.606	75.75
380.831	77.75
381.057	90.75
381.282	88.75
381.507	89.75
381.733	70.75
381.958	86.75
382.184	100.75
382.409	84.75
382.634	79.75
382.86	66.75
383.085	85.75
383.31	87.75
383.535	89.75
383.761	85.75
383.986	71.75
384.211	93.75
384.436	81.75
384.662	88.75
384.887	102.75
385.112	83.75
385.337	63.75
385.562	83.75
385.787	88.75
386.013	71.75
386.238	79.75
386.463	70.75
386.688	86.75
386.913	94.75
387.138	74.75
387.363	82.75
387.588	95.75
387.813	72.75
388.038	82.75
388.263	86.75
388.488	88.75
388.713	88.75
388.938	92.75
389.163	82.75
389.387	104.75
389.612	80.75
389.837	93.75
390.062	81.75
390.287	93.75
390.512	90.75
390.736	77.75
390.961	79.75
391.186	88.75
391.411	97.75
391.636	87.75
391.86	86.75
392.085	84.75
392.31	88.75
392.534	98.75
392.759	86.75
392.984	80.75
393.208	82.75
393.433	88.75
393.658	84.75
393.882	77.75
394.107	88.75
394.331	86.75
394.556	82.75
394.78	83.75
395.005	74.75
395.229	76.75
395.454	92.75
395.678	86.75
395.903	94.75
396.127	86.75
396.352	81.75
396.576	86.75
396.801	87.75
397.025	69.75
397.249	78.75
397.474	93.75
397.698	97.75
397.922	83.75
398.147	74.75
398.371	79.75
398.595	91.75
398.82	75.75
399.044	82.75
399.268	91.75
399.492	91.75
399.717	76.75
399.941	82.75
400.165	89.75
400.389	88.75
400.613	91.75
400.837	86.75
401.062	105.75
401.286	96.75
401.51	85.75
401.734	91.75
401.958	88.75
402.182	74.75
402.406	97.75
402.63	84.75
402.854	86.75
403.078	88.75
403.302	76.75
403.526	90.75
403.75	77.75
403.974	84.75
404.198	99.75
404.422	99.75
404.645	81.75
404.869	84.75
405.093	82.75
405.317	92.75
405.541	92.75
405.765	76.75
405.988	88.75
406.212	90.75
406.436	82.75
406.66	99.75
406.883	86.75
407.107	93.75
407.331	76.75
407.555	95.75
407.778	84.75
408.002	98.75
408.226	96.75
408.449	80.75
408.673	87.75
408.896	86.75
409.12	100.75
409.344	83.75
409.567	82.75
409.791	101.75
410.014	86.75
410.238	91.75
410.461	104.75
410.685	81.75
410.908	92.75
411.132	88.75
411.355	88.75
411.578	98.75
411.802	102.75
412.025	88.75
412.249	91.75
412.472	85.75
412.695	78.75
412.919	82.75
413.142	90.75
413.365	85.75
413.589	80.75
413.812	82.75
414.035	87.75
414.258	92.75
414.482	87.75
414.705	84.75
414.928	94.75
415.151	91.75
415.374	99.75
415.597	104.75
415.821	97.75
416.044	92.75
416.267	86.75
416.49	96.75
416.713	85.75
416.936	110.75
417.159	103.75
417.382	106.75
417.605	82.75
417.828	104.75
418.051	96.75
418.274	89.75
418.497	91.75
418.72	81.75
418.943	87.75
419.166	91.75
419.389	99.75
419.611	95.75
419.834	91.75
420.057	80.75
420.28	86.75
420.503	88.75
420.726	94.75
420.948	104.75
421.171	95.75
421.394	82.75
421.617	94.75
421.839	95.75
422.062	97.75
422.285	106.75
422.507	94.75
422.73	119.75
422.953	87.75
423.175	83.75
423.398	76.75
423.621	85.75
423.843	88.75
424.066	95.75
424.288	98.75
424.511	91.75
424.733	105.75
424.956	99.75
425.178	100.75
425.401	109.75
425.623	102.75
425.846	95.75
426.068	95.75
426.291	101.75
426.513	82.75
426.735	91.75
426.958	97.75
427.18	97.75
427.402	112.75
427.625	73.75
427.847	81.75
428.069	94.75
428.292	95.75
428.514	88.75
428.736	98.75
428.958	100.75
429.181	107.75
429.403	76.75
429.625	91.75
429.847	94.75
430.069	95.75
430.292	83.75
430.514	98.75
430.736	87.75
430.958	106.75
431.18	98.75
431.402	88.75
431.624	89.75
431.846	86.75
432.068	84.75
432.29	82.75
432.512	87.75
432.734	104.75
432.956	98.75
433.178	105.75
433.4	103.75
433.622	88.75
433.844	85.75
434.066	78.75
434.287	100.75
434.509	92.75
434.731	91.75
434.953	93.75
435.175	85.75
435.397	83.75
435.618	101.75
435.84	95.75
436.062	92.75
436.284	86.75
436.505	100.75
436.727	112.75
436.949	97.75
437.17	89.75
437.392	84.75
437.614	84.75
437.835	78.75
438.057	91.75
438.278	99.75
438.5	94.75
438.721	88.75
438.943	99.75
439.165	86.75
439.386	99.75
439.608	95.75
439.829	97.75
440.05	96.75
440.272	100.75
440.493	100.75
440.715	100.75
440.936	95.75
441.158	103.75
441.379	112.75
441.6	100.75
441.822	107.75
442.043	104.75
442.264	96.75
442.486	98.75
442.707	103.75
442.928	92.75
443.149	96.75
443.371	88.75
443.592	122.75
443.813	88.75
444.034	102.75
444.255	99.75
444.476	90.75
444.698	91.75
444.919	102.75
445.14	211.75
445.361	155.75
445.582	87.75
445.803	89.75
446.024	96.75
446.245	108.75
446.466	110.75
446.687	86.75
446.908	98.75
447.129	98.75
447.35	95.75
447.571	97.75
447.792	102.75
448.013	102.75
448.234	90.75
448.455	98.75
448.675	91.75
448.896	97.75
449.117	101.75
449.338	103.75
449.559	104.75
449.779	87.75
450	89.75
450.221	89.75
450.442	85.75
450.662	76.75
450.883	94.75
451.104	100.75
451.324	110.75
451.545	84.75
451.766	98.75
451.986	108.75
452.207	83.75
452.428	96.75
452.648	90.75
452.869	87.75
453.089	81.75
453.31	69.75
453.53	91.75
453.751	74.75
453.971	90.75
454.192	92.75
454.412	95.75
454.633	84.75
454.853	102.75
455.073	91.75
455.294	104.75
455.514	95.75
455.734	100.75
455.955	87.75
456.175	86.75
456.395	86.75
456.616	94.75
456.836	91.75
457.056	78.75
457.276	102.75
457.497	79.75
457.717	75.75
457.937	87.75
458.157	75.75
458.377	79.75
458.598	97.75
458.818	88.75
459.038	95.75
459.258	76.75
459.478	77.75
459.698	78.75
459.918	91.75
460.138	90.75
460.358	79.75
460.578	98.75
460.798	102.75
461.018	97.75
461.238	114.75
461.458	96.75
461.678	94.75
461.898	110.75
462.118	83.75
462.338	92.75
462.558	95.75
462.777	80.75
462.997	98.75
463.217	99.75
463.437	105.75
463.657	86.75
463.876	85.75
464.096	92.75
464.316	90.75
464.536	96.75
464.755	85.75
464.975	88.75
465.195	90.75
465.414	95.75
465.634	79.75
465.854	99.75
466.073	87.75
466.293	83.75
466.512	101.75
466.732	92.75
466.951	99.75
467.171	110.75
467.391	82.75
467.61	102.75
467.829	107.75
468.049	98.75
468.268	97.75
468.488	103.75
468.707	97.75
468.927	97.75
469.146	100.75
469.365	84.75
469.585	95.75
469.804	100.75
470.023	107.75
470.243	106.75
470.462	97.75
470.681	79.75
470.901	85.75
471.12	104.75
471.339	92.75
471.558	99.75
471.777	107.75
471.997	111.75
472.216	90.75
472.435	72.75
472.654	92.75
472.873	100.75
473.092	102.75
473.311	92.75
473.53	95.75
473.749	89.75
473.968	86.75
474.187	95.75
474.406	90.75
474.625	84.75
474.844	96.75
475.063	101.75
475.282	87.75
475.501	94.75
475.72	90.75
475.939	83.75
476.158	92.75
476.377	102.75
476.596	103.75
476.814	91.75
477.033	92.75
477.252	95.75
477.471	90.75
477.69	88.75
477.908	97.75
478.127	97.75
478.346	92.75
478.564	102.75
478.783	86.75
479.002	103.75
479.22	89.75
479.439	96.75
479.658	66.75
479.876	75.75
480.095	84.75
480.313	90.75
480.532	84.75
480.751	79.75
480.969	85.75
481.188	83.75
481.406	77.75
481.624	85.75
481.843	88.75
482.061	79.75
482.28	88.75
482.498	74.75
482.717	86.75
482.935	97.75
483.153	85.75
483.372	98.75
483.59	111.75
483.808	98.75
484.027	75.75
484.245	99.75
484.463	97.75
484.681	107.75
484.9	104.75
485.118	99.75
485.336	83.75
485.554	95.75
485.772	81.75
485.99	92.75
486.209	95.75
486.427	91.75
486.645	100.75
486.863	101.75
487.081	92.75
487.299	85.75
487.517	107.75
487.735	90.75
487.953	114.75
488.171	116.75
488.389	116.75
488.607	121.75
488.825	99.75
489.043	90.75
489.261	99.75
489.479	110.75
489.696	102.75
489.914	110.75
490.132	94.75
490.35	92.75
490.568	101.75
490.786	103.75
491.003	101.75
491.221	112.75
491.439	129.75
491.657	123.75
491.874	113.75
492.092	129.75
492.31	131.75
492.527	114.75
492.745	128.75
492.963	121.75
493.18	110.75
493.398	127.75
493.615	125.75
493.833	102.75
494.05	120.75
494.268	108.75
494.485	113.75
494.703	113.75
494.92	107.75
495.138	111.75
495.355	115.75
495.573	123.75
495.79	96.75
496.008	124.75
496.225	106.75
496.442	110.75
496.66	111.75
496.877	119.75
497.094	98.75
497.312	96.75
497.529	93.75
497.746	98.75
497.963	98.75
498.181	95.75
498.398	97.75
498.615	87.75
498.832	87.75
499.049	98.75
499.267	95.75
499.484	91.75
499.701	91.75
499.918	98.75
500.135	100.75
500.352	111.75
500.569	116.75
500.786	98.75
501.003	93.75
501.22	103.75
501.437	99.75
501.654	91.75
501.871	105.75
502.088	79.75
502.305	94.75
502.522	106.75
502.739	107.75
502.956	96.75
503.172	82.75
503.389	92.75
503.606	98.75
503.823	91.75
504.04	90.75
504.256	91.75
504.473	96.75
504.69	97.75
504.907	97.75
505.123	94.75
505.34	100.75
505.557	90.75
505.773	88.75
505.99	80.75
506.207	101.75
506.423	104.75
506.64	103.75
506.856	95.75
507.073	99.75
507.289	89.75
507.506	89.75
507.722	97.75
507.939	107.75
508.155	93.75
508.372	90.75
508.588	75.75
508.805	95.75
509.021	84.75
509.238	97.75
509.454	82.75
509.67	105.75
509.887	92.75
510.103	78.75
510.319	96.75
510.536	90.75
510.752	88.75
510.968	70.75
511.184	93.75
511.401	85.75
511.617	90.75
511.833	76.75
512.049	68.75
512.265	86.75
512.481	92.75
512.698	81.75
512.914	84.75
513.13	79.75
513.346	75.75
513.562	94.75
513.778	77.75
513.994	75.75
514.21	84.75
514.426	95.75
514.642	104.75
514.858	89.75
515.074	76.75
515.29	81.75
515.506	90.75
515.721	89.75
515.937	89.75
516.153	74.75
516.369	80.75
516.585	94.75
516.801	92.75
517.016	89.75
517.232	81.75
517.448	107.75
