Data from Location3.07152019.Energy5.Lamp.07192019.3%Agarose_HRD10591_15-19-17-269.txt Node
Date: Fri Jul 19 15:19:17 EDT 2019
User: cochatt
Spectrometer: HR+D1059
Trigger mode: 1
Integration Time (sec): 1.000000E-1
Scans to average: 1
Electric dark correction enabled: true
Nonlinearity correction enabled: false
Boxcar width: 0
XAxis mode: Wavelengths
Number of Pixels in Spectrum: 2048
>>>>>Begin Spectral Data<<<<<
223.165	3.56
223.4	3.56
223.635	3.56
223.869	-27.44
224.104	-14.44
224.338	-17.44
224.573	-13.44
224.808	-21.44
225.042	-2.44
225.277	-21.44
225.511	2.56
225.746	9.56
225.98	2.56
226.215	4.56
226.449	18.56
226.683	15.56
226.918	31.56
227.152	29.56
227.387	25.56
227.621	27.56
227.856	42.56
228.09	54.56
228.324	49.56
228.559	57.56
228.793	64.56
229.027	58.56
229.262	69.56
229.496	69.56
229.73	79.56
229.964	90.56
230.199	68.56
230.433	66.56
230.667	70.56
230.901	80.56
231.136	75.56
231.37	79.56
231.604	78.56
231.838	78.56
232.072	73.56
232.306	66.56
232.541	78.56
232.775	84.56
233.009	73.56
233.243	67.56
233.477	74.56
233.711	87.56
233.945	78.56
234.179	86.56
234.413	79.56
234.647	87.56
234.881	81.56
235.115	80.56
235.349	78.56
235.583	84.56
235.817	89.56
236.051	72.56
236.285	71.56
236.519	78.56
236.753	85.56
236.987	80.56
237.221	81.56
237.455	89.56
237.689	77.56
237.922	71.56
238.156	70.56
238.39	71.56
238.624	78.56
238.858	90.56
239.091	88.56
239.325	83.56
239.559	85.56
239.793	69.56
240.027	79.56
240.26	78.56
240.494	67.56
240.728	59.56
240.961	88.56
241.195	85.56
241.429	68.56
241.662	81.56
241.896	65.56
242.13	67.56
242.363	70.56
242.597	66.56
242.83	78.56
243.064	72.56
243.298	78.56
243.531	68.56
243.765	72.56
243.998	81.56
244.232	86.56
244.465	90.56
244.699	97.56
244.932	70.56
245.166	78.56
245.399	66.56
245.633	93.56
245.866	75.56
246.099	61.56
246.333	69.56
246.566	66.56
246.8	83.56
247.033	89.56
247.266	64.56
247.5	80.56
247.733	78.56
247.966	78.56
248.2	82.56
248.433	68.56
248.666	64.56
248.899	73.56
249.133	93.56
249.366	75.56
249.599	71.56
249.832	86.56
250.066	88.56
250.299	70.56
250.532	85.56
250.765	88.56
250.998	86.56
251.231	73.56
251.465	63.56
251.698	70.56
251.931	84.56
252.164	70.56
252.397	80.56
252.63	85.56
252.863	83.56
253.096	78.56
253.329	90.56
253.562	83.56
253.795	89.56
254.028	76.56
254.261	74.56
254.494	77.56
254.727	79.56
254.96	75.56
255.193	68.56
255.426	61.56
255.659	67.56
255.892	89.56
256.124	72.56
256.357	77.56
256.59	79.56
256.823	90.56
257.056	94.56
257.289	72.56
257.521	89.56
257.754	77.56
257.987	73.56
258.22	81.56
258.452	88.56
258.685	82.56
258.918	68.56
259.151	76.56
259.383	87.56
259.616	79.56
259.849	87.56
260.081	89.56
260.314	80.56
260.547	80.56
260.779	82.56
261.012	76.56
261.244	73.56
261.477	97.56
261.71	82.56
261.942	88.56
262.175	76.56
262.407	86.56
262.64	80.56
262.872	72.56
263.105	82.56
263.337	74.56
263.57	84.56
263.802	87.56
264.035	82.56
264.267	92.56
264.499	90.56
264.732	75.56
264.964	79.56
265.197	74.56
265.429	77.56
265.661	59.56
265.894	72.56
266.126	88.56
266.358	72.56
266.591	87.56
266.823	84.56
267.055	89.56
267.287	81.56
267.52	77.56
267.752	90.56
267.984	90.56
268.216	84.56
268.448	87.56
268.681	86.56
268.913	80.56
269.145	85.56
269.377	80.56
269.609	84.56
269.841	85.56
270.073	75.56
270.306	91.56
270.538	71.56
270.77	64.56
271.002	81.56
271.234	70.56
271.466	84.56
271.698	74.56
271.93	76.56
272.162	76.56
272.394	83.56
272.626	88.56
272.858	82.56
273.09	87.56
273.322	89.56
273.553	81.56
273.785	82.56
274.017	83.56
274.249	79.56
274.481	85.56
274.713	87.56
274.945	74.56
275.176	95.56
275.408	89.56
275.64	79.56
275.872	82.56
276.104	79.56
276.335	80.56
276.567	78.56
276.799	73.56
277.031	79.56
277.262	81.56
277.494	91.56
277.726	85.56
277.957	74.56
278.189	75.56
278.421	87.56
278.652	84.56
278.884	73.56
279.115	89.56
279.347	79.56
279.579	83.56
279.81	96.56
280.042	73.56
280.273	67.56
280.505	84.56
280.736	72.56
280.968	94.56
281.199	85.56
281.431	74.56
281.662	78.56
281.894	78.56
282.125	83.56
282.356	93.56
282.588	87.56
282.819	80.56
283.051	71.56
283.282	83.56
283.513	57.56
283.745	85.56
283.976	107.56
284.207	62.56
284.439	77.56
284.67	79.56
284.901	91.56
285.132	77.56
285.364	73.56
285.595	83.56
285.826	87.56
286.057	82.56
286.288	93.56
286.52	82.56
286.751	85.56
286.982	86.56
287.213	94.56
287.444	74.56
287.675	88.56
287.906	82.56
288.138	88.56
288.369	82.56
288.6	94.56
288.831	96.56
289.062	81.56
289.293	73.56
289.524	80.56
289.755	110.56
289.986	92.56
290.217	87.56
290.448	74.56
290.679	86.56
290.91	91.56
291.141	72.56
291.371	72.56
291.602	74.56
291.833	85.56
292.064	85.56
292.295	78.56
292.526	80.56
292.757	67.56
292.987	84.56
293.218	98.56
293.449	82.56
293.68	82.56
293.91	96.56
294.141	87.56
294.372	81.56
294.603	89.56
294.833	82.56
295.064	101.56
295.295	77.56
295.525	85.56
295.756	73.56
295.987	68.56
296.217	93.56
296.448	81.56
296.679	80.56
296.909	86.56
297.14	85.56
297.37	84.56
297.601	78.56
297.831	88.56
298.062	79.56
298.292	91.56
298.523	84.56
298.753	80.56
298.984	84.56
299.214	82.56
299.445	82.56
299.675	88.56
299.905	78.56
300.136	74.56
300.366	89.56
300.597	95.56
300.827	90.56
301.057	88.56
301.288	79.56
301.518	81.56
301.748	80.56
301.979	83.56
302.209	83.56
302.439	83.56
302.669	84.56
302.9	78.56
303.13	74.56
303.36	75.56
303.59	85.56
303.82	98.56
304.051	86.56
304.281	71.56
304.511	87.56
304.741	73.56
304.971	93.56
305.201	77.56
305.431	84.56
305.661	77.56
305.891	79.56
306.121	79.56
306.352	88.56
306.582	81.56
306.812	77.56
307.042	80.56
307.272	74.56
307.502	89.56
307.731	72.56
307.961	69.56
308.191	79.56
308.421	84.56
308.651	96.56
308.881	96.56
309.111	73.56
309.341	70.56
309.571	76.56
309.8	80.56
310.03	76.56
310.26	76.56
310.49	73.56
310.72	77.56
310.949	81.56
311.179	86.56
311.409	79.56
311.639	87.56
311.868	73.56
312.098	69.56
312.328	79.56
312.557	101.56
312.787	79.56
313.017	81.56
313.246	81.56
313.476	86.56
313.706	83.56
313.935	70.56
314.165	89.56
314.394	94.56
314.624	79.56
314.853	87.56
315.083	75.56
315.312	78.56
315.542	88.56
315.771	78.56
316.001	86.56
316.23	89.56
316.46	86.56
316.689	88.56
316.919	99.56
317.148	82.56
317.377	79.56
317.607	82.56
317.836	87.56
318.065	88.56
318.295	86.56
318.524	86.56
318.753	72.56
318.983	77.56
319.212	90.56
319.441	81.56
319.67	92.56
319.9	86.56
320.129	78.56
320.358	94.56
320.587	84.56
320.816	90.56
321.046	98.56
321.275	79.56
321.504	83.56
321.733	87.56
321.962	87.56
322.191	89.56
322.42	84.56
322.649	95.56
322.878	89.56
323.108	85.56
323.337	71.56
323.566	84.56
323.795	72.56
324.024	75.56
324.253	75.56
324.482	96.56
324.71	83.56
324.939	75.56
325.168	69.56
325.397	81.56
325.626	95.56
325.855	78.56
326.084	90.56
326.313	97.56
326.542	87.56
326.77	84.56
326.999	93.56
327.228	90.56
327.457	83.56
327.686	86.56
327.914	83.56
328.143	89.56
328.372	88.56
328.6	82.56
328.829	100.56
329.058	87.56
329.287	79.56
329.515	78.56
329.744	81.56
329.972	81.56
330.201	72.56
330.43	82.56
330.658	91.56
330.887	88.56
331.115	77.56
331.344	83.56
331.572	81.56
331.801	79.56
332.03	98.56
332.258	76.56
332.486	90.56
332.715	90.56
332.943	89.56
333.172	96.56
333.4	89.56
333.629	80.56
333.857	95.56
334.085	98.56
334.314	82.56
334.542	90.56
334.771	90.56
334.999	81.56
335.227	93.56
335.455	95.56
335.684	80.56
335.912	98.56
336.14	94.56
336.369	95.56
336.597	83.56
336.825	83.56
337.053	81.56
337.281	75.56
337.51	72.56
337.738	82.56
337.966	80.56
338.194	72.56
338.422	79.56
338.65	84.56
338.878	93.56
339.106	74.56
339.334	96.56
339.562	72.56
339.79	83.56
340.018	88.56
340.246	93.56
340.474	83.56
340.702	85.56
340.93	83.56
341.158	80.56
341.386	84.56
341.614	79.56
341.842	96.56
342.07	85.56
342.298	84.56
342.526	88.56
342.754	79.56
342.981	72.56
343.209	98.56
343.437	58.56
343.665	85.56
343.893	93.56
344.12	80.56
344.348	74.56
344.576	79.56
344.804	82.56
345.031	81.56
345.259	79.56
345.487	82.56
345.714	82.56
345.942	65.56
346.17	77.56
346.397	76.56
346.625	79.56
346.853	85.56
347.08	85.56
347.308	75.56
347.535	90.56
347.763	80.56
347.99	87.56
348.218	87.56
348.445	81.56
348.673	79.56
348.9	81.56
349.128	77.56
349.355	82.56
349.583	82.56
349.81	84.56
350.037	88.56
350.265	85.56
350.492	87.56
350.72	86.56
350.947	83.56
351.174	94.56
351.402	75.56
351.629	78.56
351.856	91.56
352.083	90.56
352.311	94.56
352.538	90.56
352.765	88.56
352.992	86.56
353.22	96.56
353.447	91.56
353.674	74.56
353.901	79.56
354.128	90.56
354.355	97.56
354.583	87.56
354.81	74.56
355.037	90.56
355.264	74.56
355.491	81.56
355.718	74.56
355.945	76.56
356.172	77.56
356.399	76.56
356.626	76.56
356.853	96.56
357.08	81.56
357.307	85.56
357.534	91.56
357.761	89.56
357.988	91.56
358.215	75.56
358.441	89.56
358.668	83.56
358.895	74.56
359.122	79.56
359.349	70.56
359.576	79.56
359.802	89.56
360.029	90.56
360.256	75.56
360.483	91.56
360.709	90.56
360.936	73.56
361.163	73.56
361.39	80.56
361.616	78.56
361.843	83.56
362.07	78.56
362.296	66.56
362.523	74.56
362.749	91.56
362.976	91.56
363.203	76.56
363.429	81.56
363.656	90.56
363.882	76.56
364.109	89.56
364.335	64.56
364.562	79.56
364.788	81.56
365.015	82.56
365.241	89.56
365.468	85.56
365.694	71.56
365.92	85.56
366.147	76.56
366.373	81.56
366.599	77.56
366.826	84.56
367.052	86.56
367.278	86.56
367.505	74.56
367.731	87.56
367.957	94.56
368.184	79.56
368.41	85.56
368.636	80.56
368.862	83.56
369.089	79.56
369.315	81.56
369.541	79.56
369.767	75.56
369.993	85.56
370.219	86.56
370.445	91.56
370.672	83.56
370.898	95.56
371.124	80.56
371.35	87.56
371.576	85.56
371.802	80.56
372.028	80.56
372.254	76.56
372.48	81.56
372.706	80.56
372.932	86.56
373.158	92.56
373.384	90.56
373.61	88.56
373.835	77.56
374.061	79.56
374.287	89.56
374.513	100.56
374.739	85.56
374.965	98.56
375.191	94.56
375.416	70.56
375.642	94.56
375.868	98.56
376.094	78.56
376.319	82.56
376.545	82.56
376.771	74.56
376.997	79.56
377.222	82.56
377.448	94.56
377.674	81.56
377.899	73.56
378.125	90.56
378.35	75.56
378.576	82.56
378.802	83.56
379.027	92.56
379.253	83.56
379.478	98.56
379.704	91.56
379.929	89.56
380.155	81.56
380.38	94.56
380.606	79.56
380.831	79.56
381.057	104.56
381.282	77.56
381.507	66.56
381.733	86.56
381.958	96.56
382.184	61.56
382.409	72.56
382.634	85.56
382.86	85.56
383.085	80.56
383.31	89.56
383.535	94.56
383.761	74.56
383.986	70.56
384.211	87.56
384.436	80.56
384.662	85.56
384.887	76.56
385.112	88.56
385.337	78.56
385.562	84.56
385.787	84.56
386.013	109.56
386.238	81.56
386.463	95.56
386.688	74.56
386.913	80.56
387.138	88.56
387.363	99.56
387.588	88.56
387.813	81.56
388.038	79.56
388.263	90.56
388.488	81.56
388.713	85.56
388.938	71.56
389.163	86.56
389.387	87.56
389.612	93.56
389.837	90.56
390.062	80.56
390.287	93.56
390.512	71.56
390.736	79.56
390.961	91.56
391.186	103.56
391.411	94.56
391.636	83.56
391.86	79.56
392.085	82.56
392.31	94.56
392.534	82.56
392.759	91.56
392.984	82.56
393.208	84.56
393.433	84.56
393.658	88.56
393.882	86.56
394.107	87.56
394.331	75.56
394.556	93.56
394.78	75.56
395.005	73.56
395.229	77.56
395.454	75.56
395.678	75.56
395.903	70.56
396.127	79.56
396.352	85.56
396.576	88.56
396.801	80.56
397.025	73.56
397.249	76.56
397.474	87.56
397.698	91.56
397.922	82.56
398.147	90.56
398.371	100.56
398.595	95.56
398.82	82.56
399.044	73.56
399.268	82.56
399.492	79.56
399.717	87.56
399.941	86.56
400.165	86.56
400.389	87.56
400.613	81.56
400.837	88.56
401.062	83.56
401.286	83.56
401.51	97.56
401.734	90.56
401.958	80.56
402.182	91.56
402.406	86.56
402.63	82.56
402.854	80.56
403.078	94.56
403.302	80.56
403.526	88.56
403.75	100.56
403.974	103.56
404.198	99.56
404.422	82.56
404.645	99.56
404.869	90.56
405.093	83.56
405.317	83.56
405.541	86.56
405.765	76.56
405.988	87.56
406.212	88.56
406.436	87.56
406.66	85.56
406.883	90.56
407.107	96.56
407.331	98.56
407.555	89.56
407.778	93.56
408.002	94.56
408.226	91.56
408.449	89.56
408.673	84.56
408.896	101.56
409.12	79.56
409.344	90.56
409.567	93.56
409.791	89.56
410.014	91.56
410.238	82.56
410.461	90.56
410.685	105.56
410.908	82.56
411.132	83.56
411.355	85.56
411.578	81.56
411.802	82.56
412.025	87.56
412.249	73.56
412.472	82.56
412.695	86.56
412.919	97.56
413.142	86.56
413.365	90.56
413.589	93.56
413.812	95.56
414.035	105.56
414.258	88.56
414.482	81.56
414.705	83.56
414.928	85.56
415.151	93.56
415.374	86.56
415.597	90.56
415.821	88.56
416.044	95.56
416.267	90.56
416.49	99.56
416.713	100.56
416.936	88.56
417.159	97.56
417.382	90.56
417.605	93.56
417.828	85.56
418.051	89.56
418.274	92.56
418.497	91.56
418.72	106.56
418.943	86.56
419.166	92.56
419.389	91.56
419.611	109.56
419.834	82.56
420.057	99.56
420.28	93.56
420.503	98.56
420.726	101.56
420.948	95.56
421.171	101.56
421.394	87.56
421.617	117.56
421.839	98.56
422.062	88.56
422.285	105.56
422.507	92.56
422.73	83.56
422.953	92.56
423.175	100.56
423.398	108.56
423.621	100.56
423.843	98.56
424.066	94.56
424.288	109.56
424.511	92.56
424.733	99.56
424.956	85.56
425.178	102.56
425.401	113.56
425.623	97.56
425.846	110.56
426.068	97.56
426.291	99.56
426.513	85.56
426.735	98.56
426.958	100.56
427.18	87.56
427.402	86.56
427.625	86.56
427.847	80.56
428.069	99.56
428.292	86.56
428.514	94.56
428.736	93.56
428.958	88.56
429.181	77.56
429.403	85.56
429.625	82.56
429.847	97.56
430.069	101.56
430.292	91.56
430.514	94.56
430.736	101.56
430.958	98.56
431.18	93.56
431.402	82.56
431.624	86.56
431.846	89.56
432.068	103.56
432.29	88.56
432.512	93.56
432.734	85.56
432.956	85.56
433.178	95.56
433.4	99.56
433.622	113.56
433.844	86.56
434.066	111.56
434.287	83.56
434.509	82.56
434.731	84.56
434.953	85.56
435.175	94.56
435.397	88.56
435.618	85.56
435.84	96.56
436.062	81.56
436.284	98.56
436.505	91.56
436.727	87.56
436.949	91.56
437.17	83.56
437.392	83.56
437.614	106.56
437.835	87.56
438.057	102.56
438.278	73.56
438.5	101.56
438.721	114.56
438.943	84.56
439.165	98.56
439.386	102.56
439.608	86.56
439.829	103.56
440.05	102.56
440.272	106.56
440.493	93.56
440.715	111.56
440.936	110.56
441.158	95.56
441.379	99.56
441.6	95.56
441.822	98.56
442.043	89.56
442.264	109.56
442.486	122.56
442.707	101.56
442.928	96.56
443.149	107.56
443.371	106.56
443.592	97.56
443.813	91.56
444.034	93.56
444.255	89.56
444.476	89.56
444.698	93.56
444.919	93.56
445.14	225.56
445.361	164.56
445.582	100.56
445.803	83.56
446.024	97.56
446.245	110.56
446.466	100.56
446.687	111.56
446.908	94.56
447.129	108.56
447.35	100.56
447.571	99.56
447.792	88.56
448.013	102.56
448.234	98.56
448.455	88.56
448.675	97.56
448.896	87.56
449.117	103.56
449.338	114.56
449.559	103.56
449.779	85.56
450	99.56
450.221	95.56
450.442	95.56
450.662	87.56
450.883	86.56
451.104	100.56
451.324	106.56
451.545	95.56
451.766	102.56
451.986	93.56
452.207	102.56
452.428	75.56
452.648	87.56
452.869	81.56
453.089	91.56
453.31	84.56
453.53	77.56
453.751	80.56
453.971	80.56
454.192	95.56
454.412	100.56
454.633	83.56
454.853	85.56
455.073	94.56
455.294	100.56
455.514	71.56
455.734	94.56
455.955	102.56
456.175	86.56
456.395	82.56
456.616	73.56
456.836	93.56
457.056	78.56
457.276	82.56
457.497	71.56
457.717	89.56
457.937	83.56
458.157	83.56
458.377	85.56
458.598	76.56
458.818	83.56
459.038	90.56
459.258	79.56
459.478	87.56
459.698	84.56
459.918	83.56
460.138	81.56
460.358	93.56
460.578	103.56
460.798	100.56
461.018	98.56
461.238	93.56
461.458	83.56
461.678	92.56
461.898	87.56
462.118	91.56
462.338	86.56
462.558	98.56
462.777	103.56
462.997	84.56
463.217	84.56
463.437	75.56
463.657	81.56
463.876	89.56
464.096	96.56
464.316	81.56
464.536	106.56
464.755	112.56
464.975	96.56
465.195	94.56
465.414	92.56
465.634	94.56
465.854	82.56
466.073	85.56
466.293	96.56
466.512	82.56
466.732	90.56
466.951	84.56
467.171	103.56
467.391	102.56
467.61	94.56
467.829	88.56
468.049	82.56
468.268	99.56
468.488	99.56
468.707	100.56
468.927	88.56
469.146	86.56
469.365	97.56
469.585	98.56
469.804	104.56
470.023	104.56
470.243	93.56
470.462	96.56
470.681	89.56
470.901	110.56
471.12	93.56
471.339	116.56
471.558	107.56
471.777	104.56
471.997	97.56
472.216	92.56
472.435	88.56
472.654	87.56
472.873	81.56
473.092	91.56
473.311	87.56
473.53	88.56
473.749	86.56
473.968	105.56
474.187	94.56
474.406	93.56
474.625	102.56
474.844	97.56
475.063	91.56
475.282	90.56
475.501	97.56
475.72	90.56
475.939	88.56
476.158	85.56
476.377	95.56
476.596	100.56
476.814	92.56
477.033	86.56
477.252	74.56
477.471	93.56
477.69	94.56
477.908	107.56
478.127	93.56
478.346	119.56
478.564	101.56
478.783	94.56
479.002	110.56
479.22	108.56
479.439	94.56
479.658	113.56
479.876	88.56
480.095	89.56
480.313	98.56
480.532	97.56
480.751	78.56
480.969	83.56
481.188	85.56
481.406	82.56
481.624	73.56
481.843	81.56
482.061	81.56
482.28	91.56
482.498	113.56
482.717	89.56
482.935	95.56
483.153	100.56
483.372	98.56
483.59	94.56
483.808	104.56
484.027	94.56
484.245	98.56
484.463	98.56
484.681	114.56
484.9	101.56
485.118	99.56
485.336	97.56
485.554	97.56
485.772	84.56
485.99	77.56
486.209	99.56
486.427	95.56
486.645	96.56
486.863	105.56
487.081	98.56
487.299	94.56
487.517	105.56
487.735	103.56
487.953	119.56
488.171	120.56
488.389	111.56
488.607	95.56
488.825	82.56
489.043	102.56
489.261	99.56
489.479	93.56
489.696	104.56
489.914	86.56
490.132	108.56
490.35	101.56
490.568	106.56
490.786	88.56
491.003	107.56
491.221	121.56
491.439	116.56
491.657	115.56
491.874	123.56
492.092	130.56
492.31	131.56
492.527	98.56
492.745	131.56
492.963	129.56
493.18	101.56
493.398	100.56
493.615	113.56
493.833	105.56
494.05	119.56
494.268	104.56
494.485	114.56
494.703	121.56
494.92	114.56
495.138	99.56
495.355	112.56
495.573	101.56
495.79	106.56
496.008	120.56
496.225	110.56
496.442	105.56
496.66	120.56
496.877	111.56
497.094	92.56
497.312	113.56
497.529	95.56
497.746	100.56
497.963	95.56
498.181	89.56
498.398	97.56
498.615	107.56
498.832	98.56
499.049	86.56
499.267	102.56
499.484	94.56
499.701	93.56
499.918	102.56
500.135	112.56
500.352	109.56
500.569	96.56
500.786	102.56
501.003	101.56
501.22	100.56
501.437	80.56
501.654	110.56
501.871	104.56
502.088	83.56
502.305	94.56
502.522	89.56
502.739	94.56
502.956	103.56
503.172	102.56
503.389	97.56
503.606	103.56
503.823	95.56
504.04	104.56
504.256	96.56
504.473	88.56
504.69	99.56
504.907	102.56
505.123	93.56
505.34	94.56
505.557	97.56
505.773	108.56
505.99	100.56
506.207	89.56
506.423	96.56
506.64	93.56
506.856	90.56
507.073	81.56
507.289	94.56
507.506	95.56
507.722	88.56
507.939	92.56
508.155	101.56
508.372	97.56
508.588	97.56
508.805	93.56
509.021	79.56
509.238	90.56
509.454	93.56
509.67	94.56
509.887	97.56
510.103	77.56
510.319	82.56
510.536	92.56
510.752	89.56
510.968	75.56
511.184	74.56
511.401	90.56
511.617	89.56
511.833	77.56
512.049	63.56
512.265	79.56
512.481	88.56
512.698	110.56
512.914	89.56
513.13	87.56
513.346	82.56
513.562	88.56
513.778	81.56
513.994	97.56
514.21	85.56
514.426	93.56
514.642	93.56
514.858	87.56
515.074	83.56
515.29	111.56
515.506	84.56
515.721	81.56
515.937	96.56
516.153	94.56
516.369	86.56
516.585	93.56
516.801	91.56
517.016	73.56
517.232	87.56
517.448	87.56
