Data from Location3.07152019.Energy5.Lamp.07192019.3%Agarose_HRD10591_15-17-30-269.txt Node
Date: Fri Jul 19 15:17:30 EDT 2019
User: cochatt
Spectrometer: HR+D1059
Trigger mode: 1
Integration Time (sec): 1.000000E-1
Scans to average: 1
Electric dark correction enabled: true
Nonlinearity correction enabled: false
Boxcar width: 0
XAxis mode: Wavelengths
Number of Pixels in Spectrum: 2048
>>>>>Begin Spectral Data<<<<<
223.165	-7.69
223.4	-7.69
223.635	-7.69
223.869	-15.69
224.104	-29.69
224.338	-9.69
224.573	-14.69
224.808	-10.69
225.042	-16.69
225.277	6.31
225.511	4.31
225.746	21.31
225.98	6.31
226.215	15.31
226.449	16.31
226.683	7.31
226.918	14.31
227.152	13.31
227.387	30.31
227.621	28.31
227.856	34.31
228.09	44.31
228.324	49.31
228.559	37.31
228.793	56.31
229.027	57.31
229.262	66.31
229.496	54.31
229.73	79.31
229.964	81.31
230.199	73.31
230.433	62.31
230.667	79.31
230.901	77.31
231.136	65.31
231.37	68.31
231.604	79.31
231.838	71.31
232.072	83.31
232.306	83.31
232.541	81.31
232.775	79.31
233.009	68.31
233.243	79.31
233.477	76.31
233.711	77.31
233.945	81.31
234.179	69.31
234.413	72.31
234.647	77.31
234.881	74.31
235.115	71.31
235.349	71.31
235.583	72.31
235.817	69.31
236.051	74.31
236.285	75.31
236.519	72.31
236.753	77.31
236.987	64.31
237.221	76.31
237.455	54.31
237.689	65.31
237.922	73.31
238.156	80.31
238.39	73.31
238.624	65.31
238.858	76.31
239.091	73.31
239.325	77.31
239.559	66.31
239.793	85.31
240.027	68.31
240.26	75.31
240.494	66.31
240.728	72.31
240.961	72.31
241.195	79.31
241.429	65.31
241.662	63.31
241.896	78.31
242.13	79.31
242.363	65.31
242.597	68.31
242.83	83.31
243.064	57.31
243.298	62.31
243.531	60.31
243.765	68.31
243.998	67.31
244.232	84.31
244.465	73.31
244.699	59.31
244.932	72.31
245.166	79.31
245.399	77.31
245.633	74.31
245.866	78.31
246.099	53.31
246.333	73.31
246.566	69.31
246.8	58.31
247.033	67.31
247.266	67.31
247.5	76.31
247.733	71.31
247.966	80.31
248.2	69.31
248.433	74.31
248.666	85.31
248.899	61.31
249.133	77.31
249.366	65.31
249.599	61.31
249.832	77.31
250.066	72.31
250.299	64.31
250.532	86.31
250.765	80.31
250.998	73.31
251.231	79.31
251.465	89.31
251.698	64.31
251.931	64.31
252.164	76.31
252.397	66.31
252.63	73.31
252.863	79.31
253.096	89.31
253.329	71.31
253.562	66.31
253.795	66.31
254.028	81.31
254.261	63.31
254.494	85.31
254.727	87.31
254.96	68.31
255.193	69.31
255.426	79.31
255.659	75.31
255.892	69.31
256.124	76.31
256.357	77.31
256.59	85.31
256.823	86.31
257.056	76.31
257.289	73.31
257.521	79.31
257.754	78.31
257.987	78.31
258.22	79.31
258.452	70.31
258.685	86.31
258.918	69.31
259.151	72.31
259.383	73.31
259.616	75.31
259.849	87.31
260.081	84.31
260.314	61.31
260.547	81.31
260.779	65.31
261.012	82.31
261.244	71.31
261.477	71.31
261.71	87.31
261.942	84.31
262.175	64.31
262.407	68.31
262.64	81.31
262.872	74.31
263.105	69.31
263.337	83.31
263.57	78.31
263.802	78.31
264.035	86.31
264.267	68.31
264.499	79.31
264.732	81.31
264.964	80.31
265.197	74.31
265.429	75.31
265.661	63.31
265.894	81.31
266.126	67.31
266.358	71.31
266.591	69.31
266.823	71.31
267.055	96.31
267.287	86.31
267.52	69.31
267.752	69.31
267.984	70.31
268.216	70.31
268.448	69.31
268.681	97.31
268.913	86.31
269.145	68.31
269.377	83.31
269.609	79.31
269.841	78.31
270.073	73.31
270.306	96.31
270.538	84.31
270.77	70.31
271.002	77.31
271.234	89.31
271.466	72.31
271.698	84.31
271.93	78.31
272.162	91.31
272.394	84.31
272.626	74.31
272.858	78.31
273.09	71.31
273.322	78.31
273.553	86.31
273.785	72.31
274.017	77.31
274.249	89.31
274.481	79.31
274.713	72.31
274.945	83.31
275.176	86.31
275.408	72.31
275.64	68.31
275.872	74.31
276.104	69.31
276.335	81.31
276.567	71.31
276.799	99.31
277.031	72.31
277.262	66.31
277.494	70.31
277.726	69.31
277.957	81.31
278.189	69.31
278.421	84.31
278.652	91.31
278.884	84.31
279.115	86.31
279.347	79.31
279.579	72.31
279.81	64.31
280.042	77.31
280.273	84.31
280.505	78.31
280.736	61.31
280.968	78.31
281.199	86.31
281.431	82.31
281.662	88.31
281.894	98.31
282.125	79.31
282.356	68.31
282.588	75.31
282.819	76.31
283.051	85.31
283.282	86.31
283.513	67.31
283.745	82.31
283.976	69.31
284.207	83.31
284.439	91.31
284.67	82.31
284.901	77.31
285.132	77.31
285.364	81.31
285.595	69.31
285.826	73.31
286.057	76.31
286.288	61.31
286.52	87.31
286.751	85.31
286.982	72.31
287.213	67.31
287.444	86.31
287.675	82.31
287.906	90.31
288.138	75.31
288.369	81.31
288.6	73.31
288.831	64.31
289.062	82.31
289.293	103.31
289.524	85.31
289.755	82.31
289.986	81.31
290.217	67.31
290.448	82.31
290.679	76.31
290.91	81.31
291.141	79.31
291.371	74.31
291.602	65.31
291.833	73.31
292.064	79.31
292.295	71.31
292.526	75.31
292.757	84.31
292.987	53.31
293.218	91.31
293.449	86.31
293.68	81.31
293.91	81.31
294.141	76.31
294.372	81.31
294.603	79.31
294.833	76.31
295.064	74.31
295.295	71.31
295.525	69.31
295.756	78.31
295.987	81.31
296.217	73.31
296.448	83.31
296.679	86.31
296.909	79.31
297.14	91.31
297.37	73.31
297.601	74.31
297.831	68.31
298.062	94.31
298.292	75.31
298.523	86.31
298.753	68.31
298.984	75.31
299.214	75.31
299.445	79.31
299.675	78.31
299.905	81.31
300.136	86.31
300.366	88.31
300.597	74.31
300.827	81.31
301.057	62.31
301.288	78.31
301.518	89.31
301.748	75.31
301.979	82.31
302.209	76.31
302.439	76.31
302.669	81.31
302.9	74.31
303.13	86.31
303.36	83.31
303.59	79.31
303.82	79.31
304.051	82.31
304.281	75.31
304.511	76.31
304.741	88.31
304.971	83.31
305.201	92.31
305.431	76.31
305.661	84.31
305.891	78.31
306.121	88.31
306.352	75.31
306.582	72.31
306.812	81.31
307.042	83.31
307.272	81.31
307.502	92.31
307.731	66.31
307.961	86.31
308.191	82.31
308.421	82.31
308.651	90.31
308.881	79.31
309.111	87.31
309.341	98.31
309.571	79.31
309.8	65.31
310.03	79.31
310.26	77.31
310.49	80.31
310.72	74.31
310.949	82.31
311.179	78.31
311.409	85.31
311.639	79.31
311.868	72.31
312.098	79.31
312.328	82.31
312.557	85.31
312.787	78.31
313.017	70.31
313.246	84.31
313.476	87.31
313.706	78.31
313.935	77.31
314.165	80.31
314.394	75.31
314.624	76.31
314.853	74.31
315.083	76.31
315.312	77.31
315.542	81.31
315.771	70.31
316.001	79.31
316.23	86.31
316.46	80.31
316.689	77.31
316.919	67.31
317.148	78.31
317.377	84.31
317.607	70.31
317.836	67.31
318.065	86.31
318.295	69.31
318.524	90.31
318.753	75.31
318.983	73.31
319.212	81.31
319.441	78.31
319.67	69.31
319.9	70.31
320.129	76.31
320.358	74.31
320.587	64.31
320.816	72.31
321.046	81.31
321.275	78.31
321.504	92.31
321.733	68.31
321.962	69.31
322.191	78.31
322.42	87.31
322.649	85.31
322.878	76.31
323.108	88.31
323.337	69.31
323.566	68.31
323.795	88.31
324.024	71.31
324.253	85.31
324.482	95.31
324.71	72.31
324.939	72.31
325.168	67.31
325.397	77.31
325.626	85.31
325.855	79.31
326.084	81.31
326.313	77.31
326.542	68.31
326.77	91.31
326.999	86.31
327.228	82.31
327.457	83.31
327.686	80.31
327.914	75.31
328.143	95.31
328.372	66.31
328.6	84.31
328.829	71.31
329.058	76.31
329.287	70.31
329.515	77.31
329.744	83.31
329.972	72.31
330.201	81.31
330.43	80.31
330.658	77.31
330.887	83.31
331.115	89.31
331.344	81.31
331.572	76.31
331.801	70.31
332.03	81.31
332.258	64.31
332.486	79.31
332.715	84.31
332.943	75.31
333.172	73.31
333.4	71.31
333.629	66.31
333.857	70.31
334.085	84.31
334.314	76.31
334.542	78.31
334.771	74.31
334.999	69.31
335.227	85.31
335.455	77.31
335.684	78.31
335.912	83.31
336.14	75.31
336.369	76.31
336.597	81.31
336.825	70.31
337.053	65.31
337.281	80.31
337.51	81.31
337.738	70.31
337.966	82.31
338.194	65.31
338.422	79.31
338.65	88.31
338.878	78.31
339.106	74.31
339.334	89.31
339.562	76.31
339.79	85.31
340.018	82.31
340.246	73.31
340.474	76.31
340.702	76.31
340.93	78.31
341.158	79.31
341.386	76.31
341.614	69.31
341.842	71.31
342.07	75.31
342.298	82.31
342.526	80.31
342.754	82.31
342.981	79.31
343.209	83.31
343.437	77.31
343.665	85.31
343.893	79.31
344.12	89.31
344.348	80.31
344.576	86.31
344.804	74.31
345.031	83.31
345.259	86.31
345.487	71.31
345.714	83.31
345.942	74.31
346.17	69.31
346.397	72.31
346.625	83.31
346.853	76.31
347.08	83.31
347.308	82.31
347.535	85.31
347.763	65.31
347.99	78.31
348.218	71.31
348.445	78.31
348.673	73.31
348.9	89.31
349.128	73.31
349.355	72.31
349.583	76.31
349.81	80.31
350.037	77.31
350.265	78.31
350.492	86.31
350.72	76.31
350.947	80.31
351.174	76.31
351.402	82.31
351.629	84.31
351.856	102.31
352.083	82.31
352.311	83.31
352.538	75.31
352.765	81.31
352.992	66.31
353.22	79.31
353.447	67.31
353.674	89.31
353.901	71.31
354.128	72.31
354.355	95.31
354.583	77.31
354.81	69.31
355.037	71.31
355.264	71.31
355.491	81.31
355.718	71.31
355.945	79.31
356.172	82.31
356.399	67.31
356.626	84.31
356.853	87.31
357.08	77.31
357.307	87.31
357.534	76.31
357.761	74.31
357.988	78.31
358.215	90.31
358.441	79.31
358.668	70.31
358.895	71.31
359.122	66.31
359.349	83.31
359.576	82.31
359.802	67.31
360.029	78.31
360.256	80.31
360.483	79.31
360.709	70.31
360.936	73.31
361.163	86.31
361.39	75.31
361.616	85.31
361.843	77.31
362.07	82.31
362.296	62.31
362.523	76.31
362.749	81.31
362.976	68.31
363.203	80.31
363.429	68.31
363.656	78.31
363.882	82.31
364.109	75.31
364.335	65.31
364.562	93.31
364.788	80.31
365.015	78.31
365.241	65.31
365.468	75.31
365.694	76.31
365.92	94.31
366.147	83.31
366.373	73.31
366.599	79.31
366.826	77.31
367.052	82.31
367.278	86.31
367.505	91.31
367.731	75.31
367.957	67.31
368.184	83.31
368.41	97.31
368.636	79.31
368.862	79.31
369.089	78.31
369.315	60.31
369.541	76.31
369.767	67.31
369.993	84.31
370.219	73.31
370.445	85.31
370.672	82.31
370.898	73.31
371.124	71.31
371.35	66.31
371.576	71.31
371.802	68.31
372.028	79.31
372.254	70.31
372.48	87.31
372.706	71.31
372.932	73.31
373.158	80.31
373.384	84.31
373.61	84.31
373.835	77.31
374.061	71.31
374.287	61.31
374.513	79.31
374.739	67.31
374.965	72.31
375.191	85.31
375.416	86.31
375.642	71.31
375.868	78.31
376.094	78.31
376.319	73.31
376.545	70.31
376.771	85.31
376.997	70.31
377.222	79.31
377.448	102.31
377.674	72.31
377.899	73.31
378.125	81.31
378.35	70.31
378.576	76.31
378.802	90.31
379.027	79.31
379.253	86.31
379.478	71.31
379.704	66.31
379.929	83.31
380.155	89.31
380.38	83.31
380.606	75.31
380.831	92.31
381.057	95.31
381.282	92.31
381.507	84.31
381.733	84.31
381.958	84.31
382.184	68.31
382.409	92.31
382.634	79.31
382.86	72.31
383.085	89.31
383.31	78.31
383.535	79.31
383.761	86.31
383.986	89.31
384.211	78.31
384.436	79.31
384.662	83.31
384.887	83.31
385.112	91.31
385.337	75.31
385.562	73.31
385.787	81.31
386.013	93.31
386.238	89.31
386.463	75.31
386.688	77.31
386.913	89.31
387.138	86.31
387.363	83.31
387.588	90.31
387.813	85.31
388.038	89.31
388.263	83.31
388.488	70.31
388.713	82.31
388.938	89.31
389.163	95.31
389.387	83.31
389.612	78.31
389.837	83.31
390.062	61.31
390.287	63.31
390.512	81.31
390.736	67.31
390.961	85.31
391.186	95.31
391.411	70.31
391.636	82.31
391.86	76.31
392.085	82.31
392.31	72.31
392.534	80.31
392.759	75.31
392.984	82.31
393.208	75.31
393.433	81.31
393.658	78.31
393.882	85.31
394.107	71.31
394.331	77.31
394.556	91.31
394.78	75.31
395.005	77.31
395.229	90.31
395.454	86.31
395.678	97.31
395.903	98.31
396.127	84.31
396.352	71.31
396.576	80.31
396.801	64.31
397.025	86.31
397.249	88.31
397.474	99.31
397.698	83.31
397.922	88.31
398.147	77.31
398.371	79.31
398.595	89.31
398.82	69.31
399.044	80.31
399.268	80.31
399.492	78.31
399.717	78.31
399.941	78.31
400.165	77.31
400.389	69.31
400.613	81.31
400.837	75.31
401.062	80.31
401.286	93.31
401.51	71.31
401.734	93.31
401.958	92.31
402.182	64.31
402.406	91.31
402.63	77.31
402.854	93.31
403.078	95.31
403.302	83.31
403.526	91.31
403.75	95.31
403.974	82.31
404.198	88.31
404.422	75.31
404.645	91.31
404.869	86.31
405.093	81.31
405.317	81.31
405.541	88.31
405.765	83.31
405.988	74.31
406.212	83.31
406.436	100.31
406.66	99.31
406.883	83.31
407.107	86.31
407.331	90.31
407.555	86.31
407.778	90.31
408.002	85.31
408.226	90.31
408.449	96.31
408.673	94.31
408.896	77.31
409.12	93.31
409.344	83.31
409.567	85.31
409.791	72.31
410.014	86.31
410.238	89.31
410.461	82.31
410.685	88.31
410.908	88.31
411.132	89.31
411.355	85.31
411.578	76.31
411.802	75.31
412.025	91.31
412.249	91.31
412.472	84.31
412.695	80.31
412.919	77.31
413.142	82.31
413.365	85.31
413.589	79.31
413.812	82.31
414.035	86.31
414.258	84.31
414.482	98.31
414.705	77.31
414.928	83.31
415.151	94.31
415.374	88.31
415.597	65.31
415.821	95.31
416.044	99.31
416.267	87.31
416.49	83.31
416.713	93.31
416.936	89.31
417.159	98.31
417.382	81.31
417.605	85.31
417.828	101.31
418.051	86.31
418.274	92.31
418.497	93.31
418.72	95.31
418.943	101.31
419.166	79.31
419.389	88.31
419.611	87.31
419.834	78.31
420.057	100.31
420.28	97.31
420.503	99.31
420.726	72.31
420.948	96.31
421.171	100.31
421.394	91.31
421.617	92.31
421.839	94.31
422.062	94.31
422.285	73.31
422.507	89.31
422.73	86.31
422.953	89.31
423.175	73.31
423.398	96.31
423.621	81.31
423.843	101.31
424.066	102.31
424.288	99.31
424.511	100.31
424.733	86.31
424.956	96.31
425.178	84.31
425.401	84.31
425.623	100.31
425.846	105.31
426.068	95.31
426.291	95.31
426.513	95.31
426.735	98.31
426.958	84.31
427.18	89.31
427.402	90.31
427.625	96.31
427.847	81.31
428.069	90.31
428.292	78.31
428.514	90.31
428.736	91.31
428.958	93.31
429.181	79.31
429.403	90.31
429.625	92.31
429.847	87.31
430.069	92.31
430.292	90.31
430.514	94.31
430.736	100.31
430.958	86.31
431.18	107.31
431.402	87.31
431.624	84.31
431.846	87.31
432.068	88.31
432.29	103.31
432.512	80.31
432.734	94.31
432.956	87.31
433.178	100.31
433.4	96.31
433.622	98.31
433.844	95.31
434.066	94.31
434.287	85.31
434.509	83.31
434.731	77.31
434.953	62.31
435.175	82.31
435.397	102.31
435.618	102.31
435.84	82.31
436.062	77.31
436.284	88.31
436.505	92.31
436.727	92.31
436.949	106.31
437.17	85.31
437.392	84.31
437.614	92.31
437.835	94.31
438.057	88.31
438.278	85.31
438.5	87.31
438.721	97.31
438.943	94.31
439.165	94.31
439.386	97.31
439.608	100.31
439.829	96.31
440.05	95.31
440.272	102.31
440.493	97.31
440.715	92.31
440.936	83.31
441.158	95.31
441.379	100.31
441.6	100.31
441.822	103.31
442.043	99.31
442.264	98.31
442.486	101.31
442.707	88.31
442.928	85.31
443.149	103.31
443.371	105.31
443.592	82.31
443.813	80.31
444.034	83.31
444.255	84.31
444.476	93.31
444.698	97.31
444.919	96.31
445.14	211.31
445.361	147.31
445.582	90.31
445.803	101.31
446.024	108.31
446.245	103.31
446.466	98.31
446.687	90.31
446.908	102.31
447.129	103.31
447.35	108.31
447.571	91.31
447.792	106.31
448.013	105.31
448.234	91.31
448.455	93.31
448.675	92.31
448.896	84.31
449.117	99.31
449.338	102.31
449.559	84.31
449.779	92.31
450	77.31
450.221	102.31
450.442	101.31
450.662	103.31
450.883	110.31
451.104	87.31
451.324	88.31
451.545	83.31
451.766	107.31
451.986	101.31
452.207	75.31
452.428	105.31
452.648	85.31
452.869	77.31
453.089	78.31
453.31	85.31
453.53	80.31
453.751	84.31
453.971	75.31
454.192	86.31
454.412	81.31
454.633	83.31
454.853	104.31
455.073	85.31
455.294	85.31
455.514	87.31
455.734	82.31
455.955	79.31
456.175	85.31
456.395	71.31
456.616	89.31
456.836	85.31
457.056	78.31
457.276	97.31
457.497	92.31
457.717	76.31
457.937	84.31
458.157	95.31
458.377	71.31
458.598	97.31
458.818	62.31
459.038	66.31
459.258	92.31
459.478	85.31
459.698	77.31
459.918	74.31
460.138	73.31
460.358	86.31
460.578	78.31
460.798	87.31
461.018	82.31
461.238	82.31
461.458	89.31
461.678	84.31
461.898	82.31
462.118	96.31
462.338	81.31
462.558	92.31
462.777	83.31
462.997	87.31
463.217	80.31
463.437	75.31
463.657	86.31
463.876	92.31
464.096	81.31
464.316	92.31
464.536	85.31
464.755	99.31
464.975	91.31
465.195	84.31
465.414	93.31
465.634	86.31
465.854	91.31
466.073	95.31
466.293	96.31
466.512	79.31
466.732	85.31
466.951	108.31
467.171	99.31
467.391	105.31
467.61	93.31
467.829	88.31
468.049	89.31
468.268	87.31
468.488	81.31
468.707	107.31
468.927	84.31
469.146	97.31
469.365	86.31
469.585	90.31
469.804	105.31
470.023	98.31
470.243	91.31
470.462	89.31
470.681	83.31
470.901	87.31
471.12	80.31
471.339	99.31
471.558	94.31
471.777	96.31
471.997	91.31
472.216	83.31
472.435	107.31
472.654	87.31
472.873	85.31
473.092	79.31
473.311	87.31
473.53	79.31
473.749	100.31
473.968	90.31
474.187	78.31
474.406	93.31
474.625	86.31
474.844	92.31
475.063	97.31
475.282	85.31
475.501	90.31
475.72	97.31
475.939	90.31
476.158	106.31
476.377	102.31
476.596	94.31
476.814	87.31
477.033	80.31
477.252	94.31
477.471	87.31
477.69	93.31
477.908	93.31
478.127	97.31
478.346	100.31
478.564	81.31
478.783	96.31
479.002	85.31
479.22	95.31
479.439	90.31
479.658	87.31
479.876	88.31
480.095	80.31
480.313	93.31
480.532	86.31
480.751	88.31
480.969	82.31
481.188	81.31
481.406	80.31
481.624	68.31
481.843	85.31
482.061	77.31
482.28	86.31
482.498	89.31
482.717	81.31
482.935	73.31
483.153	108.31
483.372	93.31
483.59	98.31
483.808	100.31
484.027	101.31
484.245	89.31
484.463	109.31
484.681	102.31
484.9	95.31
485.118	102.31
485.336	93.31
485.554	85.31
485.772	70.31
485.99	88.31
486.209	86.31
486.427	90.31
486.645	96.31
486.863	85.31
487.081	95.31
487.299	83.31
487.517	91.31
487.735	96.31
487.953	110.31
488.171	125.31
488.389	107.31
488.607	103.31
488.825	96.31
489.043	101.31
489.261	106.31
489.479	92.31
489.696	107.31
489.914	89.31
490.132	94.31
490.35	96.31
490.568	96.31
490.786	114.31
491.003	105.31
491.221	116.31
491.439	102.31
491.657	110.31
491.874	121.31
492.092	113.31
492.31	130.31
492.527	119.31
492.745	105.31
492.963	105.31
493.18	107.31
493.398	109.31
493.615	109.31
493.833	115.31
494.05	121.31
494.268	109.31
494.485	110.31
494.703	95.31
494.92	93.31
495.138	100.31
495.355	85.31
495.573	104.31
495.79	87.31
496.008	102.31
496.225	111.31
496.442	95.31
496.66	109.31
496.877	99.31
497.094	102.31
497.312	101.31
497.529	95.31
497.746	90.31
497.963	104.31
498.181	105.31
498.398	87.31
498.615	85.31
498.832	101.31
499.049	87.31
499.267	80.31
499.484	81.31
499.701	90.31
499.918	85.31
500.135	102.31
500.352	78.31
500.569	90.31
500.786	92.31
501.003	94.31
501.22	105.31
501.437	87.31
501.654	78.31
501.871	97.31
502.088	81.31
502.305	94.31
502.522	98.31
502.739	91.31
502.956	99.31
503.172	89.31
503.389	73.31
503.606	79.31
503.823	90.31
504.04	90.31
504.256	88.31
504.473	102.31
504.69	91.31
504.907	98.31
505.123	102.31
505.34	94.31
505.557	94.31
505.773	79.31
505.99	97.31
506.207	102.31
506.423	95.31
506.64	94.31
506.856	93.31
507.073	94.31
507.289	67.31
507.506	91.31
507.722	84.31
507.939	89.31
508.155	97.31
508.372	78.31
508.588	93.31
508.805	88.31
509.021	82.31
509.238	102.31
509.454	85.31
509.67	85.31
509.887	73.31
510.103	89.31
510.319	79.31
510.536	81.31
510.752	87.31
510.968	95.31
511.184	81.31
511.401	76.31
511.617	80.31
511.833	83.31
512.049	76.31
512.265	97.31
512.481	86.31
512.698	80.31
512.914	90.31
513.13	85.31
513.346	73.31
513.562	85.31
513.778	76.31
513.994	59.31
514.21	77.31
514.426	86.31
514.642	85.31
514.858	83.31
515.074	77.31
515.29	72.31
515.506	90.31
515.721	87.31
515.937	82.31
516.153	85.31
516.369	74.31
516.585	83.31
516.801	94.31
517.016	88.31
517.232	81.31
517.448	73.31
517.664	77.31
517.879	91.31
518.095	88.31
