Data from Location3.07152019.Energy5.Lamp.07192019.3%Agarose_HRD10591_15-17-53-269.txt Node
Date: Fri Jul 19 15:17:53 EDT 2019
User: cochatt
Spectrometer: HR+D1059
Trigger mode: 1
Integration Time (sec): 1.000000E-1
Scans to average: 1
Electric dark correction enabled: true
Nonlinearity correction enabled: false
Boxcar width: 0
XAxis mode: Wavelengths
Number of Pixels in Spectrum: 2048
>>>>>Begin Spectral Data<<<<<
223.165	-18.81
223.4	-18.81
223.635	-18.81
223.869	-10.81
224.104	-22.81
224.338	-12.81
224.573	-0.81
224.808	-8.81
225.042	-20.81
225.277	-14.81
225.511	5.19
225.746	7.19
225.98	17.19
226.215	5.19
226.449	17.19
226.683	11.19
226.918	23.19
227.152	24.19
227.387	38.19
227.621	30.19
227.856	42.19
228.09	63.19
228.324	50.19
228.559	49.19
228.793	54.19
229.027	57.19
229.262	65.19
229.496	70.19
229.73	76.19
229.964	79.19
230.199	60.19
230.433	75.19
230.667	84.19
230.901	66.19
231.136	74.19
231.37	84.19
231.604	78.19
231.838	85.19
232.072	73.19
232.306	71.19
232.541	87.19
232.775	87.19
233.009	80.19
233.243	78.19
233.477	83.19
233.711	78.19
233.945	82.19
234.179	69.19
234.413	72.19
234.647	89.19
234.881	75.19
235.115	71.19
235.349	79.19
235.583	96.19
235.817	74.19
236.051	76.19
236.285	71.19
236.519	89.19
236.753	94.19
236.987	73.19
237.221	73.19
237.455	65.19
237.689	71.19
237.922	91.19
238.156	84.19
238.39	71.19
238.624	72.19
238.858	76.19
239.091	81.19
239.325	79.19
239.559	76.19
239.793	73.19
240.027	79.19
240.26	72.19
240.494	67.19
240.728	91.19
240.961	67.19
241.195	72.19
241.429	77.19
241.662	77.19
241.896	86.19
242.13	91.19
242.363	68.19
242.597	76.19
242.83	68.19
243.064	71.19
243.298	78.19
243.531	77.19
243.765	88.19
243.998	67.19
244.232	68.19
244.465	100.19
244.699	71.19
244.932	70.19
245.166	78.19
245.399	79.19
245.633	85.19
245.866	64.19
246.099	88.19
246.333	80.19
246.566	74.19
246.8	97.19
247.033	74.19
247.266	74.19
247.5	75.19
247.733	63.19
247.966	75.19
248.2	90.19
248.433	75.19
248.666	78.19
248.899	88.19
249.133	70.19
249.366	87.19
249.599	84.19
249.832	81.19
250.066	80.19
250.299	91.19
250.532	70.19
250.765	65.19
250.998	74.19
251.231	70.19
251.465	93.19
251.698	79.19
251.931	68.19
252.164	73.19
252.397	82.19
252.63	92.19
252.863	70.19
253.096	77.19
253.329	81.19
253.562	71.19
253.795	86.19
254.028	81.19
254.261	71.19
254.494	72.19
254.727	67.19
254.96	78.19
255.193	78.19
255.426	90.19
255.659	83.19
255.892	82.19
256.124	98.19
256.357	75.19
256.59	72.19
256.823	81.19
257.056	91.19
257.289	85.19
257.521	77.19
257.754	73.19
257.987	73.19
258.22	89.19
258.452	82.19
258.685	84.19
258.918	80.19
259.151	76.19
259.383	79.19
259.616	85.19
259.849	86.19
260.081	79.19
260.314	79.19
260.547	82.19
260.779	93.19
261.012	90.19
261.244	86.19
261.477	86.19
261.71	90.19
261.942	78.19
262.175	64.19
262.407	91.19
262.64	80.19
262.872	76.19
263.105	85.19
263.337	91.19
263.57	81.19
263.802	90.19
264.035	75.19
264.267	89.19
264.499	88.19
264.732	84.19
264.964	87.19
265.197	89.19
265.429	87.19
265.661	86.19
265.894	76.19
266.126	98.19
266.358	80.19
266.591	70.19
266.823	92.19
267.055	81.19
267.287	73.19
267.52	94.19
267.752	88.19
267.984	72.19
268.216	82.19
268.448	75.19
268.681	76.19
268.913	81.19
269.145	88.19
269.377	85.19
269.609	82.19
269.841	74.19
270.073	84.19
270.306	73.19
270.538	84.19
270.77	88.19
271.002	74.19
271.234	86.19
271.466	87.19
271.698	80.19
271.93	82.19
272.162	81.19
272.394	98.19
272.626	86.19
272.858	92.19
273.09	84.19
273.322	85.19
273.553	74.19
273.785	73.19
274.017	73.19
274.249	82.19
274.481	82.19
274.713	81.19
274.945	76.19
275.176	87.19
275.408	96.19
275.64	80.19
275.872	71.19
276.104	81.19
276.335	100.19
276.567	81.19
276.799	93.19
277.031	81.19
277.262	70.19
277.494	93.19
277.726	86.19
277.957	73.19
278.189	72.19
278.421	81.19
278.652	85.19
278.884	103.19
279.115	98.19
279.347	81.19
279.579	74.19
279.81	82.19
280.042	87.19
280.273	83.19
280.505	84.19
280.736	78.19
280.968	87.19
281.199	69.19
281.431	78.19
281.662	75.19
281.894	71.19
282.125	82.19
282.356	83.19
282.588	76.19
282.819	95.19
283.051	77.19
283.282	65.19
283.513	112.19
283.745	84.19
283.976	89.19
284.207	97.19
284.439	67.19
284.67	83.19
284.901	82.19
285.132	87.19
285.364	70.19
285.595	88.19
285.826	88.19
286.057	83.19
286.288	92.19
286.52	71.19
286.751	74.19
286.982	93.19
287.213	84.19
287.444	83.19
287.675	74.19
287.906	90.19
288.138	83.19
288.369	91.19
288.6	71.19
288.831	92.19
289.062	83.19
289.293	83.19
289.524	95.19
289.755	75.19
289.986	86.19
290.217	82.19
290.448	81.19
290.679	77.19
290.91	103.19
291.141	87.19
291.371	91.19
291.602	77.19
291.833	85.19
292.064	86.19
292.295	87.19
292.526	93.19
292.757	92.19
292.987	85.19
293.218	70.19
293.449	79.19
293.68	79.19
293.91	83.19
294.141	91.19
294.372	98.19
294.603	74.19
294.833	75.19
295.064	86.19
295.295	83.19
295.525	83.19
295.756	88.19
295.987	89.19
296.217	81.19
296.448	91.19
296.679	84.19
296.909	86.19
297.14	93.19
297.37	96.19
297.601	79.19
297.831	88.19
298.062	78.19
298.292	83.19
298.523	78.19
298.753	91.19
298.984	89.19
299.214	73.19
299.445	93.19
299.675	95.19
299.905	85.19
300.136	90.19
300.366	80.19
300.597	69.19
300.827	76.19
301.057	79.19
301.288	68.19
301.518	83.19
301.748	88.19
301.979	76.19
302.209	94.19
302.439	87.19
302.669	80.19
302.9	85.19
303.13	87.19
303.36	97.19
303.59	93.19
303.82	81.19
304.051	101.19
304.281	88.19
304.511	90.19
304.741	95.19
304.971	89.19
305.201	84.19
305.431	81.19
305.661	77.19
305.891	88.19
306.121	70.19
306.352	67.19
306.582	88.19
306.812	86.19
307.042	96.19
307.272	76.19
307.502	79.19
307.731	87.19
307.961	86.19
308.191	86.19
308.421	80.19
308.651	88.19
308.881	83.19
309.111	81.19
309.341	83.19
309.571	83.19
309.8	76.19
310.03	78.19
310.26	87.19
310.49	89.19
310.72	95.19
310.949	75.19
311.179	84.19
311.409	84.19
311.639	81.19
311.868	88.19
312.098	82.19
312.328	99.19
312.557	88.19
312.787	84.19
313.017	98.19
313.246	97.19
313.476	86.19
313.706	99.19
313.935	80.19
314.165	79.19
314.394	68.19
314.624	77.19
314.853	85.19
315.083	79.19
315.312	83.19
315.542	92.19
315.771	91.19
316.001	89.19
316.23	83.19
316.46	81.19
316.689	88.19
316.919	73.19
317.148	85.19
317.377	81.19
317.607	96.19
317.836	78.19
318.065	73.19
318.295	83.19
318.524	90.19
318.753	80.19
318.983	81.19
319.212	82.19
319.441	67.19
319.67	76.19
319.9	82.19
320.129	81.19
320.358	92.19
320.587	98.19
320.816	86.19
321.046	92.19
321.275	97.19
321.504	94.19
321.733	89.19
321.962	99.19
322.191	93.19
322.42	87.19
322.649	90.19
322.878	75.19
323.108	99.19
323.337	99.19
323.566	91.19
323.795	92.19
324.024	85.19
324.253	76.19
324.482	83.19
324.71	85.19
324.939	93.19
325.168	82.19
325.397	87.19
325.626	79.19
325.855	76.19
326.084	87.19
326.313	85.19
326.542	85.19
326.77	80.19
326.999	82.19
327.228	85.19
327.457	74.19
327.686	94.19
327.914	79.19
328.143	95.19
328.372	74.19
328.6	88.19
328.829	79.19
329.058	85.19
329.287	73.19
329.515	81.19
329.744	90.19
329.972	79.19
330.201	84.19
330.43	77.19
330.658	84.19
330.887	89.19
331.115	88.19
331.344	80.19
331.572	92.19
331.801	86.19
332.03	81.19
332.258	87.19
332.486	74.19
332.715	80.19
332.943	71.19
333.172	87.19
333.4	77.19
333.629	91.19
333.857	91.19
334.085	78.19
334.314	88.19
334.542	72.19
334.771	82.19
334.999	94.19
335.227	93.19
335.455	95.19
335.684	83.19
335.912	83.19
336.14	91.19
336.369	77.19
336.597	87.19
336.825	79.19
337.053	83.19
337.281	82.19
337.51	90.19
337.738	63.19
337.966	71.19
338.194	99.19
338.422	91.19
338.65	92.19
338.878	82.19
339.106	79.19
339.334	92.19
339.562	94.19
339.79	90.19
340.018	96.19
340.246	85.19
340.474	89.19
340.702	84.19
340.93	91.19
341.158	91.19
341.386	99.19
341.614	87.19
341.842	80.19
342.07	86.19
342.298	83.19
342.526	87.19
342.754	83.19
342.981	88.19
343.209	80.19
343.437	99.19
343.665	90.19
343.893	87.19
344.12	96.19
344.348	83.19
344.576	76.19
344.804	86.19
345.031	96.19
345.259	75.19
345.487	104.19
345.714	84.19
345.942	88.19
346.17	79.19
346.397	77.19
346.625	87.19
346.853	84.19
347.08	70.19
347.308	81.19
347.535	80.19
347.763	88.19
347.99	93.19
348.218	85.19
348.445	81.19
348.673	80.19
348.9	92.19
349.128	90.19
349.355	89.19
349.583	85.19
349.81	68.19
350.037	78.19
350.265	82.19
350.492	96.19
350.72	85.19
350.947	85.19
351.174	89.19
351.402	106.19
351.629	88.19
351.856	87.19
352.083	86.19
352.311	68.19
352.538	93.19
352.765	76.19
352.992	74.19
353.22	93.19
353.447	82.19
353.674	88.19
353.901	85.19
354.128	90.19
354.355	93.19
354.583	94.19
354.81	95.19
355.037	84.19
355.264	84.19
355.491	80.19
355.718	89.19
355.945	95.19
356.172	86.19
356.399	76.19
356.626	75.19
356.853	89.19
357.08	90.19
357.307	87.19
357.534	94.19
357.761	94.19
357.988	89.19
358.215	98.19
358.441	93.19
358.668	77.19
358.895	72.19
359.122	73.19
359.349	90.19
359.576	86.19
359.802	87.19
360.029	90.19
360.256	101.19
360.483	81.19
360.709	74.19
360.936	90.19
361.163	91.19
361.39	85.19
361.616	74.19
361.843	89.19
362.07	96.19
362.296	82.19
362.523	71.19
362.749	95.19
362.976	98.19
363.203	90.19
363.429	88.19
363.656	75.19
363.882	91.19
364.109	92.19
364.335	96.19
364.562	86.19
364.788	87.19
365.015	92.19
365.241	85.19
365.468	90.19
365.694	79.19
365.92	83.19
366.147	91.19
366.373	80.19
366.599	88.19
366.826	85.19
367.052	93.19
367.278	89.19
367.505	96.19
367.731	92.19
367.957	76.19
368.184	88.19
368.41	83.19
368.636	83.19
368.862	92.19
369.089	95.19
369.315	88.19
369.541	79.19
369.767	90.19
369.993	85.19
370.219	84.19
370.445	77.19
370.672	86.19
370.898	86.19
371.124	95.19
371.35	86.19
371.576	104.19
371.802	91.19
372.028	87.19
372.254	87.19
372.48	81.19
372.706	88.19
372.932	83.19
373.158	78.19
373.384	100.19
373.61	77.19
373.835	91.19
374.061	90.19
374.287	86.19
374.513	82.19
374.739	76.19
374.965	82.19
375.191	87.19
375.416	98.19
375.642	83.19
375.868	82.19
376.094	80.19
376.319	83.19
376.545	89.19
376.771	88.19
376.997	76.19
377.222	96.19
377.448	95.19
377.674	76.19
377.899	76.19
378.125	88.19
378.35	77.19
378.576	90.19
378.802	87.19
379.027	87.19
379.253	91.19
379.478	83.19
379.704	84.19
379.929	84.19
380.155	93.19
380.38	75.19
380.606	76.19
380.831	89.19
381.057	92.19
381.282	80.19
381.507	82.19
381.733	85.19
381.958	91.19
382.184	92.19
382.409	90.19
382.634	84.19
382.86	88.19
383.085	91.19
383.31	79.19
383.535	88.19
383.761	77.19
383.986	91.19
384.211	76.19
384.436	94.19
384.662	95.19
384.887	92.19
385.112	77.19
385.337	84.19
385.562	93.19
385.787	87.19
386.013	98.19
386.238	87.19
386.463	81.19
386.688	78.19
386.913	87.19
387.138	92.19
387.363	84.19
387.588	78.19
387.813	91.19
388.038	82.19
388.263	90.19
388.488	100.19
388.713	89.19
388.938	76.19
389.163	82.19
389.387	80.19
389.612	86.19
389.837	79.19
390.062	80.19
390.287	79.19
390.512	87.19
390.736	88.19
390.961	88.19
391.186	95.19
391.411	90.19
391.636	95.19
391.86	100.19
392.085	89.19
392.31	101.19
392.534	88.19
392.759	76.19
392.984	82.19
393.208	99.19
393.433	79.19
393.658	100.19
393.882	85.19
394.107	92.19
394.331	94.19
394.556	77.19
394.78	93.19
395.005	92.19
395.229	95.19
395.454	87.19
395.678	72.19
395.903	80.19
396.127	83.19
396.352	91.19
396.576	87.19
396.801	90.19
397.025	75.19
397.249	96.19
397.474	90.19
397.698	96.19
397.922	93.19
398.147	90.19
398.371	95.19
398.595	88.19
398.82	82.19
399.044	74.19
399.268	108.19
399.492	84.19
399.717	89.19
399.941	92.19
400.165	81.19
400.389	97.19
400.613	90.19
400.837	85.19
401.062	80.19
401.286	96.19
401.51	72.19
401.734	90.19
401.958	84.19
402.182	93.19
402.406	79.19
402.63	83.19
402.854	86.19
403.078	99.19
403.302	95.19
403.526	92.19
403.75	94.19
403.974	87.19
404.198	88.19
404.422	96.19
404.645	88.19
404.869	74.19
405.093	88.19
405.317	78.19
405.541	84.19
405.765	89.19
405.988	93.19
406.212	95.19
406.436	94.19
406.66	90.19
406.883	107.19
407.107	97.19
407.331	71.19
407.555	80.19
407.778	85.19
408.002	85.19
408.226	83.19
408.449	92.19
408.673	84.19
408.896	98.19
409.12	92.19
409.344	81.19
409.567	81.19
409.791	84.19
410.014	88.19
410.238	93.19
410.461	92.19
410.685	99.19
410.908	83.19
411.132	93.19
411.355	93.19
411.578	101.19
411.802	88.19
412.025	84.19
412.249	83.19
412.472	87.19
412.695	82.19
412.919	74.19
413.142	97.19
413.365	99.19
413.589	94.19
413.812	81.19
414.035	92.19
414.258	83.19
414.482	82.19
414.705	93.19
414.928	108.19
415.151	94.19
415.374	89.19
415.597	90.19
415.821	89.19
416.044	85.19
416.267	97.19
416.49	80.19
416.713	115.19
416.936	75.19
417.159	98.19
417.382	95.19
417.605	93.19
417.828	89.19
418.051	89.19
418.274	94.19
418.497	93.19
418.72	96.19
418.943	86.19
419.166	80.19
419.389	91.19
419.611	95.19
419.834	97.19
420.057	100.19
420.28	100.19
420.503	97.19
420.726	94.19
420.948	100.19
421.171	95.19
421.394	87.19
421.617	81.19
421.839	105.19
422.062	98.19
422.285	85.19
422.507	101.19
422.73	97.19
422.953	88.19
423.175	92.19
423.398	100.19
423.621	105.19
423.843	86.19
424.066	96.19
424.288	95.19
424.511	99.19
424.733	111.19
424.956	95.19
425.178	83.19
425.401	85.19
425.623	94.19
425.846	93.19
426.068	90.19
426.291	85.19
426.513	106.19
426.735	98.19
426.958	100.19
427.18	95.19
427.402	91.19
427.625	95.19
427.847	88.19
428.069	82.19
428.292	86.19
428.514	95.19
428.736	88.19
428.958	99.19
429.181	100.19
429.403	81.19
429.625	88.19
429.847	91.19
430.069	97.19
430.292	92.19
430.514	77.19
430.736	90.19
430.958	92.19
431.18	101.19
431.402	101.19
431.624	101.19
431.846	86.19
432.068	79.19
432.29	77.19
432.512	95.19
432.734	98.19
432.956	91.19
433.178	92.19
433.4	94.19
433.622	96.19
433.844	90.19
434.066	84.19
434.287	90.19
434.509	89.19
434.731	90.19
434.953	67.19
435.175	73.19
435.397	89.19
435.618	86.19
435.84	92.19
436.062	93.19
436.284	87.19
436.505	95.19
436.727	103.19
436.949	93.19
437.17	103.19
437.392	86.19
437.614	92.19
437.835	89.19
438.057	91.19
438.278	93.19
438.5	88.19
438.721	93.19
438.943	100.19
439.165	77.19
439.386	90.19
439.608	88.19
439.829	101.19
440.05	91.19
440.272	86.19
440.493	93.19
440.715	107.19
440.936	113.19
441.158	89.19
441.379	89.19
441.6	94.19
441.822	83.19
442.043	79.19
442.264	85.19
442.486	82.19
442.707	100.19
442.928	103.19
443.149	97.19
443.371	113.19
443.592	76.19
443.813	84.19
444.034	91.19
444.255	101.19
444.476	107.19
444.698	106.19
444.919	113.19
445.14	201.19
445.361	127.19
445.582	114.19
445.803	96.19
446.024	99.19
446.245	88.19
446.466	90.19
446.687	95.19
446.908	101.19
447.129	101.19
447.35	97.19
447.571	106.19
447.792	94.19
448.013	85.19
448.234	75.19
448.455	107.19
448.675	111.19
448.896	94.19
449.117	89.19
449.338	84.19
449.559	77.19
449.779	86.19
450	94.19
450.221	93.19
450.442	95.19
450.662	96.19
450.883	99.19
451.104	92.19
451.324	91.19
451.545	91.19
451.766	93.19
451.986	93.19
452.207	95.19
452.428	99.19
452.648	106.19
452.869	98.19
453.089	98.19
453.31	77.19
453.53	89.19
453.751	83.19
453.971	87.19
454.192	85.19
454.412	77.19
454.633	101.19
454.853	95.19
455.073	98.19
455.294	99.19
455.514	99.19
455.734	84.19
455.955	98.19
456.175	99.19
456.395	90.19
456.616	87.19
456.836	99.19
457.056	87.19
457.276	68.19
457.497	88.19
457.717	87.19
457.937	96.19
458.157	94.19
458.377	82.19
458.598	89.19
458.818	84.19
459.038	92.19
459.258	83.19
459.478	79.19
459.698	96.19
459.918	88.19
460.138	68.19
460.358	104.19
460.578	84.19
460.798	92.19
461.018	97.19
461.238	83.19
461.458	82.19
461.678	100.19
461.898	87.19
462.118	88.19
462.338	101.19
462.558	94.19
462.777	76.19
462.997	88.19
463.217	91.19
463.437	82.19
463.657	89.19
463.876	89.19
464.096	88.19
464.316	99.19
464.536	93.19
464.755	89.19
464.975	91.19
465.195	62.19
465.414	86.19
465.634	88.19
465.854	92.19
466.073	80.19
466.293	102.19
466.512	106.19
466.732	81.19
466.951	105.19
467.171	86.19
467.391	93.19
467.61	104.19
467.829	94.19
468.049	97.19
468.268	84.19
468.488	106.19
468.707	106.19
468.927	98.19
469.146	108.19
469.365	90.19
469.585	98.19
469.804	119.19
470.023	97.19
470.243	107.19
470.462	97.19
470.681	100.19
470.901	91.19
471.12	96.19
471.339	80.19
471.558	90.19
471.777	94.19
471.997	102.19
472.216	79.19
472.435	83.19
472.654	90.19
472.873	88.19
473.092	88.19
473.311	93.19
473.53	96.19
473.749	99.19
473.968	95.19
474.187	104.19
474.406	99.19
474.625	93.19
474.844	100.19
475.063	83.19
475.282	95.19
475.501	99.19
475.72	104.19
475.939	93.19
476.158	101.19
476.377	113.19
476.596	88.19
476.814	103.19
477.033	93.19
477.252	90.19
477.471	79.19
477.69	89.19
477.908	92.19
478.127	106.19
478.346	100.19
478.564	92.19
478.783	99.19
479.002	84.19
479.22	90.19
479.439	113.19
479.658	86.19
479.876	95.19
480.095	91.19
480.313	92.19
480.532	95.19
480.751	91.19
480.969	95.19
481.188	91.19
481.406	84.19
481.624	80.19
481.843	85.19
482.061	82.19
482.28	75.19
482.498	101.19
482.717	75.19
482.935	105.19
483.153	107.19
483.372	102.19
483.59	99.19
483.808	100.19
484.027	91.19
484.245	92.19
484.463	90.19
484.681	107.19
484.9	94.19
485.118	103.19
485.336	90.19
485.554	101.19
485.772	84.19
485.99	96.19
486.209	99.19
486.427	88.19
486.645	73.19
486.863	86.19
487.081	102.19
487.299	99.19
487.517	87.19
487.735	96.19
487.953	131.19
488.171	109.19
488.389	115.19
488.607	88.19
488.825	104.19
489.043	83.19
489.261	93.19
489.479	103.19
489.696	107.19
489.914	93.19
490.132	95.19
490.35	91.19
490.568	102.19
490.786	115.19
491.003	115.19
491.221	103.19
491.439	127.19
491.657	112.19
491.874	126.19
492.092	123.19
492.31	144.19
492.527	124.19
492.745	109.19
492.963	116.19
493.18	111.19
493.398	112.19
493.615	113.19
493.833	97.19
494.05	102.19
494.268	132.19
494.485	107.19
494.703	108.19
494.92	104.19
495.138	108.19
495.355	103.19
495.573	94.19
495.79	98.19
496.008	105.19
496.225	91.19
496.442	102.19
496.66	101.19
496.877	109.19
497.094	103.19
497.312	95.19
497.529	109.19
497.746	104.19
497.963	106.19
498.181	97.19
498.398	99.19
498.615	91.19
498.832	93.19
499.049	96.19
499.267	83.19
499.484	83.19
499.701	99.19
499.918	107.19
500.135	91.19
500.352	113.19
500.569	89.19
500.786	101.19
501.003	95.19
501.22	100.19
501.437	107.19
501.654	100.19
501.871	104.19
502.088	98.19
502.305	99.19
502.522	87.19
502.739	94.19
502.956	104.19
503.172	101.19
503.389	106.19
503.606	103.19
503.823	99.19
504.04	90.19
504.256	96.19
504.473	91.19
504.69	95.19
504.907	99.19
505.123	82.19
505.34	96.19
505.557	101.19
505.773	119.19
505.99	87.19
506.207	106.19
506.423	88.19
506.64	98.19
506.856	104.19
507.073	95.19
507.289	102.19
507.506	104.19
507.722	94.19
507.939	88.19
508.155	96.19
508.372	105.19
508.588	83.19
508.805	105.19
509.021	84.19
509.238	94.19
509.454	76.19
509.67	105.19
509.887	105.19
510.103	90.19
510.319	82.19
510.536	86.19
510.752	91.19
510.968	93.19
511.184	96.19
511.401	95.19
511.617	93.19
511.833	87.19
512.049	87.19
512.265	81.19
512.481	78.19
512.698	90.19
512.914	80.19
513.13	91.19
513.346	93.19
513.562	80.19
513.778	90.19
513.994	83.19
514.21	79.19
514.426	85.19
514.642	73.19
514.858	98.19
515.074	81.19
515.29	71.19
515.506	88.19
515.721	88.19
515.937	71.19
516.153	75.19
516.369	81.19
516.585	75.19
516.801	78.19
517.016	94.19
517.232	79.19
517.448	99.19
