Data from Location3.07152019.Energy5.Lamp.07192019.3%Agarose_HRD10591_15-17-25-269.txt Node
Date: Fri Jul 19 15:17:25 EDT 2019
User: cochatt
Spectrometer: HR+D1059
Trigger mode: 1
Integration Time (sec): 1.000000E-1
Scans to average: 1
Electric dark correction enabled: true
Nonlinearity correction enabled: false
Boxcar width: 0
XAxis mode: Wavelengths
Number of Pixels in Spectrum: 2048
>>>>>Begin Spectral Data<<<<<
223.165	-20.06
223.4	-20.06
223.635	-20.06
223.869	-11.06
224.104	-13.06
224.338	-23.06
224.573	-1.06
224.808	-8.06
225.042	-12.06
225.277	-8.06
225.511	6.94
225.746	-10.06
225.98	15.94
226.215	1.94
226.449	21.94
226.683	8.94
226.918	26.94
227.152	23.94
227.387	35.94
227.621	32.94
227.856	39.94
228.09	37.94
228.324	54.94
228.559	61.94
228.793	64.94
229.027	49.94
229.262	59.94
229.496	70.94
229.73	62.94
229.964	71.94
230.199	81.94
230.433	75.94
230.667	72.94
230.901	69.94
231.136	86.94
231.37	83.94
231.604	85.94
231.838	73.94
232.072	83.94
232.306	78.94
232.541	78.94
232.775	81.94
233.009	87.94
233.243	81.94
233.477	77.94
233.711	84.94
233.945	87.94
234.179	83.94
234.413	88.94
234.647	77.94
234.881	76.94
235.115	88.94
235.349	84.94
235.583	70.94
235.817	71.94
236.051	76.94
236.285	59.94
236.519	64.94
236.753	73.94
236.987	70.94
237.221	69.94
237.455	64.94
237.689	72.94
237.922	69.94
238.156	64.94
238.39	72.94
238.624	79.94
238.858	76.94
239.091	87.94
239.325	64.94
239.559	83.94
239.793	57.94
240.027	83.94
240.26	69.94
240.494	89.94
240.728	58.94
240.961	63.94
241.195	72.94
241.429	84.94
241.662	62.94
241.896	85.94
242.13	71.94
242.363	78.94
242.597	57.94
242.83	77.94
243.064	73.94
243.298	74.94
243.531	62.94
243.765	75.94
243.998	69.94
244.232	78.94
244.465	65.94
244.699	67.94
244.932	80.94
245.166	73.94
245.399	73.94
245.633	89.94
245.866	80.94
246.099	72.94
246.333	76.94
246.566	85.94
246.8	77.94
247.033	74.94
247.266	59.94
247.5	86.94
247.733	75.94
247.966	65.94
248.2	81.94
248.433	76.94
248.666	80.94
248.899	83.94
249.133	75.94
249.366	81.94
249.599	76.94
249.832	74.94
250.066	65.94
250.299	78.94
250.532	81.94
250.765	72.94
250.998	71.94
251.231	60.94
251.465	69.94
251.698	79.94
251.931	76.94
252.164	85.94
252.397	68.94
252.63	92.94
252.863	69.94
253.096	54.94
253.329	80.94
253.562	66.94
253.795	81.94
254.028	72.94
254.261	89.94
254.494	73.94
254.727	82.94
254.96	72.94
255.193	81.94
255.426	75.94
255.659	75.94
255.892	86.94
256.124	66.94
256.357	92.94
256.59	78.94
256.823	94.94
257.056	83.94
257.289	75.94
257.521	82.94
257.754	90.94
257.987	92.94
258.22	92.94
258.452	75.94
258.685	72.94
258.918	64.94
259.151	64.94
259.383	95.94
259.616	83.94
259.849	81.94
260.081	68.94
260.314	81.94
260.547	81.94
260.779	74.94
261.012	86.94
261.244	81.94
261.477	87.94
261.71	92.94
261.942	83.94
262.175	89.94
262.407	88.94
262.64	73.94
262.872	77.94
263.105	87.94
263.337	72.94
263.57	78.94
263.802	78.94
264.035	80.94
264.267	70.94
264.499	79.94
264.732	79.94
264.964	82.94
265.197	72.94
265.429	79.94
265.661	101.94
265.894	89.94
266.126	77.94
266.358	84.94
266.591	88.94
266.823	68.94
267.055	101.94
267.287	82.94
267.52	76.94
267.752	79.94
267.984	59.94
268.216	80.94
268.448	75.94
268.681	87.94
268.913	81.94
269.145	76.94
269.377	85.94
269.609	64.94
269.841	84.94
270.073	78.94
270.306	68.94
270.538	58.94
270.77	76.94
271.002	73.94
271.234	100.94
271.466	91.94
271.698	82.94
271.93	86.94
272.162	81.94
272.394	69.94
272.626	82.94
272.858	78.94
273.09	91.94
273.322	85.94
273.553	76.94
273.785	83.94
274.017	73.94
274.249	86.94
274.481	87.94
274.713	85.94
274.945	88.94
275.176	85.94
275.408	82.94
275.64	90.94
275.872	83.94
276.104	97.94
276.335	84.94
276.567	85.94
276.799	83.94
277.031	80.94
277.262	102.94
277.494	88.94
277.726	94.94
277.957	81.94
278.189	79.94
278.421	83.94
278.652	75.94
278.884	86.94
279.115	70.94
279.347	78.94
279.579	89.94
279.81	83.94
280.042	85.94
280.273	89.94
280.505	86.94
280.736	96.94
280.968	67.94
281.199	79.94
281.431	74.94
281.662	83.94
281.894	79.94
282.125	83.94
282.356	94.94
282.588	83.94
282.819	78.94
283.051	79.94
283.282	80.94
283.513	76.94
283.745	78.94
283.976	73.94
284.207	82.94
284.439	73.94
284.67	84.94
284.901	81.94
285.132	77.94
285.364	82.94
285.595	100.94
285.826	78.94
286.057	81.94
286.288	87.94
286.52	80.94
286.751	77.94
286.982	71.94
287.213	82.94
287.444	79.94
287.675	72.94
287.906	81.94
288.138	75.94
288.369	91.94
288.6	65.94
288.831	74.94
289.062	82.94
289.293	76.94
289.524	90.94
289.755	74.94
289.986	79.94
290.217	88.94
290.448	98.94
290.679	86.94
290.91	79.94
291.141	78.94
291.371	69.94
291.602	78.94
291.833	75.94
292.064	87.94
292.295	80.94
292.526	71.94
292.757	80.94
292.987	79.94
293.218	75.94
293.449	89.94
293.68	83.94
293.91	75.94
294.141	73.94
294.372	81.94
294.603	87.94
294.833	90.94
295.064	83.94
295.295	86.94
295.525	84.94
295.756	86.94
295.987	79.94
296.217	88.94
296.448	76.94
296.679	95.94
296.909	77.94
297.14	71.94
297.37	76.94
297.601	86.94
297.831	84.94
298.062	86.94
298.292	88.94
298.523	85.94
298.753	89.94
298.984	96.94
299.214	80.94
299.445	78.94
299.675	75.94
299.905	82.94
300.136	79.94
300.366	74.94
300.597	94.94
300.827	77.94
301.057	66.94
301.288	76.94
301.518	81.94
301.748	76.94
301.979	85.94
302.209	77.94
302.439	72.94
302.669	75.94
302.9	66.94
303.13	75.94
303.36	83.94
303.59	83.94
303.82	92.94
304.051	77.94
304.281	79.94
304.511	86.94
304.741	89.94
304.971	78.94
305.201	93.94
305.431	83.94
305.661	75.94
305.891	81.94
306.121	86.94
306.352	87.94
306.582	86.94
306.812	81.94
307.042	85.94
307.272	84.94
307.502	87.94
307.731	72.94
307.961	87.94
308.191	91.94
308.421	88.94
308.651	98.94
308.881	79.94
309.111	69.94
309.341	79.94
309.571	76.94
309.8	79.94
310.03	76.94
310.26	75.94
310.49	83.94
310.72	92.94
310.949	85.94
311.179	78.94
311.409	89.94
311.639	78.94
311.868	77.94
312.098	92.94
312.328	88.94
312.557	88.94
312.787	84.94
313.017	79.94
313.246	85.94
313.476	82.94
313.706	91.94
313.935	85.94
314.165	65.94
314.394	69.94
314.624	85.94
314.853	74.94
315.083	88.94
315.312	70.94
315.542	74.94
315.771	84.94
316.001	83.94
316.23	71.94
316.46	68.94
316.689	79.94
316.919	80.94
317.148	84.94
317.377	87.94
317.607	82.94
317.836	97.94
318.065	90.94
318.295	70.94
318.524	84.94
318.753	77.94
318.983	81.94
319.212	77.94
319.441	93.94
319.67	82.94
319.9	85.94
320.129	75.94
320.358	83.94
320.587	79.94
320.816	70.94
321.046	70.94
321.275	83.94
321.504	83.94
321.733	77.94
321.962	75.94
322.191	80.94
322.42	80.94
322.649	81.94
322.878	89.94
323.108	74.94
323.337	80.94
323.566	87.94
323.795	90.94
324.024	73.94
324.253	73.94
324.482	78.94
324.71	80.94
324.939	89.94
325.168	87.94
325.397	85.94
325.626	76.94
325.855	75.94
326.084	76.94
326.313	83.94
326.542	71.94
326.77	87.94
326.999	79.94
327.228	84.94
327.457	76.94
327.686	93.94
327.914	96.94
328.143	79.94
328.372	85.94
328.6	84.94
328.829	86.94
329.058	78.94
329.287	67.94
329.515	75.94
329.744	77.94
329.972	90.94
330.201	68.94
330.43	82.94
330.658	83.94
330.887	85.94
331.115	89.94
331.344	80.94
331.572	78.94
331.801	93.94
332.03	78.94
332.258	80.94
332.486	81.94
332.715	72.94
332.943	78.94
333.172	75.94
333.4	85.94
333.629	96.94
333.857	71.94
334.085	80.94
334.314	66.94
334.542	80.94
334.771	83.94
334.999	87.94
335.227	83.94
335.455	88.94
335.684	83.94
335.912	82.94
336.14	101.94
336.369	86.94
336.597	79.94
336.825	88.94
337.053	80.94
337.281	85.94
337.51	78.94
337.738	65.94
337.966	79.94
338.194	92.94
338.422	73.94
338.65	76.94
338.878	93.94
339.106	87.94
339.334	79.94
339.562	87.94
339.79	86.94
340.018	80.94
340.246	90.94
340.474	78.94
340.702	76.94
340.93	79.94
341.158	88.94
341.386	84.94
341.614	78.94
341.842	82.94
342.07	83.94
342.298	69.94
342.526	86.94
342.754	80.94
342.981	85.94
343.209	78.94
343.437	83.94
343.665	80.94
343.893	82.94
344.12	82.94
344.348	85.94
344.576	70.94
344.804	89.94
345.031	88.94
345.259	69.94
345.487	90.94
345.714	98.94
345.942	73.94
346.17	78.94
346.397	83.94
346.625	92.94
346.853	78.94
347.08	76.94
347.308	79.94
347.535	88.94
347.763	82.94
347.99	84.94
348.218	87.94
348.445	76.94
348.673	71.94
348.9	91.94
349.128	85.94
349.355	67.94
349.583	63.94
349.81	60.94
350.037	81.94
350.265	76.94
350.492	80.94
350.72	69.94
350.947	81.94
351.174	79.94
351.402	72.94
351.629	81.94
351.856	90.94
352.083	93.94
352.311	76.94
352.538	75.94
352.765	67.94
352.992	78.94
353.22	86.94
353.447	83.94
353.674	77.94
353.901	106.94
354.128	84.94
354.355	88.94
354.583	92.94
354.81	96.94
355.037	72.94
355.264	88.94
355.491	76.94
355.718	74.94
355.945	81.94
356.172	76.94
356.399	84.94
356.626	79.94
356.853	71.94
357.08	72.94
357.307	85.94
357.534	81.94
357.761	85.94
357.988	83.94
358.215	85.94
358.441	85.94
358.668	92.94
358.895	92.94
359.122	73.94
359.349	81.94
359.576	74.94
359.802	85.94
360.029	79.94
360.256	78.94
360.483	87.94
360.709	79.94
360.936	84.94
361.163	83.94
361.39	73.94
361.616	79.94
361.843	77.94
362.07	69.94
362.296	78.94
362.523	89.94
362.749	86.94
362.976	72.94
363.203	76.94
363.429	83.94
363.656	71.94
363.882	81.94
364.109	86.94
364.335	83.94
364.562	84.94
364.788	79.94
365.015	77.94
365.241	77.94
365.468	78.94
365.694	85.94
365.92	95.94
366.147	77.94
366.373	77.94
366.599	65.94
366.826	88.94
367.052	88.94
367.278	80.94
367.505	72.94
367.731	90.94
367.957	51.94
368.184	77.94
368.41	73.94
368.636	77.94
368.862	86.94
369.089	82.94
369.315	83.94
369.541	86.94
369.767	72.94
369.993	80.94
370.219	76.94
370.445	85.94
370.672	110.94
370.898	79.94
371.124	83.94
371.35	84.94
371.576	74.94
371.802	83.94
372.028	74.94
372.254	87.94
372.48	78.94
372.706	84.94
372.932	82.94
373.158	85.94
373.384	86.94
373.61	88.94
373.835	80.94
374.061	85.94
374.287	82.94
374.513	92.94
374.739	79.94
374.965	86.94
375.191	85.94
375.416	67.94
375.642	80.94
375.868	101.94
376.094	91.94
376.319	80.94
376.545	82.94
376.771	66.94
376.997	79.94
377.222	87.94
377.448	86.94
377.674	91.94
377.899	85.94
378.125	66.94
378.35	80.94
378.576	70.94
378.802	74.94
379.027	74.94
379.253	103.94
379.478	75.94
379.704	95.94
379.929	91.94
380.155	81.94
380.38	79.94
380.606	80.94
380.831	98.94
381.057	94.94
381.282	93.94
381.507	90.94
381.733	82.94
381.958	86.94
382.184	83.94
382.409	79.94
382.634	84.94
382.86	73.94
383.085	81.94
383.31	93.94
383.535	92.94
383.761	70.94
383.986	90.94
384.211	87.94
384.436	87.94
384.662	81.94
384.887	92.94
385.112	87.94
385.337	79.94
385.562	70.94
385.787	80.94
386.013	85.94
386.238	84.94
386.463	80.94
386.688	97.94
386.913	88.94
387.138	83.94
387.363	82.94
387.588	82.94
387.813	80.94
388.038	85.94
388.263	88.94
388.488	76.94
388.713	85.94
388.938	75.94
389.163	82.94
389.387	97.94
389.612	72.94
389.837	95.94
390.062	82.94
390.287	83.94
390.512	77.94
390.736	81.94
390.961	82.94
391.186	83.94
391.411	100.94
391.636	101.94
391.86	95.94
392.085	85.94
392.31	85.94
392.534	92.94
392.759	86.94
392.984	94.94
393.208	83.94
393.433	77.94
393.658	89.94
393.882	81.94
394.107	79.94
394.331	69.94
394.556	95.94
394.78	75.94
395.005	91.94
395.229	74.94
395.454	79.94
395.678	71.94
395.903	87.94
396.127	82.94
396.352	86.94
396.576	84.94
396.801	99.94
397.025	80.94
397.249	98.94
397.474	91.94
397.698	92.94
397.922	87.94
398.147	80.94
398.371	90.94
398.595	92.94
398.82	76.94
399.044	81.94
399.268	88.94
399.492	79.94
399.717	84.94
399.941	82.94
400.165	83.94
400.389	80.94
400.613	92.94
400.837	77.94
401.062	81.94
401.286	90.94
401.51	85.94
401.734	73.94
401.958	74.94
402.182	81.94
402.406	85.94
402.63	88.94
402.854	99.94
403.078	86.94
403.302	93.94
403.526	78.94
403.75	91.94
403.974	84.94
404.198	102.94
404.422	91.94
404.645	92.94
404.869	92.94
405.093	86.94
405.317	91.94
405.541	73.94
405.765	70.94
405.988	84.94
406.212	87.94
406.436	79.94
406.66	93.94
406.883	85.94
407.107	95.94
407.331	100.94
407.555	96.94
407.778	89.94
408.002	78.94
408.226	94.94
408.449	72.94
408.673	88.94
408.896	67.94
409.12	100.94
409.344	82.94
409.567	103.94
409.791	68.94
410.014	77.94
410.238	89.94
410.461	101.94
410.685	95.94
410.908	75.94
411.132	72.94
411.355	91.94
411.578	85.94
411.802	99.94
412.025	82.94
412.249	89.94
412.472	90.94
412.695	87.94
412.919	78.94
413.142	86.94
413.365	98.94
413.589	91.94
413.812	83.94
414.035	85.94
414.258	96.94
414.482	78.94
414.705	87.94
414.928	73.94
415.151	81.94
415.374	91.94
415.597	90.94
415.821	87.94
416.044	96.94
416.267	87.94
416.49	83.94
416.713	89.94
416.936	84.94
417.159	81.94
417.382	82.94
417.605	102.94
417.828	102.94
418.051	103.94
418.274	85.94
418.497	92.94
418.72	94.94
418.943	96.94
419.166	70.94
419.389	97.94
419.611	95.94
419.834	94.94
420.057	89.94
420.28	93.94
420.503	92.94
420.726	92.94
420.948	73.94
421.171	93.94
421.394	81.94
421.617	96.94
421.839	88.94
422.062	100.94
422.285	85.94
422.507	94.94
422.73	92.94
422.953	94.94
423.175	91.94
423.398	88.94
423.621	77.94
423.843	95.94
424.066	85.94
424.288	91.94
424.511	85.94
424.733	91.94
424.956	97.94
425.178	100.94
425.401	88.94
425.623	100.94
425.846	85.94
426.068	86.94
426.291	105.94
426.513	78.94
426.735	94.94
426.958	90.94
427.18	88.94
427.402	100.94
427.625	93.94
427.847	81.94
428.069	90.94
428.292	99.94
428.514	99.94
428.736	93.94
428.958	91.94
429.181	84.94
429.403	95.94
429.625	86.94
429.847	88.94
430.069	97.94
430.292	96.94
430.514	88.94
430.736	91.94
430.958	79.94
431.18	84.94
431.402	89.94
431.624	100.94
431.846	74.94
432.068	90.94
432.29	82.94
432.512	80.94
432.734	93.94
432.956	90.94
433.178	113.94
433.4	89.94
433.622	84.94
433.844	102.94
434.066	99.94
434.287	86.94
434.509	77.94
434.731	92.94
434.953	88.94
435.175	92.94
435.397	104.94
435.618	88.94
435.84	83.94
436.062	72.94
436.284	80.94
436.505	97.94
436.727	99.94
436.949	94.94
437.17	81.94
437.392	86.94
437.614	97.94
437.835	102.94
438.057	84.94
438.278	74.94
438.5	92.94
438.721	87.94
438.943	100.94
439.165	81.94
439.386	96.94
439.608	97.94
439.829	97.94
440.05	97.94
440.272	97.94
440.493	93.94
440.715	93.94
440.936	100.94
441.158	103.94
441.379	97.94
441.6	94.94
441.822	92.94
442.043	99.94
442.264	107.94
442.486	93.94
442.707	72.94
442.928	96.94
443.149	92.94
443.371	95.94
443.592	94.94
443.813	82.94
444.034	101.94
444.255	91.94
444.476	95.94
444.698	90.94
444.919	87.94
445.14	223.94
445.361	153.94
445.582	97.94
445.803	121.94
446.024	87.94
446.245	98.94
446.466	94.94
446.687	97.94
446.908	91.94
447.129	96.94
447.35	93.94
447.571	101.94
447.792	88.94
448.013	111.94
448.234	96.94
448.455	99.94
448.675	99.94
448.896	89.94
449.117	94.94
449.338	88.94
449.559	94.94
449.779	99.94
450	85.94
450.221	98.94
450.442	93.94
450.662	88.94
450.883	81.94
451.104	117.94
451.324	81.94
451.545	100.94
451.766	88.94
451.986	80.94
452.207	91.94
452.428	92.94
452.648	90.94
452.869	83.94
453.089	82.94
453.31	104.94
453.53	94.94
453.751	91.94
453.971	86.94
454.192	92.94
454.412	90.94
454.633	99.94
454.853	81.94
455.073	87.94
455.294	95.94
455.514	87.94
455.734	87.94
455.955	77.94
456.175	93.94
456.395	91.94
456.616	90.94
456.836	74.94
457.056	96.94
457.276	99.94
457.497	89.94
457.717	94.94
457.937	92.94
458.157	85.94
458.377	81.94
458.598	82.94
458.818	80.94
459.038	84.94
459.258	87.94
459.478	85.94
459.698	88.94
459.918	82.94
460.138	85.94
460.358	78.94
460.578	87.94
460.798	96.94
461.018	90.94
461.238	112.94
461.458	90.94
461.678	78.94
461.898	89.94
462.118	88.94
462.338	78.94
462.558	95.94
462.777	83.94
462.997	85.94
463.217	89.94
463.437	88.94
463.657	89.94
463.876	78.94
464.096	95.94
464.316	74.94
464.536	76.94
464.755	93.94
464.975	92.94
465.195	81.94
465.414	86.94
465.634	91.94
465.854	100.94
466.073	81.94
466.293	83.94
466.512	85.94
466.732	90.94
466.951	98.94
467.171	92.94
467.391	90.94
467.61	97.94
467.829	86.94
468.049	99.94
468.268	85.94
468.488	93.94
468.707	105.94
468.927	87.94
469.146	84.94
469.365	97.94
469.585	100.94
469.804	107.94
470.023	97.94
470.243	80.94
470.462	89.94
470.681	94.94
470.901	86.94
471.12	83.94
471.339	99.94
471.558	99.94
471.777	95.94
471.997	88.94
472.216	88.94
472.435	97.94
472.654	72.94
472.873	96.94
473.092	97.94
473.311	80.94
473.53	85.94
473.749	100.94
473.968	100.94
474.187	100.94
474.406	97.94
474.625	105.94
474.844	96.94
475.063	91.94
475.282	88.94
475.501	96.94
475.72	82.94
475.939	93.94
476.158	98.94
476.377	93.94
476.596	94.94
476.814	87.94
477.033	96.94
477.252	98.94
477.471	96.94
477.69	98.94
477.908	95.94
478.127	93.94
478.346	101.94
478.564	97.94
478.783	94.94
479.002	105.94
479.22	89.94
479.439	96.94
479.658	99.94
479.876	92.94
480.095	96.94
480.313	77.94
480.532	86.94
480.751	92.94
480.969	77.94
481.188	76.94
481.406	70.94
481.624	87.94
481.843	80.94
482.061	93.94
482.28	79.94
482.498	86.94
482.717	82.94
482.935	97.94
483.153	80.94
483.372	96.94
483.59	107.94
483.808	111.94
484.027	88.94
484.245	96.94
484.463	89.94
484.681	99.94
484.9	103.94
485.118	111.94
485.336	90.94
485.554	74.94
485.772	88.94
485.99	84.94
486.209	82.94
486.427	86.94
486.645	97.94
486.863	82.94
487.081	79.94
487.299	89.94
487.517	95.94
487.735	109.94
487.953	103.94
488.171	110.94
488.389	102.94
488.607	107.94
488.825	100.94
489.043	102.94
489.261	103.94
489.479	101.94
489.696	93.94
489.914	102.94
490.132	110.94
490.35	76.94
490.568	98.94
490.786	104.94
491.003	101.94
491.221	103.94
491.439	120.94
491.657	105.94
491.874	103.94
492.092	118.94
492.31	125.94
492.527	99.94
492.745	119.94
492.963	113.94
493.18	119.94
493.398	100.94
493.615	115.94
493.833	118.94
494.05	103.94
494.268	87.94
494.485	110.94
494.703	101.94
494.92	108.94
495.138	91.94
495.355	98.94
495.573	123.94
495.79	109.94
496.008	105.94
496.225	112.94
496.442	107.94
496.66	111.94
496.877	108.94
497.094	102.94
497.312	93.94
497.529	99.94
497.746	93.94
497.963	103.94
498.181	102.94
498.398	99.94
498.615	85.94
498.832	96.94
499.049	92.94
499.267	83.94
499.484	88.94
499.701	82.94
499.918	99.94
500.135	108.94
500.352	92.94
500.569	92.94
500.786	103.94
501.003	96.94
501.22	89.94
501.437	93.94
501.654	94.94
501.871	92.94
502.088	97.94
502.305	85.94
502.522	102.94
502.739	83.94
502.956	88.94
503.172	95.94
503.389	101.94
503.606	88.94
503.823	94.94
504.04	89.94
504.256	88.94
504.473	102.94
504.69	103.94
504.907	97.94
505.123	93.94
505.34	97.94
505.557	96.94
505.773	83.94
505.99	87.94
506.207	96.94
506.423	75.94
506.64	92.94
506.856	101.94
507.073	100.94
507.289	83.94
507.506	76.94
507.722	90.94
507.939	92.94
508.155	84.94
508.372	85.94
508.588	94.94
508.805	90.94
509.021	86.94
509.238	85.94
509.454	87.94
509.67	76.94
509.887	89.94
510.103	91.94
510.319	71.94
510.536	84.94
510.752	97.94
510.968	75.94
511.184	83.94
511.401	80.94
511.617	91.94
511.833	83.94
512.049	79.94
512.265	71.94
512.481	79.94
512.698	77.94
512.914	89.94
513.13	76.94
513.346	88.94
513.562	83.94
513.778	88.94
513.994	79.94
514.21	75.94
514.426	77.94
514.642	77.94
514.858	79.94
515.074	91.94
515.29	91.94
515.506	100.94
515.721	67.94
515.937	79.94
516.153	84.94
516.369	68.94
516.585	80.94
516.801	97.94
517.016	85.94
517.232	104.94
517.448	99.94
517.664	89.94
517.879	91.94
518.095	80.94
