Data from Location3.07152019.Energy5.Lamp.07192019.3%Agarose_HRD10591_15-18-47-269.txt Node
Date: Fri Jul 19 15:18:47 EDT 2019
User: cochatt
Spectrometer: HR+D1059
Trigger mode: 1
Integration Time (sec): 1.000000E-1
Scans to average: 1
Electric dark correction enabled: true
Nonlinearity correction enabled: false
Boxcar width: 0
XAxis mode: Wavelengths
Number of Pixels in Spectrum: 2048
>>>>>Begin Spectral Data<<<<<
223.165	-7.19
223.4	-7.19
223.635	-7.19
223.869	-12.19
224.104	-9.19
224.338	-18.19
224.573	-15.19
224.808	-6.19
225.042	-10.19
225.277	-0.19
225.511	-1.19
225.746	0.81
225.98	1.81
226.215	5.81
226.449	-13.19
226.683	17.81
226.918	36.81
227.152	29.81
227.387	46.81
227.621	33.81
227.856	38.81
228.09	45.81
228.324	60.81
228.559	51.81
228.793	56.81
229.027	38.81
229.262	53.81
229.496	63.81
229.73	61.81
229.964	61.81
230.199	85.81
230.433	81.81
230.667	87.81
230.901	74.81
231.136	76.81
231.37	83.81
231.604	75.81
231.838	74.81
232.072	81.81
232.306	98.81
232.541	76.81
232.775	71.81
233.009	78.81
233.243	86.81
233.477	89.81
233.711	87.81
233.945	77.81
234.179	72.81
234.413	84.81
234.647	73.81
234.881	78.81
235.115	78.81
235.349	81.81
235.583	73.81
235.817	67.81
236.051	78.81
236.285	74.81
236.519	85.81
236.753	74.81
236.987	72.81
237.221	65.81
237.455	71.81
237.689	75.81
237.922	78.81
238.156	70.81
238.39	79.81
238.624	68.81
238.858	94.81
239.091	69.81
239.325	64.81
239.559	65.81
239.793	95.81
240.027	85.81
240.26	69.81
240.494	75.81
240.728	74.81
240.961	69.81
241.195	82.81
241.429	75.81
241.662	86.81
241.896	82.81
242.13	84.81
242.363	82.81
242.597	71.81
242.83	81.81
243.064	77.81
243.298	79.81
243.531	89.81
243.765	75.81
243.998	78.81
244.232	84.81
244.465	68.81
244.699	72.81
244.932	83.81
245.166	81.81
245.399	87.81
245.633	77.81
245.866	65.81
246.099	72.81
246.333	80.81
246.566	72.81
246.8	78.81
247.033	81.81
247.266	69.81
247.5	61.81
247.733	70.81
247.966	79.81
248.2	78.81
248.433	73.81
248.666	90.81
248.899	80.81
249.133	70.81
249.366	85.81
249.599	90.81
249.832	77.81
250.066	85.81
250.299	82.81
250.532	83.81
250.765	84.81
250.998	78.81
251.231	82.81
251.465	76.81
251.698	79.81
251.931	69.81
252.164	82.81
252.397	73.81
252.63	86.81
252.863	67.81
253.096	75.81
253.329	75.81
253.562	82.81
253.795	84.81
254.028	74.81
254.261	71.81
254.494	83.81
254.727	83.81
254.96	73.81
255.193	70.81
255.426	79.81
255.659	86.81
255.892	81.81
256.124	72.81
256.357	74.81
256.59	97.81
256.823	76.81
257.056	72.81
257.289	76.81
257.521	71.81
257.754	72.81
257.987	80.81
258.22	89.81
258.452	77.81
258.685	70.81
258.918	82.81
259.151	83.81
259.383	78.81
259.616	83.81
259.849	77.81
260.081	74.81
260.314	81.81
260.547	68.81
260.779	54.81
261.012	86.81
261.244	71.81
261.477	70.81
261.71	88.81
261.942	80.81
262.175	83.81
262.407	95.81
262.64	71.81
262.872	73.81
263.105	78.81
263.337	71.81
263.57	80.81
263.802	79.81
264.035	79.81
264.267	76.81
264.499	79.81
264.732	74.81
264.964	86.81
265.197	79.81
265.429	80.81
265.661	78.81
265.894	71.81
266.126	73.81
266.358	88.81
266.591	75.81
266.823	72.81
267.055	80.81
267.287	77.81
267.52	89.81
267.752	85.81
267.984	83.81
268.216	76.81
268.448	79.81
268.681	79.81
268.913	76.81
269.145	79.81
269.377	77.81
269.609	92.81
269.841	80.81
270.073	78.81
270.306	82.81
270.538	81.81
270.77	79.81
271.002	88.81
271.234	69.81
271.466	77.81
271.698	88.81
271.93	72.81
272.162	85.81
272.394	86.81
272.626	86.81
272.858	81.81
273.09	81.81
273.322	89.81
273.553	100.81
273.785	86.81
274.017	66.81
274.249	83.81
274.481	78.81
274.713	81.81
274.945	80.81
275.176	81.81
275.408	89.81
275.64	76.81
275.872	84.81
276.104	77.81
276.335	90.81
276.567	85.81
276.799	76.81
277.031	78.81
277.262	62.81
277.494	76.81
277.726	69.81
277.957	85.81
278.189	84.81
278.421	82.81
278.652	77.81
278.884	91.81
279.115	85.81
279.347	100.81
279.579	90.81
279.81	79.81
280.042	91.81
280.273	99.81
280.505	82.81
280.736	81.81
280.968	81.81
281.199	70.81
281.431	68.81
281.662	83.81
281.894	99.81
282.125	91.81
282.356	90.81
282.588	83.81
282.819	78.81
283.051	91.81
283.282	71.81
283.513	80.81
283.745	90.81
283.976	61.81
284.207	84.81
284.439	76.81
284.67	70.81
284.901	84.81
285.132	81.81
285.364	85.81
285.595	83.81
285.826	92.81
286.057	69.81
286.288	85.81
286.52	82.81
286.751	76.81
286.982	80.81
287.213	67.81
287.444	80.81
287.675	78.81
287.906	77.81
288.138	75.81
288.369	74.81
288.6	70.81
288.831	89.81
289.062	82.81
289.293	94.81
289.524	89.81
289.755	72.81
289.986	74.81
290.217	88.81
290.448	96.81
290.679	79.81
290.91	86.81
291.141	81.81
291.371	82.81
291.602	97.81
291.833	81.81
292.064	72.81
292.295	80.81
292.526	90.81
292.757	76.81
292.987	75.81
293.218	87.81
293.449	92.81
293.68	82.81
293.91	89.81
294.141	87.81
294.372	96.81
294.603	100.81
294.833	86.81
295.064	74.81
295.295	86.81
295.525	80.81
295.756	78.81
295.987	70.81
296.217	76.81
296.448	70.81
296.679	75.81
296.909	73.81
297.14	90.81
297.37	86.81
297.601	82.81
297.831	76.81
298.062	73.81
298.292	86.81
298.523	84.81
298.753	83.81
298.984	82.81
299.214	90.81
299.445	84.81
299.675	99.81
299.905	78.81
300.136	84.81
300.366	85.81
300.597	90.81
300.827	83.81
301.057	86.81
301.288	85.81
301.518	82.81
301.748	73.81
301.979	84.81
302.209	83.81
302.439	78.81
302.669	69.81
302.9	88.81
303.13	96.81
303.36	90.81
303.59	92.81
303.82	101.81
304.051	86.81
304.281	79.81
304.511	80.81
304.741	76.81
304.971	65.81
305.201	86.81
305.431	81.81
305.661	88.81
305.891	94.81
306.121	96.81
306.352	72.81
306.582	82.81
306.812	96.81
307.042	82.81
307.272	86.81
307.502	83.81
307.731	92.81
307.961	90.81
308.191	94.81
308.421	82.81
308.651	94.81
308.881	88.81
309.111	105.81
309.341	80.81
309.571	85.81
309.8	97.81
310.03	85.81
310.26	77.81
310.49	88.81
310.72	86.81
310.949	99.81
311.179	88.81
311.409	91.81
311.639	93.81
311.868	92.81
312.098	83.81
312.328	89.81
312.557	86.81
312.787	80.81
313.017	73.81
313.246	93.81
313.476	84.81
313.706	82.81
313.935	87.81
314.165	74.81
314.394	62.81
314.624	90.81
314.853	84.81
315.083	89.81
315.312	84.81
315.542	81.81
315.771	96.81
316.001	95.81
316.23	78.81
316.46	82.81
316.689	91.81
316.919	96.81
317.148	86.81
317.377	78.81
317.607	84.81
317.836	96.81
318.065	73.81
318.295	69.81
318.524	85.81
318.753	87.81
318.983	82.81
319.212	86.81
319.441	98.81
319.67	91.81
319.9	98.81
320.129	99.81
320.358	73.81
320.587	97.81
320.816	90.81
321.046	81.81
321.275	95.81
321.504	76.81
321.733	81.81
321.962	84.81
322.191	81.81
322.42	76.81
322.649	76.81
322.878	81.81
323.108	78.81
323.337	74.81
323.566	73.81
323.795	73.81
324.024	90.81
324.253	74.81
324.482	96.81
324.71	103.81
324.939	97.81
325.168	80.81
325.397	77.81
325.626	82.81
325.855	81.81
326.084	95.81
326.313	76.81
326.542	94.81
326.77	85.81
326.999	82.81
327.228	81.81
327.457	80.81
327.686	80.81
327.914	82.81
328.143	80.81
328.372	82.81
328.6	92.81
328.829	88.81
329.058	80.81
329.287	83.81
329.515	68.81
329.744	84.81
329.972	90.81
330.201	88.81
330.43	93.81
330.658	74.81
330.887	70.81
331.115	90.81
331.344	78.81
331.572	82.81
331.801	86.81
332.03	71.81
332.258	72.81
332.486	77.81
332.715	89.81
332.943	81.81
333.172	90.81
333.4	90.81
333.629	86.81
333.857	78.81
334.085	82.81
334.314	81.81
334.542	88.81
334.771	93.81
334.999	84.81
335.227	82.81
335.455	67.81
335.684	88.81
335.912	102.81
336.14	89.81
336.369	83.81
336.597	68.81
336.825	87.81
337.053	78.81
337.281	75.81
337.51	86.81
337.738	97.81
337.966	89.81
338.194	90.81
338.422	84.81
338.65	88.81
338.878	89.81
339.106	88.81
339.334	88.81
339.562	88.81
339.79	84.81
340.018	83.81
340.246	80.81
340.474	87.81
340.702	83.81
340.93	77.81
341.158	71.81
341.386	84.81
341.614	78.81
341.842	66.81
342.07	68.81
342.298	81.81
342.526	81.81
342.754	74.81
342.981	76.81
343.209	64.81
343.437	92.81
343.665	94.81
343.893	86.81
344.12	87.81
344.348	78.81
344.576	87.81
344.804	78.81
345.031	80.81
345.259	81.81
345.487	83.81
345.714	84.81
345.942	88.81
346.17	80.81
346.397	75.81
346.625	80.81
346.853	90.81
347.08	89.81
347.308	80.81
347.535	75.81
347.763	88.81
347.99	79.81
348.218	81.81
348.445	89.81
348.673	87.81
348.9	88.81
349.128	85.81
349.355	96.81
349.583	85.81
349.81	84.81
350.037	94.81
350.265	81.81
350.492	79.81
350.72	86.81
350.947	96.81
351.174	94.81
351.402	75.81
351.629	82.81
351.856	97.81
352.083	85.81
352.311	97.81
352.538	69.81
352.765	87.81
352.992	89.81
353.22	73.81
353.447	90.81
353.674	96.81
353.901	96.81
354.128	85.81
354.355	97.81
354.583	97.81
354.81	75.81
355.037	66.81
355.264	84.81
355.491	79.81
355.718	73.81
355.945	71.81
356.172	72.81
356.399	73.81
356.626	86.81
356.853	91.81
357.08	78.81
357.307	86.81
357.534	93.81
357.761	87.81
357.988	87.81
358.215	79.81
358.441	83.81
358.668	80.81
358.895	89.81
359.122	88.81
359.349	83.81
359.576	88.81
359.802	80.81
360.029	94.81
360.256	94.81
360.483	93.81
360.709	80.81
360.936	100.81
361.163	95.81
361.39	80.81
361.616	70.81
361.843	82.81
362.07	91.81
362.296	84.81
362.523	85.81
362.749	89.81
362.976	93.81
363.203	96.81
363.429	66.81
363.656	77.81
363.882	78.81
364.109	77.81
364.335	90.81
364.562	93.81
364.788	72.81
365.015	86.81
365.241	89.81
365.468	82.81
365.694	75.81
365.92	77.81
366.147	82.81
366.373	73.81
366.599	84.81
366.826	77.81
367.052	86.81
367.278	79.81
367.505	88.81
367.731	80.81
367.957	71.81
368.184	71.81
368.41	86.81
368.636	86.81
368.862	83.81
369.089	82.81
369.315	94.81
369.541	108.81
369.767	88.81
369.993	85.81
370.219	85.81
370.445	76.81
370.672	74.81
370.898	85.81
371.124	86.81
371.35	91.81
371.576	83.81
371.802	82.81
372.028	77.81
372.254	69.81
372.48	88.81
372.706	88.81
372.932	70.81
373.158	76.81
373.384	92.81
373.61	104.81
373.835	98.81
374.061	89.81
374.287	73.81
374.513	70.81
374.739	85.81
374.965	91.81
375.191	82.81
375.416	73.81
375.642	72.81
375.868	77.81
376.094	93.81
376.319	80.81
376.545	91.81
376.771	88.81
376.997	81.81
377.222	80.81
377.448	82.81
377.674	71.81
377.899	85.81
378.125	91.81
378.35	80.81
378.576	99.81
378.802	74.81
379.027	98.81
379.253	63.81
379.478	83.81
379.704	85.81
379.929	94.81
380.155	90.81
380.38	86.81
380.606	84.81
380.831	80.81
381.057	87.81
381.282	81.81
381.507	80.81
381.733	89.81
381.958	79.81
382.184	77.81
382.409	77.81
382.634	74.81
382.86	76.81
383.085	93.81
383.31	78.81
383.535	75.81
383.761	85.81
383.986	73.81
384.211	82.81
384.436	85.81
384.662	92.81
384.887	88.81
385.112	79.81
385.337	77.81
385.562	83.81
385.787	85.81
386.013	86.81
386.238	98.81
386.463	90.81
386.688	78.81
386.913	94.81
387.138	91.81
387.363	88.81
387.588	99.81
387.813	93.81
388.038	70.81
388.263	95.81
388.488	78.81
388.713	73.81
388.938	82.81
389.163	90.81
389.387	81.81
389.612	91.81
389.837	89.81
390.062	95.81
390.287	82.81
390.512	93.81
390.736	97.81
390.961	93.81
391.186	75.81
391.411	80.81
391.636	74.81
391.86	86.81
392.085	85.81
392.31	78.81
392.534	80.81
392.759	77.81
392.984	73.81
393.208	70.81
393.433	95.81
393.658	84.81
393.882	78.81
394.107	80.81
394.331	97.81
394.556	76.81
394.78	73.81
395.005	89.81
395.229	79.81
395.454	92.81
395.678	87.81
395.903	95.81
396.127	94.81
396.352	93.81
396.576	85.81
396.801	84.81
397.025	71.81
397.249	91.81
397.474	102.81
397.698	82.81
397.922	93.81
398.147	85.81
398.371	92.81
398.595	88.81
398.82	92.81
399.044	89.81
399.268	81.81
399.492	85.81
399.717	82.81
399.941	97.81
400.165	81.81
400.389	70.81
400.613	100.81
400.837	84.81
401.062	98.81
401.286	92.81
401.51	94.81
401.734	73.81
401.958	99.81
402.182	78.81
402.406	81.81
402.63	86.81
402.854	77.81
403.078	69.81
403.302	96.81
403.526	70.81
403.75	81.81
403.974	88.81
404.198	80.81
404.422	95.81
404.645	93.81
404.869	90.81
405.093	85.81
405.317	75.81
405.541	91.81
405.765	88.81
405.988	101.81
406.212	74.81
406.436	96.81
406.66	84.81
406.883	96.81
407.107	92.81
407.331	100.81
407.555	102.81
407.778	86.81
408.002	85.81
408.226	97.81
408.449	86.81
408.673	97.81
408.896	111.81
409.12	98.81
409.344	93.81
409.567	97.81
409.791	91.81
410.014	92.81
410.238	86.81
410.461	99.81
410.685	91.81
410.908	94.81
411.132	98.81
411.355	85.81
411.578	93.81
411.802	112.81
412.025	74.81
412.249	84.81
412.472	80.81
412.695	91.81
412.919	93.81
413.142	105.81
413.365	94.81
413.589	87.81
413.812	95.81
414.035	90.81
414.258	97.81
414.482	84.81
414.705	84.81
414.928	95.81
415.151	95.81
415.374	96.81
415.597	94.81
415.821	79.81
416.044	88.81
416.267	89.81
416.49	95.81
416.713	96.81
416.936	92.81
417.159	81.81
417.382	97.81
417.605	97.81
417.828	101.81
418.051	91.81
418.274	84.81
418.497	77.81
418.72	90.81
418.943	96.81
419.166	92.81
419.389	81.81
419.611	94.81
419.834	84.81
420.057	89.81
420.28	105.81
420.503	85.81
420.726	97.81
420.948	100.81
421.171	97.81
421.394	85.81
421.617	100.81
421.839	102.81
422.062	96.81
422.285	98.81
422.507	81.81
422.73	91.81
422.953	89.81
423.175	92.81
423.398	93.81
423.621	93.81
423.843	94.81
424.066	77.81
424.288	83.81
424.511	105.81
424.733	103.81
424.956	99.81
425.178	83.81
425.401	95.81
425.623	110.81
425.846	97.81
426.068	91.81
426.291	100.81
426.513	88.81
426.735	110.81
426.958	87.81
427.18	88.81
427.402	88.81
427.625	101.81
427.847	92.81
428.069	93.81
428.292	93.81
428.514	93.81
428.736	104.81
428.958	97.81
429.181	95.81
429.403	90.81
429.625	103.81
429.847	108.81
430.069	97.81
430.292	91.81
430.514	102.81
430.736	104.81
430.958	93.81
431.18	97.81
431.402	88.81
431.624	86.81
431.846	77.81
432.068	91.81
432.29	74.81
432.512	70.81
432.734	92.81
432.956	94.81
433.178	98.81
433.4	80.81
433.622	109.81
433.844	112.81
434.066	117.81
434.287	85.81
434.509	96.81
434.731	85.81
434.953	86.81
435.175	89.81
435.397	84.81
435.618	95.81
435.84	81.81
436.062	85.81
436.284	96.81
436.505	93.81
436.727	87.81
436.949	93.81
437.17	95.81
437.392	93.81
437.614	98.81
437.835	105.81
438.057	91.81
438.278	85.81
438.5	104.81
438.721	95.81
438.943	101.81
439.165	85.81
439.386	99.81
439.608	90.81
439.829	92.81
440.05	83.81
440.272	85.81
440.493	90.81
440.715	109.81
440.936	97.81
441.158	78.81
441.379	98.81
441.6	102.81
441.822	107.81
442.043	92.81
442.264	88.81
442.486	93.81
442.707	93.81
442.928	99.81
443.149	87.81
443.371	86.81
443.592	97.81
443.813	114.81
444.034	99.81
444.255	83.81
444.476	103.81
444.698	104.81
444.919	88.81
445.14	216.81
445.361	149.81
445.582	92.81
445.803	90.81
446.024	105.81
446.245	110.81
446.466	100.81
446.687	97.81
446.908	94.81
447.129	97.81
447.35	99.81
447.571	90.81
447.792	97.81
448.013	102.81
448.234	105.81
448.455	119.81
448.675	100.81
448.896	94.81
449.117	93.81
449.338	98.81
449.559	94.81
449.779	92.81
450	90.81
450.221	94.81
450.442	93.81
450.662	104.81
450.883	113.81
451.104	105.81
451.324	97.81
451.545	91.81
451.766	102.81
451.986	98.81
452.207	105.81
452.428	96.81
452.648	94.81
452.869	92.81
453.089	101.81
453.31	97.81
453.53	87.81
453.751	85.81
453.971	89.81
454.192	90.81
454.412	98.81
454.633	86.81
454.853	96.81
455.073	72.81
455.294	85.81
455.514	104.81
455.734	90.81
455.955	91.81
456.175	87.81
456.395	77.81
456.616	84.81
456.836	79.81
457.056	86.81
457.276	90.81
457.497	96.81
457.717	76.81
457.937	99.81
458.157	80.81
458.377	98.81
458.598	91.81
458.818	83.81
459.038	81.81
459.258	76.81
459.478	70.81
459.698	75.81
459.918	89.81
460.138	87.81
460.358	100.81
460.578	84.81
460.798	94.81
461.018	90.81
461.238	105.81
461.458	96.81
461.678	101.81
461.898	81.81
462.118	85.81
462.338	96.81
462.558	84.81
462.777	82.81
462.997	87.81
463.217	75.81
463.437	100.81
463.657	92.81
463.876	104.81
464.096	77.81
464.316	84.81
464.536	86.81
464.755	92.81
464.975	77.81
465.195	76.81
465.414	104.81
465.634	90.81
465.854	95.81
466.073	94.81
466.293	86.81
466.512	81.81
466.732	81.81
466.951	91.81
467.171	78.81
467.391	97.81
467.61	96.81
467.829	102.81
468.049	97.81
468.268	85.81
468.488	88.81
468.707	94.81
468.927	93.81
469.146	85.81
469.365	105.81
469.585	84.81
469.804	108.81
470.023	94.81
470.243	98.81
470.462	116.81
470.681	82.81
470.901	92.81
471.12	110.81
471.339	111.81
471.558	97.81
471.777	89.81
471.997	95.81
472.216	86.81
472.435	84.81
472.654	80.81
472.873	93.81
473.092	95.81
473.311	83.81
473.53	85.81
473.749	102.81
473.968	98.81
474.187	80.81
474.406	99.81
474.625	81.81
474.844	89.81
475.063	97.81
475.282	95.81
475.501	94.81
475.72	97.81
475.939	84.81
476.158	91.81
476.377	99.81
476.596	92.81
476.814	100.81
477.033	92.81
477.252	88.81
477.471	94.81
477.69	85.81
477.908	97.81
478.127	97.81
478.346	102.81
478.564	96.81
478.783	95.81
479.002	95.81
479.22	98.81
479.439	100.81
479.658	83.81
479.876	95.81
480.095	82.81
480.313	85.81
480.532	92.81
480.751	70.81
480.969	81.81
481.188	72.81
481.406	84.81
481.624	64.81
481.843	92.81
482.061	73.81
482.28	91.81
482.498	81.81
482.717	90.81
482.935	87.81
483.153	81.81
483.372	107.81
483.59	100.81
483.808	111.81
484.027	101.81
484.245	88.81
484.463	93.81
484.681	104.81
484.9	110.81
485.118	108.81
485.336	95.81
485.554	96.81
485.772	90.81
485.99	108.81
486.209	98.81
486.427	96.81
486.645	84.81
486.863	86.81
487.081	102.81
487.299	84.81
487.517	89.81
487.735	99.81
487.953	108.81
488.171	97.81
488.389	98.81
488.607	110.81
488.825	94.81
489.043	78.81
489.261	98.81
489.479	93.81
489.696	106.81
489.914	105.81
490.132	99.81
490.35	103.81
490.568	100.81
490.786	117.81
491.003	95.81
491.221	101.81
491.439	101.81
491.657	103.81
491.874	117.81
492.092	126.81
492.31	112.81
492.527	132.81
492.745	130.81
492.963	113.81
493.18	115.81
493.398	114.81
493.615	106.81
493.833	112.81
494.05	98.81
494.268	101.81
494.485	111.81
494.703	110.81
494.92	105.81
495.138	105.81
495.355	96.81
495.573	111.81
495.79	97.81
496.008	115.81
496.225	99.81
496.442	98.81
496.66	115.81
496.877	110.81
497.094	112.81
497.312	106.81
497.529	91.81
497.746	89.81
497.963	96.81
498.181	99.81
498.398	90.81
498.615	82.81
498.832	89.81
499.049	101.81
499.267	100.81
499.484	97.81
499.701	96.81
499.918	111.81
500.135	110.81
500.352	100.81
500.569	101.81
500.786	90.81
501.003	96.81
501.22	105.81
501.437	94.81
501.654	102.81
501.871	83.81
502.088	104.81
502.305	98.81
502.522	86.81
502.739	99.81
502.956	83.81
503.172	92.81
503.389	91.81
503.606	91.81
503.823	95.81
504.04	88.81
504.256	97.81
504.473	92.81
504.69	96.81
504.907	88.81
505.123	100.81
505.34	95.81
505.557	94.81
505.773	85.81
505.99	83.81
506.207	92.81
506.423	114.81
506.64	95.81
506.856	96.81
507.073	96.81
507.289	104.81
507.506	94.81
507.722	79.81
507.939	92.81
508.155	94.81
508.372	90.81
508.588	87.81
508.805	99.81
509.021	94.81
509.238	74.81
509.454	92.81
509.67	92.81
509.887	101.81
510.103	86.81
510.319	73.81
510.536	96.81
510.752	83.81
510.968	90.81
511.184	83.81
511.401	73.81
511.617	78.81
511.833	88.81
512.049	91.81
512.265	70.81
512.481	85.81
512.698	85.81
512.914	96.81
513.13	79.81
513.346	89.81
513.562	80.81
513.778	92.81
513.994	84.81
514.21	98.81
514.426	88.81
514.642	87.81
514.858	93.81
515.074	93.81
515.29	85.81
515.506	78.81
515.721	78.81
515.937	64.81
516.153	92.81
516.369	89.81
516.585	73.81
516.801	87.81
517.016	85.81
517.232	87.81
517.448	89.81
517.664	91.81
