Data from Location3.07152019.Energy5.Lamp.07192019.3%Agarose_HRD10591_15-17-14-269.txt Node
Date: Fri Jul 19 15:17:14 EDT 2019
User: cochatt
Spectrometer: HR+D1059
Trigger mode: 1
Integration Time (sec): 1.000000E-1
Scans to average: 1
Electric dark correction enabled: true
Nonlinearity correction enabled: false
Boxcar width: 0
XAxis mode: Wavelengths
Number of Pixels in Spectrum: 2048
>>>>>Begin Spectral Data<<<<<
223.165	-16.44
223.4	-16.44
223.635	-16.44
223.869	-19.44
224.104	-5.44
224.338	-14.44
224.573	-9.44
224.808	-19.44
225.042	-0.44
225.277	-4.44
225.511	1.56
225.746	-4.44
225.98	-13.44
226.215	8.56
226.449	21.56
226.683	17.56
226.918	26.56
227.152	31.56
227.387	37.56
227.621	49.56
227.856	54.56
228.09	53.56
228.324	42.56
228.559	55.56
228.793	47.56
229.027	62.56
229.262	52.56
229.496	58.56
229.73	63.56
229.964	57.56
230.199	79.56
230.433	70.56
230.667	78.56
230.901	94.56
231.136	91.56
231.37	74.56
231.604	86.56
231.838	68.56
232.072	87.56
232.306	83.56
232.541	90.56
232.775	101.56
233.009	84.56
233.243	78.56
233.477	79.56
233.711	72.56
233.945	97.56
234.179	71.56
234.413	102.56
234.647	84.56
234.881	88.56
235.115	83.56
235.349	82.56
235.583	84.56
235.817	65.56
236.051	85.56
236.285	78.56
236.519	87.56
236.753	87.56
236.987	80.56
237.221	84.56
237.455	84.56
237.689	76.56
237.922	73.56
238.156	77.56
238.39	82.56
238.624	73.56
238.858	87.56
239.091	63.56
239.325	77.56
239.559	65.56
239.793	86.56
240.027	83.56
240.26	74.56
240.494	87.56
240.728	81.56
240.961	77.56
241.195	78.56
241.429	79.56
241.662	85.56
241.896	82.56
242.13	74.56
242.363	86.56
242.597	85.56
242.83	66.56
243.064	77.56
243.298	71.56
243.531	85.56
243.765	85.56
243.998	79.56
244.232	79.56
244.465	65.56
244.699	87.56
244.932	89.56
245.166	87.56
245.399	79.56
245.633	86.56
245.866	67.56
246.099	71.56
246.333	77.56
246.566	87.56
246.8	95.56
247.033	69.56
247.266	76.56
247.5	72.56
247.733	85.56
247.966	65.56
248.2	79.56
248.433	89.56
248.666	79.56
248.899	74.56
249.133	90.56
249.366	87.56
249.599	80.56
249.832	66.56
250.066	78.56
250.299	70.56
250.532	97.56
250.765	84.56
250.998	87.56
251.231	87.56
251.465	98.56
251.698	83.56
251.931	86.56
252.164	89.56
252.397	66.56
252.63	95.56
252.863	81.56
253.096	83.56
253.329	78.56
253.562	83.56
253.795	89.56
254.028	93.56
254.261	75.56
254.494	79.56
254.727	79.56
254.96	81.56
255.193	75.56
255.426	78.56
255.659	92.56
255.892	81.56
256.124	97.56
256.357	70.56
256.59	85.56
256.823	73.56
257.056	83.56
257.289	97.56
257.521	71.56
257.754	83.56
257.987	90.56
258.22	90.56
258.452	84.56
258.685	78.56
258.918	83.56
259.151	72.56
259.383	77.56
259.616	77.56
259.849	76.56
260.081	88.56
260.314	78.56
260.547	86.56
260.779	90.56
261.012	80.56
261.244	79.56
261.477	86.56
261.71	82.56
261.942	84.56
262.175	84.56
262.407	85.56
262.64	91.56
262.872	76.56
263.105	78.56
263.337	80.56
263.57	83.56
263.802	82.56
264.035	85.56
264.267	83.56
264.499	78.56
264.732	89.56
264.964	81.56
265.197	94.56
265.429	91.56
265.661	77.56
265.894	99.56
266.126	97.56
266.358	88.56
266.591	93.56
266.823	93.56
267.055	85.56
267.287	84.56
267.52	88.56
267.752	82.56
267.984	93.56
268.216	82.56
268.448	84.56
268.681	88.56
268.913	92.56
269.145	85.56
269.377	93.56
269.609	93.56
269.841	80.56
270.073	85.56
270.306	87.56
270.538	91.56
270.77	77.56
271.002	85.56
271.234	90.56
271.466	76.56
271.698	93.56
271.93	87.56
272.162	81.56
272.394	76.56
272.626	84.56
272.858	93.56
273.09	91.56
273.322	94.56
273.553	90.56
273.785	90.56
274.017	80.56
274.249	82.56
274.481	82.56
274.713	85.56
274.945	78.56
275.176	88.56
275.408	95.56
275.64	99.56
275.872	84.56
276.104	91.56
276.335	87.56
276.567	75.56
276.799	90.56
277.031	74.56
277.262	83.56
277.494	92.56
277.726	88.56
277.957	86.56
278.189	87.56
278.421	93.56
278.652	75.56
278.884	89.56
279.115	85.56
279.347	82.56
279.579	86.56
279.81	94.56
280.042	93.56
280.273	86.56
280.505	85.56
280.736	84.56
280.968	90.56
281.199	79.56
281.431	90.56
281.662	106.56
281.894	83.56
282.125	93.56
282.356	74.56
282.588	90.56
282.819	79.56
283.051	77.56
283.282	78.56
283.513	112.56
283.745	82.56
283.976	88.56
284.207	79.56
284.439	88.56
284.67	95.56
284.901	83.56
285.132	92.56
285.364	77.56
285.595	78.56
285.826	85.56
286.057	87.56
286.288	87.56
286.52	78.56
286.751	86.56
286.982	92.56
287.213	93.56
287.444	97.56
287.675	83.56
287.906	80.56
288.138	81.56
288.369	81.56
288.6	98.56
288.831	88.56
289.062	84.56
289.293	83.56
289.524	81.56
289.755	79.56
289.986	98.56
290.217	92.56
290.448	87.56
290.679	90.56
290.91	91.56
291.141	93.56
291.371	100.56
291.602	99.56
291.833	84.56
292.064	97.56
292.295	89.56
292.526	85.56
292.757	92.56
292.987	78.56
293.218	98.56
293.449	87.56
293.68	90.56
293.91	98.56
294.141	91.56
294.372	92.56
294.603	92.56
294.833	85.56
295.064	93.56
295.295	101.56
295.525	82.56
295.756	85.56
295.987	69.56
296.217	75.56
296.448	87.56
296.679	76.56
296.909	91.56
297.14	82.56
297.37	89.56
297.601	76.56
297.831	79.56
298.062	86.56
298.292	70.56
298.523	90.56
298.753	86.56
298.984	92.56
299.214	91.56
299.445	91.56
299.675	93.56
299.905	78.56
300.136	85.56
300.366	85.56
300.597	85.56
300.827	97.56
301.057	90.56
301.288	91.56
301.518	86.56
301.748	86.56
301.979	92.56
302.209	87.56
302.439	98.56
302.669	88.56
302.9	88.56
303.13	86.56
303.36	90.56
303.59	90.56
303.82	88.56
304.051	91.56
304.281	92.56
304.511	87.56
304.741	101.56
304.971	104.56
305.201	98.56
305.431	81.56
305.661	75.56
305.891	87.56
306.121	82.56
306.352	82.56
306.582	93.56
306.812	85.56
307.042	82.56
307.272	88.56
307.502	87.56
307.731	92.56
307.961	84.56
308.191	80.56
308.421	79.56
308.651	95.56
308.881	86.56
309.111	89.56
309.341	81.56
309.571	75.56
309.8	103.56
310.03	85.56
310.26	85.56
310.49	92.56
310.72	87.56
310.949	97.56
311.179	82.56
311.409	84.56
311.639	77.56
311.868	95.56
312.098	85.56
312.328	93.56
312.557	90.56
312.787	80.56
313.017	89.56
313.246	83.56
313.476	83.56
313.706	85.56
313.935	89.56
314.165	89.56
314.394	84.56
314.624	91.56
314.853	83.56
315.083	76.56
315.312	84.56
315.542	88.56
315.771	83.56
316.001	87.56
316.23	88.56
316.46	66.56
316.689	84.56
316.919	96.56
317.148	96.56
317.377	84.56
317.607	95.56
317.836	95.56
318.065	90.56
318.295	97.56
318.524	88.56
318.753	89.56
318.983	89.56
319.212	79.56
319.441	86.56
319.67	92.56
319.9	88.56
320.129	94.56
320.358	83.56
320.587	98.56
320.816	98.56
321.046	85.56
321.275	97.56
321.504	87.56
321.733	97.56
321.962	86.56
322.191	83.56
322.42	91.56
322.649	96.56
322.878	92.56
323.108	89.56
323.337	92.56
323.566	78.56
323.795	90.56
324.024	91.56
324.253	81.56
324.482	91.56
324.71	65.56
324.939	81.56
325.168	92.56
325.397	85.56
325.626	98.56
325.855	99.56
326.084	91.56
326.313	98.56
326.542	83.56
326.77	91.56
326.999	83.56
327.228	93.56
327.457	76.56
327.686	106.56
327.914	101.56
328.143	93.56
328.372	84.56
328.6	91.56
328.829	90.56
329.058	96.56
329.287	84.56
329.515	93.56
329.744	86.56
329.972	76.56
330.201	83.56
330.43	91.56
330.658	82.56
330.887	89.56
331.115	82.56
331.344	89.56
331.572	82.56
331.801	94.56
332.03	92.56
332.258	91.56
332.486	80.56
332.715	91.56
332.943	90.56
333.172	90.56
333.4	92.56
333.629	82.56
333.857	94.56
334.085	99.56
334.314	103.56
334.542	83.56
334.771	76.56
334.999	71.56
335.227	81.56
335.455	83.56
335.684	90.56
335.912	93.56
336.14	91.56
336.369	77.56
336.597	77.56
336.825	83.56
337.053	88.56
337.281	86.56
337.51	106.56
337.738	75.56
337.966	87.56
338.194	103.56
338.422	89.56
338.65	79.56
338.878	85.56
339.106	86.56
339.334	85.56
339.562	83.56
339.79	87.56
340.018	86.56
340.246	90.56
340.474	81.56
340.702	74.56
340.93	86.56
341.158	91.56
341.386	93.56
341.614	100.56
341.842	80.56
342.07	83.56
342.298	91.56
342.526	77.56
342.754	78.56
342.981	68.56
343.209	81.56
343.437	83.56
343.665	84.56
343.893	90.56
344.12	92.56
344.348	94.56
344.576	99.56
344.804	94.56
345.031	88.56
345.259	88.56
345.487	81.56
345.714	94.56
345.942	83.56
346.17	80.56
346.397	94.56
346.625	96.56
346.853	95.56
347.08	87.56
347.308	101.56
347.535	87.56
347.763	88.56
347.99	83.56
348.218	77.56
348.445	82.56
348.673	86.56
348.9	98.56
349.128	90.56
349.355	98.56
349.583	79.56
349.81	85.56
350.037	75.56
350.265	96.56
350.492	92.56
350.72	87.56
350.947	87.56
351.174	89.56
351.402	86.56
351.629	83.56
351.856	88.56
352.083	87.56
352.311	95.56
352.538	90.56
352.765	92.56
352.992	81.56
353.22	91.56
353.447	99.56
353.674	82.56
353.901	89.56
354.128	57.56
354.355	87.56
354.583	85.56
354.81	99.56
355.037	94.56
355.264	84.56
355.491	78.56
355.718	77.56
355.945	68.56
356.172	86.56
356.399	97.56
356.626	78.56
356.853	82.56
357.08	88.56
357.307	86.56
357.534	85.56
357.761	86.56
357.988	87.56
358.215	86.56
358.441	93.56
358.668	91.56
358.895	98.56
359.122	77.56
359.349	84.56
359.576	88.56
359.802	77.56
360.029	89.56
360.256	84.56
360.483	75.56
360.709	84.56
360.936	85.56
361.163	89.56
361.39	89.56
361.616	78.56
361.843	90.56
362.07	98.56
362.296	83.56
362.523	86.56
362.749	79.56
362.976	93.56
363.203	85.56
363.429	93.56
363.656	74.56
363.882	103.56
364.109	89.56
364.335	102.56
364.562	90.56
364.788	76.56
365.015	91.56
365.241	85.56
365.468	89.56
365.694	83.56
365.92	84.56
366.147	91.56
366.373	89.56
366.599	94.56
366.826	86.56
367.052	93.56
367.278	94.56
367.505	84.56
367.731	83.56
367.957	91.56
368.184	84.56
368.41	76.56
368.636	98.56
368.862	87.56
369.089	74.56
369.315	86.56
369.541	76.56
369.767	88.56
369.993	95.56
370.219	85.56
370.445	84.56
370.672	97.56
370.898	95.56
371.124	88.56
371.35	93.56
371.576	82.56
371.802	86.56
372.028	97.56
372.254	90.56
372.48	102.56
372.706	94.56
372.932	77.56
373.158	90.56
373.384	109.56
373.61	102.56
373.835	81.56
374.061	83.56
374.287	94.56
374.513	94.56
374.739	87.56
374.965	81.56
375.191	97.56
375.416	90.56
375.642	86.56
375.868	85.56
376.094	99.56
376.319	78.56
376.545	86.56
376.771	95.56
376.997	97.56
377.222	75.56
377.448	86.56
377.674	99.56
377.899	82.56
378.125	103.56
378.35	89.56
378.576	81.56
378.802	79.56
379.027	67.56
379.253	86.56
379.478	93.56
379.704	83.56
379.929	77.56
380.155	85.56
380.38	95.56
380.606	94.56
380.831	85.56
381.057	95.56
381.282	97.56
381.507	97.56
381.733	93.56
381.958	87.56
382.184	88.56
382.409	88.56
382.634	90.56
382.86	83.56
383.085	91.56
383.31	91.56
383.535	99.56
383.761	88.56
383.986	77.56
384.211	86.56
384.436	87.56
384.662	90.56
384.887	78.56
385.112	91.56
385.337	93.56
385.562	87.56
385.787	100.56
386.013	102.56
386.238	86.56
386.463	95.56
386.688	87.56
386.913	106.56
387.138	82.56
387.363	91.56
387.588	91.56
387.813	92.56
388.038	82.56
388.263	83.56
388.488	85.56
388.713	88.56
388.938	91.56
389.163	77.56
389.387	89.56
389.612	82.56
389.837	87.56
390.062	81.56
390.287	92.56
390.512	92.56
390.736	88.56
390.961	100.56
391.186	85.56
391.411	97.56
391.636	93.56
391.86	97.56
392.085	90.56
392.31	87.56
392.534	100.56
392.759	87.56
392.984	94.56
393.208	88.56
393.433	97.56
393.658	81.56
393.882	85.56
394.107	83.56
394.331	85.56
394.556	83.56
394.78	87.56
395.005	97.56
395.229	102.56
395.454	85.56
395.678	90.56
395.903	99.56
396.127	103.56
396.352	97.56
396.576	102.56
396.801	85.56
397.025	81.56
397.249	90.56
397.474	99.56
397.698	90.56
397.922	83.56
398.147	99.56
398.371	99.56
398.595	92.56
398.82	90.56
399.044	97.56
399.268	94.56
399.492	82.56
399.717	98.56
399.941	97.56
400.165	92.56
400.389	83.56
400.613	89.56
400.837	100.56
401.062	85.56
401.286	87.56
401.51	98.56
401.734	96.56
401.958	87.56
402.182	84.56
402.406	96.56
402.63	103.56
402.854	100.56
403.078	93.56
403.302	105.56
403.526	82.56
403.75	102.56
403.974	98.56
404.198	102.56
404.422	104.56
404.645	89.56
404.869	79.56
405.093	101.56
405.317	91.56
405.541	92.56
405.765	93.56
405.988	103.56
406.212	112.56
406.436	99.56
406.66	105.56
406.883	101.56
407.107	98.56
407.331	82.56
407.555	94.56
407.778	96.56
408.002	104.56
408.226	92.56
408.449	96.56
408.673	77.56
408.896	83.56
409.12	99.56
409.344	92.56
409.567	104.56
409.791	105.56
410.014	104.56
410.238	110.56
410.461	113.56
410.685	107.56
410.908	86.56
411.132	91.56
411.355	100.56
411.578	90.56
411.802	102.56
412.025	97.56
412.249	91.56
412.472	98.56
412.695	113.56
412.919	94.56
413.142	91.56
413.365	102.56
413.589	110.56
413.812	102.56
414.035	90.56
414.258	94.56
414.482	88.56
414.705	86.56
414.928	92.56
415.151	107.56
415.374	98.56
415.597	101.56
415.821	97.56
416.044	98.56
416.267	93.56
416.49	78.56
416.713	99.56
416.936	96.56
417.159	92.56
417.382	86.56
417.605	95.56
417.828	93.56
418.051	90.56
418.274	76.56
418.497	91.56
418.72	93.56
418.943	84.56
419.166	107.56
419.389	118.56
419.611	103.56
419.834	109.56
420.057	90.56
420.28	103.56
420.503	106.56
420.726	103.56
420.948	102.56
421.171	93.56
421.394	104.56
421.617	92.56
421.839	96.56
422.062	87.56
422.285	114.56
422.507	89.56
422.73	97.56
422.953	109.56
423.175	93.56
423.398	93.56
423.621	98.56
423.843	99.56
424.066	108.56
424.288	101.56
424.511	101.56
424.733	116.56
424.956	111.56
425.178	106.56
425.401	105.56
425.623	88.56
425.846	100.56
426.068	103.56
426.291	91.56
426.513	102.56
426.735	114.56
426.958	91.56
427.18	95.56
427.402	97.56
427.625	98.56
427.847	104.56
428.069	92.56
428.292	101.56
428.514	107.56
428.736	101.56
428.958	83.56
429.181	87.56
429.403	97.56
429.625	81.56
429.847	92.56
430.069	100.56
430.292	103.56
430.514	93.56
430.736	100.56
430.958	105.56
431.18	98.56
431.402	95.56
431.624	86.56
431.846	91.56
432.068	92.56
432.29	108.56
432.512	99.56
432.734	88.56
432.956	89.56
433.178	112.56
433.4	108.56
433.622	113.56
433.844	90.56
434.066	89.56
434.287	93.56
434.509	93.56
434.731	101.56
434.953	92.56
435.175	97.56
435.397	92.56
435.618	100.56
435.84	93.56
436.062	105.56
436.284	114.56
436.505	93.56
436.727	95.56
436.949	90.56
437.17	98.56
437.392	95.56
437.614	88.56
437.835	94.56
438.057	98.56
438.278	90.56
438.5	106.56
438.721	100.56
438.943	113.56
439.165	111.56
439.386	119.56
439.608	110.56
439.829	92.56
440.05	92.56
440.272	100.56
440.493	109.56
440.715	105.56
440.936	92.56
441.158	97.56
441.379	93.56
441.6	113.56
441.822	104.56
442.043	115.56
442.264	111.56
442.486	95.56
442.707	112.56
442.928	103.56
443.149	97.56
443.371	106.56
443.592	93.56
443.813	97.56
444.034	95.56
444.255	97.56
444.476	100.56
444.698	109.56
444.919	95.56
445.14	211.56
445.361	160.56
445.582	108.56
445.803	107.56
446.024	90.56
446.245	107.56
446.466	107.56
446.687	96.56
446.908	106.56
447.129	91.56
447.35	109.56
447.571	96.56
447.792	118.56
448.013	108.56
448.234	109.56
448.455	107.56
448.675	105.56
448.896	93.56
449.117	106.56
449.338	92.56
449.559	97.56
449.779	108.56
450	92.56
450.221	114.56
450.442	99.56
450.662	98.56
450.883	113.56
451.104	95.56
451.324	89.56
451.545	105.56
451.766	100.56
451.986	90.56
452.207	114.56
452.428	109.56
452.648	104.56
452.869	102.56
453.089	92.56
453.31	94.56
453.53	84.56
453.751	96.56
453.971	89.56
454.192	79.56
454.412	94.56
454.633	86.56
454.853	97.56
455.073	105.56
455.294	106.56
455.514	107.56
455.734	102.56
455.955	84.56
456.175	79.56
456.395	100.56
456.616	86.56
456.836	101.56
457.056	95.56
457.276	108.56
457.497	92.56
457.717	100.56
457.937	86.56
458.157	93.56
458.377	102.56
458.598	88.56
458.818	87.56
459.038	82.56
459.258	82.56
459.478	82.56
459.698	90.56
459.918	83.56
460.138	85.56
460.358	91.56
460.578	92.56
460.798	97.56
461.018	85.56
461.238	105.56
461.458	90.56
461.678	95.56
461.898	91.56
462.118	91.56
462.338	96.56
462.558	100.56
462.777	105.56
462.997	93.56
463.217	78.56
463.437	90.56
463.657	86.56
463.876	95.56
464.096	80.56
464.316	84.56
464.536	103.56
464.755	103.56
464.975	91.56
465.195	95.56
465.414	101.56
465.634	92.56
465.854	85.56
466.073	90.56
466.293	88.56
466.512	97.56
466.732	102.56
466.951	101.56
467.171	98.56
467.391	87.56
467.61	101.56
467.829	105.56
468.049	100.56
468.268	110.56
468.488	99.56
468.707	95.56
468.927	84.56
469.146	95.56
469.365	99.56
469.585	114.56
469.804	101.56
470.023	102.56
470.243	104.56
470.462	104.56
470.681	99.56
470.901	103.56
471.12	109.56
471.339	106.56
471.558	111.56
471.777	107.56
471.997	106.56
472.216	102.56
472.435	92.56
472.654	90.56
472.873	105.56
473.092	99.56
473.311	91.56
473.53	92.56
473.749	91.56
473.968	107.56
474.187	94.56
474.406	116.56
474.625	112.56
474.844	91.56
475.063	110.56
475.282	100.56
475.501	94.56
475.72	101.56
475.939	91.56
476.158	97.56
476.377	107.56
476.596	92.56
476.814	106.56
477.033	97.56
477.252	89.56
477.471	92.56
477.69	93.56
477.908	103.56
478.127	106.56
478.346	109.56
478.564	106.56
478.783	97.56
479.002	107.56
479.22	100.56
479.439	110.56
479.658	91.56
479.876	100.56
480.095	93.56
480.313	100.56
480.532	105.56
480.751	105.56
480.969	101.56
481.188	94.56
481.406	78.56
481.624	87.56
481.843	89.56
482.061	82.56
482.28	101.56
482.498	93.56
482.717	87.56
482.935	107.56
483.153	102.56
483.372	98.56
483.59	105.56
483.808	101.56
484.027	109.56
484.245	114.56
484.463	98.56
484.681	107.56
484.9	101.56
485.118	120.56
485.336	94.56
485.554	97.56
485.772	87.56
485.99	85.56
486.209	88.56
486.427	94.56
486.645	102.56
486.863	104.56
487.081	109.56
487.299	96.56
487.517	102.56
487.735	119.56
487.953	121.56
488.171	119.56
488.389	105.56
488.607	113.56
488.825	103.56
489.043	116.56
489.261	94.56
489.479	103.56
489.696	91.56
489.914	93.56
490.132	107.56
490.35	111.56
490.568	122.56
490.786	107.56
491.003	117.56
491.221	111.56
491.439	117.56
491.657	121.56
491.874	121.56
492.092	120.56
492.31	137.56
492.527	118.56
492.745	111.56
492.963	130.56
493.18	127.56
493.398	109.56
493.615	102.56
493.833	115.56
494.05	122.56
494.268	123.56
494.485	114.56
494.703	117.56
494.92	116.56
495.138	110.56
495.355	113.56
495.573	128.56
495.79	109.56
496.008	97.56
496.225	119.56
496.442	113.56
496.66	111.56
496.877	108.56
497.094	93.56
497.312	114.56
497.529	85.56
497.746	118.56
497.963	99.56
498.181	97.56
498.398	104.56
498.615	108.56
498.832	91.56
499.049	97.56
499.267	114.56
499.484	86.56
499.701	87.56
499.918	106.56
500.135	101.56
500.352	97.56
500.569	102.56
500.786	93.56
501.003	115.56
501.22	101.56
501.437	99.56
501.654	110.56
501.871	113.56
502.088	83.56
502.305	105.56
502.522	97.56
502.739	103.56
502.956	114.56
503.172	95.56
503.389	88.56
503.606	98.56
503.823	104.56
504.04	105.56
504.256	93.56
504.473	95.56
504.69	94.56
504.907	102.56
505.123	94.56
505.34	91.56
505.557	101.56
505.773	84.56
505.99	110.56
506.207	85.56
506.423	97.56
506.64	93.56
506.856	84.56
507.073	96.56
507.289	113.56
507.506	115.56
507.722	87.56
507.939	99.56
508.155	95.56
508.372	98.56
508.588	92.56
508.805	91.56
509.021	87.56
509.238	100.56
509.454	95.56
509.67	92.56
509.887	101.56
510.103	87.56
510.319	84.56
510.536	94.56
510.752	88.56
510.968	86.56
511.184	96.56
511.401	94.56
511.617	79.56
511.833	80.56
512.049	74.56
512.265	85.56
512.481	88.56
512.698	90.56
512.914	94.56
513.13	85.56
513.346	88.56
513.562	89.56
513.778	93.56
513.994	82.56
514.21	87.56
514.426	86.56
514.642	86.56
514.858	94.56
515.074	107.56
515.29	92.56
515.506	76.56
515.721	87.56
