Data from Location3.07152019.Energy5.Lamp.07192019.3%Agarose_HRD10591_15-18-18-270.txt Node
Date: Fri Jul 19 15:18:18 EDT 2019
User: cochatt
Spectrometer: HR+D1059
Trigger mode: 1
Integration Time (sec): 1.000000E-1
Scans to average: 1
Electric dark correction enabled: true
Nonlinearity correction enabled: false
Boxcar width: 0
XAxis mode: Wavelengths
Number of Pixels in Spectrum: 2048
>>>>>Begin Spectral Data<<<<<
223.165	-5.56
223.4	-5.56
223.635	-5.56
223.869	-18.56
224.104	-18.56
224.338	-7.56
224.573	-19.56
224.808	-14.56
225.042	-12.56
225.277	-5.56
225.511	-2.56
225.746	8.44
225.98	7.44
226.215	17.44
226.449	8.44
226.683	6.44
226.918	29.44
227.152	27.44
227.387	30.44
227.621	33.44
227.856	45.44
228.09	41.44
228.324	51.44
228.559	42.44
228.793	53.44
229.027	47.44
229.262	60.44
229.496	68.44
229.73	50.44
229.964	70.44
230.199	78.44
230.433	76.44
230.667	66.44
230.901	73.44
231.136	73.44
231.37	85.44
231.604	76.44
231.838	78.44
232.072	78.44
232.306	87.44
232.541	75.44
232.775	82.44
233.009	68.44
233.243	82.44
233.477	71.44
233.711	80.44
233.945	70.44
234.179	79.44
234.413	78.44
234.647	79.44
234.881	83.44
235.115	70.44
235.349	66.44
235.583	91.44
235.817	64.44
236.051	72.44
236.285	74.44
236.519	77.44
236.753	81.44
236.987	74.44
237.221	78.44
237.455	80.44
237.689	84.44
237.922	79.44
238.156	75.44
238.39	69.44
238.624	77.44
238.858	70.44
239.091	75.44
239.325	81.44
239.559	76.44
239.793	69.44
240.027	72.44
240.26	81.44
240.494	71.44
240.728	81.44
240.961	77.44
241.195	77.44
241.429	76.44
241.662	75.44
241.896	72.44
242.13	79.44
242.363	98.44
242.597	74.44
242.83	67.44
243.064	73.44
243.298	73.44
243.531	75.44
243.765	62.44
243.998	66.44
244.232	61.44
244.465	81.44
244.699	64.44
244.932	75.44
245.166	60.44
245.399	83.44
245.633	75.44
245.866	70.44
246.099	71.44
246.333	64.44
246.566	84.44
246.8	76.44
247.033	95.44
247.266	84.44
247.5	85.44
247.733	77.44
247.966	75.44
248.2	92.44
248.433	63.44
248.666	69.44
248.899	61.44
249.133	69.44
249.366	86.44
249.599	74.44
249.832	71.44
250.066	79.44
250.299	85.44
250.532	79.44
250.765	80.44
250.998	76.44
251.231	83.44
251.465	81.44
251.698	67.44
251.931	69.44
252.164	77.44
252.397	66.44
252.63	77.44
252.863	90.44
253.096	78.44
253.329	75.44
253.562	65.44
253.795	62.44
254.028	77.44
254.261	83.44
254.494	85.44
254.727	62.44
254.96	75.44
255.193	69.44
255.426	65.44
255.659	81.44
255.892	81.44
256.124	78.44
256.357	75.44
256.59	79.44
256.823	78.44
257.056	66.44
257.289	69.44
257.521	82.44
257.754	83.44
257.987	68.44
258.22	86.44
258.452	73.44
258.685	76.44
258.918	74.44
259.151	69.44
259.383	76.44
259.616	75.44
259.849	83.44
260.081	78.44
260.314	81.44
260.547	77.44
260.779	70.44
261.012	67.44
261.244	65.44
261.477	82.44
261.71	86.44
261.942	60.44
262.175	71.44
262.407	72.44
262.64	74.44
262.872	79.44
263.105	64.44
263.337	85.44
263.57	79.44
263.802	84.44
264.035	82.44
264.267	76.44
264.499	76.44
264.732	72.44
264.964	72.44
265.197	80.44
265.429	90.44
265.661	88.44
265.894	81.44
266.126	71.44
266.358	75.44
266.591	86.44
266.823	72.44
267.055	78.44
267.287	65.44
267.52	80.44
267.752	82.44
267.984	75.44
268.216	85.44
268.448	87.44
268.681	78.44
268.913	84.44
269.145	86.44
269.377	80.44
269.609	85.44
269.841	78.44
270.073	90.44
270.306	82.44
270.538	85.44
270.77	68.44
271.002	86.44
271.234	66.44
271.466	80.44
271.698	79.44
271.93	79.44
272.162	68.44
272.394	96.44
272.626	82.44
272.858	93.44
273.09	77.44
273.322	74.44
273.553	81.44
273.785	72.44
274.017	79.44
274.249	63.44
274.481	78.44
274.713	80.44
274.945	77.44
275.176	79.44
275.408	81.44
275.64	79.44
275.872	76.44
276.104	82.44
276.335	85.44
276.567	73.44
276.799	74.44
277.031	74.44
277.262	80.44
277.494	91.44
277.726	78.44
277.957	65.44
278.189	80.44
278.421	77.44
278.652	98.44
278.884	84.44
279.115	74.44
279.347	86.44
279.579	92.44
279.81	73.44
280.042	65.44
280.273	75.44
280.505	70.44
280.736	81.44
280.968	75.44
281.199	83.44
281.431	81.44
281.662	82.44
281.894	76.44
282.125	84.44
282.356	89.44
282.588	73.44
282.819	81.44
283.051	83.44
283.282	77.44
283.513	75.44
283.745	69.44
283.976	68.44
284.207	92.44
284.439	79.44
284.67	68.44
284.901	79.44
285.132	87.44
285.364	78.44
285.595	81.44
285.826	82.44
286.057	81.44
286.288	72.44
286.52	65.44
286.751	85.44
286.982	84.44
287.213	72.44
287.444	78.44
287.675	81.44
287.906	70.44
288.138	73.44
288.369	69.44
288.6	73.44
288.831	82.44
289.062	76.44
289.293	79.44
289.524	77.44
289.755	75.44
289.986	67.44
290.217	86.44
290.448	85.44
290.679	80.44
290.91	80.44
291.141	80.44
291.371	74.44
291.602	77.44
291.833	83.44
292.064	89.44
292.295	74.44
292.526	87.44
292.757	81.44
292.987	89.44
293.218	82.44
293.449	83.44
293.68	90.44
293.91	88.44
294.141	82.44
294.372	89.44
294.603	93.44
294.833	90.44
295.064	85.44
295.295	63.44
295.525	67.44
295.756	84.44
295.987	69.44
296.217	69.44
296.448	55.44
296.679	77.44
296.909	84.44
297.14	77.44
297.37	81.44
297.601	71.44
297.831	70.44
298.062	82.44
298.292	89.44
298.523	77.44
298.753	72.44
298.984	61.44
299.214	75.44
299.445	81.44
299.675	85.44
299.905	68.44
300.136	76.44
300.366	71.44
300.597	70.44
300.827	76.44
301.057	94.44
301.288	92.44
301.518	96.44
301.748	80.44
301.979	70.44
302.209	74.44
302.439	81.44
302.669	86.44
302.9	78.44
303.13	63.44
303.36	75.44
303.59	83.44
303.82	76.44
304.051	77.44
304.281	83.44
304.511	79.44
304.741	80.44
304.971	69.44
305.201	87.44
305.431	78.44
305.661	75.44
305.891	82.44
306.121	67.44
306.352	75.44
306.582	92.44
306.812	75.44
307.042	84.44
307.272	77.44
307.502	79.44
307.731	81.44
307.961	74.44
308.191	72.44
308.421	73.44
308.651	90.44
308.881	84.44
309.111	79.44
309.341	75.44
309.571	71.44
309.8	70.44
310.03	77.44
310.26	63.44
310.49	82.44
310.72	87.44
310.949	62.44
311.179	70.44
311.409	87.44
311.639	75.44
311.868	80.44
312.098	79.44
312.328	68.44
312.557	81.44
312.787	87.44
313.017	77.44
313.246	83.44
313.476	84.44
313.706	85.44
313.935	84.44
314.165	77.44
314.394	63.44
314.624	70.44
314.853	89.44
315.083	82.44
315.312	81.44
315.542	82.44
315.771	96.44
316.001	83.44
316.23	92.44
316.46	85.44
316.689	93.44
316.919	85.44
317.148	76.44
317.377	79.44
317.607	87.44
317.836	79.44
318.065	82.44
318.295	85.44
318.524	90.44
318.753	75.44
318.983	84.44
319.212	73.44
319.441	69.44
319.67	87.44
319.9	91.44
320.129	74.44
320.358	81.44
320.587	80.44
320.816	76.44
321.046	83.44
321.275	75.44
321.504	76.44
321.733	75.44
321.962	80.44
322.191	90.44
322.42	74.44
322.649	68.44
322.878	79.44
323.108	83.44
323.337	75.44
323.566	84.44
323.795	73.44
324.024	70.44
324.253	69.44
324.482	83.44
324.71	80.44
324.939	77.44
325.168	88.44
325.397	84.44
325.626	77.44
325.855	83.44
326.084	82.44
326.313	93.44
326.542	100.44
326.77	79.44
326.999	81.44
327.228	87.44
327.457	85.44
327.686	80.44
327.914	77.44
328.143	77.44
328.372	84.44
328.6	87.44
328.829	100.44
329.058	76.44
329.287	68.44
329.515	78.44
329.744	78.44
329.972	74.44
330.201	71.44
330.43	68.44
330.658	74.44
330.887	86.44
331.115	79.44
331.344	84.44
331.572	88.44
331.801	82.44
332.03	88.44
332.258	75.44
332.486	74.44
332.715	72.44
332.943	77.44
333.172	79.44
333.4	81.44
333.629	76.44
333.857	86.44
334.085	70.44
334.314	73.44
334.542	74.44
334.771	63.44
334.999	70.44
335.227	72.44
335.455	72.44
335.684	69.44
335.912	74.44
336.14	80.44
336.369	82.44
336.597	71.44
336.825	70.44
337.053	62.44
337.281	69.44
337.51	75.44
337.738	83.44
337.966	86.44
338.194	86.44
338.422	68.44
338.65	74.44
338.878	71.44
339.106	77.44
339.334	91.44
339.562	80.44
339.79	91.44
340.018	86.44
340.246	86.44
340.474	85.44
340.702	79.44
340.93	76.44
341.158	78.44
341.386	92.44
341.614	82.44
341.842	82.44
342.07	66.44
342.298	69.44
342.526	78.44
342.754	85.44
342.981	77.44
343.209	84.44
343.437	76.44
343.665	88.44
343.893	79.44
344.12	88.44
344.348	95.44
344.576	88.44
344.804	77.44
345.031	78.44
345.259	84.44
345.487	84.44
345.714	83.44
345.942	79.44
346.17	73.44
346.397	71.44
346.625	73.44
346.853	87.44
347.08	72.44
347.308	78.44
347.535	88.44
347.763	62.44
347.99	83.44
348.218	83.44
348.445	75.44
348.673	70.44
348.9	77.44
349.128	77.44
349.355	85.44
349.583	85.44
349.81	87.44
350.037	76.44
350.265	71.44
350.492	75.44
350.72	71.44
350.947	76.44
351.174	66.44
351.402	69.44
351.629	68.44
351.856	74.44
352.083	79.44
352.311	83.44
352.538	68.44
352.765	58.44
352.992	91.44
353.22	82.44
353.447	72.44
353.674	69.44
353.901	77.44
354.128	72.44
354.355	79.44
354.583	83.44
354.81	79.44
355.037	83.44
355.264	68.44
355.491	85.44
355.718	69.44
355.945	74.44
356.172	82.44
356.399	83.44
356.626	74.44
356.853	77.44
357.08	72.44
357.307	79.44
357.534	79.44
357.761	93.44
357.988	81.44
358.215	76.44
358.441	87.44
358.668	86.44
358.895	62.44
359.122	81.44
359.349	77.44
359.576	75.44
359.802	78.44
360.029	78.44
360.256	65.44
360.483	72.44
360.709	72.44
360.936	79.44
361.163	80.44
361.39	77.44
361.616	78.44
361.843	93.44
362.07	64.44
362.296	79.44
362.523	80.44
362.749	91.44
362.976	73.44
363.203	70.44
363.429	70.44
363.656	71.44
363.882	83.44
364.109	71.44
364.335	78.44
364.562	77.44
364.788	71.44
365.015	76.44
365.241	93.44
365.468	74.44
365.694	81.44
365.92	69.44
366.147	70.44
366.373	61.44
366.599	75.44
366.826	86.44
367.052	81.44
367.278	74.44
367.505	82.44
367.731	90.44
367.957	74.44
368.184	76.44
368.41	77.44
368.636	79.44
368.862	89.44
369.089	84.44
369.315	79.44
369.541	76.44
369.767	74.44
369.993	73.44
370.219	91.44
370.445	90.44
370.672	73.44
370.898	75.44
371.124	79.44
371.35	82.44
371.576	71.44
371.802	83.44
372.028	71.44
372.254	77.44
372.48	82.44
372.706	86.44
372.932	92.44
373.158	83.44
373.384	65.44
373.61	79.44
373.835	71.44
374.061	87.44
374.287	77.44
374.513	79.44
374.739	71.44
374.965	79.44
375.191	74.44
375.416	71.44
375.642	71.44
375.868	86.44
376.094	84.44
376.319	79.44
376.545	74.44
376.771	88.44
376.997	74.44
377.222	80.44
377.448	83.44
377.674	59.44
377.899	76.44
378.125	78.44
378.35	89.44
378.576	68.44
378.802	75.44
379.027	73.44
379.253	85.44
379.478	73.44
379.704	70.44
379.929	85.44
380.155	89.44
380.38	85.44
380.606	84.44
380.831	91.44
381.057	85.44
381.282	96.44
381.507	76.44
381.733	75.44
381.958	81.44
382.184	77.44
382.409	79.44
382.634	85.44
382.86	83.44
383.085	75.44
383.31	78.44
383.535	81.44
383.761	81.44
383.986	78.44
384.211	74.44
384.436	77.44
384.662	93.44
384.887	77.44
385.112	73.44
385.337	70.44
385.562	80.44
385.787	83.44
386.013	84.44
386.238	77.44
386.463	92.44
386.688	82.44
386.913	66.44
387.138	73.44
387.363	85.44
387.588	87.44
387.813	77.44
388.038	73.44
388.263	81.44
388.488	90.44
388.713	80.44
388.938	76.44
389.163	86.44
389.387	81.44
389.612	96.44
389.837	73.44
390.062	80.44
390.287	85.44
390.512	81.44
390.736	92.44
390.961	93.44
391.186	88.44
391.411	69.44
391.636	88.44
391.86	90.44
392.085	91.44
392.31	81.44
392.534	86.44
392.759	88.44
392.984	73.44
393.208	68.44
393.433	79.44
393.658	71.44
393.882	76.44
394.107	91.44
394.331	86.44
394.556	94.44
394.78	89.44
395.005	92.44
395.229	67.44
395.454	86.44
395.678	87.44
395.903	92.44
396.127	102.44
396.352	94.44
396.576	93.44
396.801	94.44
397.025	79.44
397.249	81.44
397.474	85.44
397.698	80.44
397.922	92.44
398.147	81.44
398.371	81.44
398.595	84.44
398.82	96.44
399.044	102.44
399.268	82.44
399.492	89.44
399.717	74.44
399.941	77.44
400.165	90.44
400.389	78.44
400.613	81.44
400.837	81.44
401.062	81.44
401.286	94.44
401.51	82.44
401.734	82.44
401.958	71.44
402.182	73.44
402.406	74.44
402.63	77.44
402.854	90.44
403.078	93.44
403.302	92.44
403.526	76.44
403.75	85.44
403.974	91.44
404.198	87.44
404.422	94.44
404.645	83.44
404.869	88.44
405.093	84.44
405.317	82.44
405.541	67.44
405.765	86.44
405.988	89.44
406.212	76.44
406.436	72.44
406.66	72.44
406.883	83.44
407.107	77.44
407.331	88.44
407.555	80.44
407.778	90.44
408.002	93.44
408.226	75.44
408.449	88.44
408.673	82.44
408.896	87.44
409.12	78.44
409.344	77.44
409.567	82.44
409.791	87.44
410.014	89.44
410.238	99.44
410.461	85.44
410.685	85.44
410.908	108.44
411.132	83.44
411.355	89.44
411.578	93.44
411.802	85.44
412.025	70.44
412.249	77.44
412.472	90.44
412.695	85.44
412.919	90.44
413.142	87.44
413.365	82.44
413.589	95.44
413.812	93.44
414.035	97.44
414.258	94.44
414.482	75.44
414.705	88.44
414.928	89.44
415.151	87.44
415.374	76.44
415.597	92.44
415.821	78.44
416.044	96.44
416.267	90.44
416.49	86.44
416.713	92.44
416.936	82.44
417.159	80.44
417.382	89.44
417.605	79.44
417.828	96.44
418.051	94.44
418.274	87.44
418.497	91.44
418.72	90.44
418.943	85.44
419.166	92.44
419.389	106.44
419.611	85.44
419.834	91.44
420.057	102.44
420.28	94.44
420.503	103.44
420.726	79.44
420.948	96.44
421.171	102.44
421.394	77.44
421.617	83.44
421.839	103.44
422.062	100.44
422.285	78.44
422.507	92.44
422.73	90.44
422.953	80.44
423.175	95.44
423.398	101.44
423.621	92.44
423.843	86.44
424.066	84.44
424.288	92.44
424.511	91.44
424.733	89.44
424.956	100.44
425.178	101.44
425.401	100.44
425.623	81.44
425.846	97.44
426.068	89.44
426.291	93.44
426.513	95.44
426.735	76.44
426.958	82.44
427.18	83.44
427.402	92.44
427.625	89.44
427.847	83.44
428.069	82.44
428.292	91.44
428.514	89.44
428.736	108.44
428.958	101.44
429.181	79.44
429.403	77.44
429.625	76.44
429.847	91.44
430.069	92.44
430.292	91.44
430.514	89.44
430.736	81.44
430.958	84.44
431.18	92.44
431.402	97.44
431.624	83.44
431.846	83.44
432.068	87.44
432.29	82.44
432.512	91.44
432.734	93.44
432.956	85.44
433.178	90.44
433.4	87.44
433.622	89.44
433.844	89.44
434.066	83.44
434.287	64.44
434.509	77.44
434.731	78.44
434.953	94.44
435.175	86.44
435.397	91.44
435.618	90.44
435.84	85.44
436.062	87.44
436.284	84.44
436.505	81.44
436.727	91.44
436.949	93.44
437.17	85.44
437.392	87.44
437.614	98.44
437.835	85.44
438.057	89.44
438.278	94.44
438.5	94.44
438.721	82.44
438.943	100.44
439.165	97.44
439.386	80.44
439.608	91.44
439.829	93.44
440.05	81.44
440.272	95.44
440.493	110.44
440.715	83.44
440.936	92.44
441.158	98.44
441.379	101.44
441.6	107.44
441.822	79.44
442.043	92.44
442.264	89.44
442.486	83.44
442.707	96.44
442.928	97.44
443.149	91.44
443.371	90.44
443.592	98.44
443.813	89.44
444.034	94.44
444.255	96.44
444.476	95.44
444.698	92.44
444.919	94.44
445.14	203.44
445.361	143.44
445.582	101.44
445.803	104.44
446.024	82.44
446.245	99.44
446.466	99.44
446.687	105.44
446.908	109.44
447.129	89.44
447.35	83.44
447.571	97.44
447.792	91.44
448.013	105.44
448.234	84.44
448.455	106.44
448.675	83.44
448.896	100.44
449.117	79.44
449.338	87.44
449.559	73.44
449.779	93.44
450	101.44
450.221	87.44
450.442	97.44
450.662	98.44
450.883	85.44
451.104	95.44
451.324	93.44
451.545	82.44
451.766	77.44
451.986	87.44
452.207	78.44
452.428	96.44
452.648	81.44
452.869	88.44
453.089	92.44
453.31	94.44
453.53	90.44
453.751	75.44
453.971	82.44
454.192	75.44
454.412	80.44
454.633	90.44
454.853	86.44
455.073	83.44
455.294	74.44
455.514	96.44
455.734	82.44
455.955	77.44
456.175	95.44
456.395	84.44
456.616	86.44
456.836	91.44
457.056	68.44
457.276	79.44
457.497	79.44
457.717	72.44
457.937	84.44
458.157	75.44
458.377	73.44
458.598	80.44
458.818	69.44
459.038	86.44
459.258	93.44
459.478	75.44
459.698	78.44
459.918	78.44
460.138	90.44
460.358	89.44
460.578	99.44
460.798	81.44
461.018	86.44
461.238	97.44
461.458	91.44
461.678	89.44
461.898	81.44
462.118	78.44
462.338	107.44
462.558	92.44
462.777	91.44
462.997	107.44
463.217	81.44
463.437	88.44
463.657	76.44
463.876	93.44
464.096	79.44
464.316	95.44
464.536	90.44
464.755	83.44
464.975	80.44
465.195	92.44
465.414	75.44
465.634	91.44
465.854	76.44
466.073	95.44
466.293	90.44
466.512	81.44
466.732	82.44
466.951	89.44
467.171	90.44
467.391	98.44
467.61	93.44
467.829	85.44
468.049	81.44
468.268	91.44
468.488	84.44
468.707	98.44
468.927	104.44
469.146	94.44
469.365	103.44
469.585	97.44
469.804	97.44
470.023	93.44
470.243	76.44
470.462	103.44
470.681	95.44
470.901	101.44
471.12	100.44
471.339	107.44
471.558	83.44
471.777	85.44
471.997	96.44
472.216	77.44
472.435	85.44
472.654	96.44
472.873	94.44
473.092	85.44
473.311	91.44
473.53	81.44
473.749	89.44
473.968	93.44
474.187	101.44
474.406	73.44
474.625	89.44
474.844	96.44
475.063	95.44
475.282	85.44
475.501	91.44
475.72	99.44
475.939	102.44
476.158	97.44
476.377	81.44
476.596	91.44
476.814	89.44
477.033	87.44
477.252	80.44
477.471	106.44
477.69	93.44
477.908	85.44
478.127	99.44
478.346	94.44
478.564	98.44
478.783	94.44
479.002	101.44
479.22	83.44
479.439	110.44
479.658	94.44
479.876	74.44
480.095	85.44
480.313	95.44
480.532	93.44
480.751	82.44
480.969	78.44
481.188	82.44
481.406	75.44
481.624	90.44
481.843	91.44
482.061	75.44
482.28	85.44
482.498	86.44
482.717	78.44
482.935	74.44
483.153	98.44
483.372	85.44
483.59	91.44
483.808	98.44
484.027	93.44
484.245	91.44
484.463	97.44
484.681	93.44
484.9	92.44
485.118	85.44
485.336	92.44
485.554	78.44
485.772	86.44
485.99	79.44
486.209	82.44
486.427	81.44
486.645	79.44
486.863	96.44
487.081	107.44
487.299	88.44
487.517	99.44
487.735	103.44
487.953	100.44
488.171	116.44
488.389	117.44
488.607	93.44
488.825	93.44
489.043	88.44
489.261	86.44
489.479	91.44
489.696	83.44
489.914	98.44
490.132	92.44
490.35	96.44
490.568	96.44
490.786	109.44
491.003	93.44
491.221	107.44
491.439	92.44
491.657	126.44
491.874	118.44
492.092	125.44
492.31	129.44
492.527	140.44
492.745	113.44
492.963	112.44
493.18	106.44
493.398	107.44
493.615	126.44
493.833	109.44
494.05	107.44
494.268	102.44
494.485	105.44
494.703	112.44
494.92	115.44
495.138	110.44
495.355	100.44
495.573	101.44
495.79	96.44
496.008	89.44
496.225	110.44
496.442	108.44
496.66	99.44
496.877	118.44
497.094	109.44
497.312	117.44
497.529	102.44
497.746	89.44
497.963	92.44
498.181	97.44
498.398	82.44
498.615	96.44
498.832	88.44
499.049	97.44
499.267	96.44
499.484	83.44
499.701	81.44
499.918	97.44
500.135	96.44
500.352	97.44
500.569	91.44
500.786	92.44
501.003	93.44
501.22	93.44
501.437	101.44
501.654	118.44
501.871	84.44
502.088	81.44
502.305	91.44
502.522	98.44
502.739	92.44
502.956	84.44
503.172	98.44
503.389	86.44
503.606	86.44
503.823	83.44
504.04	92.44
504.256	79.44
504.473	74.44
504.69	93.44
504.907	94.44
505.123	93.44
505.34	86.44
505.557	87.44
505.773	102.44
505.99	87.44
506.207	83.44
506.423	87.44
506.64	85.44
506.856	82.44
507.073	91.44
507.289	86.44
507.506	89.44
507.722	89.44
507.939	86.44
508.155	82.44
508.372	85.44
508.588	83.44
508.805	82.44
509.021	93.44
509.238	85.44
509.454	78.44
509.67	77.44
509.887	87.44
510.103	89.44
510.319	90.44
510.536	77.44
510.752	83.44
510.968	77.44
511.184	69.44
511.401	78.44
511.617	79.44
511.833	69.44
512.049	82.44
512.265	77.44
512.481	64.44
512.698	84.44
512.914	84.44
513.13	92.44
513.346	81.44
513.562	81.44
513.778	68.44
513.994	90.44
514.21	85.44
514.426	78.44
514.642	73.44
514.858	94.44
515.074	67.44
515.29	90.44
515.506	79.44
515.721	84.44
515.937	65.44
516.153	82.44
516.369	70.44
516.585	82.44
516.801	80.44
517.016	83.44
517.232	82.44
517.448	78.44
517.664	80.44
517.879	92.44
518.095	98.44
518.311	76.44
518.527	78.44
