Data from Location3.07152019.Energy5.Lamp.07192019.3%Agarose_HRD10591_15-19-45-273.txt Node
Date: Fri Jul 19 15:19:45 EDT 2019
User: cochatt
Spectrometer: HR+D1059
Trigger mode: 1
Integration Time (sec): 1.000000E-1
Scans to average: 1
Electric dark correction enabled: true
Nonlinearity correction enabled: false
Boxcar width: 0
XAxis mode: Wavelengths
Number of Pixels in Spectrum: 2048
>>>>>Begin Spectral Data<<<<<
223.165	-3.88
223.4	-3.88
223.635	-3.88
223.869	-20.88
224.104	-26.88
224.338	-10.88
224.573	-12.88
224.808	-18.88
225.042	-5.88
225.277	-5.88
225.511	9.12
225.746	2.12
225.98	0.12
226.215	9.12
226.449	12.12
226.683	21.12
226.918	20.12
227.152	32.12
227.387	41.12
227.621	46.12
227.856	46.12
228.09	49.12
228.324	44.12
228.559	38.12
228.793	47.12
229.027	62.12
229.262	69.12
229.496	61.12
229.73	75.12
229.964	71.12
230.199	81.12
230.433	78.12
230.667	88.12
230.901	86.12
231.136	88.12
231.37	78.12
231.604	71.12
231.838	58.12
232.072	81.12
232.306	85.12
232.541	83.12
232.775	84.12
233.009	84.12
233.243	75.12
233.477	84.12
233.711	75.12
233.945	69.12
234.179	84.12
234.413	89.12
234.647	77.12
234.881	78.12
235.115	86.12
235.349	76.12
235.583	84.12
235.817	73.12
236.051	68.12
236.285	67.12
236.519	79.12
236.753	79.12
236.987	87.12
237.221	75.12
237.455	57.12
237.689	53.12
237.922	81.12
238.156	79.12
238.39	73.12
238.624	77.12
238.858	77.12
239.091	91.12
239.325	74.12
239.559	83.12
239.793	79.12
240.027	81.12
240.26	88.12
240.494	83.12
240.728	74.12
240.961	78.12
241.195	71.12
241.429	77.12
241.662	77.12
241.896	90.12
242.13	74.12
242.363	76.12
242.597	76.12
242.83	90.12
243.064	72.12
243.298	67.12
243.531	78.12
243.765	84.12
243.998	80.12
244.232	73.12
244.465	69.12
244.699	80.12
244.932	78.12
245.166	64.12
245.399	93.12
245.633	82.12
245.866	77.12
246.099	100.12
246.333	82.12
246.566	84.12
246.8	76.12
247.033	96.12
247.266	83.12
247.5	77.12
247.733	72.12
247.966	77.12
248.2	85.12
248.433	81.12
248.666	74.12
248.899	91.12
249.133	74.12
249.366	81.12
249.599	86.12
249.832	94.12
250.066	76.12
250.299	73.12
250.532	81.12
250.765	80.12
250.998	84.12
251.231	85.12
251.465	93.12
251.698	89.12
251.931	86.12
252.164	93.12
252.397	81.12
252.63	93.12
252.863	72.12
253.096	86.12
253.329	80.12
253.562	84.12
253.795	88.12
254.028	84.12
254.261	74.12
254.494	80.12
254.727	105.12
254.96	72.12
255.193	70.12
255.426	78.12
255.659	67.12
255.892	82.12
256.124	80.12
256.357	84.12
256.59	85.12
256.823	88.12
257.056	77.12
257.289	69.12
257.521	81.12
257.754	79.12
257.987	82.12
258.22	88.12
258.452	78.12
258.685	78.12
258.918	92.12
259.151	71.12
259.383	81.12
259.616	87.12
259.849	90.12
260.081	78.12
260.314	79.12
260.547	84.12
260.779	85.12
261.012	85.12
261.244	71.12
261.477	84.12
261.71	71.12
261.942	84.12
262.175	78.12
262.407	100.12
262.64	71.12
262.872	62.12
263.105	79.12
263.337	89.12
263.57	93.12
263.802	78.12
264.035	83.12
264.267	81.12
264.499	87.12
264.732	76.12
264.964	79.12
265.197	78.12
265.429	86.12
265.661	92.12
265.894	96.12
266.126	83.12
266.358	87.12
266.591	73.12
266.823	75.12
267.055	86.12
267.287	84.12
267.52	75.12
267.752	83.12
267.984	66.12
268.216	85.12
268.448	84.12
268.681	85.12
268.913	77.12
269.145	73.12
269.377	82.12
269.609	101.12
269.841	87.12
270.073	81.12
270.306	101.12
270.538	80.12
270.77	81.12
271.002	89.12
271.234	86.12
271.466	87.12
271.698	77.12
271.93	88.12
272.162	84.12
272.394	97.12
272.626	92.12
272.858	79.12
273.09	75.12
273.322	77.12
273.553	88.12
273.785	89.12
274.017	89.12
274.249	73.12
274.481	89.12
274.713	89.12
274.945	64.12
275.176	81.12
275.408	84.12
275.64	90.12
275.872	82.12
276.104	74.12
276.335	80.12
276.567	79.12
276.799	83.12
277.031	77.12
277.262	86.12
277.494	76.12
277.726	93.12
277.957	89.12
278.189	97.12
278.421	83.12
278.652	86.12
278.884	97.12
279.115	85.12
279.347	87.12
279.579	80.12
279.81	73.12
280.042	92.12
280.273	101.12
280.505	80.12
280.736	85.12
280.968	88.12
281.199	79.12
281.431	78.12
281.662	85.12
281.894	84.12
282.125	82.12
282.356	78.12
282.588	87.12
282.819	89.12
283.051	82.12
283.282	81.12
283.513	93.12
283.745	89.12
283.976	85.12
284.207	93.12
284.439	76.12
284.67	87.12
284.901	92.12
285.132	83.12
285.364	85.12
285.595	90.12
285.826	84.12
286.057	92.12
286.288	85.12
286.52	85.12
286.751	86.12
286.982	77.12
287.213	66.12
287.444	101.12
287.675	82.12
287.906	83.12
288.138	86.12
288.369	91.12
288.6	87.12
288.831	88.12
289.062	79.12
289.293	83.12
289.524	78.12
289.755	77.12
289.986	91.12
290.217	71.12
290.448	78.12
290.679	92.12
290.91	84.12
291.141	72.12
291.371	87.12
291.602	77.12
291.833	83.12
292.064	84.12
292.295	96.12
292.526	103.12
292.757	86.12
292.987	85.12
293.218	67.12
293.449	73.12
293.68	79.12
293.91	94.12
294.141	97.12
294.372	84.12
294.603	74.12
294.833	94.12
295.064	86.12
295.295	88.12
295.525	104.12
295.756	84.12
295.987	95.12
296.217	83.12
296.448	89.12
296.679	89.12
296.909	81.12
297.14	92.12
297.37	83.12
297.601	89.12
297.831	95.12
298.062	84.12
298.292	100.12
298.523	99.12
298.753	76.12
298.984	95.12
299.214	88.12
299.445	94.12
299.675	99.12
299.905	100.12
300.136	89.12
300.366	88.12
300.597	99.12
300.827	78.12
301.057	83.12
301.288	80.12
301.518	96.12
301.748	89.12
301.979	81.12
302.209	89.12
302.439	87.12
302.669	99.12
302.9	85.12
303.13	92.12
303.36	100.12
303.59	91.12
303.82	83.12
304.051	85.12
304.281	95.12
304.511	77.12
304.741	88.12
304.971	77.12
305.201	90.12
305.431	81.12
305.661	78.12
305.891	98.12
306.121	88.12
306.352	75.12
306.582	88.12
306.812	88.12
307.042	102.12
307.272	81.12
307.502	83.12
307.731	90.12
307.961	95.12
308.191	88.12
308.421	80.12
308.651	82.12
308.881	77.12
309.111	80.12
309.341	85.12
309.571	78.12
309.8	79.12
310.03	84.12
310.26	79.12
310.49	85.12
310.72	81.12
310.949	86.12
311.179	89.12
311.409	92.12
311.639	88.12
311.868	91.12
312.098	97.12
312.328	91.12
312.557	74.12
312.787	81.12
313.017	81.12
313.246	88.12
313.476	89.12
313.706	72.12
313.935	85.12
314.165	86.12
314.394	87.12
314.624	89.12
314.853	77.12
315.083	99.12
315.312	94.12
315.542	87.12
315.771	90.12
316.001	85.12
316.23	87.12
316.46	88.12
316.689	87.12
316.919	81.12
317.148	75.12
317.377	94.12
317.607	94.12
317.836	74.12
318.065	88.12
318.295	83.12
318.524	88.12
318.753	69.12
318.983	101.12
319.212	104.12
319.441	95.12
319.67	88.12
319.9	76.12
320.129	92.12
320.358	88.12
320.587	87.12
320.816	84.12
321.046	93.12
321.275	98.12
321.504	101.12
321.733	72.12
321.962	93.12
322.191	79.12
322.42	97.12
322.649	90.12
322.878	86.12
323.108	90.12
323.337	78.12
323.566	84.12
323.795	90.12
324.024	84.12
324.253	99.12
324.482	85.12
324.71	94.12
324.939	84.12
325.168	86.12
325.397	93.12
325.626	88.12
325.855	100.12
326.084	81.12
326.313	84.12
326.542	96.12
326.77	87.12
326.999	82.12
327.228	76.12
327.457	78.12
327.686	78.12
327.914	85.12
328.143	93.12
328.372	83.12
328.6	92.12
328.829	85.12
329.058	102.12
329.287	92.12
329.515	86.12
329.744	104.12
329.972	91.12
330.201	79.12
330.43	91.12
330.658	97.12
330.887	79.12
331.115	92.12
331.344	95.12
331.572	101.12
331.801	87.12
332.03	96.12
332.258	86.12
332.486	90.12
332.715	74.12
332.943	92.12
333.172	81.12
333.4	83.12
333.629	98.12
333.857	85.12
334.085	82.12
334.314	84.12
334.542	78.12
334.771	93.12
334.999	91.12
335.227	86.12
335.455	90.12
335.684	96.12
335.912	83.12
336.14	84.12
336.369	90.12
336.597	80.12
336.825	101.12
337.053	88.12
337.281	82.12
337.51	69.12
337.738	97.12
337.966	79.12
338.194	86.12
338.422	88.12
338.65	77.12
338.878	90.12
339.106	80.12
339.334	93.12
339.562	90.12
339.79	105.12
340.018	95.12
340.246	88.12
340.474	90.12
340.702	83.12
340.93	90.12
341.158	85.12
341.386	91.12
341.614	88.12
341.842	84.12
342.07	98.12
342.298	80.12
342.526	89.12
342.754	86.12
342.981	90.12
343.209	68.12
343.437	85.12
343.665	80.12
343.893	86.12
344.12	80.12
344.348	89.12
344.576	86.12
344.804	99.12
345.031	94.12
345.259	92.12
345.487	86.12
345.714	87.12
345.942	78.12
346.17	88.12
346.397	86.12
346.625	98.12
346.853	93.12
347.08	78.12
347.308	96.12
347.535	90.12
347.763	91.12
347.99	88.12
348.218	89.12
348.445	81.12
348.673	80.12
348.9	80.12
349.128	93.12
349.355	92.12
349.583	88.12
349.81	89.12
350.037	92.12
350.265	74.12
350.492	84.12
350.72	82.12
350.947	89.12
351.174	75.12
351.402	92.12
351.629	87.12
351.856	104.12
352.083	70.12
352.311	80.12
352.538	81.12
352.765	89.12
352.992	91.12
353.22	79.12
353.447	75.12
353.674	77.12
353.901	90.12
354.128	89.12
354.355	81.12
354.583	102.12
354.81	93.12
355.037	91.12
355.264	86.12
355.491	86.12
355.718	90.12
355.945	102.12
356.172	83.12
356.399	76.12
356.626	92.12
356.853	89.12
357.08	86.12
357.307	91.12
357.534	85.12
357.761	81.12
357.988	92.12
358.215	88.12
358.441	82.12
358.668	84.12
358.895	83.12
359.122	107.12
359.349	88.12
359.576	89.12
359.802	84.12
360.029	83.12
360.256	75.12
360.483	83.12
360.709	90.12
360.936	94.12
361.163	74.12
361.39	74.12
361.616	81.12
361.843	85.12
362.07	97.12
362.296	91.12
362.523	82.12
362.749	68.12
362.976	76.12
363.203	87.12
363.429	88.12
363.656	86.12
363.882	85.12
364.109	93.12
364.335	80.12
364.562	91.12
364.788	72.12
365.015	96.12
365.241	83.12
365.468	68.12
365.694	85.12
365.92	86.12
366.147	81.12
366.373	89.12
366.599	75.12
366.826	84.12
367.052	89.12
367.278	92.12
367.505	73.12
367.731	83.12
367.957	87.12
368.184	85.12
368.41	85.12
368.636	74.12
368.862	78.12
369.089	93.12
369.315	73.12
369.541	97.12
369.767	94.12
369.993	84.12
370.219	82.12
370.445	93.12
370.672	86.12
370.898	88.12
371.124	89.12
371.35	78.12
371.576	92.12
371.802	92.12
372.028	77.12
372.254	93.12
372.48	80.12
372.706	84.12
372.932	85.12
373.158	83.12
373.384	85.12
373.61	92.12
373.835	75.12
374.061	97.12
374.287	77.12
374.513	82.12
374.739	92.12
374.965	88.12
375.191	78.12
375.416	85.12
375.642	90.12
375.868	91.12
376.094	64.12
376.319	84.12
376.545	88.12
376.771	92.12
376.997	83.12
377.222	91.12
377.448	77.12
377.674	74.12
377.899	91.12
378.125	96.12
378.35	86.12
378.576	93.12
378.802	84.12
379.027	71.12
379.253	78.12
379.478	84.12
379.704	77.12
379.929	93.12
380.155	82.12
380.38	72.12
380.606	93.12
380.831	86.12
381.057	89.12
381.282	96.12
381.507	92.12
381.733	102.12
381.958	90.12
382.184	88.12
382.409	82.12
382.634	92.12
382.86	86.12
383.085	94.12
383.31	90.12
383.535	86.12
383.761	87.12
383.986	92.12
384.211	94.12
384.436	72.12
384.662	75.12
384.887	90.12
385.112	78.12
385.337	92.12
385.562	83.12
385.787	90.12
386.013	94.12
386.238	85.12
386.463	91.12
386.688	88.12
386.913	85.12
387.138	86.12
387.363	65.12
387.588	80.12
387.813	78.12
388.038	111.12
388.263	88.12
388.488	88.12
388.713	88.12
388.938	95.12
389.163	87.12
389.387	84.12
389.612	82.12
389.837	80.12
390.062	74.12
390.287	85.12
390.512	104.12
390.736	100.12
390.961	96.12
391.186	74.12
391.411	86.12
391.636	95.12
391.86	80.12
392.085	102.12
392.31	79.12
392.534	87.12
392.759	98.12
392.984	85.12
393.208	94.12
393.433	88.12
393.658	82.12
393.882	94.12
394.107	103.12
394.331	93.12
394.556	89.12
394.78	113.12
395.005	95.12
395.229	86.12
395.454	92.12
395.678	93.12
395.903	93.12
396.127	84.12
396.352	90.12
396.576	88.12
396.801	96.12
397.025	87.12
397.249	95.12
397.474	90.12
397.698	74.12
397.922	101.12
398.147	93.12
398.371	87.12
398.595	110.12
398.82	87.12
399.044	79.12
399.268	98.12
399.492	84.12
399.717	96.12
399.941	84.12
400.165	93.12
400.389	97.12
400.613	95.12
400.837	88.12
401.062	86.12
401.286	98.12
401.51	89.12
401.734	88.12
401.958	94.12
402.182	85.12
402.406	104.12
402.63	88.12
402.854	93.12
403.078	98.12
403.302	96.12
403.526	102.12
403.75	84.12
403.974	89.12
404.198	88.12
404.422	79.12
404.645	93.12
404.869	77.12
405.093	84.12
405.317	102.12
405.541	105.12
405.765	88.12
405.988	99.12
406.212	97.12
406.436	91.12
406.66	83.12
406.883	86.12
407.107	100.12
407.331	82.12
407.555	98.12
407.778	93.12
408.002	96.12
408.226	85.12
408.449	78.12
408.673	79.12
408.896	96.12
409.12	89.12
409.344	76.12
409.567	96.12
409.791	100.12
410.014	105.12
410.238	92.12
410.461	95.12
410.685	83.12
410.908	97.12
411.132	97.12
411.355	98.12
411.578	81.12
411.802	91.12
412.025	97.12
412.249	92.12
412.472	97.12
412.695	98.12
412.919	99.12
413.142	90.12
413.365	102.12
413.589	98.12
413.812	93.12
414.035	109.12
414.258	79.12
414.482	96.12
414.705	107.12
414.928	89.12
415.151	94.12
415.374	104.12
415.597	84.12
415.821	95.12
416.044	95.12
416.267	86.12
416.49	96.12
416.713	81.12
416.936	92.12
417.159	97.12
417.382	97.12
417.605	91.12
417.828	92.12
418.051	94.12
418.274	88.12
418.497	91.12
418.72	99.12
418.943	83.12
419.166	84.12
419.389	102.12
419.611	92.12
419.834	84.12
420.057	86.12
420.28	91.12
420.503	88.12
420.726	80.12
420.948	99.12
421.171	96.12
421.394	96.12
421.617	92.12
421.839	100.12
422.062	101.12
422.285	77.12
422.507	79.12
422.73	91.12
422.953	86.12
423.175	94.12
423.398	91.12
423.621	98.12
423.843	90.12
424.066	103.12
424.288	91.12
424.511	101.12
424.733	98.12
424.956	84.12
425.178	88.12
425.401	102.12
425.623	96.12
425.846	89.12
426.068	109.12
426.291	100.12
426.513	93.12
426.735	95.12
426.958	100.12
427.18	79.12
427.402	104.12
427.625	88.12
427.847	93.12
428.069	90.12
428.292	90.12
428.514	99.12
428.736	90.12
428.958	92.12
429.181	101.12
429.403	88.12
429.625	85.12
429.847	100.12
430.069	86.12
430.292	110.12
430.514	89.12
430.736	96.12
430.958	85.12
431.18	84.12
431.402	89.12
431.624	87.12
431.846	97.12
432.068	85.12
432.29	83.12
432.512	88.12
432.734	91.12
432.956	88.12
433.178	100.12
433.4	95.12
433.622	86.12
433.844	98.12
434.066	104.12
434.287	83.12
434.509	70.12
434.731	86.12
434.953	81.12
435.175	94.12
435.397	95.12
435.618	110.12
435.84	97.12
436.062	91.12
436.284	94.12
436.505	95.12
436.727	109.12
436.949	99.12
437.17	73.12
437.392	87.12
437.614	91.12
437.835	101.12
438.057	97.12
438.278	107.12
438.5	92.12
438.721	85.12
438.943	98.12
439.165	92.12
439.386	105.12
439.608	90.12
439.829	94.12
440.05	99.12
440.272	99.12
440.493	99.12
440.715	109.12
440.936	92.12
441.158	100.12
441.379	96.12
441.6	95.12
441.822	83.12
442.043	99.12
442.264	99.12
442.486	96.12
442.707	112.12
442.928	90.12
443.149	103.12
443.371	93.12
443.592	88.12
443.813	82.12
444.034	90.12
444.255	98.12
444.476	97.12
444.698	103.12
444.919	87.12
445.14	232.12
445.361	154.12
445.582	106.12
445.803	101.12
446.024	94.12
446.245	94.12
446.466	108.12
446.687	101.12
446.908	112.12
447.129	112.12
447.35	109.12
447.571	101.12
447.792	92.12
448.013	104.12
448.234	96.12
448.455	91.12
448.675	93.12
448.896	92.12
449.117	108.12
449.338	90.12
449.559	108.12
449.779	93.12
450	94.12
450.221	101.12
450.442	91.12
450.662	108.12
450.883	86.12
451.104	98.12
451.324	88.12
451.545	89.12
451.766	93.12
451.986	78.12
452.207	97.12
452.428	91.12
452.648	98.12
452.869	91.12
453.089	91.12
453.31	97.12
453.53	102.12
453.751	80.12
453.971	92.12
454.192	104.12
454.412	77.12
454.633	104.12
454.853	101.12
455.073	84.12
455.294	90.12
455.514	96.12
455.734	104.12
455.955	93.12
456.175	85.12
456.395	80.12
456.616	88.12
456.836	83.12
457.056	83.12
457.276	102.12
457.497	102.12
457.717	89.12
457.937	80.12
458.157	106.12
458.377	89.12
458.598	95.12
458.818	88.12
459.038	75.12
459.258	76.12
459.478	91.12
459.698	88.12
459.918	75.12
460.138	77.12
460.358	82.12
460.578	102.12
460.798	89.12
461.018	84.12
461.238	82.12
461.458	96.12
461.678	85.12
461.898	105.12
462.118	99.12
462.338	92.12
462.558	87.12
462.777	85.12
462.997	89.12
463.217	79.12
463.437	89.12
463.657	99.12
463.876	77.12
464.096	107.12
464.316	99.12
464.536	90.12
464.755	82.12
464.975	82.12
465.195	89.12
465.414	85.12
465.634	82.12
465.854	79.12
466.073	102.12
466.293	90.12
466.512	93.12
466.732	106.12
466.951	96.12
467.171	90.12
467.391	90.12
467.61	94.12
467.829	93.12
468.049	106.12
468.268	89.12
468.488	96.12
468.707	106.12
468.927	84.12
469.146	90.12
469.365	103.12
469.585	105.12
469.804	95.12
470.023	101.12
470.243	99.12
470.462	93.12
470.681	101.12
470.901	94.12
471.12	108.12
471.339	96.12
471.558	79.12
471.777	89.12
471.997	91.12
472.216	108.12
472.435	95.12
472.654	82.12
472.873	104.12
473.092	105.12
473.311	103.12
473.53	88.12
473.749	88.12
473.968	97.12
474.187	92.12
474.406	86.12
474.625	92.12
474.844	79.12
475.063	88.12
475.282	100.12
475.501	98.12
475.72	92.12
475.939	102.12
476.158	103.12
476.377	96.12
476.596	77.12
476.814	77.12
477.033	89.12
477.252	81.12
477.471	98.12
477.69	90.12
477.908	90.12
478.127	89.12
478.346	89.12
478.564	100.12
478.783	89.12
479.002	95.12
479.22	90.12
479.439	80.12
479.658	92.12
479.876	98.12
480.095	97.12
480.313	93.12
480.532	92.12
480.751	107.12
480.969	89.12
481.188	93.12
481.406	81.12
481.624	76.12
481.843	89.12
482.061	94.12
482.28	105.12
482.498	92.12
482.717	89.12
482.935	89.12
483.153	101.12
483.372	108.12
483.59	106.12
483.808	102.12
484.027	97.12
484.245	88.12
484.463	105.12
484.681	106.12
484.9	110.12
485.118	100.12
485.336	97.12
485.554	80.12
485.772	91.12
485.99	85.12
486.209	97.12
486.427	87.12
486.645	98.12
486.863	94.12
487.081	96.12
487.299	94.12
487.517	100.12
487.735	100.12
487.953	86.12
488.171	110.12
488.389	97.12
488.607	93.12
488.825	89.12
489.043	84.12
489.261	107.12
489.479	105.12
489.696	100.12
489.914	100.12
490.132	93.12
490.35	102.12
490.568	109.12
490.786	110.12
491.003	96.12
491.221	118.12
491.439	105.12
491.657	109.12
491.874	122.12
492.092	124.12
492.31	135.12
492.527	119.12
492.745	117.12
492.963	113.12
493.18	126.12
493.398	109.12
493.615	103.12
493.833	112.12
494.05	99.12
494.268	114.12
494.485	112.12
494.703	96.12
494.92	113.12
495.138	94.12
495.355	105.12
495.573	104.12
495.79	108.12
496.008	118.12
496.225	107.12
496.442	105.12
496.66	93.12
496.877	119.12
497.094	104.12
497.312	100.12
497.529	110.12
497.746	103.12
497.963	90.12
498.181	100.12
498.398	100.12
498.615	92.12
498.832	92.12
499.049	92.12
499.267	98.12
499.484	90.12
499.701	83.12
499.918	103.12
500.135	98.12
500.352	111.12
500.569	107.12
500.786	96.12
501.003	115.12
501.22	86.12
501.437	89.12
501.654	88.12
501.871	105.12
502.088	109.12
502.305	84.12
502.522	94.12
502.739	90.12
502.956	89.12
503.172	104.12
503.389	106.12
503.606	85.12
503.823	81.12
504.04	95.12
504.256	104.12
504.473	96.12
504.69	94.12
504.907	85.12
505.123	88.12
505.34	98.12
505.557	101.12
505.773	98.12
505.99	91.12
506.207	94.12
506.423	100.12
506.64	79.12
506.856	97.12
507.073	90.12
507.289	94.12
507.506	99.12
507.722	85.12
507.939	106.12
508.155	102.12
508.372	89.12
508.588	98.12
508.805	100.12
509.021	102.12
509.238	84.12
509.454	91.12
509.67	84.12
509.887	107.12
510.103	96.12
510.319	101.12
510.536	86.12
510.752	96.12
510.968	90.12
511.184	93.12
511.401	71.12
511.617	83.12
511.833	74.12
512.049	92.12
512.265	101.12
512.481	93.12
512.698	89.12
512.914	84.12
513.13	94.12
513.346	92.12
513.562	85.12
513.778	87.12
513.994	80.12
514.21	88.12
514.426	80.12
514.642	77.12
514.858	80.12
515.074	73.12
515.29	80.12
515.506	87.12
515.721	85.12
515.937	97.12
516.153	89.12
516.369	78.12
516.585	84.12
516.801	92.12
517.016	99.12
