Data from Location3.07152019.Energy5.Lamp.07192019.3%Agarose_HRD10591_15-18-16-269.txt Node
Date: Fri Jul 19 15:18:16 EDT 2019
User: cochatt
Spectrometer: HR+D1059
Trigger mode: 1
Integration Time (sec): 1.000000E-1
Scans to average: 1
Electric dark correction enabled: true
Nonlinearity correction enabled: false
Boxcar width: 0
XAxis mode: Wavelengths
Number of Pixels in Spectrum: 2048
>>>>>Begin Spectral Data<<<<<
223.165	-6.62
223.4	-6.62
223.635	-6.62
223.869	-29.62
224.104	-13.62
224.338	-10.62
224.573	-14.62
224.808	-18.62
225.042	-18.62
225.277	-5.62
225.511	-3.62
225.746	3.38
225.98	20.38
226.215	5.38
226.449	13.38
226.683	25.38
226.918	28.38
227.152	25.38
227.387	35.38
227.621	45.38
227.856	47.38
228.09	30.38
228.324	48.38
228.559	54.38
228.793	53.38
229.027	51.38
229.262	78.38
229.496	57.38
229.73	64.38
229.964	76.38
230.199	64.38
230.433	61.38
230.667	79.38
230.901	81.38
231.136	80.38
231.37	85.38
231.604	83.38
231.838	72.38
232.072	81.38
232.306	94.38
232.541	80.38
232.775	98.38
233.009	73.38
233.243	75.38
233.477	82.38
233.711	73.38
233.945	73.38
234.179	78.38
234.413	77.38
234.647	93.38
234.881	89.38
235.115	75.38
235.349	73.38
235.583	69.38
235.817	87.38
236.051	81.38
236.285	82.38
236.519	68.38
236.753	77.38
236.987	73.38
237.221	84.38
237.455	77.38
237.689	87.38
237.922	65.38
238.156	78.38
238.39	64.38
238.624	79.38
238.858	74.38
239.091	83.38
239.325	78.38
239.559	68.38
239.793	85.38
240.027	75.38
240.26	78.38
240.494	82.38
240.728	81.38
240.961	67.38
241.195	68.38
241.429	76.38
241.662	67.38
241.896	81.38
242.13	80.38
242.363	86.38
242.597	78.38
242.83	68.38
243.064	65.38
243.298	66.38
243.531	84.38
243.765	81.38
243.998	75.38
244.232	76.38
244.465	84.38
244.699	72.38
244.932	65.38
245.166	77.38
245.399	71.38
245.633	72.38
245.866	68.38
246.099	73.38
246.333	85.38
246.566	61.38
246.8	82.38
247.033	77.38
247.266	81.38
247.5	74.38
247.733	74.38
247.966	95.38
248.2	66.38
248.433	72.38
248.666	77.38
248.899	87.38
249.133	82.38
249.366	76.38
249.599	77.38
249.832	86.38
250.066	86.38
250.299	80.38
250.532	68.38
250.765	77.38
250.998	87.38
251.231	78.38
251.465	77.38
251.698	88.38
251.931	67.38
252.164	78.38
252.397	86.38
252.63	73.38
252.863	66.38
253.096	77.38
253.329	68.38
253.562	83.38
253.795	91.38
254.028	83.38
254.261	79.38
254.494	74.38
254.727	89.38
254.96	82.38
255.193	75.38
255.426	77.38
255.659	70.38
255.892	76.38
256.124	94.38
256.357	70.38
256.59	78.38
256.823	77.38
257.056	80.38
257.289	78.38
257.521	88.38
257.754	77.38
257.987	73.38
258.22	73.38
258.452	72.38
258.685	76.38
258.918	79.38
259.151	82.38
259.383	86.38
259.616	77.38
259.849	87.38
260.081	84.38
260.314	85.38
260.547	80.38
260.779	104.38
261.012	84.38
261.244	78.38
261.477	92.38
261.71	84.38
261.942	73.38
262.175	65.38
262.407	86.38
262.64	80.38
262.872	85.38
263.105	66.38
263.337	69.38
263.57	80.38
263.802	80.38
264.035	74.38
264.267	83.38
264.499	70.38
264.732	93.38
264.964	90.38
265.197	81.38
265.429	84.38
265.661	78.38
265.894	85.38
266.126	85.38
266.358	97.38
266.591	88.38
266.823	80.38
267.055	81.38
267.287	90.38
267.52	78.38
267.752	81.38
267.984	87.38
268.216	82.38
268.448	67.38
268.681	72.38
268.913	77.38
269.145	88.38
269.377	82.38
269.609	65.38
269.841	74.38
270.073	83.38
270.306	83.38
270.538	88.38
270.77	76.38
271.002	78.38
271.234	92.38
271.466	98.38
271.698	88.38
271.93	73.38
272.162	94.38
272.394	85.38
272.626	79.38
272.858	78.38
273.09	76.38
273.322	79.38
273.553	89.38
273.785	90.38
274.017	99.38
274.249	85.38
274.481	66.38
274.713	72.38
274.945	85.38
275.176	78.38
275.408	82.38
275.64	85.38
275.872	87.38
276.104	89.38
276.335	73.38
276.567	90.38
276.799	85.38
277.031	73.38
277.262	70.38
277.494	90.38
277.726	68.38
277.957	77.38
278.189	76.38
278.421	71.38
278.652	85.38
278.884	90.38
279.115	85.38
279.347	74.38
279.579	89.38
279.81	75.38
280.042	89.38
280.273	75.38
280.505	76.38
280.736	97.38
280.968	87.38
281.199	80.38
281.431	86.38
281.662	88.38
281.894	73.38
282.125	81.38
282.356	87.38
282.588	85.38
282.819	86.38
283.051	79.38
283.282	90.38
283.513	88.38
283.745	80.38
283.976	87.38
284.207	77.38
284.439	89.38
284.67	79.38
284.901	81.38
285.132	80.38
285.364	80.38
285.595	85.38
285.826	93.38
286.057	77.38
286.288	86.38
286.52	98.38
286.751	79.38
286.982	89.38
287.213	79.38
287.444	84.38
287.675	77.38
287.906	82.38
288.138	78.38
288.369	81.38
288.6	85.38
288.831	77.38
289.062	86.38
289.293	93.38
289.524	94.38
289.755	68.38
289.986	73.38
290.217	78.38
290.448	76.38
290.679	86.38
290.91	78.38
291.141	73.38
291.371	84.38
291.602	74.38
291.833	80.38
292.064	79.38
292.295	89.38
292.526	85.38
292.757	78.38
292.987	85.38
293.218	85.38
293.449	91.38
293.68	84.38
293.91	85.38
294.141	84.38
294.372	84.38
294.603	87.38
294.833	85.38
295.064	71.38
295.295	82.38
295.525	79.38
295.756	84.38
295.987	82.38
296.217	74.38
296.448	74.38
296.679	79.38
296.909	84.38
297.14	78.38
297.37	86.38
297.601	93.38
297.831	89.38
298.062	98.38
298.292	92.38
298.523	78.38
298.753	96.38
298.984	84.38
299.214	79.38
299.445	99.38
299.675	94.38
299.905	88.38
300.136	89.38
300.366	83.38
300.597	92.38
300.827	87.38
301.057	82.38
301.288	77.38
301.518	80.38
301.748	74.38
301.979	87.38
302.209	92.38
302.439	80.38
302.669	92.38
302.9	80.38
303.13	87.38
303.36	79.38
303.59	83.38
303.82	84.38
304.051	84.38
304.281	84.38
304.511	86.38
304.741	89.38
304.971	77.38
305.201	101.38
305.431	89.38
305.661	81.38
305.891	83.38
306.121	84.38
306.352	82.38
306.582	78.38
306.812	85.38
307.042	90.38
307.272	78.38
307.502	86.38
307.731	75.38
307.961	87.38
308.191	88.38
308.421	86.38
308.651	85.38
308.881	85.38
309.111	78.38
309.341	87.38
309.571	84.38
309.8	83.38
310.03	75.38
310.26	84.38
310.49	77.38
310.72	85.38
310.949	84.38
311.179	89.38
311.409	86.38
311.639	73.38
311.868	82.38
312.098	85.38
312.328	83.38
312.557	89.38
312.787	81.38
313.017	79.38
313.246	91.38
313.476	78.38
313.706	65.38
313.935	76.38
314.165	86.38
314.394	82.38
314.624	82.38
314.853	94.38
315.083	84.38
315.312	88.38
315.542	87.38
315.771	85.38
316.001	84.38
316.23	97.38
316.46	99.38
316.689	72.38
316.919	87.38
317.148	86.38
317.377	91.38
317.607	86.38
317.836	77.38
318.065	78.38
318.295	82.38
318.524	86.38
318.753	88.38
318.983	80.38
319.212	77.38
319.441	72.38
319.67	85.38
319.9	89.38
320.129	96.38
320.358	78.38
320.587	80.38
320.816	77.38
321.046	93.38
321.275	77.38
321.504	74.38
321.733	87.38
321.962	89.38
322.191	71.38
322.42	84.38
322.649	81.38
322.878	90.38
323.108	84.38
323.337	86.38
323.566	78.38
323.795	84.38
324.024	84.38
324.253	73.38
324.482	77.38
324.71	93.38
324.939	79.38
325.168	74.38
325.397	95.38
325.626	85.38
325.855	96.38
326.084	89.38
326.313	90.38
326.542	78.38
326.77	88.38
326.999	87.38
327.228	76.38
327.457	78.38
327.686	84.38
327.914	81.38
328.143	95.38
328.372	71.38
328.6	92.38
328.829	89.38
329.058	82.38
329.287	93.38
329.515	79.38
329.744	74.38
329.972	84.38
330.201	86.38
330.43	81.38
330.658	83.38
330.887	85.38
331.115	83.38
331.344	73.38
331.572	75.38
331.801	76.38
332.03	86.38
332.258	69.38
332.486	74.38
332.715	86.38
332.943	79.38
333.172	83.38
333.4	92.38
333.629	86.38
333.857	87.38
334.085	80.38
334.314	73.38
334.542	81.38
334.771	98.38
334.999	82.38
335.227	81.38
335.455	85.38
335.684	83.38
335.912	82.38
336.14	83.38
336.369	87.38
336.597	95.38
336.825	94.38
337.053	76.38
337.281	89.38
337.51	95.38
337.738	79.38
337.966	89.38
338.194	87.38
338.422	85.38
338.65	85.38
338.878	83.38
339.106	87.38
339.334	71.38
339.562	91.38
339.79	96.38
340.018	84.38
340.246	78.38
340.474	74.38
340.702	79.38
340.93	79.38
341.158	85.38
341.386	75.38
341.614	82.38
341.842	78.38
342.07	82.38
342.298	107.38
342.526	89.38
342.754	84.38
342.981	79.38
343.209	81.38
343.437	77.38
343.665	85.38
343.893	87.38
344.12	75.38
344.348	84.38
344.576	84.38
344.804	89.38
345.031	89.38
345.259	86.38
345.487	92.38
345.714	65.38
345.942	74.38
346.17	85.38
346.397	84.38
346.625	89.38
346.853	72.38
347.08	67.38
347.308	81.38
347.535	88.38
347.763	79.38
347.99	81.38
348.218	96.38
348.445	84.38
348.673	67.38
348.9	84.38
349.128	89.38
349.355	83.38
349.583	72.38
349.81	88.38
350.037	76.38
350.265	85.38
350.492	79.38
350.72	90.38
350.947	88.38
351.174	86.38
351.402	84.38
351.629	86.38
351.856	87.38
352.083	68.38
352.311	82.38
352.538	78.38
352.765	78.38
352.992	89.38
353.22	89.38
353.447	92.38
353.674	98.38
353.901	78.38
354.128	78.38
354.355	78.38
354.583	85.38
354.81	84.38
355.037	89.38
355.264	88.38
355.491	96.38
355.718	78.38
355.945	90.38
356.172	86.38
356.399	85.38
356.626	79.38
356.853	86.38
357.08	93.38
357.307	94.38
357.534	80.38
357.761	82.38
357.988	92.38
358.215	95.38
358.441	89.38
358.668	86.38
358.895	84.38
359.122	84.38
359.349	76.38
359.576	89.38
359.802	85.38
360.029	86.38
360.256	78.38
360.483	84.38
360.709	81.38
360.936	99.38
361.163	84.38
361.39	83.38
361.616	90.38
361.843	95.38
362.07	82.38
362.296	85.38
362.523	77.38
362.749	84.38
362.976	87.38
363.203	87.38
363.429	97.38
363.656	88.38
363.882	76.38
364.109	67.38
364.335	79.38
364.562	76.38
364.788	82.38
365.015	102.38
365.241	94.38
365.468	76.38
365.694	65.38
365.92	70.38
366.147	72.38
366.373	78.38
366.599	84.38
366.826	83.38
367.052	71.38
367.278	88.38
367.505	84.38
367.731	89.38
367.957	85.38
368.184	86.38
368.41	74.38
368.636	89.38
368.862	101.38
369.089	77.38
369.315	89.38
369.541	76.38
369.767	80.38
369.993	72.38
370.219	90.38
370.445	65.38
370.672	75.38
370.898	80.38
371.124	89.38
371.35	80.38
371.576	81.38
371.802	90.38
372.028	76.38
372.254	69.38
372.48	82.38
372.706	81.38
372.932	80.38
373.158	83.38
373.384	94.38
373.61	81.38
373.835	83.38
374.061	88.38
374.287	62.38
374.513	86.38
374.739	81.38
374.965	84.38
375.191	81.38
375.416	82.38
375.642	98.38
375.868	98.38
376.094	88.38
376.319	74.38
376.545	87.38
376.771	83.38
376.997	66.38
377.222	86.38
377.448	83.38
377.674	88.38
377.899	75.38
378.125	92.38
378.35	79.38
378.576	85.38
378.802	79.38
379.027	75.38
379.253	97.38
379.478	89.38
379.704	84.38
379.929	79.38
380.155	88.38
380.38	82.38
380.606	78.38
380.831	78.38
381.057	87.38
381.282	77.38
381.507	101.38
381.733	88.38
381.958	95.38
382.184	91.38
382.409	97.38
382.634	101.38
382.86	88.38
383.085	83.38
383.31	91.38
383.535	73.38
383.761	74.38
383.986	86.38
384.211	80.38
384.436	91.38
384.662	78.38
384.887	66.38
385.112	93.38
385.337	85.38
385.562	82.38
385.787	79.38
386.013	86.38
386.238	79.38
386.463	78.38
386.688	81.38
386.913	95.38
387.138	80.38
387.363	81.38
387.588	93.38
387.813	84.38
388.038	89.38
388.263	78.38
388.488	76.38
388.713	85.38
388.938	62.38
389.163	86.38
389.387	79.38
389.612	73.38
389.837	72.38
390.062	85.38
390.287	84.38
390.512	80.38
390.736	75.38
390.961	97.38
391.186	72.38
391.411	93.38
391.636	90.38
391.86	92.38
392.085	86.38
392.31	80.38
392.534	81.38
392.759	86.38
392.984	92.38
393.208	97.38
393.433	82.38
393.658	82.38
393.882	86.38
394.107	78.38
394.331	93.38
394.556	102.38
394.78	88.38
395.005	76.38
395.229	79.38
395.454	82.38
395.678	91.38
395.903	94.38
396.127	88.38
396.352	87.38
396.576	87.38
396.801	100.38
397.025	84.38
397.249	96.38
397.474	87.38
397.698	97.38
397.922	92.38
398.147	85.38
398.371	90.38
398.595	86.38
398.82	95.38
399.044	82.38
399.268	74.38
399.492	84.38
399.717	102.38
399.941	90.38
400.165	96.38
400.389	88.38
400.613	86.38
400.837	99.38
401.062	97.38
401.286	100.38
401.51	83.38
401.734	82.38
401.958	83.38
402.182	83.38
402.406	73.38
402.63	88.38
402.854	84.38
403.078	97.38
403.302	83.38
403.526	82.38
403.75	84.38
403.974	85.38
404.198	103.38
404.422	94.38
404.645	82.38
404.869	86.38
405.093	102.38
405.317	98.38
405.541	72.38
405.765	83.38
405.988	81.38
406.212	100.38
406.436	81.38
406.66	84.38
406.883	100.38
407.107	84.38
407.331	88.38
407.555	96.38
407.778	100.38
408.002	96.38
408.226	101.38
408.449	87.38
408.673	88.38
408.896	88.38
409.12	94.38
409.344	72.38
409.567	100.38
409.791	72.38
410.014	88.38
410.238	93.38
410.461	70.38
410.685	95.38
410.908	97.38
411.132	80.38
411.355	86.38
411.578	83.38
411.802	91.38
412.025	96.38
412.249	85.38
412.472	91.38
412.695	94.38
412.919	89.38
413.142	99.38
413.365	84.38
413.589	96.38
413.812	85.38
414.035	98.38
414.258	96.38
414.482	83.38
414.705	79.38
414.928	82.38
415.151	92.38
415.374	102.38
415.597	94.38
415.821	97.38
416.044	98.38
416.267	88.38
416.49	90.38
416.713	88.38
416.936	96.38
417.159	91.38
417.382	85.38
417.605	77.38
417.828	86.38
418.051	88.38
418.274	91.38
418.497	90.38
418.72	101.38
418.943	90.38
419.166	106.38
419.389	90.38
419.611	97.38
419.834	92.38
420.057	100.38
420.28	84.38
420.503	97.38
420.726	104.38
420.948	92.38
421.171	88.38
421.394	96.38
421.617	105.38
421.839	108.38
422.062	78.38
422.285	82.38
422.507	103.38
422.73	78.38
422.953	98.38
423.175	96.38
423.398	79.38
423.621	108.38
423.843	96.38
424.066	94.38
424.288	89.38
424.511	99.38
424.733	108.38
424.956	92.38
425.178	85.38
425.401	94.38
425.623	87.38
425.846	95.38
426.068	109.38
426.291	89.38
426.513	103.38
426.735	103.38
426.958	79.38
427.18	91.38
427.402	99.38
427.625	115.38
427.847	88.38
428.069	83.38
428.292	85.38
428.514	91.38
428.736	73.38
428.958	91.38
429.181	101.38
429.403	103.38
429.625	93.38
429.847	94.38
430.069	93.38
430.292	102.38
430.514	96.38
430.736	87.38
430.958	110.38
431.18	105.38
431.402	88.38
431.624	86.38
431.846	71.38
432.068	98.38
432.29	79.38
432.512	95.38
432.734	91.38
432.956	89.38
433.178	99.38
433.4	93.38
433.622	91.38
433.844	96.38
434.066	99.38
434.287	80.38
434.509	75.38
434.731	81.38
434.953	87.38
435.175	88.38
435.397	108.38
435.618	81.38
435.84	76.38
436.062	78.38
436.284	94.38
436.505	89.38
436.727	84.38
436.949	94.38
437.17	93.38
437.392	97.38
437.614	104.38
437.835	91.38
438.057	77.38
438.278	95.38
438.5	89.38
438.721	80.38
438.943	79.38
439.165	84.38
439.386	87.38
439.608	93.38
439.829	78.38
440.05	102.38
440.272	86.38
440.493	97.38
440.715	93.38
440.936	93.38
441.158	85.38
441.379	94.38
441.6	96.38
441.822	98.38
442.043	103.38
442.264	81.38
442.486	89.38
442.707	84.38
442.928	108.38
443.149	87.38
443.371	100.38
443.592	97.38
443.813	86.38
444.034	93.38
444.255	98.38
444.476	89.38
444.698	93.38
444.919	98.38
445.14	191.38
445.361	142.38
445.582	98.38
445.803	97.38
446.024	106.38
446.245	93.38
446.466	108.38
446.687	103.38
446.908	105.38
447.129	121.38
447.35	114.38
447.571	99.38
447.792	92.38
448.013	95.38
448.234	103.38
448.455	95.38
448.675	103.38
448.896	94.38
449.117	90.38
449.338	101.38
449.559	95.38
449.779	109.38
450	91.38
450.221	94.38
450.442	100.38
450.662	100.38
450.883	84.38
451.104	86.38
451.324	87.38
451.545	106.38
451.766	96.38
451.986	95.38
452.207	107.38
452.428	86.38
452.648	89.38
452.869	81.38
453.089	84.38
453.31	89.38
453.53	98.38
453.751	93.38
453.971	99.38
454.192	89.38
454.412	93.38
454.633	86.38
454.853	96.38
455.073	95.38
455.294	87.38
455.514	94.38
455.734	102.38
455.955	101.38
456.175	89.38
456.395	84.38
456.616	77.38
456.836	83.38
457.056	93.38
457.276	88.38
457.497	78.38
457.717	90.38
457.937	93.38
458.157	86.38
458.377	80.38
458.598	103.38
458.818	83.38
459.038	93.38
459.258	86.38
459.478	70.38
459.698	78.38
459.918	88.38
460.138	78.38
460.358	78.38
460.578	96.38
460.798	91.38
461.018	97.38
461.238	91.38
461.458	103.38
461.678	82.38
461.898	91.38
462.118	97.38
462.338	88.38
462.558	88.38
462.777	83.38
462.997	87.38
463.217	87.38
463.437	80.38
463.657	87.38
463.876	84.38
464.096	86.38
464.316	92.38
464.536	86.38
464.755	82.38
464.975	87.38
465.195	85.38
465.414	82.38
465.634	88.38
465.854	81.38
466.073	92.38
466.293	88.38
466.512	92.38
466.732	95.38
466.951	95.38
467.171	96.38
467.391	99.38
467.61	97.38
467.829	99.38
468.049	93.38
468.268	96.38
468.488	89.38
468.707	97.38
468.927	92.38
469.146	89.38
469.365	95.38
469.585	111.38
469.804	90.38
470.023	89.38
470.243	94.38
470.462	90.38
470.681	96.38
470.901	89.38
471.12	97.38
471.339	107.38
471.558	94.38
471.777	106.38
471.997	90.38
472.216	85.38
472.435	92.38
472.654	89.38
472.873	72.38
473.092	89.38
473.311	91.38
473.53	93.38
473.749	90.38
473.968	86.38
474.187	99.38
474.406	98.38
474.625	98.38
474.844	103.38
475.063	108.38
475.282	81.38
475.501	93.38
475.72	102.38
475.939	91.38
476.158	90.38
476.377	93.38
476.596	85.38
476.814	81.38
477.033	80.38
477.252	85.38
477.471	92.38
477.69	76.38
477.908	100.38
478.127	96.38
478.346	96.38
478.564	94.38
478.783	89.38
479.002	94.38
479.22	86.38
479.439	87.38
479.658	96.38
479.876	97.38
480.095	79.38
480.313	76.38
480.532	88.38
480.751	95.38
480.969	85.38
481.188	89.38
481.406	83.38
481.624	77.38
481.843	95.38
482.061	93.38
482.28	82.38
482.498	104.38
482.717	83.38
482.935	93.38
483.153	91.38
483.372	97.38
483.59	102.38
483.808	101.38
484.027	98.38
484.245	111.38
484.463	113.38
484.681	104.38
484.9	89.38
485.118	90.38
485.336	96.38
485.554	88.38
485.772	94.38
485.99	87.38
486.209	81.38
486.427	90.38
486.645	78.38
486.863	98.38
487.081	93.38
487.299	98.38
487.517	97.38
487.735	89.38
487.953	110.38
488.171	132.38
488.389	111.38
488.607	102.38
488.825	92.38
489.043	72.38
489.261	108.38
489.479	96.38
489.696	105.38
489.914	101.38
490.132	96.38
490.35	91.38
490.568	94.38
490.786	103.38
491.003	119.38
491.221	116.38
491.439	125.38
491.657	108.38
491.874	104.38
492.092	116.38
492.31	121.38
492.527	113.38
492.745	119.38
492.963	131.38
493.18	120.38
493.398	101.38
493.615	111.38
493.833	104.38
494.05	106.38
494.268	123.38
494.485	108.38
494.703	121.38
494.92	118.38
495.138	116.38
495.355	105.38
495.573	100.38
495.79	108.38
496.008	101.38
496.225	108.38
496.442	94.38
496.66	99.38
496.877	108.38
497.094	102.38
497.312	103.38
497.529	126.38
497.746	87.38
497.963	114.38
498.181	89.38
498.398	93.38
498.615	93.38
498.832	89.38
499.049	94.38
499.267	92.38
499.484	86.38
499.701	96.38
499.918	102.38
500.135	100.38
500.352	109.38
500.569	98.38
500.786	103.38
501.003	98.38
501.22	89.38
501.437	101.38
501.654	97.38
501.871	94.38
502.088	87.38
502.305	86.38
502.522	99.38
502.739	87.38
502.956	82.38
503.172	96.38
503.389	96.38
503.606	90.38
503.823	98.38
504.04	104.38
504.256	84.38
504.473	78.38
504.69	81.38
504.907	108.38
505.123	77.38
505.34	103.38
505.557	87.38
505.773	89.38
505.99	92.38
506.207	88.38
506.423	90.38
506.64	96.38
506.856	88.38
507.073	96.38
507.289	111.38
507.506	79.38
507.722	84.38
507.939	94.38
508.155	84.38
508.372	88.38
508.588	84.38
508.805	96.38
509.021	93.38
509.238	102.38
509.454	89.38
509.67	88.38
509.887	89.38
510.103	80.38
510.319	82.38
510.536	82.38
510.752	89.38
510.968	84.38
511.184	72.38
511.401	74.38
511.617	83.38
511.833	84.38
512.049	88.38
512.265	93.38
512.481	89.38
512.698	94.38
512.914	88.38
513.13	79.38
513.346	91.38
513.562	83.38
513.778	89.38
513.994	86.38
514.21	75.38
514.426	72.38
514.642	79.38
514.858	84.38
515.074	79.38
515.29	83.38
515.506	88.38
515.721	89.38
515.937	69.38
516.153	87.38
516.369	86.38
516.585	71.38
516.801	73.38
517.016	90.38
517.232	70.38
517.448	71.38
517.664	87.38
517.879	80.38
