Data from Location3.07152019.Energy5.Lamp.07192019.3%Agarose_HRD10591_15-16-58-269.txt Node
Date: Fri Jul 19 15:16:58 EDT 2019
User: cochatt
Spectrometer: HR+D1059
Trigger mode: 1
Integration Time (sec): 1.000000E-1
Scans to average: 1
Electric dark correction enabled: true
Nonlinearity correction enabled: false
Boxcar width: 0
XAxis mode: Wavelengths
Number of Pixels in Spectrum: 2048
>>>>>Begin Spectral Data<<<<<
223.165	-20.44
223.4	-20.44
223.635	-20.44
223.869	-17.44
224.104	-9.44
224.338	-21.44
224.573	-20.44
224.808	-20.44
225.042	-9.44
225.277	-6.44
225.511	11.56
225.746	3.56
225.98	6.56
226.215	19.56
226.449	18.56
226.683	19.56
226.918	25.56
227.152	20.56
227.387	49.56
227.621	37.56
227.856	48.56
228.09	60.56
228.324	60.56
228.559	76.56
228.793	71.56
229.027	77.56
229.262	62.56
229.496	79.56
229.73	73.56
229.964	78.56
230.199	78.56
230.433	81.56
230.667	72.56
230.901	87.56
231.136	78.56
231.37	90.56
231.604	78.56
231.838	82.56
232.072	78.56
232.306	89.56
232.541	99.56
232.775	95.56
233.009	84.56
233.243	95.56
233.477	85.56
233.711	82.56
233.945	92.56
234.179	79.56
234.413	82.56
234.647	96.56
234.881	86.56
235.115	93.56
235.349	90.56
235.583	81.56
235.817	96.56
236.051	94.56
236.285	86.56
236.519	95.56
236.753	91.56
236.987	81.56
237.221	89.56
237.455	87.56
237.689	86.56
237.922	93.56
238.156	85.56
238.39	79.56
238.624	83.56
238.858	91.56
239.091	75.56
239.325	95.56
239.559	87.56
239.793	101.56
240.027	69.56
240.26	88.56
240.494	90.56
240.728	88.56
240.961	79.56
241.195	89.56
241.429	76.56
241.662	82.56
241.896	81.56
242.13	75.56
242.363	90.56
242.597	81.56
242.83	76.56
243.064	82.56
243.298	81.56
243.531	83.56
243.765	93.56
243.998	92.56
244.232	89.56
244.465	80.56
244.699	72.56
244.932	61.56
245.166	89.56
245.399	80.56
245.633	79.56
245.866	85.56
246.099	80.56
246.333	77.56
246.566	96.56
246.8	83.56
247.033	82.56
247.266	95.56
247.5	89.56
247.733	95.56
247.966	82.56
248.2	88.56
248.433	95.56
248.666	79.56
248.899	83.56
249.133	82.56
249.366	76.56
249.599	83.56
249.832	78.56
250.066	92.56
250.299	86.56
250.532	81.56
250.765	80.56
250.998	94.56
251.231	86.56
251.465	83.56
251.698	85.56
251.931	89.56
252.164	84.56
252.397	76.56
252.63	72.56
252.863	87.56
253.096	83.56
253.329	93.56
253.562	94.56
253.795	97.56
254.028	98.56
254.261	70.56
254.494	77.56
254.727	85.56
254.96	85.56
255.193	90.56
255.426	86.56
255.659	84.56
255.892	92.56
256.124	93.56
256.357	77.56
256.59	75.56
256.823	89.56
257.056	85.56
257.289	82.56
257.521	74.56
257.754	78.56
257.987	83.56
258.22	90.56
258.452	82.56
258.685	94.56
258.918	93.56
259.151	78.56
259.383	89.56
259.616	83.56
259.849	81.56
260.081	88.56
260.314	79.56
260.547	76.56
260.779	81.56
261.012	83.56
261.244	100.56
261.477	95.56
261.71	80.56
261.942	92.56
262.175	82.56
262.407	89.56
262.64	86.56
262.872	75.56
263.105	89.56
263.337	83.56
263.57	92.56
263.802	84.56
264.035	88.56
264.267	83.56
264.499	91.56
264.732	94.56
264.964	83.56
265.197	90.56
265.429	91.56
265.661	93.56
265.894	94.56
266.126	95.56
266.358	79.56
266.591	96.56
266.823	104.56
267.055	89.56
267.287	83.56
267.52	81.56
267.752	72.56
267.984	73.56
268.216	81.56
268.448	103.56
268.681	87.56
268.913	100.56
269.145	87.56
269.377	96.56
269.609	83.56
269.841	99.56
270.073	91.56
270.306	89.56
270.538	78.56
270.77	81.56
271.002	83.56
271.234	104.56
271.466	82.56
271.698	71.56
271.93	77.56
272.162	87.56
272.394	106.56
272.626	83.56
272.858	87.56
273.09	89.56
273.322	86.56
273.553	87.56
273.785	89.56
274.017	90.56
274.249	81.56
274.481	88.56
274.713	100.56
274.945	87.56
275.176	97.56
275.408	92.56
275.64	80.56
275.872	96.56
276.104	98.56
276.335	80.56
276.567	89.56
276.799	97.56
277.031	75.56
277.262	79.56
277.494	87.56
277.726	95.56
277.957	94.56
278.189	82.56
278.421	82.56
278.652	79.56
278.884	86.56
279.115	89.56
279.347	91.56
279.579	77.56
279.81	85.56
280.042	100.56
280.273	91.56
280.505	96.56
280.736	96.56
280.968	77.56
281.199	82.56
281.431	93.56
281.662	87.56
281.894	102.56
282.125	81.56
282.356	79.56
282.588	92.56
282.819	106.56
283.051	77.56
283.282	96.56
283.513	107.56
283.745	102.56
283.976	95.56
284.207	84.56
284.439	97.56
284.67	98.56
284.901	73.56
285.132	86.56
285.364	78.56
285.595	90.56
285.826	84.56
286.057	95.56
286.288	95.56
286.52	91.56
286.751	74.56
286.982	95.56
287.213	96.56
287.444	93.56
287.675	93.56
287.906	84.56
288.138	78.56
288.369	87.56
288.6	93.56
288.831	86.56
289.062	86.56
289.293	95.56
289.524	93.56
289.755	92.56
289.986	104.56
290.217	87.56
290.448	86.56
290.679	97.56
290.91	105.56
291.141	88.56
291.371	88.56
291.602	91.56
291.833	92.56
292.064	95.56
292.295	91.56
292.526	95.56
292.757	87.56
292.987	97.56
293.218	94.56
293.449	86.56
293.68	103.56
293.91	83.56
294.141	102.56
294.372	81.56
294.603	104.56
294.833	89.56
295.064	77.56
295.295	109.56
295.525	93.56
295.756	102.56
295.987	84.56
296.217	83.56
296.448	93.56
296.679	90.56
296.909	98.56
297.14	83.56
297.37	87.56
297.601	90.56
297.831	91.56
298.062	102.56
298.292	87.56
298.523	85.56
298.753	79.56
298.984	79.56
299.214	87.56
299.445	97.56
299.675	91.56
299.905	91.56
300.136	92.56
300.366	92.56
300.597	90.56
300.827	88.56
301.057	88.56
301.288	92.56
301.518	92.56
301.748	103.56
301.979	95.56
302.209	101.56
302.439	87.56
302.669	108.56
302.9	95.56
303.13	96.56
303.36	92.56
303.59	87.56
303.82	97.56
304.051	90.56
304.281	101.56
304.511	97.56
304.741	94.56
304.971	94.56
305.201	98.56
305.431	89.56
305.661	82.56
305.891	89.56
306.121	96.56
306.352	86.56
306.582	78.56
306.812	80.56
307.042	94.56
307.272	96.56
307.502	93.56
307.731	94.56
307.961	96.56
308.191	70.56
308.421	92.56
308.651	93.56
308.881	85.56
309.111	80.56
309.341	93.56
309.571	90.56
309.8	95.56
310.03	93.56
310.26	114.56
310.49	96.56
310.72	96.56
310.949	90.56
311.179	89.56
311.409	72.56
311.639	85.56
311.868	93.56
312.098	88.56
312.328	107.56
312.557	83.56
312.787	96.56
313.017	93.56
313.246	117.56
313.476	102.56
313.706	92.56
313.935	67.56
314.165	87.56
314.394	90.56
314.624	88.56
314.853	82.56
315.083	91.56
315.312	88.56
315.542	95.56
315.771	81.56
316.001	69.56
316.23	100.56
316.46	98.56
316.689	79.56
316.919	92.56
317.148	97.56
317.377	96.56
317.607	104.56
317.836	89.56
318.065	77.56
318.295	87.56
318.524	89.56
318.753	88.56
318.983	89.56
319.212	96.56
319.441	93.56
319.67	91.56
319.9	94.56
320.129	87.56
320.358	87.56
320.587	84.56
320.816	85.56
321.046	100.56
321.275	97.56
321.504	97.56
321.733	81.56
321.962	99.56
322.191	84.56
322.42	81.56
322.649	89.56
322.878	82.56
323.108	86.56
323.337	82.56
323.566	90.56
323.795	90.56
324.024	95.56
324.253	77.56
324.482	103.56
324.71	91.56
324.939	87.56
325.168	105.56
325.397	72.56
325.626	87.56
325.855	74.56
326.084	80.56
326.313	87.56
326.542	87.56
326.77	102.56
326.999	85.56
327.228	98.56
327.457	97.56
327.686	84.56
327.914	94.56
328.143	90.56
328.372	93.56
328.6	93.56
328.829	95.56
329.058	104.56
329.287	87.56
329.515	95.56
329.744	87.56
329.972	94.56
330.201	85.56
330.43	83.56
330.658	82.56
330.887	92.56
331.115	96.56
331.344	103.56
331.572	96.56
331.801	89.56
332.03	101.56
332.258	88.56
332.486	79.56
332.715	90.56
332.943	90.56
333.172	95.56
333.4	83.56
333.629	97.56
333.857	77.56
334.085	97.56
334.314	100.56
334.542	104.56
334.771	95.56
334.999	84.56
335.227	88.56
335.455	101.56
335.684	93.56
335.912	80.56
336.14	90.56
336.369	90.56
336.597	100.56
336.825	86.56
337.053	79.56
337.281	96.56
337.51	77.56
337.738	95.56
337.966	102.56
338.194	82.56
338.422	88.56
338.65	81.56
338.878	100.56
339.106	84.56
339.334	96.56
339.562	87.56
339.79	90.56
340.018	93.56
340.246	89.56
340.474	82.56
340.702	81.56
340.93	89.56
341.158	88.56
341.386	92.56
341.614	100.56
341.842	90.56
342.07	91.56
342.298	80.56
342.526	95.56
342.754	101.56
342.981	87.56
343.209	90.56
343.437	91.56
343.665	88.56
343.893	103.56
344.12	87.56
344.348	82.56
344.576	90.56
344.804	93.56
345.031	75.56
345.259	87.56
345.487	88.56
345.714	91.56
345.942	91.56
346.17	90.56
346.397	101.56
346.625	97.56
346.853	109.56
347.08	82.56
347.308	93.56
347.535	96.56
347.763	89.56
347.99	81.56
348.218	97.56
348.445	95.56
348.673	91.56
348.9	85.56
349.128	95.56
349.355	94.56
349.583	91.56
349.81	97.56
350.037	101.56
350.265	90.56
350.492	107.56
350.72	99.56
350.947	84.56
351.174	80.56
351.402	83.56
351.629	77.56
351.856	92.56
352.083	77.56
352.311	80.56
352.538	105.56
352.765	83.56
352.992	86.56
353.22	86.56
353.447	97.56
353.674	94.56
353.901	94.56
354.128	86.56
354.355	87.56
354.583	94.56
354.81	86.56
355.037	95.56
355.264	103.56
355.491	101.56
355.718	96.56
355.945	72.56
356.172	89.56
356.399	80.56
356.626	78.56
356.853	95.56
357.08	88.56
357.307	106.56
357.534	100.56
357.761	99.56
357.988	101.56
358.215	93.56
358.441	76.56
358.668	75.56
358.895	77.56
359.122	89.56
359.349	74.56
359.576	101.56
359.802	95.56
360.029	103.56
360.256	95.56
360.483	81.56
360.709	93.56
360.936	97.56
361.163	83.56
361.39	86.56
361.616	95.56
361.843	95.56
362.07	94.56
362.296	86.56
362.523	84.56
362.749	95.56
362.976	87.56
363.203	87.56
363.429	79.56
363.656	100.56
363.882	82.56
364.109	92.56
364.335	78.56
364.562	87.56
364.788	82.56
365.015	85.56
365.241	91.56
365.468	107.56
365.694	95.56
365.92	96.56
366.147	99.56
366.373	99.56
366.599	81.56
366.826	76.56
367.052	75.56
367.278	101.56
367.505	90.56
367.731	85.56
367.957	87.56
368.184	103.56
368.41	92.56
368.636	98.56
368.862	83.56
369.089	94.56
369.315	88.56
369.541	85.56
369.767	105.56
369.993	82.56
370.219	87.56
370.445	86.56
370.672	89.56
370.898	99.56
371.124	91.56
371.35	104.56
371.576	98.56
371.802	64.56
372.028	82.56
372.254	82.56
372.48	87.56
372.706	87.56
372.932	77.56
373.158	87.56
373.384	85.56
373.61	95.56
373.835	89.56
374.061	96.56
374.287	87.56
374.513	98.56
374.739	87.56
374.965	107.56
375.191	96.56
375.416	91.56
375.642	95.56
375.868	96.56
376.094	94.56
376.319	88.56
376.545	86.56
376.771	78.56
376.997	82.56
377.222	89.56
377.448	91.56
377.674	84.56
377.899	84.56
378.125	86.56
378.35	88.56
378.576	96.56
378.802	86.56
379.027	92.56
379.253	97.56
379.478	95.56
379.704	89.56
379.929	92.56
380.155	97.56
380.38	79.56
380.606	91.56
380.831	86.56
381.057	102.56
381.282	88.56
381.507	81.56
381.733	96.56
381.958	92.56
382.184	97.56
382.409	92.56
382.634	79.56
382.86	96.56
383.085	96.56
383.31	88.56
383.535	94.56
383.761	91.56
383.986	92.56
384.211	85.56
384.436	86.56
384.662	98.56
384.887	105.56
385.112	97.56
385.337	96.56
385.562	88.56
385.787	79.56
386.013	89.56
386.238	90.56
386.463	81.56
386.688	90.56
386.913	89.56
387.138	101.56
387.363	90.56
387.588	100.56
387.813	94.56
388.038	99.56
388.263	101.56
388.488	78.56
388.713	94.56
388.938	92.56
389.163	92.56
389.387	91.56
389.612	83.56
389.837	88.56
390.062	101.56
390.287	83.56
390.512	96.56
390.736	98.56
390.961	89.56
391.186	97.56
391.411	98.56
391.636	89.56
391.86	89.56
392.085	87.56
392.31	98.56
392.534	98.56
392.759	85.56
392.984	90.56
393.208	99.56
393.433	95.56
393.658	93.56
393.882	87.56
394.107	89.56
394.331	93.56
394.556	85.56
394.78	79.56
395.005	83.56
395.229	91.56
395.454	102.56
395.678	85.56
395.903	91.56
396.127	81.56
396.352	77.56
396.576	88.56
396.801	89.56
397.025	91.56
397.249	103.56
397.474	89.56
397.698	87.56
397.922	91.56
398.147	94.56
398.371	84.56
398.595	77.56
398.82	88.56
399.044	89.56
399.268	94.56
399.492	94.56
399.717	98.56
399.941	82.56
400.165	86.56
400.389	87.56
400.613	93.56
400.837	110.56
401.062	91.56
401.286	90.56
401.51	87.56
401.734	90.56
401.958	100.56
402.182	106.56
402.406	98.56
402.63	101.56
402.854	81.56
403.078	84.56
403.302	90.56
403.526	98.56
403.75	92.56
403.974	85.56
404.198	93.56
404.422	94.56
404.645	100.56
404.869	84.56
405.093	92.56
405.317	101.56
405.541	104.56
405.765	95.56
405.988	101.56
406.212	92.56
406.436	91.56
406.66	99.56
406.883	93.56
407.107	99.56
407.331	99.56
407.555	97.56
407.778	105.56
408.002	97.56
408.226	87.56
408.449	106.56
408.673	98.56
408.896	88.56
409.12	94.56
409.344	108.56
409.567	94.56
409.791	90.56
410.014	101.56
410.238	80.56
410.461	102.56
410.685	91.56
410.908	108.56
411.132	91.56
411.355	111.56
411.578	96.56
411.802	98.56
412.025	89.56
412.249	95.56
412.472	93.56
412.695	84.56
412.919	97.56
413.142	83.56
413.365	88.56
413.589	103.56
413.812	93.56
414.035	98.56
414.258	104.56
414.482	89.56
414.705	97.56
414.928	94.56
415.151	101.56
415.374	90.56
415.597	93.56
415.821	110.56
416.044	101.56
416.267	104.56
416.49	97.56
416.713	100.56
416.936	103.56
417.159	99.56
417.382	102.56
417.605	91.56
417.828	101.56
418.051	101.56
418.274	93.56
418.497	102.56
418.72	84.56
418.943	94.56
419.166	106.56
419.389	86.56
419.611	95.56
419.834	96.56
420.057	101.56
420.28	96.56
420.503	90.56
420.726	104.56
420.948	91.56
421.171	95.56
421.394	117.56
421.617	103.56
421.839	93.56
422.062	87.56
422.285	100.56
422.507	98.56
422.73	106.56
422.953	106.56
423.175	95.56
423.398	107.56
423.621	91.56
423.843	99.56
424.066	98.56
424.288	105.56
424.511	105.56
424.733	90.56
424.956	103.56
425.178	109.56
425.401	95.56
425.623	111.56
425.846	99.56
426.068	108.56
426.291	93.56
426.513	102.56
426.735	94.56
426.958	101.56
427.18	100.56
427.402	99.56
427.625	94.56
427.847	78.56
428.069	100.56
428.292	104.56
428.514	95.56
428.736	101.56
428.958	100.56
429.181	105.56
429.403	92.56
429.625	103.56
429.847	100.56
430.069	104.56
430.292	109.56
430.514	100.56
430.736	97.56
430.958	105.56
431.18	90.56
431.402	103.56
431.624	104.56
431.846	82.56
432.068	83.56
432.29	98.56
432.512	109.56
432.734	101.56
432.956	92.56
433.178	113.56
433.4	95.56
433.622	103.56
433.844	112.56
434.066	94.56
434.287	98.56
434.509	100.56
434.731	87.56
434.953	93.56
435.175	96.56
435.397	93.56
435.618	84.56
435.84	82.56
436.062	100.56
436.284	82.56
436.505	106.56
436.727	98.56
436.949	94.56
437.17	87.56
437.392	102.56
437.614	111.56
437.835	98.56
438.057	99.56
438.278	95.56
438.5	106.56
438.721	117.56
438.943	102.56
439.165	97.56
439.386	108.56
439.608	114.56
439.829	105.56
440.05	93.56
440.272	88.56
440.493	95.56
440.715	103.56
440.936	104.56
441.158	117.56
441.379	95.56
441.6	108.56
441.822	112.56
442.043	103.56
442.264	94.56
442.486	109.56
442.707	103.56
442.928	106.56
443.149	99.56
443.371	99.56
443.592	119.56
443.813	110.56
444.034	112.56
444.255	99.56
444.476	111.56
444.698	98.56
444.919	105.56
445.14	233.56
445.361	153.56
445.582	117.56
445.803	106.56
446.024	96.56
446.245	127.56
446.466	109.56
446.687	101.56
446.908	102.56
447.129	98.56
447.35	105.56
447.571	87.56
447.792	102.56
448.013	91.56
448.234	112.56
448.455	99.56
448.675	115.56
448.896	96.56
449.117	95.56
449.338	97.56
449.559	102.56
449.779	98.56
450	112.56
450.221	112.56
450.442	120.56
450.662	105.56
450.883	99.56
451.104	112.56
451.324	103.56
451.545	111.56
451.766	98.56
451.986	93.56
452.207	86.56
452.428	86.56
452.648	98.56
452.869	105.56
453.089	91.56
453.31	83.56
453.53	106.56
453.751	91.56
453.971	96.56
454.192	96.56
454.412	91.56
454.633	105.56
454.853	101.56
455.073	99.56
455.294	97.56
455.514	111.56
455.734	113.56
455.955	84.56
456.175	106.56
456.395	107.56
456.616	84.56
456.836	89.56
457.056	103.56
457.276	90.56
457.497	87.56
457.717	90.56
457.937	93.56
458.157	98.56
458.377	99.56
458.598	95.56
458.818	98.56
459.038	90.56
459.258	88.56
459.478	95.56
459.698	102.56
459.918	101.56
460.138	101.56
460.358	95.56
460.578	104.56
460.798	113.56
461.018	99.56
461.238	106.56
461.458	96.56
461.678	104.56
461.898	88.56
462.118	91.56
462.338	94.56
462.558	97.56
462.777	85.56
462.997	90.56
463.217	91.56
463.437	98.56
463.657	102.56
463.876	95.56
464.096	89.56
464.316	86.56
464.536	90.56
464.755	102.56
464.975	103.56
465.195	100.56
465.414	99.56
465.634	96.56
465.854	102.56
466.073	104.56
466.293	112.56
466.512	110.56
466.732	99.56
466.951	104.56
467.171	103.56
467.391	103.56
467.61	114.56
467.829	112.56
468.049	105.56
468.268	99.56
468.488	95.56
468.707	101.56
468.927	100.56
469.146	95.56
469.365	109.56
469.585	97.56
469.804	110.56
470.023	103.56
470.243	110.56
470.462	101.56
470.681	100.56
470.901	113.56
471.12	108.56
471.339	105.56
471.558	91.56
471.777	113.56
471.997	106.56
472.216	93.56
472.435	94.56
472.654	106.56
472.873	114.56
473.092	90.56
473.311	100.56
473.53	110.56
473.749	88.56
473.968	104.56
474.187	102.56
474.406	101.56
474.625	97.56
474.844	99.56
475.063	102.56
475.282	103.56
475.501	92.56
475.72	105.56
475.939	88.56
476.158	96.56
476.377	99.56
476.596	93.56
476.814	110.56
477.033	111.56
477.252	95.56
477.471	90.56
477.69	94.56
477.908	107.56
478.127	121.56
478.346	114.56
478.564	105.56
478.783	98.56
479.002	109.56
479.22	106.56
479.439	102.56
479.658	100.56
479.876	88.56
480.095	93.56
480.313	93.56
480.532	101.56
480.751	105.56
480.969	101.56
481.188	92.56
481.406	103.56
481.624	79.56
481.843	98.56
482.061	93.56
482.28	109.56
482.498	78.56
482.717	81.56
482.935	95.56
483.153	92.56
483.372	99.56
483.59	107.56
483.808	98.56
484.027	111.56
484.245	114.56
484.463	118.56
484.681	103.56
484.9	109.56
485.118	109.56
485.336	103.56
485.554	106.56
485.772	102.56
485.99	89.56
486.209	89.56
486.427	91.56
486.645	96.56
486.863	114.56
487.081	104.56
487.299	93.56
487.517	91.56
487.735	108.56
487.953	117.56
488.171	114.56
488.389	103.56
488.607	109.56
488.825	94.56
489.043	123.56
489.261	104.56
489.479	101.56
489.696	120.56
489.914	90.56
490.132	99.56
490.35	108.56
490.568	121.56
490.786	126.56
491.003	114.56
491.221	129.56
491.439	115.56
491.657	109.56
491.874	108.56
492.092	129.56
492.31	135.56
492.527	133.56
492.745	125.56
492.963	124.56
493.18	126.56
493.398	114.56
493.615	117.56
493.833	125.56
494.05	114.56
494.268	115.56
494.485	122.56
494.703	134.56
494.92	112.56
495.138	102.56
495.355	129.56
495.573	113.56
495.79	115.56
496.008	120.56
496.225	128.56
496.442	107.56
496.66	111.56
496.877	118.56
497.094	105.56
497.312	103.56
497.529	112.56
497.746	95.56
497.963	91.56
498.181	100.56
498.398	108.56
498.615	103.56
498.832	104.56
499.049	95.56
499.267	108.56
499.484	91.56
499.701	84.56
499.918	107.56
500.135	106.56
500.352	107.56
500.569	94.56
500.786	101.56
501.003	117.56
501.22	103.56
501.437	105.56
501.654	115.56
501.871	99.56
502.088	109.56
502.305	100.56
502.522	103.56
502.739	85.56
502.956	102.56
503.172	109.56
503.389	121.56
503.606	110.56
503.823	95.56
504.04	96.56
504.256	119.56
504.473	106.56
504.69	117.56
504.907	111.56
505.123	94.56
505.34	108.56
505.557	93.56
505.773	88.56
505.99	97.56
506.207	97.56
506.423	93.56
506.64	96.56
506.856	91.56
507.073	103.56
507.289	98.56
507.506	101.56
507.722	100.56
507.939	101.56
508.155	98.56
508.372	103.56
508.588	94.56
508.805	88.56
509.021	103.56
509.238	104.56
509.454	83.56
509.67	90.56
509.887	90.56
510.103	97.56
510.319	98.56
510.536	90.56
510.752	92.56
510.968	90.56
511.184	90.56
511.401	98.56
511.617	94.56
511.833	84.56
512.049	72.56
512.265	99.56
512.481	71.56
512.698	89.56
512.914	91.56
513.13	93.56
513.346	95.56
513.562	86.56
513.778	102.56
513.994	97.56
514.21	84.56
514.426	85.56
514.642	103.56
