Data from Location3.07152019.Energy5.Lamp.07192019.3%Agarose_HRD10591_15-16-40-270.txt Node
Date: Fri Jul 19 15:16:40 EDT 2019
User: cochatt
Spectrometer: HR+D1059
Trigger mode: 1
Integration Time (sec): 1.000000E-1
Scans to average: 1
Electric dark correction enabled: true
Nonlinearity correction enabled: false
Boxcar width: 0
XAxis mode: Wavelengths
Number of Pixels in Spectrum: 2048
>>>>>Begin Spectral Data<<<<<
223.165	-23.69
223.4	-23.69
223.635	-23.69
223.869	-16.69
224.104	-22.69
224.338	-1.69
224.573	-11.69
224.808	-5.69
225.042	-9.69
225.277	-0.69
225.511	-7.69
225.746	-7.69
225.98	-1.69
226.215	18.31
226.449	4.31
226.683	37.31
226.918	19.31
227.152	30.31
227.387	46.31
227.621	44.31
227.856	45.31
228.09	40.31
228.324	46.31
228.559	46.31
228.793	45.31
229.027	58.31
229.262	73.31
229.496	65.31
229.73	70.31
229.964	81.31
230.199	80.31
230.433	76.31
230.667	70.31
230.901	81.31
231.136	70.31
231.37	73.31
231.604	72.31
231.838	81.31
232.072	81.31
232.306	80.31
232.541	77.31
232.775	86.31
233.009	73.31
233.243	83.31
233.477	84.31
233.711	76.31
233.945	88.31
234.179	86.31
234.413	86.31
234.647	85.31
234.881	97.31
235.115	83.31
235.349	74.31
235.583	80.31
235.817	84.31
236.051	69.31
236.285	67.31
236.519	77.31
236.753	90.31
236.987	79.31
237.221	83.31
237.455	82.31
237.689	76.31
237.922	64.31
238.156	82.31
238.39	87.31
238.624	78.31
238.858	82.31
239.091	74.31
239.325	75.31
239.559	68.31
239.793	65.31
240.027	74.31
240.26	56.31
240.494	67.31
240.728	67.31
240.961	80.31
241.195	69.31
241.429	78.31
241.662	65.31
241.896	77.31
242.13	73.31
242.363	78.31
242.597	59.31
242.83	76.31
243.064	83.31
243.298	74.31
243.531	79.31
243.765	70.31
243.998	90.31
244.232	61.31
244.465	75.31
244.699	71.31
244.932	81.31
245.166	65.31
245.399	64.31
245.633	71.31
245.866	84.31
246.099	84.31
246.333	70.31
246.566	59.31
246.8	72.31
247.033	87.31
247.266	87.31
247.5	78.31
247.733	72.31
247.966	84.31
248.2	80.31
248.433	82.31
248.666	70.31
248.899	91.31
249.133	71.31
249.366	81.31
249.599	73.31
249.832	67.31
250.066	69.31
250.299	78.31
250.532	82.31
250.765	89.31
250.998	81.31
251.231	72.31
251.465	80.31
251.698	94.31
251.931	68.31
252.164	74.31
252.397	75.31
252.63	79.31
252.863	87.31
253.096	73.31
253.329	80.31
253.562	86.31
253.795	82.31
254.028	70.31
254.261	78.31
254.494	65.31
254.727	67.31
254.96	79.31
255.193	82.31
255.426	77.31
255.659	63.31
255.892	87.31
256.124	79.31
256.357	81.31
256.59	77.31
256.823	105.31
257.056	68.31
257.289	78.31
257.521	79.31
257.754	89.31
257.987	84.31
258.22	85.31
258.452	85.31
258.685	73.31
258.918	69.31
259.151	78.31
259.383	77.31
259.616	84.31
259.849	88.31
260.081	80.31
260.314	70.31
260.547	77.31
260.779	82.31
261.012	88.31
261.244	84.31
261.477	78.31
261.71	73.31
261.942	73.31
262.175	77.31
262.407	82.31
262.64	80.31
262.872	86.31
263.105	98.31
263.337	93.31
263.57	75.31
263.802	81.31
264.035	77.31
264.267	92.31
264.499	81.31
264.732	66.31
264.964	84.31
265.197	85.31
265.429	86.31
265.661	73.31
265.894	79.31
266.126	76.31
266.358	81.31
266.591	74.31
266.823	84.31
267.055	77.31
267.287	80.31
267.52	86.31
267.752	79.31
267.984	74.31
268.216	94.31
268.448	79.31
268.681	95.31
268.913	79.31
269.145	86.31
269.377	88.31
269.609	86.31
269.841	73.31
270.073	82.31
270.306	93.31
270.538	78.31
270.77	96.31
271.002	89.31
271.234	78.31
271.466	78.31
271.698	79.31
271.93	84.31
272.162	72.31
272.394	66.31
272.626	93.31
272.858	111.31
273.09	81.31
273.322	71.31
273.553	71.31
273.785	93.31
274.017	77.31
274.249	81.31
274.481	59.31
274.713	82.31
274.945	78.31
275.176	81.31
275.408	88.31
275.64	92.31
275.872	92.31
276.104	91.31
276.335	82.31
276.567	97.31
276.799	87.31
277.031	84.31
277.262	91.31
277.494	80.31
277.726	78.31
277.957	105.31
278.189	78.31
278.421	80.31
278.652	73.31
278.884	85.31
279.115	79.31
279.347	72.31
279.579	79.31
279.81	85.31
280.042	76.31
280.273	87.31
280.505	85.31
280.736	85.31
280.968	90.31
281.199	66.31
281.431	85.31
281.662	90.31
281.894	84.31
282.125	80.31
282.356	79.31
282.588	88.31
282.819	85.31
283.051	67.31
283.282	85.31
283.513	86.31
283.745	90.31
283.976	74.31
284.207	71.31
284.439	80.31
284.67	93.31
284.901	99.31
285.132	80.31
285.364	87.31
285.595	77.31
285.826	88.31
286.057	89.31
286.288	74.31
286.52	74.31
286.751	86.31
286.982	81.31
287.213	83.31
287.444	75.31
287.675	84.31
287.906	98.31
288.138	84.31
288.369	85.31
288.6	83.31
288.831	88.31
289.062	103.31
289.293	78.31
289.524	82.31
289.755	97.31
289.986	88.31
290.217	79.31
290.448	76.31
290.679	86.31
290.91	86.31
291.141	82.31
291.371	87.31
291.602	85.31
291.833	79.31
292.064	81.31
292.295	80.31
292.526	80.31
292.757	84.31
292.987	87.31
293.218	92.31
293.449	87.31
293.68	91.31
293.91	87.31
294.141	86.31
294.372	85.31
294.603	86.31
294.833	76.31
295.064	92.31
295.295	71.31
295.525	80.31
295.756	86.31
295.987	70.31
296.217	84.31
296.448	77.31
296.679	64.31
296.909	83.31
297.14	69.31
297.37	80.31
297.601	85.31
297.831	85.31
298.062	91.31
298.292	84.31
298.523	81.31
298.753	82.31
298.984	84.31
299.214	79.31
299.445	81.31
299.675	78.31
299.905	70.31
300.136	93.31
300.366	75.31
300.597	82.31
300.827	87.31
301.057	83.31
301.288	66.31
301.518	85.31
301.748	68.31
301.979	73.31
302.209	102.31
302.439	84.31
302.669	89.31
302.9	81.31
303.13	88.31
303.36	86.31
303.59	86.31
303.82	77.31
304.051	85.31
304.281	85.31
304.511	75.31
304.741	86.31
304.971	71.31
305.201	84.31
305.431	83.31
305.661	89.31
305.891	95.31
306.121	87.31
306.352	90.31
306.582	87.31
306.812	97.31
307.042	94.31
307.272	88.31
307.502	85.31
307.731	84.31
307.961	88.31
308.191	84.31
308.421	87.31
308.651	87.31
308.881	91.31
309.111	89.31
309.341	81.31
309.571	88.31
309.8	81.31
310.03	102.31
310.26	90.31
310.49	93.31
310.72	86.31
310.949	92.31
311.179	66.31
311.409	84.31
311.639	74.31
311.868	76.31
312.098	73.31
312.328	80.31
312.557	96.31
312.787	91.31
313.017	85.31
313.246	81.31
313.476	83.31
313.706	81.31
313.935	85.31
314.165	84.31
314.394	76.31
314.624	79.31
314.853	87.31
315.083	101.31
315.312	81.31
315.542	92.31
315.771	66.31
316.001	81.31
316.23	93.31
316.46	89.31
316.689	85.31
316.919	85.31
317.148	87.31
317.377	92.31
317.607	98.31
317.836	70.31
318.065	84.31
318.295	78.31
318.524	91.31
318.753	72.31
318.983	86.31
319.212	92.31
319.441	90.31
319.67	80.31
319.9	81.31
320.129	85.31
320.358	86.31
320.587	86.31
320.816	72.31
321.046	81.31
321.275	82.31
321.504	82.31
321.733	90.31
321.962	70.31
322.191	76.31
322.42	84.31
322.649	83.31
322.878	88.31
323.108	93.31
323.337	84.31
323.566	91.31
323.795	77.31
324.024	69.31
324.253	82.31
324.482	94.31
324.71	85.31
324.939	84.31
325.168	80.31
325.397	86.31
325.626	86.31
325.855	88.31
326.084	81.31
326.313	89.31
326.542	95.31
326.77	80.31
326.999	98.31
327.228	84.31
327.457	86.31
327.686	78.31
327.914	83.31
328.143	85.31
328.372	68.31
328.6	82.31
328.829	79.31
329.058	71.31
329.287	82.31
329.515	74.31
329.744	86.31
329.972	81.31
330.201	83.31
330.43	84.31
330.658	87.31
330.887	85.31
331.115	88.31
331.344	97.31
331.572	66.31
331.801	77.31
332.03	79.31
332.258	84.31
332.486	86.31
332.715	81.31
332.943	92.31
333.172	81.31
333.4	71.31
333.629	92.31
333.857	82.31
334.085	78.31
334.314	79.31
334.542	94.31
334.771	87.31
334.999	86.31
335.227	92.31
335.455	76.31
335.684	83.31
335.912	73.31
336.14	88.31
336.369	71.31
336.597	79.31
336.825	78.31
337.053	94.31
337.281	74.31
337.51	77.31
337.738	87.31
337.966	96.31
338.194	100.31
338.422	92.31
338.65	95.31
338.878	95.31
339.106	76.31
339.334	87.31
339.562	82.31
339.79	82.31
340.018	85.31
340.246	95.31
340.474	96.31
340.702	86.31
340.93	74.31
341.158	80.31
341.386	86.31
341.614	87.31
341.842	85.31
342.07	82.31
342.298	84.31
342.526	76.31
342.754	87.31
342.981	78.31
343.209	88.31
343.437	87.31
343.665	89.31
343.893	72.31
344.12	69.31
344.348	78.31
344.576	74.31
344.804	77.31
345.031	72.31
345.259	82.31
345.487	79.31
345.714	88.31
345.942	90.31
346.17	87.31
346.397	79.31
346.625	79.31
346.853	69.31
347.08	79.31
347.308	79.31
347.535	79.31
347.763	74.31
347.99	73.31
348.218	92.31
348.445	79.31
348.673	93.31
348.9	89.31
349.128	85.31
349.355	84.31
349.583	90.31
349.81	78.31
350.037	75.31
350.265	81.31
350.492	92.31
350.72	89.31
350.947	91.31
351.174	85.31
351.402	89.31
351.629	84.31
351.856	89.31
352.083	84.31
352.311	78.31
352.538	86.31
352.765	98.31
352.992	87.31
353.22	80.31
353.447	77.31
353.674	80.31
353.901	72.31
354.128	82.31
354.355	71.31
354.583	73.31
354.81	81.31
355.037	88.31
355.264	84.31
355.491	78.31
355.718	76.31
355.945	84.31
356.172	72.31
356.399	77.31
356.626	78.31
356.853	88.31
357.08	80.31
357.307	80.31
357.534	81.31
357.761	97.31
357.988	94.31
358.215	83.31
358.441	80.31
358.668	86.31
358.895	88.31
359.122	79.31
359.349	84.31
359.576	86.31
359.802	94.31
360.029	78.31
360.256	63.31
360.483	88.31
360.709	90.31
360.936	79.31
361.163	94.31
361.39	69.31
361.616	89.31
361.843	75.31
362.07	79.31
362.296	77.31
362.523	69.31
362.749	80.31
362.976	78.31
363.203	80.31
363.429	88.31
363.656	78.31
363.882	74.31
364.109	62.31
364.335	76.31
364.562	66.31
364.788	80.31
365.015	95.31
365.241	87.31
365.468	76.31
365.694	68.31
365.92	83.31
366.147	88.31
366.373	85.31
366.599	80.31
366.826	89.31
367.052	82.31
367.278	84.31
367.505	80.31
367.731	92.31
367.957	86.31
368.184	88.31
368.41	81.31
368.636	83.31
368.862	81.31
369.089	82.31
369.315	80.31
369.541	86.31
369.767	78.31
369.993	78.31
370.219	82.31
370.445	86.31
370.672	79.31
370.898	76.31
371.124	72.31
371.35	93.31
371.576	76.31
371.802	83.31
372.028	76.31
372.254	77.31
372.48	71.31
372.706	73.31
372.932	80.31
373.158	97.31
373.384	93.31
373.61	92.31
373.835	82.31
374.061	81.31
374.287	104.31
374.513	79.31
374.739	97.31
374.965	87.31
375.191	81.31
375.416	87.31
375.642	83.31
375.868	95.31
376.094	86.31
376.319	79.31
376.545	70.31
376.771	66.31
376.997	77.31
377.222	79.31
377.448	78.31
377.674	92.31
377.899	84.31
378.125	88.31
378.35	86.31
378.576	85.31
378.802	82.31
379.027	82.31
379.253	72.31
379.478	76.31
379.704	87.31
379.929	70.31
380.155	84.31
380.38	92.31
380.606	77.31
380.831	87.31
381.057	93.31
381.282	84.31
381.507	90.31
381.733	84.31
381.958	88.31
382.184	99.31
382.409	76.31
382.634	85.31
382.86	66.31
383.085	87.31
383.31	97.31
383.535	86.31
383.761	90.31
383.986	87.31
384.211	84.31
384.436	97.31
384.662	90.31
384.887	92.31
385.112	92.31
385.337	102.31
385.562	85.31
385.787	83.31
386.013	87.31
386.238	75.31
386.463	78.31
386.688	87.31
386.913	84.31
387.138	93.31
387.363	84.31
387.588	66.31
387.813	77.31
388.038	89.31
388.263	74.31
388.488	91.31
388.713	81.31
388.938	90.31
389.163	73.31
389.387	88.31
389.612	85.31
389.837	97.31
390.062	83.31
390.287	77.31
390.512	88.31
390.736	89.31
390.961	84.31
391.186	85.31
391.411	85.31
391.636	80.31
391.86	89.31
392.085	93.31
392.31	92.31
392.534	82.31
392.759	89.31
392.984	88.31
393.208	71.31
393.433	82.31
393.658	89.31
393.882	81.31
394.107	85.31
394.331	87.31
394.556	88.31
394.78	83.31
395.005	81.31
395.229	83.31
395.454	84.31
395.678	88.31
395.903	97.31
396.127	94.31
396.352	108.31
396.576	77.31
396.801	91.31
397.025	94.31
397.249	78.31
397.474	86.31
397.698	80.31
397.922	77.31
398.147	76.31
398.371	82.31
398.595	87.31
398.82	90.31
399.044	80.31
399.268	90.31
399.492	81.31
399.717	87.31
399.941	78.31
400.165	87.31
400.389	77.31
400.613	76.31
400.837	87.31
401.062	67.31
401.286	95.31
401.51	88.31
401.734	97.31
401.958	83.31
402.182	87.31
402.406	89.31
402.63	74.31
402.854	93.31
403.078	90.31
403.302	102.31
403.526	81.31
403.75	88.31
403.974	76.31
404.198	95.31
404.422	80.31
404.645	90.31
404.869	88.31
405.093	94.31
405.317	89.31
405.541	101.31
405.765	93.31
405.988	98.31
406.212	93.31
406.436	83.31
406.66	89.31
406.883	97.31
407.107	94.31
407.331	89.31
407.555	85.31
407.778	96.31
408.002	82.31
408.226	81.31
408.449	102.31
408.673	91.31
408.896	93.31
409.12	99.31
409.344	85.31
409.567	92.31
409.791	82.31
410.014	77.31
410.238	92.31
410.461	89.31
410.685	91.31
410.908	90.31
411.132	84.31
411.355	99.31
411.578	92.31
411.802	105.31
412.025	76.31
412.249	84.31
412.472	107.31
412.695	109.31
412.919	95.31
413.142	88.31
413.365	93.31
413.589	104.31
413.812	99.31
414.035	106.31
414.258	81.31
414.482	86.31
414.705	90.31
414.928	95.31
415.151	95.31
415.374	94.31
415.597	93.31
415.821	92.31
416.044	86.31
416.267	97.31
416.49	82.31
416.713	90.31
416.936	101.31
417.159	99.31
417.382	93.31
417.605	104.31
417.828	94.31
418.051	83.31
418.274	87.31
418.497	93.31
418.72	98.31
418.943	92.31
419.166	99.31
419.389	113.31
419.611	105.31
419.834	93.31
420.057	74.31
420.28	97.31
420.503	111.31
420.726	89.31
420.948	94.31
421.171	96.31
421.394	96.31
421.617	83.31
421.839	76.31
422.062	94.31
422.285	95.31
422.507	97.31
422.73	101.31
422.953	84.31
423.175	94.31
423.398	97.31
423.621	98.31
423.843	82.31
424.066	101.31
424.288	106.31
424.511	92.31
424.733	98.31
424.956	102.31
425.178	99.31
425.401	86.31
425.623	103.31
425.846	102.31
426.068	96.31
426.291	90.31
426.513	98.31
426.735	92.31
426.958	90.31
427.18	84.31
427.402	84.31
427.625	96.31
427.847	92.31
428.069	87.31
428.292	92.31
428.514	98.31
428.736	95.31
428.958	104.31
429.181	88.31
429.403	86.31
429.625	95.31
429.847	83.31
430.069	94.31
430.292	83.31
430.514	102.31
430.736	104.31
430.958	71.31
431.18	82.31
431.402	90.31
431.624	85.31
431.846	86.31
432.068	101.31
432.29	96.31
432.512	90.31
432.734	97.31
432.956	89.31
433.178	105.31
433.4	92.31
433.622	102.31
433.844	99.31
434.066	88.31
434.287	82.31
434.509	81.31
434.731	105.31
434.953	81.31
435.175	87.31
435.397	106.31
435.618	81.31
435.84	89.31
436.062	92.31
436.284	94.31
436.505	98.31
436.727	102.31
436.949	79.31
437.17	89.31
437.392	93.31
437.614	99.31
437.835	89.31
438.057	89.31
438.278	81.31
438.5	78.31
438.721	98.31
438.943	89.31
439.165	93.31
439.386	91.31
439.608	92.31
439.829	95.31
440.05	99.31
440.272	91.31
440.493	105.31
440.715	100.31
440.936	102.31
441.158	95.31
441.379	87.31
441.6	98.31
441.822	103.31
442.043	98.31
442.264	98.31
442.486	82.31
442.707	83.31
442.928	85.31
443.149	92.31
443.371	100.31
443.592	99.31
443.813	87.31
444.034	90.31
444.255	100.31
444.476	92.31
444.698	94.31
444.919	98.31
445.14	185.31
445.361	124.31
445.582	94.31
445.803	86.31
446.024	106.31
446.245	95.31
446.466	90.31
446.687	113.31
446.908	95.31
447.129	97.31
447.35	106.31
447.571	83.31
447.792	84.31
448.013	95.31
448.234	102.31
448.455	83.31
448.675	94.31
448.896	103.31
449.117	87.31
449.338	91.31
449.559	86.31
449.779	85.31
450	102.31
450.221	86.31
450.442	86.31
450.662	82.31
450.883	102.31
451.104	97.31
451.324	103.31
451.545	89.31
451.766	81.31
451.986	94.31
452.207	87.31
452.428	108.31
452.648	93.31
452.869	92.31
453.089	88.31
453.31	77.31
453.53	97.31
453.751	86.31
453.971	84.31
454.192	101.31
454.412	96.31
454.633	84.31
454.853	75.31
455.073	90.31
455.294	85.31
455.514	84.31
455.734	88.31
455.955	95.31
456.175	93.31
456.395	81.31
456.616	93.31
456.836	78.31
457.056	84.31
457.276	84.31
457.497	87.31
457.717	96.31
457.937	80.31
458.157	83.31
458.377	87.31
458.598	99.31
458.818	80.31
459.038	80.31
459.258	81.31
459.478	93.31
459.698	81.31
459.918	88.31
460.138	80.31
460.358	85.31
460.578	91.31
460.798	85.31
461.018	84.31
461.238	87.31
461.458	112.31
461.678	79.31
461.898	89.31
462.118	91.31
462.338	87.31
462.558	95.31
462.777	98.31
462.997	94.31
463.217	100.31
463.437	87.31
463.657	85.31
463.876	87.31
464.096	84.31
464.316	87.31
464.536	88.31
464.755	78.31
464.975	88.31
465.195	93.31
465.414	80.31
465.634	89.31
465.854	85.31
466.073	92.31
466.293	95.31
466.512	97.31
466.732	103.31
466.951	90.31
467.171	83.31
467.391	100.31
467.61	96.31
467.829	89.31
468.049	87.31
468.268	97.31
468.488	110.31
468.707	80.31
468.927	93.31
469.146	88.31
469.365	92.31
469.585	95.31
469.804	96.31
470.023	101.31
470.243	98.31
470.462	98.31
470.681	93.31
470.901	94.31
471.12	95.31
471.339	89.31
471.558	108.31
471.777	94.31
471.997	92.31
472.216	96.31
472.435	89.31
472.654	88.31
472.873	93.31
473.092	90.31
473.311	93.31
473.53	85.31
473.749	96.31
473.968	98.31
474.187	95.31
474.406	95.31
474.625	91.31
474.844	105.31
475.063	109.31
475.282	89.31
475.501	84.31
475.72	89.31
475.939	91.31
476.158	103.31
476.377	101.31
476.596	88.31
476.814	105.31
477.033	95.31
477.252	99.31
477.471	90.31
477.69	94.31
477.908	108.31
478.127	94.31
478.346	98.31
478.564	98.31
478.783	86.31
479.002	105.31
479.22	94.31
479.439	98.31
479.658	89.31
479.876	97.31
480.095	91.31
480.313	84.31
480.532	106.31
480.751	79.31
480.969	79.31
481.188	89.31
481.406	93.31
481.624	87.31
481.843	73.31
482.061	77.31
482.28	96.31
482.498	98.31
482.717	88.31
482.935	98.31
483.153	99.31
483.372	109.31
483.59	96.31
483.808	90.31
484.027	105.31
484.245	106.31
484.463	100.31
484.681	100.31
484.9	97.31
485.118	96.31
485.336	99.31
485.554	101.31
485.772	84.31
485.99	99.31
486.209	100.31
486.427	83.31
486.645	77.31
486.863	98.31
487.081	100.31
487.299	106.31
487.517	96.31
487.735	103.31
487.953	103.31
488.171	98.31
488.389	115.31
488.607	96.31
488.825	104.31
489.043	116.31
489.261	94.31
489.479	104.31
489.696	112.31
489.914	90.31
490.132	93.31
490.35	102.31
490.568	96.31
490.786	97.31
491.003	109.31
491.221	90.31
491.439	108.31
491.657	117.31
491.874	120.31
492.092	138.31
492.31	112.31
492.527	131.31
492.745	115.31
492.963	105.31
493.18	106.31
493.398	105.31
493.615	112.31
493.833	100.31
494.05	110.31
494.268	112.31
494.485	110.31
494.703	121.31
494.92	122.31
495.138	112.31
495.355	101.31
495.573	116.31
495.79	101.31
496.008	126.31
496.225	110.31
496.442	105.31
496.66	116.31
496.877	105.31
497.094	101.31
497.312	111.31
497.529	109.31
497.746	111.31
497.963	104.31
498.181	96.31
498.398	98.31
498.615	100.31
498.832	90.31
499.049	91.31
499.267	89.31
499.484	89.31
499.701	81.31
499.918	105.31
500.135	97.31
500.352	95.31
500.569	92.31
500.786	95.31
501.003	97.31
501.22	100.31
501.437	102.31
501.654	106.31
501.871	92.31
502.088	108.31
502.305	112.31
502.522	110.31
502.739	85.31
502.956	98.31
503.172	88.31
503.389	81.31
503.606	88.31
503.823	100.31
504.04	97.31
504.256	96.31
504.473	98.31
504.69	84.31
504.907	99.31
505.123	103.31
505.34	96.31
505.557	80.31
505.773	95.31
505.99	82.31
506.207	96.31
506.423	105.31
506.64	95.31
506.856	93.31
507.073	79.31
507.289	104.31
507.506	90.31
507.722	75.31
507.939	92.31
508.155	100.31
508.372	87.31
508.588	88.31
508.805	90.31
509.021	96.31
509.238	89.31
509.454	86.31
509.67	85.31
509.887	90.31
510.103	94.31
510.319	90.31
510.536	96.31
510.752	71.31
510.968	79.31
511.184	75.31
511.401	89.31
511.617	88.31
511.833	80.31
512.049	94.31
512.265	93.31
512.481	83.31
512.698	99.31
512.914	70.31
513.13	103.31
513.346	89.31
513.562	94.31
513.778	87.31
513.994	83.31
514.21	87.31
514.426	80.31
514.642	85.31
514.858	72.31
515.074	85.31
515.29	89.31
515.506	82.31
515.721	68.31
515.937	90.31
516.153	90.31
516.369	106.31
516.585	102.31
516.801	98.31
517.016	90.31
517.232	97.31
517.448	87.31
517.664	83.31
