Data from Location3.07152019.Energy5.Lamp.07192019.3%Agarose_HRD10591_15-16-48-268.txt Node
Date: Fri Jul 19 15:16:48 EDT 2019
User: cochatt
Spectrometer: HR+D1059
Trigger mode: 1
Integration Time (sec): 1.000000E-1
Scans to average: 1
Electric dark correction enabled: true
Nonlinearity correction enabled: false
Boxcar width: 0
XAxis mode: Wavelengths
Number of Pixels in Spectrum: 2048
>>>>>Begin Spectral Data<<<<<
223.165	-12.06
223.4	-12.06
223.635	-12.06
223.869	-26.06
224.104	-16.06
224.338	-10.06
224.573	-0.06
224.808	-16.06
225.042	-17.06
225.277	-5.06
225.511	3.94
225.746	1.94
225.98	-5.06
226.215	18.94
226.449	25.94
226.683	15.94
226.918	17.94
227.152	22.94
227.387	25.94
227.621	39.94
227.856	41.94
228.09	49.94
228.324	48.94
228.559	55.94
228.793	55.94
229.027	53.94
229.262	61.94
229.496	63.94
229.73	51.94
229.964	70.94
230.199	65.94
230.433	77.94
230.667	83.94
230.901	83.94
231.136	74.94
231.37	77.94
231.604	63.94
231.838	80.94
232.072	81.94
232.306	76.94
232.541	73.94
232.775	86.94
233.009	78.94
233.243	79.94
233.477	83.94
233.711	77.94
233.945	82.94
234.179	94.94
234.413	74.94
234.647	72.94
234.881	72.94
235.115	67.94
235.349	67.94
235.583	77.94
235.817	75.94
236.051	87.94
236.285	82.94
236.519	77.94
236.753	71.94
236.987	77.94
237.221	79.94
237.455	82.94
237.689	64.94
237.922	83.94
238.156	77.94
238.39	85.94
238.624	70.94
238.858	77.94
239.091	78.94
239.325	72.94
239.559	82.94
239.793	76.94
240.027	74.94
240.26	81.94
240.494	68.94
240.728	79.94
240.961	75.94
241.195	68.94
241.429	76.94
241.662	82.94
241.896	83.94
242.13	74.94
242.363	72.94
242.597	76.94
242.83	83.94
243.064	68.94
243.298	58.94
243.531	79.94
243.765	74.94
243.998	91.94
244.232	72.94
244.465	69.94
244.699	81.94
244.932	70.94
245.166	74.94
245.399	69.94
245.633	70.94
245.866	71.94
246.099	78.94
246.333	78.94
246.566	70.94
246.8	77.94
247.033	80.94
247.266	89.94
247.5	89.94
247.733	83.94
247.966	75.94
248.2	84.94
248.433	67.94
248.666	74.94
248.899	75.94
249.133	66.94
249.366	74.94
249.599	72.94
249.832	72.94
250.066	80.94
250.299	88.94
250.532	81.94
250.765	82.94
250.998	72.94
251.231	94.94
251.465	75.94
251.698	82.94
251.931	88.94
252.164	57.94
252.397	79.94
252.63	80.94
252.863	78.94
253.096	77.94
253.329	83.94
253.562	85.94
253.795	76.94
254.028	82.94
254.261	74.94
254.494	73.94
254.727	68.94
254.96	79.94
255.193	98.94
255.426	80.94
255.659	74.94
255.892	75.94
256.124	79.94
256.357	79.94
256.59	73.94
256.823	79.94
257.056	74.94
257.289	80.94
257.521	76.94
257.754	74.94
257.987	89.94
258.22	95.94
258.452	70.94
258.685	83.94
258.918	75.94
259.151	70.94
259.383	71.94
259.616	85.94
259.849	87.94
260.081	75.94
260.314	62.94
260.547	73.94
260.779	77.94
261.012	77.94
261.244	69.94
261.477	91.94
261.71	81.94
261.942	79.94
262.175	75.94
262.407	75.94
262.64	73.94
262.872	91.94
263.105	85.94
263.337	77.94
263.57	78.94
263.802	79.94
264.035	74.94
264.267	85.94
264.499	83.94
264.732	79.94
264.964	85.94
265.197	80.94
265.429	74.94
265.661	74.94
265.894	79.94
266.126	81.94
266.358	70.94
266.591	88.94
266.823	92.94
267.055	84.94
267.287	85.94
267.52	81.94
267.752	89.94
267.984	83.94
268.216	77.94
268.448	94.94
268.681	86.94
268.913	84.94
269.145	80.94
269.377	79.94
269.609	90.94
269.841	91.94
270.073	86.94
270.306	72.94
270.538	71.94
270.77	75.94
271.002	83.94
271.234	73.94
271.466	69.94
271.698	86.94
271.93	91.94
272.162	75.94
272.394	78.94
272.626	77.94
272.858	75.94
273.09	73.94
273.322	83.94
273.553	73.94
273.785	101.94
274.017	86.94
274.249	87.94
274.481	86.94
274.713	68.94
274.945	79.94
275.176	73.94
275.408	73.94
275.64	84.94
275.872	84.94
276.104	86.94
276.335	89.94
276.567	89.94
276.799	75.94
277.031	79.94
277.262	73.94
277.494	89.94
277.726	76.94
277.957	72.94
278.189	68.94
278.421	80.94
278.652	91.94
278.884	70.94
279.115	72.94
279.347	106.94
279.579	75.94
279.81	73.94
280.042	86.94
280.273	83.94
280.505	81.94
280.736	70.94
280.968	73.94
281.199	80.94
281.431	92.94
281.662	81.94
281.894	82.94
282.125	79.94
282.356	66.94
282.588	86.94
282.819	70.94
283.051	93.94
283.282	77.94
283.513	86.94
283.745	79.94
283.976	68.94
284.207	87.94
284.439	97.94
284.67	87.94
284.901	71.94
285.132	80.94
285.364	84.94
285.595	90.94
285.826	92.94
286.057	82.94
286.288	86.94
286.52	98.94
286.751	74.94
286.982	80.94
287.213	81.94
287.444	85.94
287.675	71.94
287.906	80.94
288.138	97.94
288.369	61.94
288.6	86.94
288.831	65.94
289.062	69.94
289.293	74.94
289.524	77.94
289.755	81.94
289.986	91.94
290.217	78.94
290.448	81.94
290.679	97.94
290.91	92.94
291.141	86.94
291.371	84.94
291.602	101.94
291.833	84.94
292.064	72.94
292.295	85.94
292.526	70.94
292.757	74.94
292.987	75.94
293.218	74.94
293.449	75.94
293.68	78.94
293.91	91.94
294.141	84.94
294.372	80.94
294.603	80.94
294.833	75.94
295.064	78.94
295.295	76.94
295.525	72.94
295.756	73.94
295.987	86.94
296.217	73.94
296.448	94.94
296.679	93.94
296.909	69.94
297.14	89.94
297.37	87.94
297.601	76.94
297.831	92.94
298.062	86.94
298.292	85.94
298.523	90.94
298.753	83.94
298.984	86.94
299.214	92.94
299.445	67.94
299.675	89.94
299.905	85.94
300.136	87.94
300.366	85.94
300.597	71.94
300.827	78.94
301.057	84.94
301.288	81.94
301.518	82.94
301.748	91.94
301.979	77.94
302.209	79.94
302.439	90.94
302.669	77.94
302.9	84.94
303.13	86.94
303.36	78.94
303.59	79.94
303.82	81.94
304.051	77.94
304.281	71.94
304.511	79.94
304.741	88.94
304.971	78.94
305.201	79.94
305.431	94.94
305.661	71.94
305.891	76.94
306.121	79.94
306.352	84.94
306.582	85.94
306.812	80.94
307.042	77.94
307.272	76.94
307.502	93.94
307.731	82.94
307.961	65.94
308.191	90.94
308.421	88.94
308.651	77.94
308.881	96.94
309.111	60.94
309.341	74.94
309.571	88.94
309.8	80.94
310.03	74.94
310.26	70.94
310.49	87.94
310.72	86.94
310.949	82.94
311.179	94.94
311.409	89.94
311.639	89.94
311.868	82.94
312.098	90.94
312.328	80.94
312.557	81.94
312.787	89.94
313.017	95.94
313.246	89.94
313.476	96.94
313.706	71.94
313.935	86.94
314.165	94.94
314.394	79.94
314.624	82.94
314.853	77.94
315.083	76.94
315.312	82.94
315.542	91.94
315.771	90.94
316.001	81.94
316.23	89.94
316.46	75.94
316.689	67.94
316.919	82.94
317.148	72.94
317.377	79.94
317.607	77.94
317.836	71.94
318.065	79.94
318.295	67.94
318.524	76.94
318.753	78.94
318.983	85.94
319.212	72.94
319.441	75.94
319.67	75.94
319.9	90.94
320.129	90.94
320.358	79.94
320.587	69.94
320.816	84.94
321.046	90.94
321.275	72.94
321.504	84.94
321.733	89.94
321.962	84.94
322.191	83.94
322.42	75.94
322.649	92.94
322.878	81.94
323.108	74.94
323.337	78.94
323.566	81.94
323.795	70.94
324.024	91.94
324.253	70.94
324.482	75.94
324.71	90.94
324.939	81.94
325.168	93.94
325.397	85.94
325.626	72.94
325.855	86.94
326.084	88.94
326.313	65.94
326.542	87.94
326.77	83.94
326.999	76.94
327.228	81.94
327.457	78.94
327.686	80.94
327.914	80.94
328.143	81.94
328.372	83.94
328.6	90.94
328.829	93.94
329.058	86.94
329.287	70.94
329.515	83.94
329.744	98.94
329.972	77.94
330.201	74.94
330.43	71.94
330.658	71.94
330.887	73.94
331.115	88.94
331.344	75.94
331.572	86.94
331.801	96.94
332.03	87.94
332.258	72.94
332.486	79.94
332.715	80.94
332.943	94.94
333.172	76.94
333.4	85.94
333.629	78.94
333.857	83.94
334.085	93.94
334.314	80.94
334.542	83.94
334.771	74.94
334.999	87.94
335.227	72.94
335.455	94.94
335.684	73.94
335.912	84.94
336.14	80.94
336.369	77.94
336.597	90.94
336.825	67.94
337.053	90.94
337.281	73.94
337.51	86.94
337.738	93.94
337.966	86.94
338.194	76.94
338.422	71.94
338.65	87.94
338.878	87.94
339.106	75.94
339.334	84.94
339.562	82.94
339.79	80.94
340.018	85.94
340.246	74.94
340.474	80.94
340.702	82.94
340.93	74.94
341.158	69.94
341.386	66.94
341.614	98.94
341.842	77.94
342.07	80.94
342.298	99.94
342.526	89.94
342.754	81.94
342.981	83.94
343.209	82.94
343.437	77.94
343.665	84.94
343.893	86.94
344.12	75.94
344.348	82.94
344.576	73.94
344.804	80.94
345.031	90.94
345.259	78.94
345.487	84.94
345.714	87.94
345.942	81.94
346.17	82.94
346.397	76.94
346.625	93.94
346.853	74.94
347.08	89.94
347.308	83.94
347.535	75.94
347.763	83.94
347.99	81.94
348.218	96.94
348.445	71.94
348.673	77.94
348.9	81.94
349.128	89.94
349.355	83.94
349.583	91.94
349.81	80.94
350.037	86.94
350.265	91.94
350.492	85.94
350.72	91.94
350.947	81.94
351.174	80.94
351.402	89.94
351.629	70.94
351.856	86.94
352.083	78.94
352.311	84.94
352.538	83.94
352.765	85.94
352.992	69.94
353.22	87.94
353.447	85.94
353.674	82.94
353.901	74.94
354.128	91.94
354.355	82.94
354.583	78.94
354.81	80.94
355.037	73.94
355.264	78.94
355.491	87.94
355.718	77.94
355.945	95.94
356.172	87.94
356.399	99.94
356.626	91.94
356.853	62.94
357.08	84.94
357.307	78.94
357.534	77.94
357.761	74.94
357.988	93.94
358.215	98.94
358.441	81.94
358.668	87.94
358.895	66.94
359.122	67.94
359.349	81.94
359.576	66.94
359.802	88.94
360.029	87.94
360.256	89.94
360.483	86.94
360.709	85.94
360.936	83.94
361.163	90.94
361.39	85.94
361.616	80.94
361.843	84.94
362.07	80.94
362.296	84.94
362.523	78.94
362.749	84.94
362.976	83.94
363.203	91.94
363.429	86.94
363.656	70.94
363.882	73.94
364.109	77.94
364.335	81.94
364.562	69.94
364.788	79.94
365.015	88.94
365.241	88.94
365.468	74.94
365.694	82.94
365.92	89.94
366.147	59.94
366.373	81.94
366.599	85.94
366.826	71.94
367.052	71.94
367.278	85.94
367.505	75.94
367.731	79.94
367.957	79.94
368.184	77.94
368.41	91.94
368.636	74.94
368.862	90.94
369.089	77.94
369.315	83.94
369.541	85.94
369.767	82.94
369.993	87.94
370.219	86.94
370.445	91.94
370.672	74.94
370.898	69.94
371.124	79.94
371.35	73.94
371.576	75.94
371.802	74.94
372.028	77.94
372.254	76.94
372.48	83.94
372.706	89.94
372.932	79.94
373.158	80.94
373.384	83.94
373.61	78.94
373.835	99.94
374.061	90.94
374.287	83.94
374.513	103.94
374.739	82.94
374.965	72.94
375.191	85.94
375.416	86.94
375.642	70.94
375.868	86.94
376.094	83.94
376.319	72.94
376.545	73.94
376.771	84.94
376.997	86.94
377.222	76.94
377.448	77.94
377.674	81.94
377.899	73.94
378.125	87.94
378.35	89.94
378.576	83.94
378.802	78.94
379.027	89.94
379.253	75.94
379.478	89.94
379.704	89.94
379.929	87.94
380.155	96.94
380.38	90.94
380.606	85.94
380.831	92.94
381.057	83.94
381.282	85.94
381.507	80.94
381.733	77.94
381.958	69.94
382.184	81.94
382.409	87.94
382.634	85.94
382.86	91.94
383.085	91.94
383.31	76.94
383.535	81.94
383.761	99.94
383.986	79.94
384.211	81.94
384.436	73.94
384.662	58.94
384.887	88.94
385.112	77.94
385.337	87.94
385.562	70.94
385.787	97.94
386.013	72.94
386.238	86.94
386.463	85.94
386.688	87.94
386.913	85.94
387.138	83.94
387.363	99.94
387.588	80.94
387.813	95.94
388.038	89.94
388.263	84.94
388.488	86.94
388.713	72.94
388.938	66.94
389.163	81.94
389.387	77.94
389.612	72.94
389.837	83.94
390.062	97.94
390.287	79.94
390.512	71.94
390.736	98.94
390.961	81.94
391.186	90.94
391.411	82.94
391.636	83.94
391.86	75.94
392.085	91.94
392.31	89.94
392.534	87.94
392.759	81.94
392.984	87.94
393.208	82.94
393.433	71.94
393.658	96.94
393.882	91.94
394.107	77.94
394.331	90.94
394.556	74.94
394.78	78.94
395.005	77.94
395.229	82.94
395.454	85.94
395.678	85.94
395.903	75.94
396.127	78.94
396.352	94.94
396.576	84.94
396.801	90.94
397.025	81.94
397.249	93.94
397.474	101.94
397.698	89.94
397.922	99.94
398.147	82.94
398.371	92.94
398.595	87.94
398.82	78.94
399.044	83.94
399.268	86.94
399.492	89.94
399.717	103.94
399.941	85.94
400.165	93.94
400.389	85.94
400.613	90.94
400.837	95.94
401.062	78.94
401.286	76.94
401.51	82.94
401.734	76.94
401.958	94.94
402.182	86.94
402.406	79.94
402.63	89.94
402.854	79.94
403.078	97.94
403.302	87.94
403.526	77.94
403.75	80.94
403.974	90.94
404.198	88.94
404.422	95.94
404.645	97.94
404.869	85.94
405.093	88.94
405.317	92.94
405.541	94.94
405.765	81.94
405.988	89.94
406.212	84.94
406.436	89.94
406.66	83.94
406.883	91.94
407.107	94.94
407.331	93.94
407.555	89.94
407.778	83.94
408.002	85.94
408.226	85.94
408.449	75.94
408.673	79.94
408.896	95.94
409.12	89.94
409.344	101.94
409.567	91.94
409.791	91.94
410.014	87.94
410.238	91.94
410.461	102.94
410.685	93.94
410.908	94.94
411.132	97.94
411.355	95.94
411.578	103.94
411.802	103.94
412.025	77.94
412.249	78.94
412.472	96.94
412.695	69.94
412.919	83.94
413.142	95.94
413.365	88.94
413.589	88.94
413.812	83.94
414.035	90.94
414.258	98.94
414.482	92.94
414.705	84.94
414.928	101.94
415.151	96.94
415.374	101.94
415.597	101.94
415.821	85.94
416.044	93.94
416.267	83.94
416.49	88.94
416.713	100.94
416.936	98.94
417.159	81.94
417.382	94.94
417.605	87.94
417.828	98.94
418.051	90.94
418.274	97.94
418.497	98.94
418.72	101.94
418.943	86.94
419.166	98.94
419.389	97.94
419.611	97.94
419.834	82.94
420.057	110.94
420.28	89.94
420.503	100.94
420.726	99.94
420.948	90.94
421.171	90.94
421.394	85.94
421.617	107.94
421.839	104.94
422.062	105.94
422.285	70.94
422.507	90.94
422.73	97.94
422.953	89.94
423.175	78.94
423.398	86.94
423.621	84.94
423.843	90.94
424.066	93.94
424.288	85.94
424.511	100.94
424.733	90.94
424.956	92.94
425.178	93.94
425.401	93.94
425.623	90.94
425.846	93.94
426.068	95.94
426.291	98.94
426.513	91.94
426.735	96.94
426.958	99.94
427.18	82.94
427.402	93.94
427.625	93.94
427.847	84.94
428.069	90.94
428.292	90.94
428.514	90.94
428.736	90.94
428.958	85.94
429.181	93.94
429.403	94.94
429.625	83.94
429.847	93.94
430.069	93.94
430.292	81.94
430.514	91.94
430.736	90.94
430.958	103.94
431.18	102.94
431.402	89.94
431.624	96.94
431.846	74.94
432.068	84.94
432.29	88.94
432.512	71.94
432.734	88.94
432.956	82.94
433.178	98.94
433.4	94.94
433.622	102.94
433.844	77.94
434.066	101.94
434.287	87.94
434.509	67.94
434.731	88.94
434.953	81.94
435.175	93.94
435.397	97.94
435.618	100.94
435.84	90.94
436.062	79.94
436.284	101.94
436.505	102.94
436.727	81.94
436.949	77.94
437.17	81.94
437.392	78.94
437.614	78.94
437.835	84.94
438.057	93.94
438.278	75.94
438.5	79.94
438.721	89.94
438.943	99.94
439.165	85.94
439.386	91.94
439.608	101.94
439.829	113.94
440.05	112.94
440.272	98.94
440.493	103.94
440.715	94.94
440.936	107.94
441.158	94.94
441.379	109.94
441.6	87.94
441.822	97.94
442.043	88.94
442.264	90.94
442.486	90.94
442.707	86.94
442.928	90.94
443.149	88.94
443.371	97.94
443.592	105.94
443.813	83.94
444.034	99.94
444.255	94.94
444.476	90.94
444.698	102.94
444.919	99.94
445.14	177.94
445.361	143.94
445.582	93.94
445.803	92.94
446.024	82.94
446.245	96.94
446.466	102.94
446.687	101.94
446.908	88.94
447.129	99.94
447.35	97.94
447.571	102.94
447.792	95.94
448.013	97.94
448.234	102.94
448.455	90.94
448.675	100.94
448.896	85.94
449.117	101.94
449.338	93.94
449.559	102.94
449.779	87.94
450	88.94
450.221	81.94
450.442	96.94
450.662	88.94
450.883	94.94
451.104	109.94
451.324	79.94
451.545	89.94
451.766	81.94
451.986	91.94
452.207	89.94
452.428	91.94
452.648	102.94
452.869	94.94
453.089	96.94
453.31	85.94
453.53	83.94
453.751	72.94
453.971	71.94
454.192	80.94
454.412	95.94
454.633	85.94
454.853	79.94
455.073	86.94
455.294	101.94
455.514	100.94
455.734	91.94
455.955	74.94
456.175	77.94
456.395	83.94
456.616	92.94
456.836	94.94
457.056	74.94
457.276	74.94
457.497	88.94
457.717	92.94
457.937	89.94
458.157	86.94
458.377	88.94
458.598	98.94
458.818	70.94
459.038	86.94
459.258	80.94
459.478	81.94
459.698	86.94
459.918	76.94
460.138	85.94
460.358	88.94
460.578	89.94
460.798	100.94
461.018	83.94
461.238	84.94
461.458	91.94
461.678	87.94
461.898	83.94
462.118	97.94
462.338	103.94
462.558	84.94
462.777	98.94
462.997	85.94
463.217	93.94
463.437	90.94
463.657	92.94
463.876	94.94
464.096	100.94
464.316	101.94
464.536	86.94
464.755	97.94
464.975	87.94
465.195	89.94
465.414	87.94
465.634	102.94
465.854	95.94
466.073	84.94
466.293	84.94
466.512	93.94
466.732	82.94
466.951	97.94
467.171	78.94
467.391	69.94
467.61	83.94
467.829	88.94
468.049	98.94
468.268	89.94
468.488	96.94
468.707	90.94
468.927	90.94
469.146	92.94
469.365	90.94
469.585	90.94
469.804	87.94
470.023	91.94
470.243	84.94
470.462	89.94
470.681	102.94
470.901	105.94
471.12	96.94
471.339	101.94
471.558	81.94
471.777	90.94
471.997	105.94
472.216	80.94
472.435	103.94
472.654	100.94
472.873	95.94
473.092	91.94
473.311	100.94
473.53	77.94
473.749	90.94
473.968	100.94
474.187	98.94
474.406	89.94
474.625	102.94
474.844	95.94
475.063	87.94
475.282	93.94
475.501	95.94
475.72	82.94
475.939	93.94
476.158	96.94
476.377	78.94
476.596	94.94
476.814	78.94
477.033	98.94
477.252	94.94
477.471	92.94
477.69	89.94
477.908	91.94
478.127	86.94
478.346	107.94
478.564	103.94
478.783	95.94
479.002	106.94
479.22	105.94
479.439	94.94
479.658	101.94
479.876	88.94
480.095	89.94
480.313	89.94
480.532	87.94
480.751	88.94
480.969	89.94
481.188	79.94
481.406	71.94
481.624	83.94
481.843	86.94
482.061	84.94
482.28	85.94
482.498	82.94
482.717	88.94
482.935	98.94
483.153	104.94
483.372	98.94
483.59	93.94
483.808	89.94
484.027	96.94
484.245	90.94
484.463	98.94
484.681	109.94
484.9	82.94
485.118	100.94
485.336	99.94
485.554	88.94
485.772	94.94
485.99	81.94
486.209	94.94
486.427	103.94
486.645	94.94
486.863	96.94
487.081	109.94
487.299	103.94
487.517	111.94
487.735	103.94
487.953	122.94
488.171	119.94
488.389	111.94
488.607	104.94
488.825	87.94
489.043	94.94
489.261	88.94
489.479	86.94
489.696	108.94
489.914	84.94
490.132	103.94
490.35	112.94
490.568	107.94
490.786	99.94
491.003	101.94
491.221	91.94
491.439	103.94
491.657	113.94
491.874	104.94
492.092	129.94
492.31	143.94
492.527	138.94
492.745	121.94
492.963	105.94
493.18	107.94
493.398	110.94
493.615	103.94
493.833	120.94
494.05	114.94
494.268	117.94
494.485	104.94
494.703	125.94
494.92	98.94
495.138	97.94
495.355	109.94
495.573	96.94
495.79	111.94
496.008	111.94
496.225	112.94
496.442	99.94
496.66	114.94
496.877	104.94
497.094	109.94
497.312	110.94
497.529	102.94
497.746	99.94
497.963	99.94
498.181	75.94
498.398	80.94
498.615	103.94
498.832	98.94
499.049	92.94
499.267	88.94
499.484	85.94
499.701	71.94
499.918	76.94
500.135	104.94
500.352	106.94
500.569	109.94
500.786	104.94
501.003	105.94
501.22	98.94
501.437	100.94
501.654	98.94
501.871	93.94
502.088	90.94
502.305	90.94
502.522	107.94
502.739	97.94
502.956	97.94
503.172	89.94
503.389	93.94
503.606	86.94
503.823	93.94
504.04	95.94
504.256	91.94
504.473	106.94
504.69	96.94
504.907	88.94
505.123	89.94
505.34	87.94
505.557	89.94
505.773	81.94
505.99	103.94
506.207	92.94
506.423	78.94
506.64	88.94
506.856	96.94
507.073	79.94
507.289	82.94
507.506	87.94
507.722	89.94
507.939	104.94
508.155	89.94
508.372	89.94
508.588	97.94
508.805	79.94
509.021	81.94
509.238	97.94
509.454	101.94
509.67	86.94
509.887	77.94
510.103	94.94
510.319	86.94
510.536	91.94
510.752	80.94
510.968	77.94
511.184	84.94
511.401	72.94
511.617	90.94
511.833	72.94
512.049	65.94
512.265	88.94
512.481	70.94
512.698	68.94
512.914	92.94
513.13	91.94
513.346	78.94
513.562	86.94
513.778	76.94
513.994	91.94
514.21	83.94
514.426	79.94
514.642	79.94
514.858	83.94
515.074	73.94
515.29	68.94
515.506	75.94
515.721	76.94
515.937	90.94
516.153	86.94
516.369	84.94
516.585	82.94
516.801	87.94
517.016	97.94
517.232	79.94
517.448	84.94
517.664	86.94
517.879	86.94
