Data from Location3.07152019.Energy5.Lamp.07192019.3%Agarose_HRD10591_15-17-59-269.txt Node
Date: Fri Jul 19 15:17:59 EDT 2019
User: cochatt
Spectrometer: HR+D1059
Trigger mode: 1
Integration Time (sec): 1.000000E-1
Scans to average: 1
Electric dark correction enabled: true
Nonlinearity correction enabled: false
Boxcar width: 0
XAxis mode: Wavelengths
Number of Pixels in Spectrum: 2048
>>>>>Begin Spectral Data<<<<<
223.165	-9.5
223.4	-9.5
223.635	-9.5
223.869	-18.5
224.104	-8.5
224.338	-13.5
224.573	-15.5
224.808	-12.5
225.042	4.5
225.277	-6.5
225.511	-2.5
225.746	5.5
225.98	5.5
226.215	0.5
226.449	1.5
226.683	25.5
226.918	15.5
227.152	28.5
227.387	39.5
227.621	37.5
227.856	28.5
228.09	38.5
228.324	56.5
228.559	52.5
228.793	60.5
229.027	45.5
229.262	60.5
229.496	64.5
229.73	56.5
229.964	80.5
230.199	69.5
230.433	60.5
230.667	81.5
230.901	58.5
231.136	56.5
231.37	73.5
231.604	82.5
231.838	82.5
232.072	72.5
232.306	84.5
232.541	92.5
232.775	70.5
233.009	86.5
233.243	96.5
233.477	73.5
233.711	86.5
233.945	71.5
234.179	69.5
234.413	92.5
234.647	68.5
234.881	86.5
235.115	82.5
235.349	72.5
235.583	80.5
235.817	71.5
236.051	84.5
236.285	103.5
236.519	79.5
236.753	78.5
236.987	69.5
237.221	61.5
237.455	74.5
237.689	64.5
237.922	68.5
238.156	67.5
238.39	78.5
238.624	71.5
238.858	70.5
239.091	83.5
239.325	69.5
239.559	88.5
239.793	74.5
240.027	73.5
240.26	79.5
240.494	80.5
240.728	72.5
240.961	69.5
241.195	73.5
241.429	71.5
241.662	61.5
241.896	71.5
242.13	78.5
242.363	72.5
242.597	77.5
242.83	75.5
243.064	72.5
243.298	81.5
243.531	64.5
243.765	70.5
243.998	72.5
244.232	83.5
244.465	89.5
244.699	73.5
244.932	81.5
245.166	79.5
245.399	74.5
245.633	61.5
245.866	78.5
246.099	82.5
246.333	93.5
246.566	75.5
246.8	77.5
247.033	63.5
247.266	80.5
247.5	68.5
247.733	82.5
247.966	82.5
248.2	85.5
248.433	80.5
248.666	74.5
248.899	92.5
249.133	63.5
249.366	66.5
249.599	80.5
249.832	69.5
250.066	75.5
250.299	61.5
250.532	81.5
250.765	79.5
250.998	58.5
251.231	72.5
251.465	76.5
251.698	83.5
251.931	73.5
252.164	76.5
252.397	85.5
252.63	67.5
252.863	85.5
253.096	84.5
253.329	75.5
253.562	82.5
253.795	105.5
254.028	82.5
254.261	77.5
254.494	62.5
254.727	62.5
254.96	79.5
255.193	93.5
255.426	93.5
255.659	79.5
255.892	75.5
256.124	80.5
256.357	74.5
256.59	74.5
256.823	80.5
257.056	59.5
257.289	74.5
257.521	69.5
257.754	70.5
257.987	72.5
258.22	91.5
258.452	83.5
258.685	79.5
258.918	67.5
259.151	78.5
259.383	71.5
259.616	77.5
259.849	101.5
260.081	74.5
260.314	82.5
260.547	73.5
260.779	84.5
261.012	88.5
261.244	71.5
261.477	94.5
261.71	83.5
261.942	82.5
262.175	78.5
262.407	77.5
262.64	87.5
262.872	81.5
263.105	98.5
263.337	76.5
263.57	76.5
263.802	92.5
264.035	78.5
264.267	89.5
264.499	91.5
264.732	81.5
264.964	85.5
265.197	79.5
265.429	86.5
265.661	77.5
265.894	70.5
266.126	82.5
266.358	82.5
266.591	68.5
266.823	88.5
267.055	81.5
267.287	88.5
267.52	80.5
267.752	72.5
267.984	76.5
268.216	75.5
268.448	77.5
268.681	73.5
268.913	76.5
269.145	87.5
269.377	89.5
269.609	80.5
269.841	78.5
270.073	72.5
270.306	89.5
270.538	72.5
270.77	94.5
271.002	89.5
271.234	79.5
271.466	97.5
271.698	86.5
271.93	73.5
272.162	84.5
272.394	81.5
272.626	61.5
272.858	65.5
273.09	79.5
273.322	84.5
273.553	85.5
273.785	85.5
274.017	77.5
274.249	69.5
274.481	73.5
274.713	74.5
274.945	90.5
275.176	75.5
275.408	94.5
275.64	85.5
275.872	77.5
276.104	71.5
276.335	84.5
276.567	84.5
276.799	69.5
277.031	76.5
277.262	78.5
277.494	92.5
277.726	73.5
277.957	87.5
278.189	79.5
278.421	87.5
278.652	89.5
278.884	84.5
279.115	72.5
279.347	85.5
279.579	78.5
279.81	82.5
280.042	94.5
280.273	83.5
280.505	80.5
280.736	79.5
280.968	72.5
281.199	80.5
281.431	81.5
281.662	79.5
281.894	86.5
282.125	81.5
282.356	80.5
282.588	74.5
282.819	72.5
283.051	60.5
283.282	77.5
283.513	80.5
283.745	90.5
283.976	68.5
284.207	81.5
284.439	95.5
284.67	85.5
284.901	73.5
285.132	87.5
285.364	91.5
285.595	86.5
285.826	78.5
286.057	66.5
286.288	69.5
286.52	68.5
286.751	65.5
286.982	76.5
287.213	81.5
287.444	92.5
287.675	81.5
287.906	80.5
288.138	83.5
288.369	86.5
288.6	78.5
288.831	83.5
289.062	79.5
289.293	82.5
289.524	81.5
289.755	83.5
289.986	78.5
290.217	77.5
290.448	85.5
290.679	79.5
290.91	87.5
291.141	96.5
291.371	76.5
291.602	81.5
291.833	86.5
292.064	81.5
292.295	73.5
292.526	93.5
292.757	84.5
292.987	80.5
293.218	76.5
293.449	74.5
293.68	73.5
293.91	88.5
294.141	94.5
294.372	82.5
294.603	84.5
294.833	80.5
295.064	89.5
295.295	76.5
295.525	85.5
295.756	81.5
295.987	71.5
296.217	73.5
296.448	79.5
296.679	81.5
296.909	78.5
297.14	74.5
297.37	69.5
297.601	77.5
297.831	93.5
298.062	89.5
298.292	80.5
298.523	90.5
298.753	75.5
298.984	79.5
299.214	79.5
299.445	89.5
299.675	69.5
299.905	83.5
300.136	86.5
300.366	80.5
300.597	71.5
300.827	85.5
301.057	82.5
301.288	83.5
301.518	84.5
301.748	87.5
301.979	69.5
302.209	93.5
302.439	70.5
302.669	91.5
302.9	89.5
303.13	75.5
303.36	83.5
303.59	93.5
303.82	82.5
304.051	91.5
304.281	105.5
304.511	83.5
304.741	76.5
304.971	73.5
305.201	81.5
305.431	85.5
305.661	93.5
305.891	90.5
306.121	87.5
306.352	85.5
306.582	67.5
306.812	85.5
307.042	87.5
307.272	76.5
307.502	83.5
307.731	79.5
307.961	76.5
308.191	80.5
308.421	83.5
308.651	85.5
308.881	93.5
309.111	81.5
309.341	78.5
309.571	79.5
309.8	71.5
310.03	80.5
310.26	92.5
310.49	83.5
310.72	84.5
310.949	81.5
311.179	67.5
311.409	84.5
311.639	70.5
311.868	96.5
312.098	81.5
312.328	77.5
312.557	79.5
312.787	92.5
313.017	80.5
313.246	88.5
313.476	70.5
313.706	77.5
313.935	69.5
314.165	80.5
314.394	79.5
314.624	80.5
314.853	73.5
315.083	88.5
315.312	80.5
315.542	80.5
315.771	74.5
316.001	92.5
316.23	75.5
316.46	72.5
316.689	84.5
316.919	86.5
317.148	89.5
317.377	67.5
317.607	87.5
317.836	67.5
318.065	75.5
318.295	80.5
318.524	76.5
318.753	75.5
318.983	72.5
319.212	83.5
319.441	84.5
319.67	84.5
319.9	84.5
320.129	79.5
320.358	76.5
320.587	83.5
320.816	85.5
321.046	75.5
321.275	85.5
321.504	84.5
321.733	71.5
321.962	80.5
322.191	88.5
322.42	83.5
322.649	79.5
322.878	75.5
323.108	96.5
323.337	82.5
323.566	80.5
323.795	78.5
324.024	82.5
324.253	86.5
324.482	80.5
324.71	76.5
324.939	78.5
325.168	86.5
325.397	96.5
325.626	88.5
325.855	86.5
326.084	84.5
326.313	80.5
326.542	79.5
326.77	81.5
326.999	80.5
327.228	87.5
327.457	88.5
327.686	93.5
327.914	79.5
328.143	83.5
328.372	89.5
328.6	77.5
328.829	68.5
329.058	87.5
329.287	91.5
329.515	89.5
329.744	95.5
329.972	84.5
330.201	89.5
330.43	95.5
330.658	89.5
330.887	77.5
331.115	74.5
331.344	80.5
331.572	73.5
331.801	89.5
332.03	78.5
332.258	84.5
332.486	97.5
332.715	70.5
332.943	84.5
333.172	82.5
333.4	83.5
333.629	90.5
333.857	77.5
334.085	73.5
334.314	86.5
334.542	81.5
334.771	85.5
334.999	78.5
335.227	68.5
335.455	73.5
335.684	82.5
335.912	85.5
336.14	98.5
336.369	85.5
336.597	82.5
336.825	68.5
337.053	73.5
337.281	73.5
337.51	93.5
337.738	77.5
337.966	88.5
338.194	67.5
338.422	69.5
338.65	75.5
338.878	90.5
339.106	81.5
339.334	84.5
339.562	84.5
339.79	85.5
340.018	94.5
340.246	64.5
340.474	76.5
340.702	89.5
340.93	66.5
341.158	97.5
341.386	78.5
341.614	92.5
341.842	74.5
342.07	73.5
342.298	82.5
342.526	82.5
342.754	77.5
342.981	78.5
343.209	79.5
343.437	85.5
343.665	81.5
343.893	97.5
344.12	69.5
344.348	89.5
344.576	60.5
344.804	80.5
345.031	72.5
345.259	91.5
345.487	82.5
345.714	86.5
345.942	83.5
346.17	80.5
346.397	84.5
346.625	90.5
346.853	86.5
347.08	62.5
347.308	87.5
347.535	89.5
347.763	78.5
347.99	71.5
348.218	76.5
348.445	80.5
348.673	84.5
348.9	77.5
349.128	87.5
349.355	82.5
349.583	78.5
349.81	79.5
350.037	64.5
350.265	90.5
350.492	97.5
350.72	77.5
350.947	84.5
351.174	83.5
351.402	80.5
351.629	77.5
351.856	72.5
352.083	89.5
352.311	73.5
352.538	73.5
352.765	79.5
352.992	65.5
353.22	89.5
353.447	89.5
353.674	83.5
353.901	80.5
354.128	81.5
354.355	96.5
354.583	89.5
354.81	95.5
355.037	87.5
355.264	81.5
355.491	68.5
355.718	78.5
355.945	82.5
356.172	67.5
356.399	70.5
356.626	80.5
356.853	93.5
357.08	81.5
357.307	80.5
357.534	79.5
357.761	77.5
357.988	81.5
358.215	96.5
358.441	76.5
358.668	93.5
358.895	87.5
359.122	74.5
359.349	73.5
359.576	85.5
359.802	89.5
360.029	85.5
360.256	96.5
360.483	91.5
360.709	91.5
360.936	77.5
361.163	91.5
361.39	77.5
361.616	82.5
361.843	73.5
362.07	75.5
362.296	80.5
362.523	83.5
362.749	80.5
362.976	82.5
363.203	76.5
363.429	83.5
363.656	74.5
363.882	82.5
364.109	70.5
364.335	78.5
364.562	82.5
364.788	91.5
365.015	85.5
365.241	70.5
365.468	70.5
365.694	82.5
365.92	84.5
366.147	75.5
366.373	74.5
366.599	73.5
366.826	73.5
367.052	93.5
367.278	90.5
367.505	86.5
367.731	87.5
367.957	68.5
368.184	77.5
368.41	82.5
368.636	79.5
368.862	71.5
369.089	86.5
369.315	80.5
369.541	78.5
369.767	86.5
369.993	74.5
370.219	77.5
370.445	79.5
370.672	77.5
370.898	88.5
371.124	82.5
371.35	64.5
371.576	86.5
371.802	80.5
372.028	83.5
372.254	80.5
372.48	81.5
372.706	73.5
372.932	88.5
373.158	74.5
373.384	75.5
373.61	91.5
373.835	93.5
374.061	93.5
374.287	85.5
374.513	79.5
374.739	90.5
374.965	86.5
375.191	91.5
375.416	80.5
375.642	72.5
375.868	71.5
376.094	67.5
376.319	79.5
376.545	81.5
376.771	85.5
376.997	102.5
377.222	90.5
377.448	92.5
377.674	72.5
377.899	82.5
378.125	90.5
378.35	93.5
378.576	75.5
378.802	81.5
379.027	77.5
379.253	70.5
379.478	72.5
379.704	83.5
379.929	87.5
380.155	85.5
380.38	75.5
380.606	89.5
380.831	76.5
381.057	72.5
381.282	77.5
381.507	72.5
381.733	94.5
381.958	72.5
382.184	77.5
382.409	85.5
382.634	85.5
382.86	72.5
383.085	91.5
383.31	71.5
383.535	74.5
383.761	90.5
383.986	91.5
384.211	68.5
384.436	66.5
384.662	68.5
384.887	76.5
385.112	75.5
385.337	84.5
385.562	73.5
385.787	79.5
386.013	85.5
386.238	74.5
386.463	89.5
386.688	92.5
386.913	78.5
387.138	89.5
387.363	68.5
387.588	82.5
387.813	90.5
388.038	81.5
388.263	76.5
388.488	79.5
388.713	81.5
388.938	91.5
389.163	88.5
389.387	101.5
389.612	89.5
389.837	79.5
390.062	93.5
390.287	88.5
390.512	80.5
390.736	81.5
390.961	76.5
391.186	91.5
391.411	77.5
391.636	89.5
391.86	92.5
392.085	84.5
392.31	79.5
392.534	65.5
392.759	86.5
392.984	92.5
393.208	94.5
393.433	78.5
393.658	93.5
393.882	105.5
394.107	89.5
394.331	78.5
394.556	84.5
394.78	87.5
395.005	84.5
395.229	81.5
395.454	89.5
395.678	79.5
395.903	81.5
396.127	90.5
396.352	99.5
396.576	82.5
396.801	87.5
397.025	92.5
397.249	89.5
397.474	88.5
397.698	82.5
397.922	98.5
398.147	85.5
398.371	84.5
398.595	94.5
398.82	102.5
399.044	94.5
399.268	78.5
399.492	86.5
399.717	76.5
399.941	85.5
400.165	85.5
400.389	89.5
400.613	92.5
400.837	76.5
401.062	81.5
401.286	91.5
401.51	103.5
401.734	92.5
401.958	95.5
402.182	87.5
402.406	87.5
402.63	81.5
402.854	81.5
403.078	86.5
403.302	82.5
403.526	93.5
403.75	78.5
403.974	82.5
404.198	86.5
404.422	87.5
404.645	93.5
404.869	92.5
405.093	79.5
405.317	80.5
405.541	83.5
405.765	82.5
405.988	93.5
406.212	85.5
406.436	95.5
406.66	88.5
406.883	97.5
407.107	99.5
407.331	87.5
407.555	77.5
407.778	80.5
408.002	77.5
408.226	73.5
408.449	72.5
408.673	86.5
408.896	93.5
409.12	75.5
409.344	92.5
409.567	82.5
409.791	85.5
410.014	91.5
410.238	86.5
410.461	90.5
410.685	101.5
410.908	84.5
411.132	97.5
411.355	91.5
411.578	97.5
411.802	86.5
412.025	74.5
412.249	99.5
412.472	91.5
412.695	84.5
412.919	97.5
413.142	96.5
413.365	85.5
413.589	87.5
413.812	86.5
414.035	96.5
414.258	82.5
414.482	73.5
414.705	88.5
414.928	96.5
415.151	99.5
415.374	83.5
415.597	86.5
415.821	89.5
416.044	90.5
416.267	90.5
416.49	96.5
416.713	85.5
416.936	78.5
417.159	93.5
417.382	91.5
417.605	94.5
417.828	108.5
418.051	106.5
418.274	81.5
418.497	84.5
418.72	102.5
418.943	86.5
419.166	73.5
419.389	86.5
419.611	79.5
419.834	98.5
420.057	86.5
420.28	89.5
420.503	91.5
420.726	101.5
420.948	79.5
421.171	78.5
421.394	88.5
421.617	103.5
421.839	96.5
422.062	92.5
422.285	105.5
422.507	101.5
422.73	85.5
422.953	88.5
423.175	93.5
423.398	90.5
423.621	84.5
423.843	87.5
424.066	96.5
424.288	81.5
424.511	88.5
424.733	89.5
424.956	103.5
425.178	96.5
425.401	85.5
425.623	87.5
425.846	91.5
426.068	99.5
426.291	92.5
426.513	81.5
426.735	92.5
426.958	95.5
427.18	89.5
427.402	94.5
427.625	89.5
427.847	94.5
428.069	88.5
428.292	80.5
428.514	88.5
428.736	97.5
428.958	87.5
429.181	93.5
429.403	89.5
429.625	89.5
429.847	86.5
430.069	91.5
430.292	85.5
430.514	102.5
430.736	92.5
430.958	93.5
431.18	82.5
431.402	94.5
431.624	89.5
431.846	84.5
432.068	79.5
432.29	89.5
432.512	86.5
432.734	79.5
432.956	94.5
433.178	90.5
433.4	97.5
433.622	98.5
433.844	89.5
434.066	95.5
434.287	70.5
434.509	88.5
434.731	85.5
434.953	76.5
435.175	97.5
435.397	94.5
435.618	81.5
435.84	84.5
436.062	73.5
436.284	87.5
436.505	79.5
436.727	109.5
436.949	89.5
437.17	95.5
437.392	94.5
437.614	83.5
437.835	88.5
438.057	80.5
438.278	98.5
438.5	80.5
438.721	98.5
438.943	89.5
439.165	86.5
439.386	85.5
439.608	111.5
439.829	74.5
440.05	79.5
440.272	101.5
440.493	88.5
440.715	105.5
440.936	94.5
441.158	99.5
441.379	106.5
441.6	104.5
441.822	101.5
442.043	94.5
442.264	87.5
442.486	97.5
442.707	97.5
442.928	93.5
443.149	81.5
443.371	88.5
443.592	94.5
443.813	97.5
444.034	80.5
444.255	103.5
444.476	87.5
444.698	97.5
444.919	94.5
445.14	184.5
445.361	157.5
445.582	102.5
445.803	92.5
446.024	88.5
446.245	112.5
446.466	108.5
446.687	90.5
446.908	101.5
447.129	93.5
447.35	103.5
447.571	79.5
447.792	101.5
448.013	90.5
448.234	109.5
448.455	90.5
448.675	96.5
448.896	86.5
449.117	105.5
449.338	104.5
449.559	97.5
449.779	93.5
450	113.5
450.221	99.5
450.442	97.5
450.662	85.5
450.883	88.5
451.104	89.5
451.324	86.5
451.545	86.5
451.766	75.5
451.986	101.5
452.207	98.5
452.428	87.5
452.648	87.5
452.869	75.5
453.089	103.5
453.31	84.5
453.53	92.5
453.751	88.5
453.971	74.5
454.192	86.5
454.412	92.5
454.633	87.5
454.853	80.5
455.073	102.5
455.294	90.5
455.514	85.5
455.734	90.5
455.955	88.5
456.175	98.5
456.395	84.5
456.616	69.5
456.836	81.5
457.056	84.5
457.276	81.5
457.497	83.5
457.717	95.5
457.937	81.5
458.157	83.5
458.377	76.5
458.598	77.5
458.818	79.5
459.038	75.5
459.258	108.5
459.478	72.5
459.698	77.5
459.918	90.5
460.138	90.5
460.358	69.5
460.578	83.5
460.798	72.5
461.018	75.5
461.238	97.5
461.458	81.5
461.678	97.5
461.898	102.5
462.118	61.5
462.338	76.5
462.558	85.5
462.777	93.5
462.997	91.5
463.217	97.5
463.437	83.5
463.657	70.5
463.876	85.5
464.096	94.5
464.316	78.5
464.536	98.5
464.755	86.5
464.975	84.5
465.195	85.5
465.414	86.5
465.634	84.5
465.854	99.5
466.073	90.5
466.293	91.5
466.512	84.5
466.732	98.5
466.951	90.5
467.171	89.5
467.391	86.5
467.61	106.5
467.829	96.5
468.049	99.5
468.268	103.5
468.488	101.5
468.707	98.5
468.927	90.5
469.146	91.5
469.365	80.5
469.585	89.5
469.804	103.5
470.023	93.5
470.243	93.5
470.462	99.5
470.681	90.5
470.901	97.5
471.12	97.5
471.339	98.5
471.558	94.5
471.777	103.5
471.997	96.5
472.216	97.5
472.435	75.5
472.654	94.5
472.873	85.5
473.092	98.5
473.311	104.5
473.53	83.5
473.749	83.5
473.968	82.5
474.187	87.5
474.406	89.5
474.625	95.5
474.844	92.5
475.063	91.5
475.282	87.5
475.501	96.5
475.72	85.5
475.939	85.5
476.158	82.5
476.377	101.5
476.596	87.5
476.814	87.5
477.033	80.5
477.252	88.5
477.471	90.5
477.69	90.5
477.908	84.5
478.127	98.5
478.346	88.5
478.564	97.5
478.783	102.5
479.002	103.5
479.22	89.5
479.439	99.5
479.658	93.5
479.876	85.5
480.095	88.5
480.313	81.5
480.532	94.5
480.751	84.5
480.969	88.5
481.188	87.5
481.406	90.5
481.624	80.5
481.843	78.5
482.061	85.5
482.28	79.5
482.498	91.5
482.717	84.5
482.935	113.5
483.153	99.5
483.372	93.5
483.59	109.5
483.808	107.5
484.027	89.5
484.245	90.5
484.463	108.5
484.681	94.5
484.9	95.5
485.118	99.5
485.336	105.5
485.554	83.5
485.772	96.5
485.99	93.5
486.209	74.5
486.427	92.5
486.645	91.5
486.863	89.5
487.081	111.5
487.299	87.5
487.517	98.5
487.735	97.5
487.953	109.5
488.171	103.5
488.389	113.5
488.607	93.5
488.825	101.5
489.043	89.5
489.261	99.5
489.479	87.5
489.696	90.5
489.914	112.5
490.132	79.5
490.35	101.5
490.568	118.5
490.786	110.5
491.003	113.5
491.221	109.5
491.439	118.5
491.657	102.5
491.874	103.5
492.092	111.5
492.31	134.5
492.527	133.5
492.745	114.5
492.963	113.5
493.18	115.5
493.398	112.5
493.615	120.5
493.833	115.5
494.05	112.5
494.268	95.5
494.485	116.5
494.703	98.5
494.92	116.5
495.138	120.5
495.355	111.5
495.573	114.5
495.79	102.5
496.008	103.5
496.225	96.5
496.442	101.5
496.66	103.5
496.877	102.5
497.094	108.5
497.312	114.5
497.529	104.5
497.746	111.5
497.963	96.5
498.181	104.5
498.398	103.5
498.615	93.5
498.832	88.5
499.049	84.5
499.267	89.5
499.484	100.5
499.701	99.5
499.918	103.5
500.135	105.5
500.352	102.5
500.569	103.5
500.786	105.5
501.003	102.5
501.22	77.5
501.437	103.5
501.654	82.5
501.871	95.5
502.088	94.5
502.305	100.5
502.522	100.5
502.739	95.5
502.956	99.5
503.172	96.5
503.389	88.5
503.606	91.5
503.823	99.5
504.04	108.5
504.256	97.5
504.473	100.5
504.69	95.5
504.907	91.5
505.123	95.5
505.34	76.5
505.557	101.5
505.773	85.5
505.99	80.5
506.207	92.5
506.423	101.5
506.64	86.5
506.856	91.5
507.073	99.5
507.289	82.5
507.506	102.5
507.722	77.5
507.939	93.5
508.155	104.5
508.372	95.5
508.588	99.5
508.805	89.5
509.021	102.5
509.238	92.5
509.454	83.5
509.67	94.5
509.887	89.5
510.103	89.5
510.319	101.5
510.536	87.5
510.752	80.5
510.968	72.5
511.184	73.5
511.401	78.5
511.617	77.5
511.833	80.5
512.049	84.5
512.265	79.5
512.481	86.5
512.698	80.5
512.914	77.5
513.13	80.5
513.346	80.5
513.562	75.5
513.778	84.5
513.994	84.5
514.21	97.5
514.426	82.5
514.642	90.5
514.858	78.5
515.074	91.5
515.29	100.5
515.506	80.5
515.721	79.5
515.937	81.5
516.153	73.5
516.369	83.5
516.585	65.5
516.801	80.5
517.016	94.5
517.232	83.5
517.448	86.5
517.664	89.5
517.879	80.5
518.095	82.5
518.311	84.5
518.527	77.5
518.742	92.5
518.958	81.5
519.173	90.5
519.389	94.5
519.605	94.5
519.82	92.5
520.036	95.5
520.251	89.5
520.467	84.5
520.682	87.5
520.898	87.5
521.113	95.5
521.329	86.5
521.544	71.5
521.76	88.5
521.975	76.5
522.19	86.5
522.406	86.5
522.621	77.5
522.836	96.5
523.052	91.5
523.267	87.5
523.482	92.5
523.698	91.5
523.913	87.5
524.128	93.5
524.343	96.5
524.559	87.5
524.774	102.5
524.989	101.5
525.204	88.5
525.419	103.5
525.634	86.5
525.849	82.5
526.064	88.5
526.28	85.5
526.495	85.5
526.71	82.5
526.925	85.5
527.14	73.5
527.355	82.5
527.57	73.5
527.785	81.5
527.999	94.5
528.214	86.5
528.429	88.5
528.644	106.5
528.859	95.5
529.074	105.5
529.289	102.5
529.503	92.5
529.718	105.5
529.933	93.5
530.148	84.5
530.363	90.5
530.577	86.5
530.792	73.5
531.007	77.5
531.221	85.5
531.436	80.5
531.651	85.5
531.865	74.5
532.08	80.5
532.295	99.5
532.509	82.5
532.724	82.5
532.938	90.5
533.153	92.5
533.367	84.5
533.582	103.5
533.796	89.5
534.011	97.5
534.225	87.5
534.44	83.5
534.654	80.5
534.868	79.5
535.083	87.5
535.297	66.5
535.511	96.5
535.726	84.5
535.94	88.5
536.154	92.5
536.369	100.5
536.583	82.5
536.797	87.5
537.011	81.5
537.225	90.5
537.44	82.5
537.654	83.5
537.868	89.5
538.082	73.5
