Data from Location3.07152019.Energy5.Lamp.07192019.3%Agarose_HRD10591_15-18-36-270.txt Node
Date: Fri Jul 19 15:18:36 EDT 2019
User: cochatt
Spectrometer: HR+D1059
Trigger mode: 1
Integration Time (sec): 1.000000E-1
Scans to average: 1
Electric dark correction enabled: true
Nonlinearity correction enabled: false
Boxcar width: 0
XAxis mode: Wavelengths
Number of Pixels in Spectrum: 2048
>>>>>Begin Spectral Data<<<<<
223.165	-7.06
223.4	-7.06
223.635	-7.06
223.869	0.94
224.104	-12.06
224.338	-8.06
224.573	-16.06
224.808	-25.06
225.042	-22.06
225.277	-13.06
225.511	-12.06
225.746	-2.06
225.98	4.94
226.215	11.94
226.449	11.94
226.683	22.94
226.918	29.94
227.152	34.94
227.387	22.94
227.621	21.94
227.856	32.94
228.09	35.94
228.324	36.94
228.559	38.94
228.793	45.94
229.027	69.94
229.262	57.94
229.496	67.94
229.73	73.94
229.964	70.94
230.199	83.94
230.433	88.94
230.667	73.94
230.901	79.94
231.136	78.94
231.37	68.94
231.604	68.94
231.838	74.94
232.072	92.94
232.306	73.94
232.541	94.94
232.775	74.94
233.009	86.94
233.243	75.94
233.477	74.94
233.711	62.94
233.945	71.94
234.179	88.94
234.413	77.94
234.647	74.94
234.881	73.94
235.115	79.94
235.349	84.94
235.583	89.94
235.817	70.94
236.051	67.94
236.285	66.94
236.519	68.94
236.753	79.94
236.987	73.94
237.221	71.94
237.455	72.94
237.689	80.94
237.922	79.94
238.156	81.94
238.39	64.94
238.624	76.94
238.858	73.94
239.091	72.94
239.325	73.94
239.559	72.94
239.793	80.94
240.027	82.94
240.26	84.94
240.494	72.94
240.728	58.94
240.961	76.94
241.195	83.94
241.429	70.94
241.662	65.94
241.896	67.94
242.13	55.94
242.363	72.94
242.597	83.94
242.83	79.94
243.064	69.94
243.298	67.94
243.531	77.94
243.765	75.94
243.998	84.94
244.232	84.94
244.465	78.94
244.699	63.94
244.932	76.94
245.166	70.94
245.399	84.94
245.633	69.94
245.866	60.94
246.099	68.94
246.333	91.94
246.566	70.94
246.8	66.94
247.033	71.94
247.266	79.94
247.5	71.94
247.733	64.94
247.966	63.94
248.2	79.94
248.433	68.94
248.666	76.94
248.899	81.94
249.133	81.94
249.366	88.94
249.599	64.94
249.832	71.94
250.066	62.94
250.299	72.94
250.532	80.94
250.765	82.94
250.998	67.94
251.231	74.94
251.465	72.94
251.698	79.94
251.931	72.94
252.164	79.94
252.397	77.94
252.63	79.94
252.863	71.94
253.096	80.94
253.329	85.94
253.562	77.94
253.795	72.94
254.028	71.94
254.261	86.94
254.494	79.94
254.727	62.94
254.96	86.94
255.193	83.94
255.426	64.94
255.659	93.94
255.892	96.94
256.124	86.94
256.357	75.94
256.59	71.94
256.823	83.94
257.056	94.94
257.289	83.94
257.521	79.94
257.754	89.94
257.987	81.94
258.22	74.94
258.452	87.94
258.685	83.94
258.918	71.94
259.151	72.94
259.383	74.94
259.616	77.94
259.849	74.94
260.081	75.94
260.314	85.94
260.547	87.94
260.779	76.94
261.012	82.94
261.244	80.94
261.477	85.94
261.71	87.94
261.942	88.94
262.175	87.94
262.407	88.94
262.64	72.94
262.872	81.94
263.105	74.94
263.337	86.94
263.57	81.94
263.802	93.94
264.035	78.94
264.267	73.94
264.499	81.94
264.732	89.94
264.964	79.94
265.197	73.94
265.429	89.94
265.661	75.94
265.894	74.94
266.126	77.94
266.358	93.94
266.591	79.94
266.823	77.94
267.055	84.94
267.287	75.94
267.52	85.94
267.752	94.94
267.984	89.94
268.216	72.94
268.448	86.94
268.681	91.94
268.913	83.94
269.145	73.94
269.377	84.94
269.609	76.94
269.841	89.94
270.073	82.94
270.306	88.94
270.538	84.94
270.77	88.94
271.002	72.94
271.234	76.94
271.466	70.94
271.698	95.94
271.93	92.94
272.162	83.94
272.394	90.94
272.626	83.94
272.858	80.94
273.09	90.94
273.322	80.94
273.553	78.94
273.785	95.94
274.017	75.94
274.249	89.94
274.481	89.94
274.713	74.94
274.945	76.94
275.176	69.94
275.408	72.94
275.64	68.94
275.872	79.94
276.104	80.94
276.335	83.94
276.567	83.94
276.799	77.94
277.031	80.94
277.262	77.94
277.494	75.94
277.726	80.94
277.957	83.94
278.189	78.94
278.421	81.94
278.652	77.94
278.884	86.94
279.115	77.94
279.347	86.94
279.579	83.94
279.81	75.94
280.042	86.94
280.273	88.94
280.505	97.94
280.736	77.94
280.968	88.94
281.199	93.94
281.431	80.94
281.662	83.94
281.894	75.94
282.125	79.94
282.356	79.94
282.588	84.94
282.819	91.94
283.051	94.94
283.282	86.94
283.513	75.94
283.745	92.94
283.976	85.94
284.207	63.94
284.439	86.94
284.67	88.94
284.901	83.94
285.132	71.94
285.364	72.94
285.595	94.94
285.826	87.94
286.057	81.94
286.288	85.94
286.52	71.94
286.751	85.94
286.982	90.94
287.213	86.94
287.444	78.94
287.675	81.94
287.906	85.94
288.138	85.94
288.369	82.94
288.6	71.94
288.831	84.94
289.062	84.94
289.293	73.94
289.524	85.94
289.755	93.94
289.986	81.94
290.217	81.94
290.448	84.94
290.679	86.94
290.91	81.94
291.141	82.94
291.371	79.94
291.602	76.94
291.833	83.94
292.064	83.94
292.295	86.94
292.526	81.94
292.757	75.94
292.987	84.94
293.218	81.94
293.449	95.94
293.68	77.94
293.91	67.94
294.141	71.94
294.372	90.94
294.603	81.94
294.833	87.94
295.064	78.94
295.295	86.94
295.525	98.94
295.756	86.94
295.987	61.94
296.217	83.94
296.448	85.94
296.679	76.94
296.909	94.94
297.14	81.94
297.37	76.94
297.601	83.94
297.831	87.94
298.062	78.94
298.292	73.94
298.523	84.94
298.753	73.94
298.984	77.94
299.214	84.94
299.445	70.94
299.675	77.94
299.905	80.94
300.136	77.94
300.366	92.94
300.597	81.94
300.827	88.94
301.057	92.94
301.288	83.94
301.518	84.94
301.748	81.94
301.979	87.94
302.209	81.94
302.439	77.94
302.669	81.94
302.9	80.94
303.13	74.94
303.36	90.94
303.59	80.94
303.82	81.94
304.051	84.94
304.281	68.94
304.511	80.94
304.741	77.94
304.971	89.94
305.201	80.94
305.431	74.94
305.661	89.94
305.891	98.94
306.121	82.94
306.352	87.94
306.582	76.94
306.812	90.94
307.042	76.94
307.272	88.94
307.502	88.94
307.731	72.94
307.961	73.94
308.191	76.94
308.421	81.94
308.651	86.94
308.881	91.94
309.111	63.94
309.341	79.94
309.571	76.94
309.8	76.94
310.03	70.94
310.26	80.94
310.49	80.94
310.72	89.94
310.949	84.94
311.179	86.94
311.409	81.94
311.639	87.94
311.868	80.94
312.098	88.94
312.328	79.94
312.557	94.94
312.787	80.94
313.017	87.94
313.246	81.94
313.476	87.94
313.706	90.94
313.935	73.94
314.165	70.94
314.394	85.94
314.624	67.94
314.853	94.94
315.083	70.94
315.312	76.94
315.542	84.94
315.771	66.94
316.001	77.94
316.23	89.94
316.46	99.94
316.689	76.94
316.919	76.94
317.148	86.94
317.377	65.94
317.607	83.94
317.836	83.94
318.065	86.94
318.295	92.94
318.524	76.94
318.753	83.94
318.983	81.94
319.212	80.94
319.441	84.94
319.67	76.94
319.9	72.94
320.129	81.94
320.358	71.94
320.587	88.94
320.816	72.94
321.046	92.94
321.275	76.94
321.504	79.94
321.733	79.94
321.962	89.94
322.191	81.94
322.42	82.94
322.649	90.94
322.878	82.94
323.108	83.94
323.337	95.94
323.566	87.94
323.795	80.94
324.024	79.94
324.253	84.94
324.482	71.94
324.71	94.94
324.939	85.94
325.168	79.94
325.397	68.94
325.626	82.94
325.855	76.94
326.084	74.94
326.313	100.94
326.542	80.94
326.77	81.94
326.999	73.94
327.228	79.94
327.457	84.94
327.686	63.94
327.914	88.94
328.143	83.94
328.372	91.94
328.6	88.94
328.829	72.94
329.058	72.94
329.287	84.94
329.515	82.94
329.744	81.94
329.972	73.94
330.201	82.94
330.43	78.94
330.658	78.94
330.887	86.94
331.115	91.94
331.344	86.94
331.572	86.94
331.801	79.94
332.03	87.94
332.258	85.94
332.486	93.94
332.715	72.94
332.943	81.94
333.172	88.94
333.4	86.94
333.629	71.94
333.857	68.94
334.085	61.94
334.314	76.94
334.542	79.94
334.771	75.94
334.999	80.94
335.227	77.94
335.455	80.94
335.684	101.94
335.912	78.94
336.14	74.94
336.369	74.94
336.597	80.94
336.825	93.94
337.053	70.94
337.281	79.94
337.51	82.94
337.738	69.94
337.966	76.94
338.194	77.94
338.422	80.94
338.65	86.94
338.878	71.94
339.106	84.94
339.334	80.94
339.562	88.94
339.79	90.94
340.018	76.94
340.246	84.94
340.474	80.94
340.702	80.94
340.93	94.94
341.158	78.94
341.386	93.94
341.614	81.94
341.842	76.94
342.07	83.94
342.298	89.94
342.526	71.94
342.754	80.94
342.981	90.94
343.209	91.94
343.437	73.94
343.665	82.94
343.893	78.94
344.12	82.94
344.348	77.94
344.576	85.94
344.804	83.94
345.031	82.94
345.259	88.94
345.487	78.94
345.714	82.94
345.942	85.94
346.17	70.94
346.397	79.94
346.625	88.94
346.853	71.94
347.08	94.94
347.308	97.94
347.535	83.94
347.763	67.94
347.99	69.94
348.218	89.94
348.445	84.94
348.673	74.94
348.9	88.94
349.128	92.94
349.355	79.94
349.583	88.94
349.81	80.94
350.037	78.94
350.265	78.94
350.492	69.94
350.72	97.94
350.947	68.94
351.174	68.94
351.402	82.94
351.629	91.94
351.856	67.94
352.083	90.94
352.311	84.94
352.538	77.94
352.765	89.94
352.992	96.94
353.22	88.94
353.447	79.94
353.674	68.94
353.901	83.94
354.128	77.94
354.355	56.94
354.583	86.94
354.81	85.94
355.037	87.94
355.264	81.94
355.491	81.94
355.718	75.94
355.945	81.94
356.172	86.94
356.399	79.94
356.626	92.94
356.853	72.94
357.08	72.94
357.307	92.94
357.534	81.94
357.761	90.94
357.988	83.94
358.215	86.94
358.441	83.94
358.668	72.94
358.895	72.94
359.122	79.94
359.349	80.94
359.576	67.94
359.802	79.94
360.029	80.94
360.256	79.94
360.483	85.94
360.709	79.94
360.936	91.94
361.163	90.94
361.39	88.94
361.616	64.94
361.843	82.94
362.07	72.94
362.296	73.94
362.523	80.94
362.749	83.94
362.976	79.94
363.203	84.94
363.429	82.94
363.656	81.94
363.882	95.94
364.109	85.94
364.335	88.94
364.562	70.94
364.788	86.94
365.015	89.94
365.241	82.94
365.468	79.94
365.694	78.94
365.92	75.94
366.147	92.94
366.373	78.94
366.599	88.94
366.826	75.94
367.052	76.94
367.278	72.94
367.505	90.94
367.731	91.94
367.957	80.94
368.184	72.94
368.41	80.94
368.636	86.94
368.862	79.94
369.089	75.94
369.315	71.94
369.541	85.94
369.767	73.94
369.993	90.94
370.219	78.94
370.445	80.94
370.672	70.94
370.898	80.94
371.124	85.94
371.35	77.94
371.576	87.94
371.802	92.94
372.028	84.94
372.254	81.94
372.48	70.94
372.706	83.94
372.932	88.94
373.158	86.94
373.384	83.94
373.61	74.94
373.835	77.94
374.061	77.94
374.287	83.94
374.513	79.94
374.739	85.94
374.965	81.94
375.191	78.94
375.416	78.94
375.642	91.94
375.868	89.94
376.094	91.94
376.319	93.94
376.545	77.94
376.771	76.94
376.997	86.94
377.222	86.94
377.448	77.94
377.674	88.94
377.899	84.94
378.125	80.94
378.35	92.94
378.576	72.94
378.802	80.94
379.027	92.94
379.253	72.94
379.478	82.94
379.704	80.94
379.929	73.94
380.155	90.94
380.38	80.94
380.606	76.94
380.831	86.94
381.057	83.94
381.282	93.94
381.507	79.94
381.733	85.94
381.958	93.94
382.184	86.94
382.409	81.94
382.634	79.94
382.86	86.94
383.085	75.94
383.31	76.94
383.535	96.94
383.761	92.94
383.986	74.94
384.211	81.94
384.436	69.94
384.662	61.94
384.887	80.94
385.112	86.94
385.337	82.94
385.562	94.94
385.787	85.94
386.013	80.94
386.238	94.94
386.463	78.94
386.688	79.94
386.913	89.94
387.138	84.94
387.363	87.94
387.588	100.94
387.813	69.94
388.038	86.94
388.263	78.94
388.488	70.94
388.713	80.94
388.938	84.94
389.163	90.94
389.387	80.94
389.612	75.94
389.837	84.94
390.062	85.94
390.287	80.94
390.512	88.94
390.736	81.94
390.961	80.94
391.186	76.94
391.411	73.94
391.636	69.94
391.86	74.94
392.085	77.94
392.31	81.94
392.534	90.94
392.759	78.94
392.984	95.94
393.208	86.94
393.433	81.94
393.658	88.94
393.882	83.94
394.107	89.94
394.331	83.94
394.556	79.94
394.78	87.94
395.005	96.94
395.229	76.94
395.454	88.94
395.678	88.94
395.903	95.94
396.127	90.94
396.352	91.94
396.576	77.94
396.801	86.94
397.025	80.94
397.249	72.94
397.474	88.94
397.698	77.94
397.922	101.94
398.147	77.94
398.371	69.94
398.595	83.94
398.82	73.94
399.044	86.94
399.268	83.94
399.492	84.94
399.717	81.94
399.941	89.94
400.165	80.94
400.389	84.94
400.613	95.94
400.837	80.94
401.062	87.94
401.286	95.94
401.51	92.94
401.734	91.94
401.958	74.94
402.182	86.94
402.406	80.94
402.63	79.94
402.854	65.94
403.078	80.94
403.302	97.94
403.526	71.94
403.75	80.94
403.974	88.94
404.198	78.94
404.422	96.94
404.645	80.94
404.869	87.94
405.093	80.94
405.317	77.94
405.541	99.94
405.765	87.94
405.988	93.94
406.212	72.94
406.436	87.94
406.66	69.94
406.883	92.94
407.107	88.94
407.331	85.94
407.555	85.94
407.778	94.94
408.002	91.94
408.226	83.94
408.449	93.94
408.673	71.94
408.896	89.94
409.12	84.94
409.344	86.94
409.567	83.94
409.791	87.94
410.014	99.94
410.238	91.94
410.461	74.94
410.685	90.94
410.908	86.94
411.132	83.94
411.355	96.94
411.578	92.94
411.802	82.94
412.025	79.94
412.249	84.94
412.472	96.94
412.695	99.94
412.919	85.94
413.142	84.94
413.365	96.94
413.589	89.94
413.812	80.94
414.035	88.94
414.258	85.94
414.482	97.94
414.705	109.94
414.928	86.94
415.151	69.94
415.374	95.94
415.597	91.94
415.821	77.94
416.044	93.94
416.267	83.94
416.49	88.94
416.713	76.94
416.936	70.94
417.159	93.94
417.382	89.94
417.605	89.94
417.828	85.94
418.051	86.94
418.274	97.94
418.497	103.94
418.72	90.94
418.943	100.94
419.166	97.94
419.389	97.94
419.611	82.94
419.834	94.94
420.057	84.94
420.28	85.94
420.503	91.94
420.726	91.94
420.948	89.94
421.171	84.94
421.394	77.94
421.617	82.94
421.839	92.94
422.062	84.94
422.285	90.94
422.507	89.94
422.73	96.94
422.953	91.94
423.175	88.94
423.398	84.94
423.621	94.94
423.843	78.94
424.066	99.94
424.288	97.94
424.511	94.94
424.733	96.94
424.956	104.94
425.178	100.94
425.401	109.94
425.623	93.94
425.846	107.94
426.068	77.94
426.291	86.94
426.513	82.94
426.735	91.94
426.958	92.94
427.18	97.94
427.402	101.94
427.625	90.94
427.847	95.94
428.069	93.94
428.292	86.94
428.514	88.94
428.736	80.94
428.958	91.94
429.181	88.94
429.403	96.94
429.625	93.94
429.847	96.94
430.069	97.94
430.292	78.94
430.514	78.94
430.736	96.94
430.958	83.94
431.18	91.94
431.402	88.94
431.624	96.94
431.846	85.94
432.068	79.94
432.29	78.94
432.512	79.94
432.734	108.94
432.956	97.94
433.178	99.94
433.4	90.94
433.622	87.94
433.844	99.94
434.066	87.94
434.287	85.94
434.509	75.94
434.731	73.94
434.953	83.94
435.175	87.94
435.397	108.94
435.618	95.94
435.84	79.94
436.062	92.94
436.284	100.94
436.505	80.94
436.727	82.94
436.949	77.94
437.17	88.94
437.392	96.94
437.614	74.94
437.835	93.94
438.057	88.94
438.278	88.94
438.5	95.94
438.721	77.94
438.943	84.94
439.165	95.94
439.386	93.94
439.608	100.94
439.829	81.94
440.05	91.94
440.272	91.94
440.493	94.94
440.715	90.94
440.936	101.94
441.158	95.94
441.379	99.94
441.6	76.94
441.822	84.94
442.043	93.94
442.264	98.94
442.486	100.94
442.707	95.94
442.928	104.94
443.149	86.94
443.371	95.94
443.592	86.94
443.813	104.94
444.034	101.94
444.255	108.94
444.476	93.94
444.698	99.94
444.919	88.94
445.14	220.94
445.361	160.94
445.582	105.94
445.803	67.94
446.024	86.94
446.245	99.94
446.466	98.94
446.687	90.94
446.908	104.94
447.129	110.94
447.35	100.94
447.571	92.94
447.792	90.94
448.013	97.94
448.234	97.94
448.455	87.94
448.675	96.94
448.896	80.94
449.117	99.94
449.338	96.94
449.559	95.94
449.779	93.94
450	94.94
450.221	88.94
450.442	78.94
450.662	79.94
450.883	89.94
451.104	100.94
451.324	93.94
451.545	79.94
451.766	79.94
451.986	89.94
452.207	79.94
452.428	97.94
452.648	89.94
452.869	94.94
453.089	100.94
453.31	97.94
453.53	92.94
453.751	98.94
453.971	87.94
454.192	95.94
454.412	72.94
454.633	84.94
454.853	95.94
455.073	94.94
455.294	84.94
455.514	104.94
455.734	78.94
455.955	84.94
456.175	83.94
456.395	85.94
456.616	87.94
456.836	86.94
457.056	89.94
457.276	81.94
457.497	92.94
457.717	79.94
457.937	84.94
458.157	89.94
458.377	77.94
458.598	87.94
458.818	75.94
459.038	84.94
459.258	68.94
459.478	74.94
459.698	93.94
459.918	65.94
460.138	95.94
460.358	82.94
460.578	87.94
460.798	79.94
461.018	90.94
461.238	85.94
461.458	97.94
461.678	74.94
461.898	95.94
462.118	89.94
462.338	88.94
462.558	99.94
462.777	77.94
462.997	82.94
463.217	76.94
463.437	97.94
463.657	90.94
463.876	85.94
464.096	88.94
464.316	78.94
464.536	79.94
464.755	105.94
464.975	79.94
465.195	96.94
465.414	84.94
465.634	79.94
465.854	82.94
466.073	92.94
466.293	104.94
466.512	94.94
466.732	104.94
466.951	86.94
467.171	96.94
467.391	95.94
467.61	86.94
467.829	81.94
468.049	98.94
468.268	98.94
468.488	90.94
468.707	81.94
468.927	83.94
469.146	96.94
469.365	103.94
469.585	103.94
469.804	99.94
470.023	86.94
470.243	85.94
470.462	102.94
470.681	95.94
470.901	87.94
471.12	87.94
471.339	96.94
471.558	91.94
471.777	104.94
471.997	97.94
472.216	79.94
472.435	95.94
472.654	87.94
472.873	82.94
473.092	88.94
473.311	97.94
473.53	96.94
473.749	91.94
473.968	91.94
474.187	87.94
474.406	83.94
474.625	96.94
474.844	104.94
475.063	103.94
475.282	93.94
475.501	83.94
475.72	89.94
475.939	91.94
476.158	98.94
476.377	98.94
476.596	86.94
476.814	80.94
477.033	84.94
477.252	79.94
477.471	83.94
477.69	86.94
477.908	99.94
478.127	96.94
478.346	93.94
478.564	78.94
478.783	104.94
479.002	94.94
479.22	89.94
479.439	89.94
479.658	80.94
479.876	88.94
480.095	83.94
480.313	88.94
480.532	96.94
480.751	75.94
480.969	64.94
481.188	77.94
481.406	88.94
481.624	85.94
481.843	76.94
482.061	73.94
482.28	94.94
482.498	95.94
482.717	96.94
482.935	87.94
483.153	96.94
483.372	84.94
483.59	88.94
483.808	96.94
484.027	99.94
484.245	103.94
484.463	88.94
484.681	102.94
484.9	96.94
485.118	86.94
485.336	102.94
485.554	98.94
485.772	80.94
485.99	95.94
486.209	90.94
486.427	76.94
486.645	76.94
486.863	84.94
487.081	109.94
487.299	95.94
487.517	99.94
487.735	117.94
487.953	111.94
488.171	113.94
488.389	104.94
488.607	99.94
488.825	96.94
489.043	86.94
489.261	103.94
489.479	100.94
489.696	99.94
489.914	103.94
490.132	89.94
490.35	98.94
490.568	104.94
490.786	97.94
491.003	105.94
491.221	104.94
491.439	111.94
491.657	113.94
491.874	108.94
492.092	119.94
492.31	123.94
492.527	117.94
492.745	113.94
492.963	121.94
493.18	115.94
493.398	113.94
493.615	104.94
493.833	103.94
494.05	112.94
494.268	114.94
494.485	104.94
494.703	104.94
494.92	99.94
495.138	108.94
495.355	100.94
495.573	104.94
495.79	96.94
496.008	112.94
496.225	111.94
496.442	98.94
496.66	113.94
496.877	93.94
497.094	100.94
497.312	110.94
497.529	79.94
497.746	97.94
497.963	92.94
498.181	77.94
498.398	86.94
498.615	71.94
498.832	90.94
499.049	88.94
499.267	99.94
499.484	89.94
499.701	92.94
499.918	101.94
500.135	93.94
500.352	84.94
500.569	89.94
500.786	101.94
501.003	103.94
501.22	100.94
501.437	102.94
501.654	99.94
501.871	72.94
502.088	90.94
502.305	97.94
502.522	94.94
502.739	90.94
502.956	100.94
503.172	90.94
503.389	87.94
503.606	86.94
503.823	92.94
504.04	82.94
504.256	99.94
504.473	93.94
504.69	90.94
504.907	94.94
505.123	92.94
505.34	104.94
505.557	91.94
505.773	84.94
505.99	96.94
506.207	98.94
506.423	92.94
506.64	82.94
506.856	101.94
507.073	87.94
507.289	82.94
507.506	99.94
507.722	94.94
507.939	93.94
508.155	85.94
508.372	97.94
508.588	94.94
508.805	89.94
509.021	94.94
509.238	94.94
509.454	96.94
509.67	101.94
509.887	94.94
510.103	72.94
510.319	80.94
510.536	89.94
510.752	76.94
510.968	76.94
511.184	79.94
511.401	77.94
511.617	84.94
511.833	81.94
512.049	84.94
512.265	90.94
512.481	94.94
512.698	85.94
512.914	71.94
513.13	95.94
513.346	86.94
513.562	83.94
513.778	86.94
513.994	80.94
514.21	84.94
514.426	81.94
514.642	77.94
514.858	91.94
515.074	76.94
515.29	71.94
515.506	85.94
515.721	73.94
515.937	97.94
516.153	85.94
516.369	80.94
516.585	89.94
516.801	86.94
517.016	91.94
517.232	59.94
517.448	79.94
517.664	73.94
517.879	79.94
518.095	94.94
518.311	85.94
