Data from Location3.07152019.Energy5.Lamp.07192019.3%Agarose_HRD10591_15-16-37-269.txt Node
Date: Fri Jul 19 15:16:37 EDT 2019
User: cochatt
Spectrometer: HR+D1059
Trigger mode: 1
Integration Time (sec): 1.000000E-1
Scans to average: 1
Electric dark correction enabled: true
Nonlinearity correction enabled: false
Boxcar width: 0
XAxis mode: Wavelengths
Number of Pixels in Spectrum: 2048
>>>>>Begin Spectral Data<<<<<
223.165	-4.62
223.4	-4.62
223.635	-4.62
223.869	-9.62
224.104	-28.62
224.338	-13.62
224.573	-13.62
224.808	-15.62
225.042	-2.62
225.277	-4.62
225.511	1.38
225.746	-0.62
225.98	3.38
226.215	-1.62
226.449	13.38
226.683	13.38
226.918	28.38
227.152	35.38
227.387	43.38
227.621	40.38
227.856	37.38
228.09	54.38
228.324	51.38
228.559	64.38
228.793	54.38
229.027	68.38
229.262	65.38
229.496	66.38
229.73	68.38
229.964	70.38
230.199	77.38
230.433	73.38
230.667	79.38
230.901	77.38
231.136	72.38
231.37	92.38
231.604	72.38
231.838	56.38
232.072	80.38
232.306	76.38
232.541	79.38
232.775	73.38
233.009	72.38
233.243	84.38
233.477	77.38
233.711	68.38
233.945	85.38
234.179	88.38
234.413	85.38
234.647	81.38
234.881	80.38
235.115	69.38
235.349	79.38
235.583	77.38
235.817	63.38
236.051	76.38
236.285	68.38
236.519	72.38
236.753	65.38
236.987	71.38
237.221	85.38
237.455	78.38
237.689	67.38
237.922	78.38
238.156	72.38
238.39	63.38
238.624	69.38
238.858	63.38
239.091	66.38
239.325	79.38
239.559	69.38
239.793	83.38
240.027	86.38
240.26	70.38
240.494	87.38
240.728	82.38
240.961	61.38
241.195	73.38
241.429	79.38
241.662	68.38
241.896	70.38
242.13	78.38
242.363	74.38
242.597	80.38
242.83	80.38
243.064	88.38
243.298	74.38
243.531	78.38
243.765	68.38
243.998	72.38
244.232	77.38
244.465	80.38
244.699	75.38
244.932	78.38
245.166	80.38
245.399	74.38
245.633	78.38
245.866	78.38
246.099	66.38
246.333	51.38
246.566	81.38
246.8	81.38
247.033	61.38
247.266	69.38
247.5	76.38
247.733	77.38
247.966	75.38
248.2	75.38
248.433	69.38
248.666	69.38
248.899	85.38
249.133	74.38
249.366	84.38
249.599	82.38
249.832	76.38
250.066	78.38
250.299	66.38
250.532	76.38
250.765	83.38
250.998	83.38
251.231	69.38
251.465	79.38
251.698	85.38
251.931	79.38
252.164	80.38
252.397	70.38
252.63	82.38
252.863	64.38
253.096	81.38
253.329	71.38
253.562	77.38
253.795	88.38
254.028	80.38
254.261	78.38
254.494	80.38
254.727	79.38
254.96	85.38
255.193	75.38
255.426	85.38
255.659	75.38
255.892	85.38
256.124	81.38
256.357	98.38
256.59	75.38
256.823	68.38
257.056	75.38
257.289	75.38
257.521	81.38
257.754	87.38
257.987	79.38
258.22	85.38
258.452	78.38
258.685	78.38
258.918	79.38
259.151	79.38
259.383	83.38
259.616	79.38
259.849	87.38
260.081	86.38
260.314	67.38
260.547	75.38
260.779	73.38
261.012	75.38
261.244	83.38
261.477	73.38
261.71	47.38
261.942	69.38
262.175	83.38
262.407	86.38
262.64	74.38
262.872	71.38
263.105	72.38
263.337	84.38
263.57	75.38
263.802	87.38
264.035	88.38
264.267	65.38
264.499	80.38
264.732	77.38
264.964	84.38
265.197	81.38
265.429	68.38
265.661	77.38
265.894	86.38
266.126	88.38
266.358	83.38
266.591	97.38
266.823	91.38
267.055	83.38
267.287	81.38
267.52	89.38
267.752	79.38
267.984	80.38
268.216	85.38
268.448	79.38
268.681	88.38
268.913	76.38
269.145	87.38
269.377	77.38
269.609	70.38
269.841	90.38
270.073	86.38
270.306	80.38
270.538	88.38
270.77	75.38
271.002	76.38
271.234	90.38
271.466	84.38
271.698	91.38
271.93	75.38
272.162	74.38
272.394	76.38
272.626	84.38
272.858	88.38
273.09	73.38
273.322	85.38
273.553	78.38
273.785	77.38
274.017	109.38
274.249	76.38
274.481	83.38
274.713	78.38
274.945	79.38
275.176	86.38
275.408	89.38
275.64	69.38
275.872	75.38
276.104	79.38
276.335	75.38
276.567	92.38
276.799	93.38
277.031	63.38
277.262	80.38
277.494	68.38
277.726	81.38
277.957	71.38
278.189	72.38
278.421	77.38
278.652	75.38
278.884	78.38
279.115	85.38
279.347	84.38
279.579	82.38
279.81	90.38
280.042	77.38
280.273	72.38
280.505	79.38
280.736	83.38
280.968	84.38
281.199	77.38
281.431	83.38
281.662	79.38
281.894	81.38
282.125	89.38
282.356	77.38
282.588	79.38
282.819	83.38
283.051	83.38
283.282	80.38
283.513	77.38
283.745	90.38
283.976	72.38
284.207	95.38
284.439	82.38
284.67	98.38
284.901	82.38
285.132	81.38
285.364	83.38
285.595	64.38
285.826	83.38
286.057	87.38
286.288	84.38
286.52	92.38
286.751	78.38
286.982	70.38
287.213	78.38
287.444	77.38
287.675	89.38
287.906	94.38
288.138	88.38
288.369	83.38
288.6	76.38
288.831	82.38
289.062	77.38
289.293	85.38
289.524	82.38
289.755	81.38
289.986	82.38
290.217	101.38
290.448	73.38
290.679	83.38
290.91	93.38
291.141	81.38
291.371	74.38
291.602	88.38
291.833	78.38
292.064	87.38
292.295	83.38
292.526	83.38
292.757	82.38
292.987	87.38
293.218	73.38
293.449	85.38
293.68	90.38
293.91	87.38
294.141	84.38
294.372	80.38
294.603	89.38
294.833	78.38
295.064	75.38
295.295	72.38
295.525	64.38
295.756	89.38
295.987	83.38
296.217	85.38
296.448	88.38
296.679	81.38
296.909	90.38
297.14	74.38
297.37	83.38
297.601	79.38
297.831	87.38
298.062	86.38
298.292	79.38
298.523	93.38
298.753	77.38
298.984	79.38
299.214	83.38
299.445	76.38
299.675	67.38
299.905	76.38
300.136	59.38
300.366	88.38
300.597	80.38
300.827	73.38
301.057	81.38
301.288	77.38
301.518	75.38
301.748	77.38
301.979	76.38
302.209	82.38
302.439	83.38
302.669	76.38
302.9	63.38
303.13	86.38
303.36	84.38
303.59	82.38
303.82	81.38
304.051	90.38
304.281	92.38
304.511	87.38
304.741	86.38
304.971	77.38
305.201	81.38
305.431	77.38
305.661	95.38
305.891	85.38
306.121	77.38
306.352	86.38
306.582	90.38
306.812	91.38
307.042	80.38
307.272	78.38
307.502	81.38
307.731	71.38
307.961	87.38
308.191	76.38
308.421	88.38
308.651	89.38
308.881	82.38
309.111	101.38
309.341	83.38
309.571	88.38
309.8	82.38
310.03	70.38
310.26	83.38
310.49	83.38
310.72	76.38
310.949	78.38
311.179	84.38
311.409	92.38
311.639	88.38
311.868	85.38
312.098	53.38
312.328	80.38
312.557	80.38
312.787	84.38
313.017	93.38
313.246	81.38
313.476	72.38
313.706	88.38
313.935	77.38
314.165	69.38
314.394	78.38
314.624	85.38
314.853	72.38
315.083	83.38
315.312	89.38
315.542	83.38
315.771	83.38
316.001	74.38
316.23	102.38
316.46	88.38
316.689	81.38
316.919	87.38
317.148	88.38
317.377	85.38
317.607	89.38
317.836	81.38
318.065	69.38
318.295	81.38
318.524	67.38
318.753	81.38
318.983	80.38
319.212	76.38
319.441	86.38
319.67	97.38
319.9	80.38
320.129	87.38
320.358	85.38
320.587	82.38
320.816	88.38
321.046	76.38
321.275	92.38
321.504	73.38
321.733	102.38
321.962	89.38
322.191	89.38
322.42	69.38
322.649	74.38
322.878	100.38
323.108	93.38
323.337	86.38
323.566	85.38
323.795	86.38
324.024	76.38
324.253	79.38
324.482	61.38
324.71	76.38
324.939	86.38
325.168	85.38
325.397	75.38
325.626	71.38
325.855	76.38
326.084	71.38
326.313	82.38
326.542	74.38
326.77	62.38
326.999	69.38
327.228	84.38
327.457	97.38
327.686	82.38
327.914	84.38
328.143	101.38
328.372	82.38
328.6	78.38
328.829	72.38
329.058	78.38
329.287	79.38
329.515	79.38
329.744	91.38
329.972	79.38
330.201	73.38
330.43	80.38
330.658	76.38
330.887	84.38
331.115	86.38
331.344	77.38
331.572	81.38
331.801	86.38
332.03	64.38
332.258	85.38
332.486	76.38
332.715	76.38
332.943	92.38
333.172	67.38
333.4	85.38
333.629	71.38
333.857	87.38
334.085	78.38
334.314	82.38
334.542	97.38
334.771	72.38
334.999	73.38
335.227	79.38
335.455	73.38
335.684	78.38
335.912	80.38
336.14	85.38
336.369	78.38
336.597	83.38
336.825	86.38
337.053	67.38
337.281	78.38
337.51	87.38
337.738	88.38
337.966	79.38
338.194	93.38
338.422	85.38
338.65	69.38
338.878	62.38
339.106	89.38
339.334	78.38
339.562	84.38
339.79	83.38
340.018	86.38
340.246	78.38
340.474	76.38
340.702	84.38
340.93	82.38
341.158	93.38
341.386	87.38
341.614	63.38
341.842	82.38
342.07	72.38
342.298	67.38
342.526	66.38
342.754	78.38
342.981	75.38
343.209	86.38
343.437	82.38
343.665	78.38
343.893	82.38
344.12	83.38
344.348	84.38
344.576	80.38
344.804	75.38
345.031	87.38
345.259	64.38
345.487	67.38
345.714	74.38
345.942	71.38
346.17	71.38
346.397	89.38
346.625	91.38
346.853	79.38
347.08	72.38
347.308	80.38
347.535	85.38
347.763	100.38
347.99	73.38
348.218	88.38
348.445	87.38
348.673	87.38
348.9	85.38
349.128	84.38
349.355	81.38
349.583	90.38
349.81	84.38
350.037	78.38
350.265	90.38
350.492	71.38
350.72	93.38
350.947	83.38
351.174	85.38
351.402	81.38
351.629	72.38
351.856	83.38
352.083	93.38
352.311	75.38
352.538	83.38
352.765	77.38
352.992	92.38
353.22	82.38
353.447	68.38
353.674	80.38
353.901	77.38
354.128	92.38
354.355	85.38
354.583	78.38
354.81	87.38
355.037	86.38
355.264	91.38
355.491	73.38
355.718	77.38
355.945	86.38
356.172	67.38
356.399	86.38
356.626	77.38
356.853	77.38
357.08	80.38
357.307	74.38
357.534	90.38
357.761	90.38
357.988	88.38
358.215	82.38
358.441	79.38
358.668	63.38
358.895	77.38
359.122	79.38
359.349	67.38
359.576	88.38
359.802	83.38
360.029	90.38
360.256	84.38
360.483	86.38
360.709	79.38
360.936	88.38
361.163	75.38
361.39	71.38
361.616	83.38
361.843	86.38
362.07	80.38
362.296	85.38
362.523	87.38
362.749	81.38
362.976	68.38
363.203	85.38
363.429	88.38
363.656	87.38
363.882	89.38
364.109	83.38
364.335	85.38
364.562	74.38
364.788	74.38
365.015	77.38
365.241	83.38
365.468	89.38
365.694	77.38
365.92	80.38
366.147	78.38
366.373	72.38
366.599	86.38
366.826	83.38
367.052	81.38
367.278	84.38
367.505	93.38
367.731	63.38
367.957	79.38
368.184	80.38
368.41	107.38
368.636	93.38
368.862	93.38
369.089	81.38
369.315	75.38
369.541	66.38
369.767	81.38
369.993	87.38
370.219	87.38
370.445	83.38
370.672	81.38
370.898	88.38
371.124	86.38
371.35	87.38
371.576	69.38
371.802	77.38
372.028	81.38
372.254	78.38
372.48	80.38
372.706	87.38
372.932	83.38
373.158	79.38
373.384	74.38
373.61	77.38
373.835	92.38
374.061	66.38
374.287	74.38
374.513	75.38
374.739	99.38
374.965	77.38
375.191	82.38
375.416	97.38
375.642	85.38
375.868	77.38
376.094	78.38
376.319	94.38
376.545	79.38
376.771	93.38
376.997	88.38
377.222	71.38
377.448	72.38
377.674	99.38
377.899	82.38
378.125	80.38
378.35	86.38
378.576	84.38
378.802	79.38
379.027	101.38
379.253	89.38
379.478	84.38
379.704	79.38
379.929	69.38
380.155	77.38
380.38	101.38
380.606	83.38
380.831	80.38
381.057	94.38
381.282	95.38
381.507	72.38
381.733	76.38
381.958	87.38
382.184	103.38
382.409	89.38
382.634	78.38
382.86	81.38
383.085	100.38
383.31	79.38
383.535	75.38
383.761	91.38
383.986	80.38
384.211	69.38
384.436	75.38
384.662	77.38
384.887	79.38
385.112	86.38
385.337	80.38
385.562	99.38
385.787	79.38
386.013	86.38
386.238	84.38
386.463	86.38
386.688	70.38
386.913	81.38
387.138	75.38
387.363	84.38
387.588	83.38
387.813	73.38
388.038	84.38
388.263	88.38
388.488	83.38
388.713	84.38
388.938	86.38
389.163	83.38
389.387	86.38
389.612	83.38
389.837	86.38
390.062	89.38
390.287	84.38
390.512	90.38
390.736	79.38
390.961	77.38
391.186	84.38
391.411	103.38
391.636	76.38
391.86	72.38
392.085	88.38
392.31	90.38
392.534	73.38
392.759	72.38
392.984	87.38
393.208	91.38
393.433	72.38
393.658	75.38
393.882	82.38
394.107	78.38
394.331	87.38
394.556	76.38
394.78	75.38
395.005	74.38
395.229	85.38
395.454	76.38
395.678	87.38
395.903	80.38
396.127	92.38
396.352	96.38
396.576	87.38
396.801	92.38
397.025	80.38
397.249	87.38
397.474	74.38
397.698	88.38
397.922	87.38
398.147	75.38
398.371	88.38
398.595	92.38
398.82	84.38
399.044	89.38
399.268	85.38
399.492	76.38
399.717	75.38
399.941	97.38
400.165	76.38
400.389	92.38
400.613	79.38
400.837	71.38
401.062	86.38
401.286	85.38
401.51	85.38
401.734	94.38
401.958	70.38
402.182	91.38
402.406	94.38
402.63	77.38
402.854	80.38
403.078	101.38
403.302	82.38
403.526	84.38
403.75	78.38
403.974	93.38
404.198	95.38
404.422	83.38
404.645	84.38
404.869	94.38
405.093	88.38
405.317	95.38
405.541	87.38
405.765	78.38
405.988	86.38
406.212	98.38
406.436	87.38
406.66	93.38
406.883	79.38
407.107	100.38
407.331	89.38
407.555	89.38
407.778	80.38
408.002	81.38
408.226	83.38
408.449	85.38
408.673	91.38
408.896	82.38
409.12	89.38
409.344	91.38
409.567	90.38
409.791	83.38
410.014	85.38
410.238	77.38
410.461	83.38
410.685	80.38
410.908	76.38
411.132	92.38
411.355	83.38
411.578	87.38
411.802	97.38
412.025	73.38
412.249	86.38
412.472	84.38
412.695	85.38
412.919	92.38
413.142	87.38
413.365	78.38
413.589	87.38
413.812	92.38
414.035	103.38
414.258	81.38
414.482	94.38
414.705	77.38
414.928	109.38
415.151	94.38
415.374	88.38
415.597	87.38
415.821	87.38
416.044	89.38
416.267	97.38
416.49	83.38
416.713	87.38
416.936	82.38
417.159	83.38
417.382	83.38
417.605	94.38
417.828	90.38
418.051	86.38
418.274	97.38
418.497	98.38
418.72	73.38
418.943	80.38
419.166	102.38
419.389	80.38
419.611	98.38
419.834	98.38
420.057	79.38
420.28	86.38
420.503	91.38
420.726	81.38
420.948	102.38
421.171	94.38
421.394	94.38
421.617	93.38
421.839	87.38
422.062	95.38
422.285	83.38
422.507	86.38
422.73	91.38
422.953	99.38
423.175	94.38
423.398	77.38
423.621	89.38
423.843	82.38
424.066	92.38
424.288	93.38
424.511	102.38
424.733	87.38
424.956	90.38
425.178	85.38
425.401	103.38
425.623	98.38
425.846	88.38
426.068	92.38
426.291	88.38
426.513	104.38
426.735	96.38
426.958	96.38
427.18	94.38
427.402	91.38
427.625	72.38
427.847	89.38
428.069	78.38
428.292	89.38
428.514	89.38
428.736	88.38
428.958	90.38
429.181	88.38
429.403	88.38
429.625	91.38
429.847	95.38
430.069	92.38
430.292	100.38
430.514	97.38
430.736	103.38
430.958	97.38
431.18	82.38
431.402	71.38
431.624	86.38
431.846	91.38
432.068	72.38
432.29	73.38
432.512	84.38
432.734	79.38
432.956	85.38
433.178	89.38
433.4	99.38
433.622	84.38
433.844	83.38
434.066	83.38
434.287	86.38
434.509	89.38
434.731	70.38
434.953	82.38
435.175	87.38
435.397	87.38
435.618	80.38
435.84	80.38
436.062	75.38
436.284	84.38
436.505	94.38
436.727	90.38
436.949	96.38
437.17	99.38
437.392	90.38
437.614	87.38
437.835	71.38
438.057	88.38
438.278	76.38
438.5	80.38
438.721	79.38
438.943	95.38
439.165	91.38
439.386	91.38
439.608	92.38
439.829	94.38
440.05	92.38
440.272	83.38
440.493	94.38
440.715	103.38
440.936	92.38
441.158	99.38
441.379	88.38
441.6	91.38
441.822	95.38
442.043	93.38
442.264	89.38
442.486	81.38
442.707	99.38
442.928	92.38
443.149	83.38
443.371	95.38
443.592	91.38
443.813	93.38
444.034	88.38
444.255	96.38
444.476	94.38
444.698	112.38
444.919	92.38
445.14	163.38
445.361	117.38
445.582	101.38
445.803	98.38
446.024	100.38
446.245	88.38
446.466	88.38
446.687	103.38
446.908	97.38
447.129	95.38
447.35	100.38
447.571	100.38
447.792	102.38
448.013	86.38
448.234	84.38
448.455	88.38
448.675	91.38
448.896	99.38
449.117	98.38
449.338	87.38
449.559	90.38
449.779	86.38
450	85.38
450.221	88.38
450.442	84.38
450.662	77.38
450.883	99.38
451.104	92.38
451.324	96.38
451.545	93.38
451.766	96.38
451.986	76.38
452.207	96.38
452.428	81.38
452.648	89.38
452.869	84.38
453.089	83.38
453.31	71.38
453.53	100.38
453.751	88.38
453.971	89.38
454.192	86.38
454.412	92.38
454.633	83.38
454.853	89.38
455.073	99.38
455.294	89.38
455.514	109.38
455.734	95.38
455.955	105.38
456.175	71.38
456.395	83.38
456.616	76.38
456.836	76.38
457.056	77.38
457.276	74.38
457.497	78.38
457.717	72.38
457.937	85.38
458.157	77.38
458.377	83.38
458.598	79.38
458.818	98.38
459.038	70.38
459.258	76.38
459.478	83.38
459.698	71.38
459.918	69.38
460.138	93.38
460.358	97.38
460.578	78.38
460.798	75.38
461.018	85.38
461.238	75.38
461.458	99.38
461.678	100.38
461.898	99.38
462.118	80.38
462.338	91.38
462.558	86.38
462.777	88.38
462.997	97.38
463.217	93.38
463.437	86.38
463.657	84.38
463.876	95.38
464.096	86.38
464.316	71.38
464.536	85.38
464.755	84.38
464.975	89.38
465.195	88.38
465.414	92.38
465.634	85.38
465.854	87.38
466.073	101.38
466.293	78.38
466.512	80.38
466.732	97.38
466.951	88.38
467.171	95.38
467.391	97.38
467.61	95.38
467.829	101.38
468.049	97.38
468.268	83.38
468.488	97.38
468.707	95.38
468.927	93.38
469.146	72.38
469.365	99.38
469.585	98.38
469.804	87.38
470.023	85.38
470.243	88.38
470.462	79.38
470.681	100.38
470.901	95.38
471.12	92.38
471.339	89.38
471.558	86.38
471.777	88.38
471.997	90.38
472.216	89.38
472.435	79.38
472.654	79.38
472.873	92.38
473.092	91.38
473.311	90.38
473.53	92.38
473.749	82.38
473.968	100.38
474.187	92.38
474.406	95.38
474.625	81.38
474.844	84.38
475.063	88.38
475.282	92.38
475.501	83.38
475.72	74.38
475.939	87.38
476.158	85.38
476.377	100.38
476.596	103.38
476.814	107.38
477.033	107.38
477.252	91.38
477.471	92.38
477.69	84.38
477.908	102.38
478.127	98.38
478.346	91.38
478.564	87.38
478.783	103.38
479.002	96.38
479.22	93.38
479.439	85.38
479.658	91.38
479.876	83.38
480.095	85.38
480.313	100.38
480.532	92.38
480.751	88.38
480.969	83.38
481.188	84.38
481.406	78.38
481.624	73.38
481.843	70.38
482.061	79.38
482.28	87.38
482.498	99.38
482.717	81.38
482.935	82.38
483.153	105.38
483.372	84.38
483.59	101.38
483.808	94.38
484.027	108.38
484.245	95.38
484.463	76.38
484.681	99.38
484.9	101.38
485.118	81.38
485.336	101.38
485.554	99.38
485.772	85.38
485.99	71.38
486.209	77.38
486.427	91.38
486.645	96.38
486.863	84.38
487.081	104.38
487.299	81.38
487.517	112.38
487.735	101.38
487.953	118.38
488.171	109.38
488.389	110.38
488.607	96.38
488.825	97.38
489.043	108.38
489.261	94.38
489.479	84.38
489.696	102.38
489.914	102.38
490.132	87.38
490.35	105.38
490.568	103.38
490.786	100.38
491.003	104.38
491.221	111.38
491.439	103.38
491.657	100.38
491.874	118.38
492.092	121.38
492.31	131.38
492.527	130.38
492.745	139.38
492.963	122.38
493.18	113.38
493.398	119.38
493.615	118.38
493.833	103.38
494.05	114.38
494.268	111.38
494.485	95.38
494.703	118.38
494.92	104.38
495.138	101.38
495.355	113.38
495.573	109.38
495.79	95.38
496.008	100.38
496.225	112.38
496.442	110.38
496.66	101.38
496.877	105.38
497.094	110.38
497.312	109.38
497.529	100.38
497.746	100.38
497.963	109.38
498.181	103.38
498.398	80.38
498.615	84.38
498.832	93.38
499.049	107.38
499.267	93.38
499.484	85.38
499.701	97.38
499.918	106.38
500.135	104.38
500.352	104.38
500.569	103.38
500.786	111.38
501.003	113.38
501.22	98.38
501.437	102.38
501.654	102.38
501.871	98.38
502.088	85.38
502.305	98.38
502.522	91.38
502.739	87.38
502.956	89.38
503.172	102.38
503.389	85.38
503.606	79.38
503.823	88.38
504.04	97.38
504.256	96.38
504.473	78.38
504.69	94.38
504.907	105.38
505.123	87.38
505.34	106.38
505.557	111.38
505.773	90.38
505.99	93.38
506.207	101.38
506.423	88.38
506.64	97.38
506.856	94.38
507.073	96.38
507.289	95.38
507.506	89.38
507.722	102.38
507.939	93.38
508.155	97.38
508.372	89.38
508.588	96.38
508.805	93.38
509.021	89.38
509.238	98.38
509.454	80.38
509.67	73.38
509.887	86.38
510.103	88.38
510.319	80.38
510.536	95.38
510.752	88.38
510.968	83.38
511.184	79.38
511.401	77.38
511.617	73.38
511.833	81.38
512.049	75.38
512.265	79.38
512.481	92.38
512.698	95.38
512.914	84.38
513.13	71.38
513.346	85.38
513.562	82.38
513.778	88.38
513.994	89.38
514.21	73.38
514.426	87.38
514.642	87.38
514.858	89.38
515.074	93.38
515.29	88.38
515.506	89.38
515.721	85.38
515.937	84.38
516.153	82.38
516.369	84.38
516.585	78.38
516.801	79.38
517.016	83.38
517.232	77.38
517.448	76.38
517.664	91.38
517.879	91.38
