Data from Location3.07152019.Energy5.Lamp.07192019.3%Agarose_HRD10591_15-18-54-269.txt Node
Date: Fri Jul 19 15:18:54 EDT 2019
User: cochatt
Spectrometer: HR+D1059
Trigger mode: 1
Integration Time (sec): 1.000000E-1
Scans to average: 1
Electric dark correction enabled: true
Nonlinearity correction enabled: false
Boxcar width: 0
XAxis mode: Wavelengths
Number of Pixels in Spectrum: 2048
>>>>>Begin Spectral Data<<<<<
223.165	-8.19
223.4	-8.19
223.635	-8.19
223.869	-10.19
224.104	-12.19
224.338	-33.19
224.573	-20.19
224.808	-16.19
225.042	-12.19
225.277	1.81
225.511	3.81
225.746	21.81
225.98	-0.19
226.215	-0.19
226.449	9.81
226.683	24.81
226.918	25.81
227.152	24.81
227.387	35.81
227.621	29.81
227.856	59.81
228.09	54.81
228.324	57.81
228.559	55.81
228.793	46.81
229.027	57.81
229.262	59.81
229.496	64.81
229.73	68.81
229.964	69.81
230.199	66.81
230.433	69.81
230.667	91.81
230.901	70.81
231.136	85.81
231.37	69.81
231.604	65.81
231.838	86.81
232.072	92.81
232.306	72.81
232.541	93.81
232.775	75.81
233.009	84.81
233.243	87.81
233.477	85.81
233.711	80.81
233.945	75.81
234.179	88.81
234.413	93.81
234.647	82.81
234.881	79.81
235.115	90.81
235.349	75.81
235.583	80.81
235.817	86.81
236.051	79.81
236.285	73.81
236.519	72.81
236.753	87.81
236.987	69.81
237.221	81.81
237.455	89.81
237.689	83.81
237.922	82.81
238.156	70.81
238.39	83.81
238.624	75.81
238.858	73.81
239.091	89.81
239.325	75.81
239.559	82.81
239.793	89.81
240.027	74.81
240.26	63.81
240.494	72.81
240.728	73.81
240.961	71.81
241.195	79.81
241.429	77.81
241.662	85.81
241.896	73.81
242.13	74.81
242.363	73.81
242.597	81.81
242.83	81.81
243.064	88.81
243.298	73.81
243.531	75.81
243.765	86.81
243.998	81.81
244.232	92.81
244.465	91.81
244.699	70.81
244.932	62.81
245.166	70.81
245.399	64.81
245.633	65.81
245.866	78.81
246.099	64.81
246.333	82.81
246.566	65.81
246.8	68.81
247.033	83.81
247.266	88.81
247.5	90.81
247.733	67.81
247.966	83.81
248.2	62.81
248.433	92.81
248.666	81.81
248.899	80.81
249.133	77.81
249.366	79.81
249.599	75.81
249.832	89.81
250.066	76.81
250.299	75.81
250.532	70.81
250.765	81.81
250.998	82.81
251.231	95.81
251.465	68.81
251.698	70.81
251.931	73.81
252.164	80.81
252.397	76.81
252.63	81.81
252.863	78.81
253.096	72.81
253.329	72.81
253.562	92.81
253.795	86.81
254.028	79.81
254.261	77.81
254.494	69.81
254.727	66.81
254.96	81.81
255.193	77.81
255.426	84.81
255.659	71.81
255.892	100.81
256.124	91.81
256.357	74.81
256.59	82.81
256.823	77.81
257.056	81.81
257.289	84.81
257.521	57.81
257.754	62.81
257.987	79.81
258.22	88.81
258.452	84.81
258.685	72.81
258.918	65.81
259.151	71.81
259.383	91.81
259.616	81.81
259.849	97.81
260.081	73.81
260.314	84.81
260.547	92.81
260.779	84.81
261.012	85.81
261.244	88.81
261.477	74.81
261.71	75.81
261.942	81.81
262.175	85.81
262.407	78.81
262.64	82.81
262.872	91.81
263.105	75.81
263.337	82.81
263.57	64.81
263.802	85.81
264.035	86.81
264.267	83.81
264.499	83.81
264.732	84.81
264.964	79.81
265.197	91.81
265.429	74.81
265.661	75.81
265.894	76.81
266.126	85.81
266.358	75.81
266.591	91.81
266.823	94.81
267.055	85.81
267.287	68.81
267.52	86.81
267.752	73.81
267.984	76.81
268.216	79.81
268.448	82.81
268.681	62.81
268.913	85.81
269.145	70.81
269.377	83.81
269.609	79.81
269.841	79.81
270.073	82.81
270.306	83.81
270.538	76.81
270.77	73.81
271.002	75.81
271.234	76.81
271.466	90.81
271.698	79.81
271.93	81.81
272.162	70.81
272.394	69.81
272.626	85.81
272.858	91.81
273.09	81.81
273.322	89.81
273.553	86.81
273.785	80.81
274.017	71.81
274.249	72.81
274.481	83.81
274.713	72.81
274.945	78.81
275.176	77.81
275.408	76.81
275.64	91.81
275.872	87.81
276.104	91.81
276.335	86.81
276.567	81.81
276.799	78.81
277.031	72.81
277.262	83.81
277.494	93.81
277.726	84.81
277.957	91.81
278.189	85.81
278.421	82.81
278.652	78.81
278.884	76.81
279.115	83.81
279.347	62.81
279.579	70.81
279.81	77.81
280.042	86.81
280.273	76.81
280.505	77.81
280.736	79.81
280.968	90.81
281.199	78.81
281.431	93.81
281.662	72.81
281.894	71.81
282.125	82.81
282.356	90.81
282.588	87.81
282.819	91.81
283.051	78.81
283.282	89.81
283.513	69.81
283.745	88.81
283.976	84.81
284.207	82.81
284.439	84.81
284.67	83.81
284.901	80.81
285.132	84.81
285.364	85.81
285.595	72.81
285.826	78.81
286.057	97.81
286.288	81.81
286.52	72.81
286.751	87.81
286.982	76.81
287.213	77.81
287.444	92.81
287.675	67.81
287.906	88.81
288.138	90.81
288.369	81.81
288.6	88.81
288.831	85.81
289.062	80.81
289.293	81.81
289.524	85.81
289.755	82.81
289.986	72.81
290.217	82.81
290.448	78.81
290.679	81.81
290.91	81.81
291.141	79.81
291.371	90.81
291.602	87.81
291.833	82.81
292.064	78.81
292.295	102.81
292.526	94.81
292.757	78.81
292.987	83.81
293.218	96.81
293.449	90.81
293.68	90.81
293.91	65.81
294.141	71.81
294.372	72.81
294.603	83.81
294.833	66.81
295.064	83.81
295.295	83.81
295.525	91.81
295.756	83.81
295.987	91.81
296.217	88.81
296.448	74.81
296.679	99.81
296.909	84.81
297.14	79.81
297.37	78.81
297.601	79.81
297.831	69.81
298.062	81.81
298.292	81.81
298.523	90.81
298.753	79.81
298.984	79.81
299.214	80.81
299.445	86.81
299.675	96.81
299.905	73.81
300.136	73.81
300.366	94.81
300.597	80.81
300.827	88.81
301.057	93.81
301.288	89.81
301.518	82.81
301.748	86.81
301.979	69.81
302.209	81.81
302.439	84.81
302.669	89.81
302.9	74.81
303.13	88.81
303.36	82.81
303.59	89.81
303.82	97.81
304.051	78.81
304.281	67.81
304.511	90.81
304.741	74.81
304.971	74.81
305.201	91.81
305.431	96.81
305.661	81.81
305.891	95.81
306.121	86.81
306.352	74.81
306.582	85.81
306.812	95.81
307.042	66.81
307.272	77.81
307.502	83.81
307.731	80.81
307.961	92.81
308.191	80.81
308.421	79.81
308.651	69.81
308.881	73.81
309.111	87.81
309.341	86.81
309.571	94.81
309.8	79.81
310.03	81.81
310.26	95.81
310.49	79.81
310.72	80.81
310.949	90.81
311.179	91.81
311.409	88.81
311.639	81.81
311.868	88.81
312.098	90.81
312.328	81.81
312.557	87.81
312.787	87.81
313.017	80.81
313.246	83.81
313.476	102.81
313.706	79.81
313.935	90.81
314.165	81.81
314.394	74.81
314.624	98.81
314.853	90.81
315.083	83.81
315.312	80.81
315.542	89.81
315.771	92.81
316.001	66.81
316.23	84.81
316.46	96.81
316.689	83.81
316.919	85.81
317.148	77.81
317.377	74.81
317.607	78.81
317.836	96.81
318.065	84.81
318.295	83.81
318.524	87.81
318.753	102.81
318.983	78.81
319.212	76.81
319.441	97.81
319.67	89.81
319.9	83.81
320.129	96.81
320.358	91.81
320.587	70.81
320.816	80.81
321.046	93.81
321.275	86.81
321.504	64.81
321.733	83.81
321.962	74.81
322.191	82.81
322.42	87.81
322.649	83.81
322.878	93.81
323.108	82.81
323.337	75.81
323.566	80.81
323.795	81.81
324.024	92.81
324.253	82.81
324.482	76.81
324.71	81.81
324.939	77.81
325.168	75.81
325.397	69.81
325.626	74.81
325.855	73.81
326.084	77.81
326.313	70.81
326.542	82.81
326.77	88.81
326.999	80.81
327.228	81.81
327.457	81.81
327.686	77.81
327.914	88.81
328.143	83.81
328.372	99.81
328.6	85.81
328.829	82.81
329.058	73.81
329.287	90.81
329.515	89.81
329.744	72.81
329.972	88.81
330.201	86.81
330.43	77.81
330.658	82.81
330.887	77.81
331.115	87.81
331.344	77.81
331.572	93.81
331.801	79.81
332.03	91.81
332.258	85.81
332.486	69.81
332.715	80.81
332.943	81.81
333.172	72.81
333.4	79.81
333.629	98.81
333.857	73.81
334.085	64.81
334.314	83.81
334.542	84.81
334.771	86.81
334.999	63.81
335.227	70.81
335.455	77.81
335.684	81.81
335.912	90.81
336.14	93.81
336.369	66.81
336.597	81.81
336.825	72.81
337.053	79.81
337.281	79.81
337.51	80.81
337.738	73.81
337.966	92.81
338.194	83.81
338.422	87.81
338.65	87.81
338.878	73.81
339.106	84.81
339.334	84.81
339.562	74.81
339.79	77.81
340.018	84.81
340.246	90.81
340.474	83.81
340.702	78.81
340.93	84.81
341.158	90.81
341.386	77.81
341.614	79.81
341.842	68.81
342.07	75.81
342.298	70.81
342.526	85.81
342.754	80.81
342.981	94.81
343.209	85.81
343.437	85.81
343.665	80.81
343.893	78.81
344.12	87.81
344.348	82.81
344.576	86.81
344.804	89.81
345.031	85.81
345.259	75.81
345.487	84.81
345.714	64.81
345.942	75.81
346.17	94.81
346.397	97.81
346.625	79.81
346.853	72.81
347.08	90.81
347.308	88.81
347.535	71.81
347.763	82.81
347.99	80.81
348.218	102.81
348.445	79.81
348.673	84.81
348.9	78.81
349.128	83.81
349.355	82.81
349.583	93.81
349.81	93.81
350.037	90.81
350.265	77.81
350.492	87.81
350.72	85.81
350.947	89.81
351.174	86.81
351.402	84.81
351.629	83.81
351.856	74.81
352.083	70.81
352.311	71.81
352.538	92.81
352.765	70.81
352.992	86.81
353.22	87.81
353.447	85.81
353.674	78.81
353.901	97.81
354.128	92.81
354.355	77.81
354.583	69.81
354.81	94.81
355.037	81.81
355.264	91.81
355.491	81.81
355.718	71.81
355.945	63.81
356.172	93.81
356.399	86.81
356.626	89.81
356.853	87.81
357.08	80.81
357.307	90.81
357.534	77.81
357.761	79.81
357.988	87.81
358.215	93.81
358.441	71.81
358.668	80.81
358.895	80.81
359.122	102.81
359.349	88.81
359.576	86.81
359.802	78.81
360.029	87.81
360.256	80.81
360.483	87.81
360.709	82.81
360.936	85.81
361.163	92.81
361.39	72.81
361.616	70.81
361.843	79.81
362.07	85.81
362.296	84.81
362.523	82.81
362.749	88.81
362.976	91.81
363.203	86.81
363.429	79.81
363.656	84.81
363.882	82.81
364.109	80.81
364.335	90.81
364.562	85.81
364.788	91.81
365.015	81.81
365.241	83.81
365.468	78.81
365.694	71.81
365.92	99.81
366.147	82.81
366.373	70.81
366.599	85.81
366.826	77.81
367.052	81.81
367.278	73.81
367.505	70.81
367.731	78.81
367.957	87.81
368.184	87.81
368.41	85.81
368.636	92.81
368.862	73.81
369.089	75.81
369.315	91.81
369.541	88.81
369.767	83.81
369.993	85.81
370.219	72.81
370.445	76.81
370.672	84.81
370.898	82.81
371.124	81.81
371.35	77.81
371.576	72.81
371.802	65.81
372.028	92.81
372.254	78.81
372.48	83.81
372.706	79.81
372.932	84.81
373.158	88.81
373.384	89.81
373.61	85.81
373.835	94.81
374.061	89.81
374.287	82.81
374.513	75.81
374.739	90.81
374.965	79.81
375.191	68.81
375.416	87.81
375.642	84.81
375.868	79.81
376.094	89.81
376.319	90.81
376.545	85.81
376.771	76.81
376.997	94.81
377.222	95.81
377.448	93.81
377.674	93.81
377.899	82.81
378.125	87.81
378.35	93.81
378.576	85.81
378.802	75.81
379.027	85.81
379.253	89.81
379.478	83.81
379.704	80.81
379.929	84.81
380.155	68.81
380.38	99.81
380.606	85.81
380.831	92.81
381.057	93.81
381.282	76.81
381.507	95.81
381.733	86.81
381.958	71.81
382.184	91.81
382.409	85.81
382.634	72.81
382.86	90.81
383.085	82.81
383.31	83.81
383.535	97.81
383.761	82.81
383.986	102.81
384.211	71.81
384.436	86.81
384.662	88.81
384.887	79.81
385.112	76.81
385.337	69.81
385.562	73.81
385.787	88.81
386.013	82.81
386.238	83.81
386.463	72.81
386.688	78.81
386.913	93.81
387.138	79.81
387.363	88.81
387.588	82.81
387.813	88.81
388.038	85.81
388.263	92.81
388.488	82.81
388.713	82.81
388.938	85.81
389.163	99.81
389.387	83.81
389.612	91.81
389.837	84.81
390.062	77.81
390.287	74.81
390.512	85.81
390.736	90.81
390.961	76.81
391.186	103.81
391.411	86.81
391.636	87.81
391.86	79.81
392.085	93.81
392.31	85.81
392.534	86.81
392.759	93.81
392.984	95.81
393.208	94.81
393.433	90.81
393.658	88.81
393.882	81.81
394.107	103.81
394.331	82.81
394.556	79.81
394.78	81.81
395.005	87.81
395.229	81.81
395.454	73.81
395.678	80.81
395.903	98.81
396.127	92.81
396.352	87.81
396.576	90.81
396.801	89.81
397.025	86.81
397.249	81.81
397.474	89.81
397.698	79.81
397.922	89.81
398.147	83.81
398.371	99.81
398.595	80.81
398.82	88.81
399.044	98.81
399.268	89.81
399.492	89.81
399.717	91.81
399.941	76.81
400.165	93.81
400.389	88.81
400.613	90.81
400.837	89.81
401.062	85.81
401.286	81.81
401.51	91.81
401.734	79.81
401.958	102.81
402.182	92.81
402.406	83.81
402.63	86.81
402.854	76.81
403.078	74.81
403.302	73.81
403.526	82.81
403.75	94.81
403.974	97.81
404.198	75.81
404.422	78.81
404.645	96.81
404.869	91.81
405.093	81.81
405.317	75.81
405.541	86.81
405.765	87.81
405.988	95.81
406.212	93.81
406.436	86.81
406.66	94.81
406.883	102.81
407.107	73.81
407.331	88.81
407.555	91.81
407.778	98.81
408.002	88.81
408.226	95.81
408.449	84.81
408.673	95.81
408.896	94.81
409.12	90.81
409.344	76.81
409.567	65.81
409.791	88.81
410.014	94.81
410.238	77.81
410.461	91.81
410.685	88.81
410.908	95.81
411.132	95.81
411.355	87.81
411.578	92.81
411.802	99.81
412.025	95.81
412.249	90.81
412.472	98.81
412.695	87.81
412.919	86.81
413.142	90.81
413.365	88.81
413.589	97.81
413.812	93.81
414.035	96.81
414.258	95.81
414.482	94.81
414.705	77.81
414.928	98.81
415.151	111.81
415.374	95.81
415.597	103.81
415.821	97.81
416.044	100.81
416.267	84.81
416.49	92.81
416.713	82.81
416.936	103.81
417.159	94.81
417.382	98.81
417.605	93.81
417.828	99.81
418.051	101.81
418.274	100.81
418.497	91.81
418.72	106.81
418.943	85.81
419.166	87.81
419.389	97.81
419.611	100.81
419.834	94.81
420.057	99.81
420.28	97.81
420.503	93.81
420.726	113.81
420.948	85.81
421.171	83.81
421.394	103.81
421.617	93.81
421.839	96.81
422.062	98.81
422.285	91.81
422.507	109.81
422.73	105.81
422.953	99.81
423.175	97.81
423.398	104.81
423.621	103.81
423.843	86.81
424.066	92.81
424.288	98.81
424.511	105.81
424.733	99.81
424.956	100.81
425.178	90.81
425.401	99.81
425.623	93.81
425.846	110.81
426.068	98.81
426.291	93.81
426.513	89.81
426.735	86.81
426.958	82.81
427.18	92.81
427.402	94.81
427.625	102.81
427.847	100.81
428.069	80.81
428.292	89.81
428.514	102.81
428.736	100.81
428.958	102.81
429.181	89.81
429.403	85.81
429.625	92.81
429.847	97.81
430.069	93.81
430.292	97.81
430.514	91.81
430.736	79.81
430.958	91.81
431.18	78.81
431.402	93.81
431.624	99.81
431.846	75.81
432.068	97.81
432.29	81.81
432.512	94.81
432.734	80.81
432.956	108.81
433.178	100.81
433.4	85.81
433.622	107.81
433.844	105.81
434.066	88.81
434.287	95.81
434.509	81.81
434.731	91.81
434.953	86.81
435.175	95.81
435.397	91.81
435.618	81.81
435.84	89.81
436.062	90.81
436.284	77.81
436.505	102.81
436.727	94.81
436.949	103.81
437.17	100.81
437.392	86.81
437.614	69.81
437.835	81.81
438.057	96.81
438.278	73.81
438.5	106.81
438.721	92.81
438.943	89.81
439.165	99.81
439.386	86.81
439.608	91.81
439.829	111.81
440.05	103.81
440.272	94.81
440.493	118.81
440.715	99.81
440.936	104.81
441.158	94.81
441.379	100.81
441.6	101.81
441.822	96.81
442.043	95.81
442.264	83.81
442.486	93.81
442.707	112.81
442.928	87.81
443.149	100.81
443.371	78.81
443.592	82.81
443.813	106.81
444.034	92.81
444.255	113.81
444.476	93.81
444.698	104.81
444.919	108.81
445.14	213.81
445.361	150.81
445.582	100.81
445.803	102.81
446.024	88.81
446.245	105.81
446.466	106.81
446.687	101.81
446.908	106.81
447.129	98.81
447.35	103.81
447.571	96.81
447.792	88.81
448.013	93.81
448.234	100.81
448.455	96.81
448.675	92.81
448.896	103.81
449.117	97.81
449.338	101.81
449.559	86.81
449.779	84.81
450	101.81
450.221	105.81
450.442	99.81
450.662	94.81
450.883	96.81
451.104	90.81
451.324	93.81
451.545	95.81
451.766	84.81
451.986	87.81
452.207	89.81
452.428	79.81
452.648	94.81
452.869	98.81
453.089	72.81
453.31	92.81
453.53	79.81
453.751	94.81
453.971	97.81
454.192	94.81
454.412	93.81
454.633	93.81
454.853	85.81
455.073	105.81
455.294	86.81
455.514	87.81
455.734	97.81
455.955	81.81
456.175	78.81
456.395	82.81
456.616	96.81
456.836	106.81
457.056	79.81
457.276	86.81
457.497	95.81
457.717	102.81
457.937	91.81
458.157	89.81
458.377	78.81
458.598	83.81
458.818	96.81
459.038	65.81
459.258	78.81
459.478	86.81
459.698	80.81
459.918	86.81
460.138	88.81
460.358	89.81
460.578	89.81
460.798	103.81
461.018	86.81
461.238	82.81
461.458	84.81
461.678	86.81
461.898	91.81
462.118	95.81
462.338	91.81
462.558	91.81
462.777	97.81
462.997	71.81
463.217	86.81
463.437	75.81
463.657	88.81
463.876	87.81
464.096	95.81
464.316	91.81
464.536	90.81
464.755	86.81
464.975	81.81
465.195	85.81
465.414	93.81
465.634	87.81
465.854	86.81
466.073	102.81
466.293	84.81
466.512	88.81
466.732	87.81
466.951	94.81
467.171	98.81
467.391	101.81
467.61	98.81
467.829	94.81
468.049	81.81
468.268	95.81
468.488	86.81
468.707	88.81
468.927	104.81
469.146	104.81
469.365	118.81
469.585	106.81
469.804	97.81
470.023	98.81
470.243	104.81
470.462	110.81
470.681	93.81
470.901	100.81
471.12	107.81
471.339	97.81
471.558	93.81
471.777	97.81
471.997	89.81
472.216	78.81
472.435	96.81
472.654	90.81
472.873	85.81
473.092	75.81
473.311	97.81
473.53	93.81
473.749	93.81
473.968	102.81
474.187	91.81
474.406	86.81
474.625	106.81
474.844	104.81
475.063	89.81
475.282	95.81
475.501	83.81
475.72	90.81
475.939	97.81
476.158	102.81
476.377	99.81
476.596	102.81
476.814	100.81
477.033	93.81
477.252	94.81
477.471	89.81
477.69	103.81
477.908	92.81
478.127	103.81
478.346	82.81
478.564	106.81
478.783	110.81
479.002	86.81
479.22	95.81
479.439	100.81
479.658	98.81
479.876	83.81
480.095	91.81
480.313	96.81
480.532	84.81
480.751	87.81
480.969	72.81
481.188	97.81
481.406	93.81
481.624	91.81
481.843	91.81
482.061	74.81
482.28	86.81
482.498	85.81
482.717	85.81
482.935	88.81
483.153	93.81
483.372	102.81
483.59	94.81
483.808	109.81
484.027	96.81
484.245	102.81
484.463	93.81
484.681	103.81
484.9	95.81
485.118	106.81
485.336	105.81
485.554	93.81
485.772	80.81
485.99	80.81
486.209	99.81
486.427	86.81
486.645	91.81
486.863	92.81
487.081	104.81
487.299	85.81
487.517	107.81
487.735	97.81
487.953	112.81
488.171	115.81
488.389	109.81
488.607	107.81
488.825	77.81
489.043	101.81
489.261	83.81
489.479	110.81
489.696	110.81
489.914	97.81
490.132	108.81
490.35	98.81
490.568	113.81
490.786	101.81
491.003	110.81
491.221	104.81
491.439	104.81
491.657	94.81
491.874	106.81
492.092	119.81
492.31	123.81
492.527	117.81
492.745	117.81
492.963	113.81
493.18	104.81
493.398	113.81
493.615	107.81
493.833	122.81
494.05	116.81
494.268	92.81
494.485	109.81
494.703	121.81
494.92	114.81
495.138	113.81
495.355	116.81
495.573	104.81
495.79	105.81
496.008	109.81
496.225	104.81
496.442	97.81
496.66	96.81
496.877	104.81
497.094	102.81
497.312	91.81
497.529	89.81
497.746	117.81
497.963	103.81
498.181	93.81
498.398	95.81
498.615	104.81
498.832	73.81
499.049	95.81
499.267	79.81
499.484	86.81
499.701	99.81
499.918	93.81
500.135	96.81
500.352	104.81
500.569	101.81
500.786	114.81
501.003	97.81
501.22	111.81
501.437	111.81
501.654	98.81
501.871	90.81
502.088	78.81
502.305	107.81
502.522	96.81
502.739	82.81
502.956	93.81
503.172	95.81
503.389	97.81
503.606	84.81
503.823	88.81
504.04	86.81
504.256	94.81
504.473	97.81
504.69	91.81
504.907	109.81
505.123	98.81
505.34	80.81
505.557	95.81
505.773	98.81
505.99	88.81
506.207	98.81
506.423	90.81
506.64	81.81
506.856	94.81
507.073	95.81
507.289	95.81
507.506	85.81
507.722	93.81
507.939	101.81
508.155	83.81
508.372	105.81
508.588	85.81
508.805	79.81
509.021	79.81
509.238	102.81
509.454	97.81
509.67	94.81
509.887	80.81
510.103	86.81
510.319	80.81
510.536	84.81
510.752	86.81
510.968	86.81
511.184	82.81
511.401	75.81
511.617	86.81
511.833	92.81
512.049	101.81
512.265	91.81
512.481	86.81
512.698	80.81
512.914	98.81
513.13	87.81
513.346	71.81
513.562	103.81
513.778	81.81
513.994	93.81
514.21	81.81
514.426	90.81
514.642	80.81
514.858	76.81
515.074	97.81
515.29	87.81
515.506	77.81
515.721	79.81
515.937	90.81
516.153	82.81
516.369	82.81
516.585	86.81
516.801	83.81
517.016	88.81
517.232	85.81
517.448	76.81
