Data from Location3.07152019.Energy5.Lamp.07192019.3%Agarose_HRD10591_15-17-52-269.txt Node
Date: Fri Jul 19 15:17:52 EDT 2019
User: cochatt
Spectrometer: HR+D1059
Trigger mode: 1
Integration Time (sec): 1.000000E-1
Scans to average: 1
Electric dark correction enabled: true
Nonlinearity correction enabled: false
Boxcar width: 0
XAxis mode: Wavelengths
Number of Pixels in Spectrum: 2048
>>>>>Begin Spectral Data<<<<<
223.165	-13.25
223.4	-13.25
223.635	-13.25
223.869	-16.25
224.104	-11.25
224.338	-2.25
224.573	-12.25
224.808	-15.25
225.042	-19.25
225.277	-6.25
225.511	0.75
225.746	10.75
225.98	0.75
226.215	2.75
226.449	5.75
226.683	22.75
226.918	28.75
227.152	23.75
227.387	24.75
227.621	29.75
227.856	39.75
228.09	44.75
228.324	43.75
228.559	58.75
228.793	49.75
229.027	80.75
229.262	68.75
229.496	58.75
229.73	59.75
229.964	62.75
230.199	78.75
230.433	71.75
230.667	70.75
230.901	72.75
231.136	78.75
231.37	67.75
231.604	77.75
231.838	79.75
232.072	94.75
232.306	78.75
232.541	89.75
232.775	93.75
233.009	79.75
233.243	72.75
233.477	80.75
233.711	76.75
233.945	68.75
234.179	98.75
234.413	78.75
234.647	87.75
234.881	69.75
235.115	78.75
235.349	78.75
235.583	82.75
235.817	82.75
236.051	69.75
236.285	82.75
236.519	81.75
236.753	70.75
236.987	80.75
237.221	71.75
237.455	76.75
237.689	73.75
237.922	74.75
238.156	74.75
238.39	76.75
238.624	72.75
238.858	73.75
239.091	80.75
239.325	77.75
239.559	79.75
239.793	68.75
240.027	92.75
240.26	79.75
240.494	71.75
240.728	84.75
240.961	66.75
241.195	86.75
241.429	74.75
241.662	73.75
241.896	67.75
242.13	80.75
242.363	82.75
242.597	80.75
242.83	76.75
243.064	65.75
243.298	72.75
243.531	94.75
243.765	76.75
243.998	75.75
244.232	82.75
244.465	89.75
244.699	66.75
244.932	77.75
245.166	71.75
245.399	73.75
245.633	74.75
245.866	68.75
246.099	76.75
246.333	67.75
246.566	68.75
246.8	72.75
247.033	76.75
247.266	73.75
247.5	86.75
247.733	80.75
247.966	73.75
248.2	80.75
248.433	73.75
248.666	78.75
248.899	80.75
249.133	58.75
249.366	68.75
249.599	69.75
249.832	65.75
250.066	82.75
250.299	74.75
250.532	72.75
250.765	77.75
250.998	81.75
251.231	78.75
251.465	94.75
251.698	79.75
251.931	80.75
252.164	79.75
252.397	86.75
252.63	67.75
252.863	74.75
253.096	83.75
253.329	82.75
253.562	78.75
253.795	86.75
254.028	62.75
254.261	85.75
254.494	79.75
254.727	71.75
254.96	86.75
255.193	65.75
255.426	64.75
255.659	73.75
255.892	83.75
256.124	71.75
256.357	71.75
256.59	86.75
256.823	87.75
257.056	84.75
257.289	69.75
257.521	78.75
257.754	92.75
257.987	75.75
258.22	88.75
258.452	73.75
258.685	82.75
258.918	88.75
259.151	77.75
259.383	74.75
259.616	69.75
259.849	68.75
260.081	79.75
260.314	72.75
260.547	81.75
260.779	77.75
261.012	81.75
261.244	84.75
261.477	83.75
261.71	90.75
261.942	99.75
262.175	73.75
262.407	84.75
262.64	78.75
262.872	69.75
263.105	58.75
263.337	61.75
263.57	90.75
263.802	89.75
264.035	87.75
264.267	73.75
264.499	88.75
264.732	84.75
264.964	85.75
265.197	83.75
265.429	96.75
265.661	92.75
265.894	86.75
266.126	71.75
266.358	90.75
266.591	86.75
266.823	80.75
267.055	81.75
267.287	96.75
267.52	81.75
267.752	75.75
267.984	74.75
268.216	79.75
268.448	78.75
268.681	89.75
268.913	84.75
269.145	80.75
269.377	73.75
269.609	92.75
269.841	73.75
270.073	73.75
270.306	90.75
270.538	79.75
270.77	86.75
271.002	89.75
271.234	83.75
271.466	101.75
271.698	71.75
271.93	66.75
272.162	81.75
272.394	92.75
272.626	69.75
272.858	80.75
273.09	77.75
273.322	85.75
273.553	97.75
273.785	79.75
274.017	92.75
274.249	87.75
274.481	83.75
274.713	79.75
274.945	87.75
275.176	73.75
275.408	83.75
275.64	75.75
275.872	75.75
276.104	81.75
276.335	84.75
276.567	76.75
276.799	65.75
277.031	74.75
277.262	69.75
277.494	81.75
277.726	64.75
277.957	76.75
278.189	91.75
278.421	79.75
278.652	88.75
278.884	76.75
279.115	77.75
279.347	86.75
279.579	77.75
279.81	78.75
280.042	94.75
280.273	79.75
280.505	81.75
280.736	87.75
280.968	102.75
281.199	93.75
281.431	84.75
281.662	68.75
281.894	76.75
282.125	85.75
282.356	85.75
282.588	82.75
282.819	86.75
283.051	86.75
283.282	81.75
283.513	96.75
283.745	88.75
283.976	81.75
284.207	73.75
284.439	92.75
284.67	85.75
284.901	95.75
285.132	90.75
285.364	86.75
285.595	87.75
285.826	86.75
286.057	66.75
286.288	84.75
286.52	96.75
286.751	85.75
286.982	92.75
287.213	80.75
287.444	93.75
287.675	81.75
287.906	77.75
288.138	82.75
288.369	80.75
288.6	77.75
288.831	92.75
289.062	88.75
289.293	82.75
289.524	77.75
289.755	86.75
289.986	83.75
290.217	75.75
290.448	80.75
290.679	86.75
290.91	84.75
291.141	86.75
291.371	78.75
291.602	72.75
291.833	83.75
292.064	83.75
292.295	88.75
292.526	89.75
292.757	85.75
292.987	87.75
293.218	73.75
293.449	90.75
293.68	60.75
293.91	72.75
294.141	92.75
294.372	83.75
294.603	82.75
294.833	96.75
295.064	79.75
295.295	81.75
295.525	69.75
295.756	80.75
295.987	77.75
296.217	73.75
296.448	82.75
296.679	89.75
296.909	80.75
297.14	84.75
297.37	88.75
297.601	82.75
297.831	81.75
298.062	92.75
298.292	83.75
298.523	86.75
298.753	89.75
298.984	72.75
299.214	97.75
299.445	88.75
299.675	94.75
299.905	82.75
300.136	88.75
300.366	78.75
300.597	85.75
300.827	84.75
301.057	80.75
301.288	90.75
301.518	81.75
301.748	89.75
301.979	81.75
302.209	78.75
302.439	75.75
302.669	79.75
302.9	88.75
303.13	72.75
303.36	85.75
303.59	85.75
303.82	73.75
304.051	99.75
304.281	85.75
304.511	86.75
304.741	88.75
304.971	83.75
305.201	98.75
305.431	69.75
305.661	76.75
305.891	80.75
306.121	92.75
306.352	88.75
306.582	80.75
306.812	66.75
307.042	77.75
307.272	78.75
307.502	76.75
307.731	71.75
307.961	76.75
308.191	80.75
308.421	79.75
308.651	88.75
308.881	82.75
309.111	71.75
309.341	83.75
309.571	98.75
309.8	101.75
310.03	90.75
310.26	80.75
310.49	74.75
310.72	90.75
310.949	95.75
311.179	87.75
311.409	84.75
311.639	87.75
311.868	82.75
312.098	82.75
312.328	82.75
312.557	78.75
312.787	80.75
313.017	91.75
313.246	81.75
313.476	68.75
313.706	87.75
313.935	80.75
314.165	71.75
314.394	86.75
314.624	88.75
314.853	91.75
315.083	84.75
315.312	81.75
315.542	102.75
315.771	80.75
316.001	86.75
316.23	86.75
316.46	93.75
316.689	81.75
316.919	65.75
317.148	72.75
317.377	75.75
317.607	73.75
317.836	76.75
318.065	79.75
318.295	64.75
318.524	77.75
318.753	86.75
318.983	80.75
319.212	83.75
319.441	75.75
319.67	82.75
319.9	86.75
320.129	81.75
320.358	83.75
320.587	80.75
320.816	75.75
321.046	68.75
321.275	90.75
321.504	85.75
321.733	79.75
321.962	82.75
322.191	83.75
322.42	87.75
322.649	86.75
322.878	92.75
323.108	82.75
323.337	80.75
323.566	84.75
323.795	86.75
324.024	105.75
324.253	89.75
324.482	84.75
324.71	94.75
324.939	92.75
325.168	80.75
325.397	74.75
325.626	69.75
325.855	79.75
326.084	93.75
326.313	86.75
326.542	76.75
326.77	80.75
326.999	82.75
327.228	84.75
327.457	67.75
327.686	75.75
327.914	90.75
328.143	103.75
328.372	81.75
328.6	82.75
328.829	74.75
329.058	80.75
329.287	83.75
329.515	87.75
329.744	96.75
329.972	96.75
330.201	84.75
330.43	83.75
330.658	90.75
330.887	74.75
331.115	92.75
331.344	89.75
331.572	82.75
331.801	89.75
332.03	71.75
332.258	80.75
332.486	78.75
332.715	62.75
332.943	85.75
333.172	74.75
333.4	76.75
333.629	73.75
333.857	82.75
334.085	73.75
334.314	82.75
334.542	97.75
334.771	86.75
334.999	83.75
335.227	79.75
335.455	89.75
335.684	88.75
335.912	76.75
336.14	69.75
336.369	72.75
336.597	87.75
336.825	94.75
337.053	89.75
337.281	84.75
337.51	67.75
337.738	79.75
337.966	86.75
338.194	73.75
338.422	78.75
338.65	75.75
338.878	85.75
339.106	78.75
339.334	84.75
339.562	84.75
339.79	83.75
340.018	83.75
340.246	74.75
340.474	72.75
340.702	82.75
340.93	90.75
341.158	79.75
341.386	86.75
341.614	85.75
341.842	75.75
342.07	77.75
342.298	94.75
342.526	76.75
342.754	82.75
342.981	84.75
343.209	75.75
343.437	80.75
343.665	83.75
343.893	84.75
344.12	84.75
344.348	85.75
344.576	80.75
344.804	84.75
345.031	74.75
345.259	76.75
345.487	97.75
345.714	78.75
345.942	95.75
346.17	91.75
346.397	77.75
346.625	81.75
346.853	85.75
347.08	85.75
347.308	84.75
347.535	100.75
347.763	90.75
347.99	84.75
348.218	88.75
348.445	79.75
348.673	82.75
348.9	84.75
349.128	108.75
349.355	84.75
349.583	72.75
349.81	62.75
350.037	82.75
350.265	75.75
350.492	90.75
350.72	89.75
350.947	79.75
351.174	76.75
351.402	82.75
351.629	78.75
351.856	82.75
352.083	81.75
352.311	75.75
352.538	81.75
352.765	79.75
352.992	92.75
353.22	83.75
353.447	82.75
353.674	70.75
353.901	89.75
354.128	76.75
354.355	83.75
354.583	72.75
354.81	77.75
355.037	84.75
355.264	85.75
355.491	78.75
355.718	83.75
355.945	85.75
356.172	73.75
356.399	82.75
356.626	72.75
356.853	87.75
357.08	89.75
357.307	82.75
357.534	80.75
357.761	81.75
357.988	83.75
358.215	73.75
358.441	69.75
358.668	95.75
358.895	87.75
359.122	82.75
359.349	60.75
359.576	70.75
359.802	76.75
360.029	77.75
360.256	105.75
360.483	92.75
360.709	84.75
360.936	97.75
361.163	85.75
361.39	82.75
361.616	88.75
361.843	78.75
362.07	88.75
362.296	84.75
362.523	73.75
362.749	65.75
362.976	84.75
363.203	80.75
363.429	86.75
363.656	87.75
363.882	78.75
364.109	78.75
364.335	81.75
364.562	97.75
364.788	82.75
365.015	80.75
365.241	68.75
365.468	79.75
365.694	71.75
365.92	75.75
366.147	75.75
366.373	93.75
366.599	79.75
366.826	82.75
367.052	74.75
367.278	92.75
367.505	74.75
367.731	76.75
367.957	81.75
368.184	78.75
368.41	69.75
368.636	79.75
368.862	96.75
369.089	74.75
369.315	79.75
369.541	80.75
369.767	75.75
369.993	75.75
370.219	78.75
370.445	78.75
370.672	81.75
370.898	71.75
371.124	72.75
371.35	77.75
371.576	79.75
371.802	93.75
372.028	67.75
372.254	89.75
372.48	80.75
372.706	83.75
372.932	84.75
373.158	82.75
373.384	85.75
373.61	74.75
373.835	94.75
374.061	90.75
374.287	80.75
374.513	74.75
374.739	74.75
374.965	86.75
375.191	79.75
375.416	89.75
375.642	88.75
375.868	83.75
376.094	89.75
376.319	73.75
376.545	84.75
376.771	85.75
376.997	79.75
377.222	77.75
377.448	74.75
377.674	92.75
377.899	84.75
378.125	85.75
378.35	82.75
378.576	81.75
378.802	83.75
379.027	89.75
379.253	78.75
379.478	87.75
379.704	89.75
379.929	76.75
380.155	91.75
380.38	88.75
380.606	90.75
380.831	73.75
381.057	77.75
381.282	94.75
381.507	77.75
381.733	91.75
381.958	85.75
382.184	81.75
382.409	80.75
382.634	82.75
382.86	84.75
383.085	72.75
383.31	86.75
383.535	75.75
383.761	85.75
383.986	72.75
384.211	69.75
384.436	78.75
384.662	89.75
384.887	98.75
385.112	91.75
385.337	80.75
385.562	89.75
385.787	80.75
386.013	97.75
386.238	84.75
386.463	79.75
386.688	80.75
386.913	92.75
387.138	87.75
387.363	84.75
387.588	92.75
387.813	99.75
388.038	70.75
388.263	98.75
388.488	88.75
388.713	86.75
388.938	91.75
389.163	90.75
389.387	70.75
389.612	85.75
389.837	89.75
390.062	77.75
390.287	90.75
390.512	84.75
390.736	90.75
390.961	87.75
391.186	84.75
391.411	93.75
391.636	82.75
391.86	79.75
392.085	68.75
392.31	78.75
392.534	82.75
392.759	79.75
392.984	77.75
393.208	87.75
393.433	84.75
393.658	96.75
393.882	83.75
394.107	80.75
394.331	57.75
394.556	84.75
394.78	80.75
395.005	82.75
395.229	90.75
395.454	96.75
395.678	83.75
395.903	82.75
396.127	79.75
396.352	76.75
396.576	73.75
396.801	84.75
397.025	82.75
397.249	84.75
397.474	100.75
397.698	93.75
397.922	85.75
398.147	82.75
398.371	92.75
398.595	95.75
398.82	74.75
399.044	65.75
399.268	81.75
399.492	86.75
399.717	84.75
399.941	81.75
400.165	84.75
400.389	86.75
400.613	87.75
400.837	77.75
401.062	92.75
401.286	81.75
401.51	93.75
401.734	91.75
401.958	85.75
402.182	98.75
402.406	99.75
402.63	91.75
402.854	93.75
403.078	87.75
403.302	88.75
403.526	73.75
403.75	83.75
403.974	100.75
404.198	80.75
404.422	95.75
404.645	84.75
404.869	89.75
405.093	96.75
405.317	94.75
405.541	96.75
405.765	94.75
405.988	89.75
406.212	94.75
406.436	94.75
406.66	90.75
406.883	80.75
407.107	88.75
407.331	84.75
407.555	80.75
407.778	81.75
408.002	77.75
408.226	82.75
408.449	94.75
408.673	82.75
408.896	89.75
409.12	76.75
409.344	92.75
409.567	93.75
409.791	92.75
410.014	92.75
410.238	93.75
410.461	84.75
410.685	88.75
410.908	87.75
411.132	90.75
411.355	81.75
411.578	88.75
411.802	98.75
412.025	85.75
412.249	78.75
412.472	82.75
412.695	101.75
412.919	86.75
413.142	72.75
413.365	86.75
413.589	91.75
413.812	90.75
414.035	91.75
414.258	85.75
414.482	58.75
414.705	93.75
414.928	83.75
415.151	86.75
415.374	86.75
415.597	83.75
415.821	97.75
416.044	87.75
416.267	81.75
416.49	89.75
416.713	90.75
416.936	80.75
417.159	90.75
417.382	82.75
417.605	88.75
417.828	94.75
418.051	101.75
418.274	84.75
418.497	81.75
418.72	94.75
418.943	93.75
419.166	88.75
419.389	92.75
419.611	97.75
419.834	100.75
420.057	85.75
420.28	92.75
420.503	100.75
420.726	93.75
420.948	95.75
421.171	95.75
421.394	89.75
421.617	88.75
421.839	92.75
422.062	97.75
422.285	100.75
422.507	97.75
422.73	95.75
422.953	86.75
423.175	82.75
423.398	75.75
423.621	85.75
423.843	78.75
424.066	86.75
424.288	92.75
424.511	94.75
424.733	95.75
424.956	98.75
425.178	103.75
425.401	89.75
425.623	94.75
425.846	78.75
426.068	98.75
426.291	103.75
426.513	94.75
426.735	88.75
426.958	111.75
427.18	96.75
427.402	94.75
427.625	94.75
427.847	80.75
428.069	80.75
428.292	102.75
428.514	88.75
428.736	80.75
428.958	83.75
429.181	90.75
429.403	93.75
429.625	89.75
429.847	96.75
430.069	87.75
430.292	84.75
430.514	92.75
430.736	102.75
430.958	104.75
431.18	97.75
431.402	92.75
431.624	84.75
431.846	93.75
432.068	74.75
432.29	79.75
432.512	86.75
432.734	96.75
432.956	98.75
433.178	98.75
433.4	97.75
433.622	90.75
433.844	95.75
434.066	78.75
434.287	84.75
434.509	88.75
434.731	76.75
434.953	92.75
435.175	87.75
435.397	98.75
435.618	92.75
435.84	79.75
436.062	90.75
436.284	95.75
436.505	90.75
436.727	87.75
436.949	85.75
437.17	96.75
437.392	89.75
437.614	81.75
437.835	85.75
438.057	88.75
438.278	78.75
438.5	83.75
438.721	85.75
438.943	89.75
439.165	83.75
439.386	86.75
439.608	102.75
439.829	94.75
440.05	91.75
440.272	104.75
440.493	95.75
440.715	99.75
440.936	96.75
441.158	85.75
441.379	83.75
441.6	93.75
441.822	108.75
442.043	84.75
442.264	101.75
442.486	89.75
442.707	93.75
442.928	90.75
443.149	96.75
443.371	86.75
443.592	98.75
443.813	93.75
444.034	98.75
444.255	102.75
444.476	104.75
444.698	101.75
444.919	82.75
445.14	164.75
445.361	128.75
445.582	93.75
445.803	93.75
446.024	92.75
446.245	101.75
446.466	93.75
446.687	89.75
446.908	102.75
447.129	104.75
447.35	106.75
447.571	84.75
447.792	102.75
448.013	90.75
448.234	94.75
448.455	89.75
448.675	93.75
448.896	103.75
449.117	89.75
449.338	78.75
449.559	88.75
449.779	110.75
450	106.75
450.221	75.75
450.442	90.75
450.662	92.75
450.883	96.75
451.104	79.75
451.324	88.75
451.545	58.75
451.766	74.75
451.986	95.75
452.207	95.75
452.428	85.75
452.648	93.75
452.869	87.75
453.089	85.75
453.31	92.75
453.53	82.75
453.751	92.75
453.971	92.75
454.192	85.75
454.412	89.75
454.633	104.75
454.853	82.75
455.073	94.75
455.294	90.75
455.514	99.75
455.734	87.75
455.955	84.75
456.175	89.75
456.395	86.75
456.616	79.75
456.836	82.75
457.056	86.75
457.276	103.75
457.497	80.75
457.717	95.75
457.937	83.75
458.157	96.75
458.377	73.75
458.598	86.75
458.818	88.75
459.038	89.75
459.258	71.75
459.478	89.75
459.698	71.75
459.918	86.75
460.138	88.75
460.358	89.75
460.578	93.75
460.798	81.75
461.018	97.75
461.238	97.75
461.458	89.75
461.678	86.75
461.898	99.75
462.118	96.75
462.338	83.75
462.558	88.75
462.777	99.75
462.997	76.75
463.217	65.75
463.437	93.75
463.657	99.75
463.876	94.75
464.096	80.75
464.316	72.75
464.536	71.75
464.755	76.75
464.975	84.75
465.195	87.75
465.414	81.75
465.634	100.75
465.854	102.75
466.073	80.75
466.293	95.75
466.512	80.75
466.732	101.75
466.951	94.75
467.171	93.75
467.391	82.75
467.61	102.75
467.829	109.75
468.049	98.75
468.268	94.75
468.488	89.75
468.707	98.75
468.927	95.75
469.146	79.75
469.365	92.75
469.585	86.75
469.804	95.75
470.023	101.75
470.243	100.75
470.462	101.75
470.681	102.75
470.901	99.75
471.12	101.75
471.339	91.75
471.558	86.75
471.777	102.75
471.997	87.75
472.216	96.75
472.435	87.75
472.654	81.75
472.873	93.75
473.092	87.75
473.311	100.75
473.53	97.75
473.749	91.75
473.968	95.75
474.187	81.75
474.406	75.75
474.625	94.75
474.844	96.75
475.063	94.75
475.282	81.75
475.501	86.75
475.72	96.75
475.939	83.75
476.158	82.75
476.377	102.75
476.596	80.75
476.814	78.75
477.033	88.75
477.252	94.75
477.471	88.75
477.69	96.75
477.908	96.75
478.127	103.75
478.346	96.75
478.564	89.75
478.783	89.75
479.002	97.75
479.22	96.75
479.439	83.75
479.658	83.75
479.876	85.75
480.095	89.75
480.313	98.75
480.532	89.75
480.751	86.75
480.969	82.75
481.188	86.75
481.406	91.75
481.624	67.75
481.843	86.75
482.061	98.75
482.28	93.75
482.498	98.75
482.717	87.75
482.935	89.75
483.153	97.75
483.372	99.75
483.59	102.75
483.808	99.75
484.027	101.75
484.245	101.75
484.463	102.75
484.681	102.75
484.9	90.75
485.118	92.75
485.336	106.75
485.554	81.75
485.772	81.75
485.99	89.75
486.209	78.75
486.427	82.75
486.645	98.75
486.863	96.75
487.081	96.75
487.299	88.75
487.517	99.75
487.735	101.75
487.953	106.75
488.171	101.75
488.389	99.75
488.607	97.75
488.825	104.75
489.043	94.75
489.261	94.75
489.479	100.75
489.696	117.75
489.914	81.75
490.132	106.75
490.35	98.75
490.568	93.75
490.786	90.75
491.003	105.75
491.221	111.75
491.439	108.75
491.657	116.75
491.874	111.75
492.092	115.75
492.31	129.75
492.527	142.75
492.745	114.75
492.963	118.75
493.18	109.75
493.398	96.75
493.615	94.75
493.833	109.75
494.05	108.75
494.268	110.75
494.485	102.75
494.703	114.75
494.92	95.75
495.138	105.75
495.355	114.75
495.573	108.75
495.79	111.75
496.008	112.75
496.225	110.75
496.442	96.75
496.66	117.75
496.877	110.75
497.094	105.75
497.312	99.75
497.529	105.75
497.746	108.75
497.963	90.75
498.181	93.75
498.398	90.75
498.615	103.75
498.832	99.75
499.049	88.75
499.267	88.75
499.484	97.75
499.701	89.75
499.918	105.75
500.135	101.75
500.352	107.75
500.569	101.75
500.786	104.75
501.003	92.75
501.22	92.75
501.437	106.75
501.654	97.75
501.871	91.75
502.088	84.75
502.305	99.75
502.522	96.75
502.739	101.75
502.956	91.75
503.172	70.75
503.389	88.75
503.606	86.75
503.823	103.75
504.04	100.75
504.256	93.75
504.473	77.75
504.69	88.75
504.907	93.75
505.123	106.75
505.34	108.75
505.557	88.75
505.773	96.75
505.99	97.75
506.207	96.75
506.423	72.75
506.64	85.75
506.856	103.75
507.073	90.75
507.289	88.75
507.506	110.75
507.722	73.75
507.939	84.75
508.155	86.75
508.372	84.75
508.588	100.75
508.805	94.75
509.021	86.75
509.238	83.75
509.454	94.75
509.67	97.75
509.887	90.75
510.103	87.75
510.319	86.75
510.536	79.75
510.752	81.75
510.968	75.75
511.184	76.75
511.401	85.75
511.617	72.75
511.833	86.75
512.049	82.75
512.265	90.75
512.481	84.75
512.698	103.75
512.914	85.75
513.13	90.75
513.346	78.75
513.562	88.75
513.778	82.75
513.994	86.75
514.21	78.75
514.426	85.75
514.642	92.75
514.858	91.75
515.074	84.75
515.29	87.75
515.506	76.75
515.721	97.75
515.937	97.75
516.153	86.75
516.369	75.75
516.585	78.75
516.801	70.75
517.016	74.75
517.232	87.75
517.448	84.75
517.664	80.75
517.879	83.75
