Data from Location3.07152019.Energy5.Lamp.07192019.3%Agarose_HRD10591_15-18-25-269.txt Node
Date: Fri Jul 19 15:18:25 EDT 2019
User: cochatt
Spectrometer: HR+D1059
Trigger mode: 1
Integration Time (sec): 1.000000E-1
Scans to average: 1
Electric dark correction enabled: true
Nonlinearity correction enabled: false
Boxcar width: 0
XAxis mode: Wavelengths
Number of Pixels in Spectrum: 2048
>>>>>Begin Spectral Data<<<<<
223.165	-22.19
223.4	-22.19
223.635	-22.19
223.869	-10.19
224.104	-3.19
224.338	-6.19
224.573	-19.19
224.808	-20.19
225.042	-14.19
225.277	-6.19
225.511	-2.19
225.746	8.81
225.98	4.81
226.215	5.81
226.449	7.81
226.683	15.81
226.918	23.81
227.152	36.81
227.387	29.81
227.621	33.81
227.856	42.81
228.09	48.81
228.324	60.81
228.559	69.81
228.793	59.81
229.027	59.81
229.262	72.81
229.496	57.81
229.73	73.81
229.964	63.81
230.199	62.81
230.433	68.81
230.667	77.81
230.901	66.81
231.136	83.81
231.37	75.81
231.604	85.81
231.838	71.81
232.072	84.81
232.306	72.81
232.541	64.81
232.775	75.81
233.009	68.81
233.243	75.81
233.477	82.81
233.711	75.81
233.945	83.81
234.179	72.81
234.413	81.81
234.647	92.81
234.881	86.81
235.115	84.81
235.349	85.81
235.583	88.81
235.817	85.81
236.051	70.81
236.285	89.81
236.519	68.81
236.753	77.81
236.987	81.81
237.221	85.81
237.455	75.81
237.689	76.81
237.922	73.81
238.156	84.81
238.39	76.81
238.624	76.81
238.858	81.81
239.091	75.81
239.325	90.81
239.559	87.81
239.793	75.81
240.027	87.81
240.26	88.81
240.494	65.81
240.728	76.81
240.961	70.81
241.195	84.81
241.429	76.81
241.662	83.81
241.896	85.81
242.13	84.81
242.363	87.81
242.597	79.81
242.83	76.81
243.064	74.81
243.298	69.81
243.531	77.81
243.765	73.81
243.998	85.81
244.232	75.81
244.465	77.81
244.699	61.81
244.932	75.81
245.166	89.81
245.399	84.81
245.633	83.81
245.866	83.81
246.099	74.81
246.333	86.81
246.566	89.81
246.8	80.81
247.033	86.81
247.266	77.81
247.5	79.81
247.733	70.81
247.966	65.81
248.2	72.81
248.433	67.81
248.666	79.81
248.899	86.81
249.133	91.81
249.366	88.81
249.599	67.81
249.832	75.81
250.066	93.81
250.299	86.81
250.532	69.81
250.765	67.81
250.998	74.81
251.231	80.81
251.465	72.81
251.698	77.81
251.931	74.81
252.164	99.81
252.397	82.81
252.63	72.81
252.863	73.81
253.096	87.81
253.329	76.81
253.562	84.81
253.795	81.81
254.028	84.81
254.261	67.81
254.494	82.81
254.727	79.81
254.96	76.81
255.193	78.81
255.426	87.81
255.659	85.81
255.892	78.81
256.124	77.81
256.357	83.81
256.59	79.81
256.823	83.81
257.056	76.81
257.289	69.81
257.521	87.81
257.754	82.81
257.987	81.81
258.22	86.81
258.452	81.81
258.685	89.81
258.918	83.81
259.151	79.81
259.383	81.81
259.616	75.81
259.849	69.81
260.081	75.81
260.314	89.81
260.547	79.81
260.779	77.81
261.012	78.81
261.244	75.81
261.477	80.81
261.71	90.81
261.942	75.81
262.175	95.81
262.407	85.81
262.64	65.81
262.872	83.81
263.105	69.81
263.337	82.81
263.57	78.81
263.802	55.81
264.035	86.81
264.267	90.81
264.499	83.81
264.732	81.81
264.964	83.81
265.197	92.81
265.429	104.81
265.661	85.81
265.894	83.81
266.126	98.81
266.358	90.81
266.591	93.81
266.823	72.81
267.055	68.81
267.287	75.81
267.52	92.81
267.752	91.81
267.984	98.81
268.216	79.81
268.448	71.81
268.681	75.81
268.913	72.81
269.145	82.81
269.377	81.81
269.609	86.81
269.841	84.81
270.073	91.81
270.306	88.81
270.538	68.81
270.77	93.81
271.002	99.81
271.234	80.81
271.466	85.81
271.698	80.81
271.93	89.81
272.162	84.81
272.394	84.81
272.626	92.81
272.858	86.81
273.09	87.81
273.322	94.81
273.553	87.81
273.785	89.81
274.017	89.81
274.249	74.81
274.481	87.81
274.713	82.81
274.945	82.81
275.176	86.81
275.408	83.81
275.64	78.81
275.872	79.81
276.104	85.81
276.335	83.81
276.567	81.81
276.799	74.81
277.031	90.81
277.262	99.81
277.494	96.81
277.726	83.81
277.957	85.81
278.189	78.81
278.421	95.81
278.652	86.81
278.884	90.81
279.115	83.81
279.347	85.81
279.579	75.81
279.81	88.81
280.042	76.81
280.273	77.81
280.505	76.81
280.736	81.81
280.968	79.81
281.199	74.81
281.431	84.81
281.662	73.81
281.894	85.81
282.125	93.81
282.356	89.81
282.588	82.81
282.819	93.81
283.051	89.81
283.282	84.81
283.513	100.81
283.745	79.81
283.976	90.81
284.207	83.81
284.439	82.81
284.67	78.81
284.901	89.81
285.132	84.81
285.364	81.81
285.595	89.81
285.826	76.81
286.057	80.81
286.288	92.81
286.52	75.81
286.751	80.81
286.982	75.81
287.213	68.81
287.444	90.81
287.675	95.81
287.906	88.81
288.138	80.81
288.369	85.81
288.6	91.81
288.831	72.81
289.062	77.81
289.293	82.81
289.524	95.81
289.755	75.81
289.986	87.81
290.217	81.81
290.448	88.81
290.679	85.81
290.91	97.81
291.141	74.81
291.371	80.81
291.602	84.81
291.833	85.81
292.064	83.81
292.295	83.81
292.526	84.81
292.757	82.81
292.987	82.81
293.218	72.81
293.449	98.81
293.68	86.81
293.91	81.81
294.141	77.81
294.372	79.81
294.603	84.81
294.833	90.81
295.064	69.81
295.295	74.81
295.525	81.81
295.756	81.81
295.987	92.81
296.217	86.81
296.448	92.81
296.679	94.81
296.909	76.81
297.14	82.81
297.37	76.81
297.601	85.81
297.831	76.81
298.062	73.81
298.292	89.81
298.523	83.81
298.753	93.81
298.984	83.81
299.214	85.81
299.445	79.81
299.675	89.81
299.905	81.81
300.136	89.81
300.366	74.81
300.597	85.81
300.827	86.81
301.057	83.81
301.288	81.81
301.518	82.81
301.748	71.81
301.979	82.81
302.209	88.81
302.439	78.81
302.669	93.81
302.9	92.81
303.13	80.81
303.36	79.81
303.59	91.81
303.82	81.81
304.051	84.81
304.281	87.81
304.511	90.81
304.741	80.81
304.971	79.81
305.201	90.81
305.431	97.81
305.661	75.81
305.891	83.81
306.121	92.81
306.352	87.81
306.582	98.81
306.812	74.81
307.042	78.81
307.272	83.81
307.502	86.81
307.731	79.81
307.961	84.81
308.191	75.81
308.421	91.81
308.651	96.81
308.881	83.81
309.111	85.81
309.341	88.81
309.571	76.81
309.8	90.81
310.03	103.81
310.26	88.81
310.49	85.81
310.72	75.81
310.949	69.81
311.179	87.81
311.409	85.81
311.639	86.81
311.868	88.81
312.098	67.81
312.328	88.81
312.557	87.81
312.787	85.81
313.017	89.81
313.246	94.81
313.476	80.81
313.706	81.81
313.935	69.81
314.165	79.81
314.394	86.81
314.624	84.81
314.853	76.81
315.083	95.81
315.312	91.81
315.542	83.81
315.771	79.81
316.001	82.81
316.23	94.81
316.46	86.81
316.689	96.81
316.919	88.81
317.148	83.81
317.377	75.81
317.607	85.81
317.836	86.81
318.065	78.81
318.295	93.81
318.524	93.81
318.753	80.81
318.983	86.81
319.212	102.81
319.441	88.81
319.67	90.81
319.9	95.81
320.129	73.81
320.358	96.81
320.587	89.81
320.816	81.81
321.046	100.81
321.275	93.81
321.504	84.81
321.733	97.81
321.962	83.81
322.191	85.81
322.42	86.81
322.649	70.81
322.878	84.81
323.108	85.81
323.337	74.81
323.566	79.81
323.795	82.81
324.024	88.81
324.253	88.81
324.482	78.81
324.71	85.81
324.939	78.81
325.168	82.81
325.397	71.81
325.626	85.81
325.855	85.81
326.084	83.81
326.313	83.81
326.542	97.81
326.77	72.81
326.999	89.81
327.228	74.81
327.457	87.81
327.686	91.81
327.914	76.81
328.143	80.81
328.372	75.81
328.6	94.81
328.829	88.81
329.058	90.81
329.287	88.81
329.515	66.81
329.744	81.81
329.972	83.81
330.201	68.81
330.43	96.81
330.658	82.81
330.887	88.81
331.115	90.81
331.344	88.81
331.572	89.81
331.801	81.81
332.03	79.81
332.258	82.81
332.486	80.81
332.715	80.81
332.943	87.81
333.172	87.81
333.4	73.81
333.629	92.81
333.857	84.81
334.085	79.81
334.314	76.81
334.542	84.81
334.771	83.81
334.999	82.81
335.227	70.81
335.455	77.81
335.684	84.81
335.912	72.81
336.14	80.81
336.369	83.81
336.597	87.81
336.825	76.81
337.053	91.81
337.281	95.81
337.51	83.81
337.738	88.81
337.966	71.81
338.194	87.81
338.422	90.81
338.65	73.81
338.878	81.81
339.106	90.81
339.334	92.81
339.562	92.81
339.79	72.81
340.018	85.81
340.246	70.81
340.474	80.81
340.702	82.81
340.93	83.81
341.158	81.81
341.386	79.81
341.614	74.81
341.842	86.81
342.07	79.81
342.298	90.81
342.526	85.81
342.754	74.81
342.981	87.81
343.209	84.81
343.437	90.81
343.665	77.81
343.893	87.81
344.12	78.81
344.348	82.81
344.576	86.81
344.804	76.81
345.031	76.81
345.259	83.81
345.487	77.81
345.714	82.81
345.942	89.81
346.17	91.81
346.397	101.81
346.625	89.81
346.853	91.81
347.08	84.81
347.308	83.81
347.535	84.81
347.763	99.81
347.99	83.81
348.218	89.81
348.445	78.81
348.673	88.81
348.9	86.81
349.128	75.81
349.355	84.81
349.583	79.81
349.81	98.81
350.037	86.81
350.265	71.81
350.492	85.81
350.72	63.81
350.947	84.81
351.174	101.81
351.402	93.81
351.629	90.81
351.856	80.81
352.083	84.81
352.311	71.81
352.538	82.81
352.765	67.81
352.992	86.81
353.22	100.81
353.447	80.81
353.674	84.81
353.901	68.81
354.128	81.81
354.355	84.81
354.583	86.81
354.81	82.81
355.037	87.81
355.264	76.81
355.491	98.81
355.718	72.81
355.945	84.81
356.172	90.81
356.399	80.81
356.626	76.81
356.853	90.81
357.08	101.81
357.307	90.81
357.534	69.81
357.761	81.81
357.988	94.81
358.215	85.81
358.441	77.81
358.668	90.81
358.895	79.81
359.122	103.81
359.349	71.81
359.576	79.81
359.802	73.81
360.029	72.81
360.256	92.81
360.483	93.81
360.709	89.81
360.936	105.81
361.163	89.81
361.39	78.81
361.616	77.81
361.843	80.81
362.07	84.81
362.296	90.81
362.523	88.81
362.749	80.81
362.976	85.81
363.203	86.81
363.429	83.81
363.656	79.81
363.882	76.81
364.109	99.81
364.335	87.81
364.562	74.81
364.788	86.81
365.015	73.81
365.241	85.81
365.468	73.81
365.694	75.81
365.92	74.81
366.147	83.81
366.373	76.81
366.599	81.81
366.826	87.81
367.052	89.81
367.278	93.81
367.505	90.81
367.731	81.81
367.957	82.81
368.184	79.81
368.41	84.81
368.636	84.81
368.862	89.81
369.089	97.81
369.315	79.81
369.541	77.81
369.767	89.81
369.993	83.81
370.219	74.81
370.445	81.81
370.672	83.81
370.898	101.81
371.124	81.81
371.35	89.81
371.576	84.81
371.802	85.81
372.028	96.81
372.254	79.81
372.48	90.81
372.706	86.81
372.932	88.81
373.158	89.81
373.384	88.81
373.61	83.81
373.835	92.81
374.061	96.81
374.287	83.81
374.513	85.81
374.739	81.81
374.965	81.81
375.191	75.81
375.416	84.81
375.642	79.81
375.868	94.81
376.094	88.81
376.319	84.81
376.545	95.81
376.771	84.81
376.997	83.81
377.222	86.81
377.448	85.81
377.674	95.81
377.899	87.81
378.125	75.81
378.35	97.81
378.576	74.81
378.802	78.81
379.027	81.81
379.253	85.81
379.478	89.81
379.704	97.81
379.929	83.81
380.155	73.81
380.38	91.81
380.606	87.81
380.831	87.81
381.057	109.81
381.282	84.81
381.507	92.81
381.733	74.81
381.958	81.81
382.184	84.81
382.409	81.81
382.634	83.81
382.86	86.81
383.085	95.81
383.31	88.81
383.535	88.81
383.761	91.81
383.986	81.81
384.211	90.81
384.436	71.81
384.662	95.81
384.887	89.81
385.112	88.81
385.337	86.81
385.562	80.81
385.787	94.81
386.013	90.81
386.238	108.81
386.463	88.81
386.688	81.81
386.913	88.81
387.138	78.81
387.363	91.81
387.588	90.81
387.813	82.81
388.038	75.81
388.263	83.81
388.488	74.81
388.713	74.81
388.938	76.81
389.163	88.81
389.387	88.81
389.612	92.81
389.837	84.81
390.062	85.81
390.287	97.81
390.512	83.81
390.736	97.81
390.961	93.81
391.186	84.81
391.411	78.81
391.636	86.81
391.86	80.81
392.085	74.81
392.31	88.81
392.534	75.81
392.759	79.81
392.984	74.81
393.208	90.81
393.433	90.81
393.658	80.81
393.882	85.81
394.107	81.81
394.331	87.81
394.556	82.81
394.78	82.81
395.005	82.81
395.229	82.81
395.454	95.81
395.678	81.81
395.903	84.81
396.127	87.81
396.352	82.81
396.576	85.81
396.801	91.81
397.025	83.81
397.249	96.81
397.474	87.81
397.698	77.81
397.922	83.81
398.147	77.81
398.371	80.81
398.595	90.81
398.82	79.81
399.044	87.81
399.268	86.81
399.492	92.81
399.717	80.81
399.941	91.81
400.165	86.81
400.389	84.81
400.613	86.81
400.837	97.81
401.062	94.81
401.286	81.81
401.51	80.81
401.734	87.81
401.958	93.81
402.182	96.81
402.406	88.81
402.63	80.81
402.854	88.81
403.078	93.81
403.302	92.81
403.526	87.81
403.75	89.81
403.974	93.81
404.198	91.81
404.422	98.81
404.645	104.81
404.869	98.81
405.093	85.81
405.317	91.81
405.541	91.81
405.765	86.81
405.988	87.81
406.212	101.81
406.436	89.81
406.66	94.81
406.883	85.81
407.107	86.81
407.331	102.81
407.555	108.81
407.778	99.81
408.002	81.81
408.226	99.81
408.449	89.81
408.673	63.81
408.896	86.81
409.12	84.81
409.344	94.81
409.567	93.81
409.791	97.81
410.014	101.81
410.238	95.81
410.461	88.81
410.685	84.81
410.908	89.81
411.132	97.81
411.355	88.81
411.578	104.81
411.802	89.81
412.025	83.81
412.249	93.81
412.472	96.81
412.695	84.81
412.919	91.81
413.142	100.81
413.365	100.81
413.589	92.81
413.812	94.81
414.035	95.81
414.258	101.81
414.482	89.81
414.705	89.81
414.928	100.81
415.151	99.81
415.374	95.81
415.597	103.81
415.821	97.81
416.044	96.81
416.267	87.81
416.49	101.81
416.713	110.81
416.936	81.81
417.159	98.81
417.382	93.81
417.605	101.81
417.828	76.81
418.051	85.81
418.274	97.81
418.497	90.81
418.72	88.81
418.943	94.81
419.166	96.81
419.389	89.81
419.611	92.81
419.834	107.81
420.057	109.81
420.28	104.81
420.503	97.81
420.726	104.81
420.948	84.81
421.171	84.81
421.394	91.81
421.617	97.81
421.839	94.81
422.062	91.81
422.285	90.81
422.507	90.81
422.73	99.81
422.953	97.81
423.175	95.81
423.398	78.81
423.621	99.81
423.843	78.81
424.066	99.81
424.288	86.81
424.511	111.81
424.733	103.81
424.956	105.81
425.178	86.81
425.401	100.81
425.623	111.81
425.846	100.81
426.068	98.81
426.291	92.81
426.513	99.81
426.735	97.81
426.958	83.81
427.18	95.81
427.402	99.81
427.625	92.81
427.847	99.81
428.069	86.81
428.292	103.81
428.514	93.81
428.736	85.81
428.958	100.81
429.181	82.81
429.403	97.81
429.625	99.81
429.847	103.81
430.069	102.81
430.292	84.81
430.514	93.81
430.736	87.81
430.958	85.81
431.18	104.81
431.402	76.81
431.624	87.81
431.846	84.81
432.068	86.81
432.29	86.81
432.512	85.81
432.734	87.81
432.956	95.81
433.178	95.81
433.4	87.81
433.622	98.81
433.844	96.81
434.066	94.81
434.287	88.81
434.509	73.81
434.731	79.81
434.953	79.81
435.175	95.81
435.397	97.81
435.618	83.81
435.84	103.81
436.062	86.81
436.284	98.81
436.505	97.81
436.727	87.81
436.949	84.81
437.17	93.81
437.392	93.81
437.614	83.81
437.835	89.81
438.057	74.81
438.278	87.81
438.5	96.81
438.721	84.81
438.943	105.81
439.165	88.81
439.386	92.81
439.608	97.81
439.829	113.81
440.05	105.81
440.272	101.81
440.493	102.81
440.715	104.81
440.936	99.81
441.158	99.81
441.379	116.81
441.6	89.81
441.822	87.81
442.043	96.81
442.264	81.81
442.486	97.81
442.707	115.81
442.928	98.81
443.149	93.81
443.371	93.81
443.592	83.81
443.813	95.81
444.034	97.81
444.255	90.81
444.476	98.81
444.698	96.81
444.919	94.81
445.14	233.81
445.361	177.81
445.582	107.81
445.803	100.81
446.024	92.81
446.245	91.81
446.466	99.81
446.687	89.81
446.908	92.81
447.129	108.81
447.35	109.81
447.571	123.81
447.792	102.81
448.013	77.81
448.234	85.81
448.455	82.81
448.675	96.81
448.896	98.81
449.117	95.81
449.338	99.81
449.559	107.81
449.779	95.81
450	101.81
450.221	108.81
450.442	91.81
450.662	88.81
450.883	86.81
451.104	91.81
451.324	97.81
451.545	95.81
451.766	88.81
451.986	95.81
452.207	93.81
452.428	95.81
452.648	84.81
452.869	91.81
453.089	89.81
453.31	92.81
453.53	76.81
453.751	89.81
453.971	86.81
454.192	86.81
454.412	96.81
454.633	101.81
454.853	101.81
455.073	87.81
455.294	88.81
455.514	104.81
455.734	92.81
455.955	101.81
456.175	88.81
456.395	95.81
456.616	93.81
456.836	86.81
457.056	92.81
457.276	85.81
457.497	97.81
457.717	87.81
457.937	99.81
458.157	94.81
458.377	75.81
458.598	93.81
458.818	70.81
459.038	85.81
459.258	72.81
459.478	75.81
459.698	87.81
459.918	99.81
460.138	71.81
460.358	97.81
460.578	84.81
460.798	86.81
461.018	94.81
461.238	86.81
461.458	91.81
461.678	80.81
461.898	80.81
462.118	91.81
462.338	90.81
462.558	93.81
462.777	92.81
462.997	97.81
463.217	77.81
463.437	91.81
463.657	80.81
463.876	97.81
464.096	86.81
464.316	86.81
464.536	87.81
464.755	109.81
464.975	88.81
465.195	94.81
465.414	93.81
465.634	84.81
465.854	101.81
466.073	88.81
466.293	101.81
466.512	94.81
466.732	111.81
466.951	88.81
467.171	87.81
467.391	92.81
467.61	82.81
467.829	98.81
468.049	111.81
468.268	90.81
468.488	111.81
468.707	96.81
468.927	97.81
469.146	101.81
469.365	99.81
469.585	99.81
469.804	103.81
470.023	105.81
470.243	111.81
470.462	104.81
470.681	102.81
470.901	99.81
471.12	95.81
471.339	86.81
471.558	102.81
471.777	103.81
471.997	101.81
472.216	108.81
472.435	105.81
472.654	90.81
472.873	97.81
473.092	90.81
473.311	90.81
473.53	100.81
473.749	88.81
473.968	84.81
474.187	88.81
474.406	81.81
474.625	89.81
474.844	107.81
475.063	93.81
475.282	103.81
475.501	99.81
475.72	93.81
475.939	93.81
476.158	90.81
476.377	106.81
476.596	90.81
476.814	109.81
477.033	100.81
477.252	90.81
477.471	105.81
477.69	93.81
477.908	111.81
478.127	97.81
478.346	92.81
478.564	98.81
478.783	91.81
479.002	97.81
479.22	95.81
479.439	98.81
479.658	81.81
479.876	104.81
480.095	93.81
480.313	84.81
480.532	89.81
480.751	93.81
480.969	93.81
481.188	101.81
481.406	91.81
481.624	89.81
481.843	83.81
482.061	89.81
482.28	81.81
482.498	86.81
482.717	86.81
482.935	85.81
483.153	94.81
483.372	100.81
483.59	109.81
483.808	106.81
484.027	92.81
484.245	111.81
484.463	107.81
484.681	116.81
484.9	115.81
485.118	96.81
485.336	105.81
485.554	100.81
485.772	87.81
485.99	96.81
486.209	83.81
486.427	97.81
486.645	92.81
486.863	105.81
487.081	72.81
487.299	98.81
487.517	97.81
487.735	105.81
487.953	114.81
488.171	107.81
488.389	107.81
488.607	107.81
488.825	111.81
489.043	96.81
489.261	104.81
489.479	94.81
489.696	87.81
489.914	103.81
490.132	99.81
490.35	108.81
490.568	94.81
490.786	101.81
491.003	105.81
491.221	108.81
491.439	100.81
491.657	123.81
491.874	123.81
492.092	135.81
492.31	138.81
492.527	128.81
492.745	135.81
492.963	123.81
493.18	121.81
493.398	108.81
493.615	111.81
493.833	106.81
494.05	123.81
494.268	116.81
494.485	116.81
494.703	113.81
494.92	97.81
495.138	100.81
495.355	109.81
495.573	120.81
495.79	103.81
496.008	106.81
496.225	108.81
496.442	115.81
496.66	108.81
496.877	96.81
497.094	98.81
497.312	106.81
497.529	102.81
497.746	101.81
497.963	100.81
498.181	106.81
498.398	118.81
498.615	90.81
498.832	90.81
499.049	97.81
499.267	93.81
499.484	104.81
499.701	92.81
499.918	96.81
500.135	115.81
500.352	104.81
500.569	104.81
500.786	98.81
501.003	100.81
501.22	95.81
501.437	97.81
501.654	100.81
501.871	100.81
502.088	97.81
502.305	98.81
502.522	98.81
502.739	99.81
502.956	98.81
503.172	93.81
503.389	91.81
503.606	98.81
503.823	92.81
504.04	111.81
504.256	94.81
504.473	99.81
504.69	87.81
504.907	83.81
505.123	100.81
505.34	104.81
505.557	115.81
505.773	96.81
505.99	102.81
506.207	103.81
506.423	94.81
506.64	89.81
506.856	91.81
507.073	101.81
507.289	92.81
507.506	87.81
507.722	107.81
507.939	92.81
508.155	105.81
508.372	93.81
508.588	97.81
508.805	90.81
509.021	89.81
509.238	94.81
509.454	80.81
509.67	88.81
509.887	94.81
510.103	69.81
510.319	80.81
510.536	93.81
510.752	76.81
510.968	69.81
511.184	86.81
511.401	84.81
511.617	85.81
511.833	83.81
512.049	92.81
512.265	91.81
512.481	96.81
512.698	91.81
512.914	87.81
513.13	79.81
513.346	91.81
513.562	80.81
513.778	91.81
513.994	87.81
514.21	103.81
514.426	86.81
514.642	81.81
514.858	107.81
515.074	88.81
515.29	99.81
515.506	77.81
515.721	88.81
515.937	89.81
516.153	82.81
516.369	88.81
516.585	87.81
516.801	82.81
517.016	79.81
517.232	85.81
