Data from Location3.07152019.Energy5.Lamp.07192019.3%Agarose_HRD10591_15-19-03-270.txt Node
Date: Fri Jul 19 15:19:03 EDT 2019
User: cochatt
Spectrometer: HR+D1059
Trigger mode: 1
Integration Time (sec): 1.000000E-1
Scans to average: 1
Electric dark correction enabled: true
Nonlinearity correction enabled: false
Boxcar width: 0
XAxis mode: Wavelengths
Number of Pixels in Spectrum: 2048
>>>>>Begin Spectral Data<<<<<
223.165	-9.88
223.4	-9.88
223.635	-9.88
223.869	-15.88
224.104	-6.88
224.338	0.12
224.573	-21.88
224.808	-11.88
225.042	-21.88
225.277	-12.88
225.511	-16.88
225.746	3.12
225.98	-0.88
226.215	16.12
226.449	19.12
226.683	19.12
226.918	29.12
227.152	32.12
227.387	38.12
227.621	40.12
227.856	38.12
228.09	35.12
228.324	51.12
228.559	48.12
228.793	61.12
229.027	66.12
229.262	64.12
229.496	61.12
229.73	58.12
229.964	68.12
230.199	79.12
230.433	68.12
230.667	59.12
230.901	58.12
231.136	58.12
231.37	80.12
231.604	89.12
231.838	109.12
232.072	77.12
232.306	73.12
232.541	86.12
232.775	66.12
233.009	71.12
233.243	80.12
233.477	80.12
233.711	83.12
233.945	85.12
234.179	73.12
234.413	71.12
234.647	62.12
234.881	80.12
235.115	70.12
235.349	77.12
235.583	73.12
235.817	66.12
236.051	73.12
236.285	77.12
236.519	81.12
236.753	92.12
236.987	73.12
237.221	74.12
237.455	76.12
237.689	79.12
237.922	73.12
238.156	64.12
238.39	74.12
238.624	73.12
238.858	68.12
239.091	85.12
239.325	65.12
239.559	69.12
239.793	78.12
240.027	82.12
240.26	81.12
240.494	74.12
240.728	84.12
240.961	81.12
241.195	72.12
241.429	76.12
241.662	61.12
241.896	78.12
242.13	86.12
242.363	87.12
242.597	83.12
242.83	65.12
243.064	70.12
243.298	85.12
243.531	73.12
243.765	78.12
243.998	60.12
244.232	74.12
244.465	79.12
244.699	86.12
244.932	90.12
245.166	68.12
245.399	76.12
245.633	67.12
245.866	78.12
246.099	83.12
246.333	79.12
246.566	83.12
246.8	89.12
247.033	76.12
247.266	79.12
247.5	68.12
247.733	65.12
247.966	66.12
248.2	86.12
248.433	77.12
248.666	77.12
248.899	74.12
249.133	69.12
249.366	74.12
249.599	74.12
249.832	71.12
250.066	78.12
250.299	74.12
250.532	67.12
250.765	82.12
250.998	85.12
251.231	82.12
251.465	63.12
251.698	78.12
251.931	87.12
252.164	72.12
252.397	75.12
252.63	83.12
252.863	75.12
253.096	68.12
253.329	76.12
253.562	73.12
253.795	64.12
254.028	75.12
254.261	93.12
254.494	83.12
254.727	74.12
254.96	74.12
255.193	83.12
255.426	76.12
255.659	78.12
255.892	83.12
256.124	60.12
256.357	79.12
256.59	83.12
256.823	94.12
257.056	77.12
257.289	85.12
257.521	81.12
257.754	88.12
257.987	86.12
258.22	72.12
258.452	77.12
258.685	75.12
258.918	97.12
259.151	84.12
259.383	74.12
259.616	71.12
259.849	69.12
260.081	79.12
260.314	70.12
260.547	88.12
260.779	80.12
261.012	73.12
261.244	78.12
261.477	60.12
261.71	73.12
261.942	74.12
262.175	59.12
262.407	67.12
262.64	83.12
262.872	88.12
263.105	85.12
263.337	88.12
263.57	79.12
263.802	84.12
264.035	77.12
264.267	77.12
264.499	79.12
264.732	96.12
264.964	78.12
265.197	95.12
265.429	77.12
265.661	76.12
265.894	83.12
266.126	83.12
266.358	77.12
266.591	75.12
266.823	81.12
267.055	74.12
267.287	81.12
267.52	77.12
267.752	89.12
267.984	81.12
268.216	75.12
268.448	96.12
268.681	65.12
268.913	73.12
269.145	68.12
269.377	77.12
269.609	81.12
269.841	91.12
270.073	74.12
270.306	75.12
270.538	66.12
270.77	75.12
271.002	76.12
271.234	91.12
271.466	78.12
271.698	97.12
271.93	72.12
272.162	91.12
272.394	85.12
272.626	79.12
272.858	72.12
273.09	75.12
273.322	85.12
273.553	71.12
273.785	88.12
274.017	77.12
274.249	60.12
274.481	86.12
274.713	67.12
274.945	61.12
275.176	77.12
275.408	87.12
275.64	77.12
275.872	88.12
276.104	98.12
276.335	80.12
276.567	66.12
276.799	81.12
277.031	77.12
277.262	88.12
277.494	80.12
277.726	88.12
277.957	85.12
278.189	87.12
278.421	82.12
278.652	72.12
278.884	72.12
279.115	69.12
279.347	81.12
279.579	82.12
279.81	77.12
280.042	77.12
280.273	88.12
280.505	88.12
280.736	86.12
280.968	65.12
281.199	71.12
281.431	51.12
281.662	79.12
281.894	99.12
282.125	71.12
282.356	80.12
282.588	87.12
282.819	81.12
283.051	73.12
283.282	79.12
283.513	91.12
283.745	75.12
283.976	77.12
284.207	82.12
284.439	81.12
284.67	72.12
284.901	96.12
285.132	80.12
285.364	81.12
285.595	89.12
285.826	83.12
286.057	89.12
286.288	91.12
286.52	85.12
286.751	63.12
286.982	79.12
287.213	83.12
287.444	84.12
287.675	88.12
287.906	66.12
288.138	74.12
288.369	89.12
288.6	79.12
288.831	81.12
289.062	95.12
289.293	82.12
289.524	65.12
289.755	79.12
289.986	77.12
290.217	88.12
290.448	87.12
290.679	65.12
290.91	73.12
291.141	72.12
291.371	78.12
291.602	89.12
291.833	65.12
292.064	68.12
292.295	87.12
292.526	77.12
292.757	82.12
292.987	81.12
293.218	79.12
293.449	101.12
293.68	86.12
293.91	77.12
294.141	76.12
294.372	77.12
294.603	72.12
294.833	87.12
295.064	67.12
295.295	55.12
295.525	73.12
295.756	83.12
295.987	80.12
296.217	78.12
296.448	92.12
296.679	87.12
296.909	80.12
297.14	89.12
297.37	77.12
297.601	78.12
297.831	78.12
298.062	71.12
298.292	83.12
298.523	72.12
298.753	84.12
298.984	89.12
299.214	89.12
299.445	93.12
299.675	94.12
299.905	66.12
300.136	84.12
300.366	79.12
300.597	92.12
300.827	83.12
301.057	87.12
301.288	93.12
301.518	69.12
301.748	92.12
301.979	91.12
302.209	94.12
302.439	92.12
302.669	84.12
302.9	76.12
303.13	87.12
303.36	76.12
303.59	100.12
303.82	89.12
304.051	81.12
304.281	81.12
304.511	90.12
304.741	85.12
304.971	75.12
305.201	83.12
305.431	81.12
305.661	85.12
305.891	81.12
306.121	65.12
306.352	80.12
306.582	71.12
306.812	76.12
307.042	63.12
307.272	93.12
307.502	81.12
307.731	91.12
307.961	75.12
308.191	87.12
308.421	83.12
308.651	76.12
308.881	83.12
309.111	71.12
309.341	92.12
309.571	88.12
309.8	84.12
310.03	86.12
310.26	77.12
310.49	86.12
310.72	67.12
310.949	82.12
311.179	83.12
311.409	88.12
311.639	76.12
311.868	76.12
312.098	89.12
312.328	75.12
312.557	85.12
312.787	94.12
313.017	82.12
313.246	75.12
313.476	86.12
313.706	77.12
313.935	71.12
314.165	89.12
314.394	85.12
314.624	79.12
314.853	84.12
315.083	73.12
315.312	81.12
315.542	83.12
315.771	64.12
316.001	69.12
316.23	87.12
316.46	69.12
316.689	70.12
316.919	75.12
317.148	90.12
317.377	90.12
317.607	85.12
317.836	79.12
318.065	77.12
318.295	71.12
318.524	79.12
318.753	91.12
318.983	91.12
319.212	87.12
319.441	83.12
319.67	69.12
319.9	70.12
320.129	88.12
320.358	70.12
320.587	98.12
320.816	89.12
321.046	73.12
321.275	89.12
321.504	81.12
321.733	86.12
321.962	71.12
322.191	81.12
322.42	70.12
322.649	95.12
322.878	75.12
323.108	73.12
323.337	62.12
323.566	92.12
323.795	81.12
324.024	91.12
324.253	87.12
324.482	82.12
324.71	75.12
324.939	85.12
325.168	70.12
325.397	79.12
325.626	88.12
325.855	89.12
326.084	88.12
326.313	82.12
326.542	83.12
326.77	90.12
326.999	72.12
327.228	81.12
327.457	69.12
327.686	77.12
327.914	83.12
328.143	87.12
328.372	69.12
328.6	79.12
328.829	72.12
329.058	76.12
329.287	85.12
329.515	71.12
329.744	99.12
329.972	86.12
330.201	78.12
330.43	81.12
330.658	88.12
330.887	80.12
331.115	87.12
331.344	107.12
331.572	86.12
331.801	91.12
332.03	80.12
332.258	80.12
332.486	75.12
332.715	80.12
332.943	81.12
333.172	75.12
333.4	77.12
333.629	92.12
333.857	76.12
334.085	82.12
334.314	83.12
334.542	88.12
334.771	79.12
334.999	76.12
335.227	80.12
335.455	81.12
335.684	80.12
335.912	75.12
336.14	81.12
336.369	77.12
336.597	80.12
336.825	83.12
337.053	75.12
337.281	71.12
337.51	71.12
337.738	85.12
337.966	76.12
338.194	90.12
338.422	87.12
338.65	88.12
338.878	84.12
339.106	68.12
339.334	84.12
339.562	76.12
339.79	94.12
340.018	84.12
340.246	85.12
340.474	103.12
340.702	72.12
340.93	85.12
341.158	91.12
341.386	77.12
341.614	91.12
341.842	63.12
342.07	85.12
342.298	86.12
342.526	79.12
342.754	67.12
342.981	86.12
343.209	78.12
343.437	81.12
343.665	86.12
343.893	76.12
344.12	101.12
344.348	81.12
344.576	68.12
344.804	88.12
345.031	83.12
345.259	72.12
345.487	78.12
345.714	68.12
345.942	76.12
346.17	84.12
346.397	79.12
346.625	69.12
346.853	66.12
347.08	80.12
347.308	73.12
347.535	84.12
347.763	70.12
347.99	83.12
348.218	89.12
348.445	70.12
348.673	79.12
348.9	100.12
349.128	79.12
349.355	75.12
349.583	81.12
349.81	69.12
350.037	82.12
350.265	75.12
350.492	87.12
350.72	87.12
350.947	66.12
351.174	87.12
351.402	83.12
351.629	64.12
351.856	79.12
352.083	94.12
352.311	92.12
352.538	71.12
352.765	75.12
352.992	79.12
353.22	87.12
353.447	84.12
353.674	82.12
353.901	76.12
354.128	85.12
354.355	76.12
354.583	78.12
354.81	66.12
355.037	72.12
355.264	73.12
355.491	84.12
355.718	70.12
355.945	77.12
356.172	92.12
356.399	94.12
356.626	79.12
356.853	92.12
357.08	72.12
357.307	81.12
357.534	81.12
357.761	68.12
357.988	80.12
358.215	77.12
358.441	73.12
358.668	75.12
358.895	90.12
359.122	67.12
359.349	76.12
359.576	80.12
359.802	81.12
360.029	86.12
360.256	79.12
360.483	84.12
360.709	84.12
360.936	83.12
361.163	90.12
361.39	75.12
361.616	80.12
361.843	81.12
362.07	78.12
362.296	94.12
362.523	77.12
362.749	92.12
362.976	66.12
363.203	77.12
363.429	67.12
363.656	77.12
363.882	66.12
364.109	91.12
364.335	78.12
364.562	79.12
364.788	77.12
365.015	74.12
365.241	71.12
365.468	63.12
365.694	77.12
365.92	77.12
366.147	86.12
366.373	81.12
366.599	79.12
366.826	93.12
367.052	73.12
367.278	81.12
367.505	77.12
367.731	71.12
367.957	85.12
368.184	76.12
368.41	91.12
368.636	74.12
368.862	81.12
369.089	86.12
369.315	70.12
369.541	76.12
369.767	93.12
369.993	70.12
370.219	84.12
370.445	74.12
370.672	73.12
370.898	84.12
371.124	74.12
371.35	94.12
371.576	81.12
371.802	96.12
372.028	79.12
372.254	86.12
372.48	79.12
372.706	71.12
372.932	89.12
373.158	77.12
373.384	91.12
373.61	87.12
373.835	92.12
374.061	77.12
374.287	92.12
374.513	96.12
374.739	80.12
374.965	70.12
375.191	84.12
375.416	92.12
375.642	70.12
375.868	86.12
376.094	82.12
376.319	78.12
376.545	73.12
376.771	80.12
376.997	79.12
377.222	77.12
377.448	88.12
377.674	76.12
377.899	70.12
378.125	87.12
378.35	72.12
378.576	81.12
378.802	79.12
379.027	79.12
379.253	100.12
379.478	80.12
379.704	89.12
379.929	80.12
380.155	73.12
380.38	74.12
380.606	79.12
380.831	88.12
381.057	84.12
381.282	76.12
381.507	84.12
381.733	88.12
381.958	94.12
382.184	84.12
382.409	90.12
382.634	75.12
382.86	72.12
383.085	84.12
383.31	75.12
383.535	85.12
383.761	78.12
383.986	81.12
384.211	81.12
384.436	80.12
384.662	77.12
384.887	91.12
385.112	84.12
385.337	77.12
385.562	71.12
385.787	77.12
386.013	79.12
386.238	96.12
386.463	83.12
386.688	71.12
386.913	86.12
387.138	72.12
387.363	79.12
387.588	73.12
387.813	82.12
388.038	86.12
388.263	83.12
388.488	100.12
388.713	85.12
388.938	77.12
389.163	82.12
389.387	84.12
389.612	87.12
389.837	77.12
390.062	71.12
390.287	67.12
390.512	70.12
390.736	77.12
390.961	69.12
391.186	75.12
391.411	67.12
391.636	82.12
391.86	80.12
392.085	80.12
392.31	82.12
392.534	78.12
392.759	80.12
392.984	82.12
393.208	84.12
393.433	88.12
393.658	82.12
393.882	88.12
394.107	88.12
394.331	82.12
394.556	65.12
394.78	79.12
395.005	83.12
395.229	86.12
395.454	93.12
395.678	102.12
395.903	96.12
396.127	103.12
396.352	87.12
396.576	84.12
396.801	93.12
397.025	94.12
397.249	83.12
397.474	85.12
397.698	73.12
397.922	91.12
398.147	78.12
398.371	89.12
398.595	92.12
398.82	88.12
399.044	83.12
399.268	89.12
399.492	94.12
399.717	100.12
399.941	85.12
400.165	93.12
400.389	70.12
400.613	90.12
400.837	76.12
401.062	91.12
401.286	77.12
401.51	88.12
401.734	79.12
401.958	72.12
402.182	72.12
402.406	88.12
402.63	70.12
402.854	90.12
403.078	71.12
403.302	88.12
403.526	72.12
403.75	81.12
403.974	76.12
404.198	88.12
404.422	103.12
404.645	85.12
404.869	86.12
405.093	86.12
405.317	72.12
405.541	79.12
405.765	88.12
405.988	98.12
406.212	91.12
406.436	88.12
406.66	83.12
406.883	82.12
407.107	82.12
407.331	93.12
407.555	82.12
407.778	100.12
408.002	83.12
408.226	91.12
408.449	80.12
408.673	92.12
408.896	69.12
409.12	84.12
409.344	88.12
409.567	93.12
409.791	103.12
410.014	98.12
410.238	87.12
410.461	90.12
410.685	85.12
410.908	88.12
411.132	98.12
411.355	88.12
411.578	87.12
411.802	84.12
412.025	80.12
412.249	83.12
412.472	85.12
412.695	94.12
412.919	92.12
413.142	94.12
413.365	92.12
413.589	84.12
413.812	94.12
414.035	88.12
414.258	90.12
414.482	83.12
414.705	83.12
414.928	80.12
415.151	89.12
415.374	82.12
415.597	85.12
415.821	83.12
416.044	83.12
416.267	83.12
416.49	78.12
416.713	101.12
416.936	108.12
417.159	74.12
417.382	93.12
417.605	98.12
417.828	88.12
418.051	77.12
418.274	72.12
418.497	98.12
418.72	86.12
418.943	95.12
419.166	88.12
419.389	87.12
419.611	89.12
419.834	87.12
420.057	83.12
420.28	95.12
420.503	91.12
420.726	95.12
420.948	108.12
421.171	111.12
421.394	104.12
421.617	94.12
421.839	101.12
422.062	103.12
422.285	94.12
422.507	100.12
422.73	101.12
422.953	94.12
423.175	94.12
423.398	93.12
423.621	83.12
423.843	104.12
424.066	92.12
424.288	102.12
424.511	103.12
424.733	87.12
424.956	84.12
425.178	87.12
425.401	86.12
425.623	95.12
425.846	93.12
426.068	82.12
426.291	102.12
426.513	93.12
426.735	98.12
426.958	83.12
427.18	88.12
427.402	98.12
427.625	77.12
427.847	101.12
428.069	87.12
428.292	93.12
428.514	93.12
428.736	74.12
428.958	79.12
429.181	100.12
429.403	89.12
429.625	91.12
429.847	91.12
430.069	86.12
430.292	89.12
430.514	100.12
430.736	82.12
430.958	88.12
431.18	82.12
431.402	84.12
431.624	95.12
431.846	92.12
432.068	83.12
432.29	73.12
432.512	91.12
432.734	88.12
432.956	75.12
433.178	92.12
433.4	91.12
433.622	96.12
433.844	91.12
434.066	83.12
434.287	83.12
434.509	74.12
434.731	79.12
434.953	79.12
435.175	108.12
435.397	105.12
435.618	84.12
435.84	77.12
436.062	93.12
436.284	77.12
436.505	70.12
436.727	83.12
436.949	100.12
437.17	93.12
437.392	97.12
437.614	86.12
437.835	83.12
438.057	78.12
438.278	101.12
438.5	82.12
438.721	84.12
438.943	95.12
439.165	89.12
439.386	100.12
439.608	94.12
439.829	93.12
440.05	91.12
440.272	96.12
440.493	79.12
440.715	105.12
440.936	99.12
441.158	90.12
441.379	94.12
441.6	98.12
441.822	87.12
442.043	93.12
442.264	93.12
442.486	81.12
442.707	94.12
442.928	99.12
443.149	83.12
443.371	108.12
443.592	99.12
443.813	97.12
444.034	88.12
444.255	111.12
444.476	87.12
444.698	93.12
444.919	94.12
445.14	221.12
445.361	164.12
445.582	95.12
445.803	100.12
446.024	93.12
446.245	103.12
446.466	95.12
446.687	100.12
446.908	84.12
447.129	94.12
447.35	102.12
447.571	114.12
447.792	86.12
448.013	86.12
448.234	92.12
448.455	91.12
448.675	98.12
448.896	99.12
449.117	96.12
449.338	82.12
449.559	87.12
449.779	79.12
450	92.12
450.221	109.12
450.442	93.12
450.662	97.12
450.883	93.12
451.104	97.12
451.324	92.12
451.545	77.12
451.766	95.12
451.986	75.12
452.207	81.12
452.428	86.12
452.648	93.12
452.869	87.12
453.089	79.12
453.31	83.12
453.53	87.12
453.751	91.12
453.971	82.12
454.192	72.12
454.412	87.12
454.633	99.12
454.853	91.12
455.073	96.12
455.294	81.12
455.514	84.12
455.734	76.12
455.955	86.12
456.175	77.12
456.395	91.12
456.616	86.12
456.836	86.12
457.056	86.12
457.276	99.12
457.497	84.12
457.717	84.12
457.937	83.12
458.157	79.12
458.377	84.12
458.598	75.12
458.818	84.12
459.038	79.12
459.258	91.12
459.478	64.12
459.698	82.12
459.918	82.12
460.138	88.12
460.358	84.12
460.578	85.12
460.798	76.12
461.018	87.12
461.238	83.12
461.458	75.12
461.678	81.12
461.898	83.12
462.118	83.12
462.338	69.12
462.558	84.12
462.777	85.12
462.997	89.12
463.217	73.12
463.437	80.12
463.657	86.12
463.876	97.12
464.096	86.12
464.316	70.12
464.536	90.12
464.755	74.12
464.975	91.12
465.195	94.12
465.414	97.12
465.634	89.12
465.854	80.12
466.073	91.12
466.293	111.12
466.512	99.12
466.732	95.12
466.951	93.12
467.171	82.12
467.391	89.12
467.61	98.12
467.829	93.12
468.049	84.12
468.268	112.12
468.488	107.12
468.707	109.12
468.927	85.12
469.146	97.12
469.365	102.12
469.585	102.12
469.804	101.12
470.023	84.12
470.243	104.12
470.462	96.12
470.681	96.12
470.901	104.12
471.12	83.12
471.339	113.12
471.558	88.12
471.777	85.12
471.997	99.12
472.216	95.12
472.435	83.12
472.654	97.12
472.873	84.12
473.092	84.12
473.311	86.12
473.53	80.12
473.749	101.12
473.968	107.12
474.187	88.12
474.406	83.12
474.625	92.12
474.844	104.12
475.063	100.12
475.282	94.12
475.501	83.12
475.72	107.12
475.939	99.12
476.158	85.12
476.377	83.12
476.596	88.12
476.814	90.12
477.033	95.12
477.252	103.12
477.471	86.12
477.69	96.12
477.908	91.12
478.127	99.12
478.346	105.12
478.564	93.12
478.783	95.12
479.002	94.12
479.22	87.12
479.439	85.12
479.658	78.12
479.876	83.12
480.095	77.12
480.313	84.12
480.532	76.12
480.751	88.12
480.969	88.12
481.188	83.12
481.406	106.12
481.624	85.12
481.843	77.12
482.061	87.12
482.28	82.12
482.498	87.12
482.717	95.12
482.935	87.12
483.153	89.12
483.372	86.12
483.59	90.12
483.808	108.12
484.027	89.12
484.245	99.12
484.463	105.12
484.681	113.12
484.9	97.12
485.118	101.12
485.336	102.12
485.554	97.12
485.772	85.12
485.99	88.12
486.209	86.12
486.427	76.12
486.645	81.12
486.863	94.12
487.081	108.12
487.299	100.12
487.517	97.12
487.735	95.12
487.953	115.12
488.171	115.12
488.389	107.12
488.607	104.12
488.825	85.12
489.043	98.12
489.261	92.12
489.479	86.12
489.696	92.12
489.914	98.12
490.132	103.12
490.35	108.12
490.568	111.12
490.786	110.12
491.003	95.12
491.221	99.12
491.439	98.12
491.657	116.12
491.874	97.12
492.092	131.12
492.31	142.12
492.527	131.12
492.745	117.12
492.963	110.12
493.18	112.12
493.398	107.12
493.615	93.12
493.833	101.12
494.05	107.12
494.268	112.12
494.485	116.12
494.703	120.12
494.92	103.12
495.138	109.12
495.355	110.12
495.573	124.12
495.79	109.12
496.008	105.12
496.225	119.12
496.442	97.12
496.66	109.12
496.877	96.12
497.094	90.12
497.312	98.12
497.529	99.12
497.746	111.12
497.963	98.12
498.181	99.12
498.398	94.12
498.615	96.12
498.832	95.12
499.049	92.12
499.267	95.12
499.484	97.12
499.701	98.12
499.918	107.12
500.135	97.12
500.352	91.12
500.569	89.12
500.786	86.12
501.003	88.12
501.22	93.12
501.437	95.12
501.654	93.12
501.871	98.12
502.088	96.12
502.305	104.12
502.522	93.12
502.739	91.12
502.956	87.12
503.172	78.12
503.389	88.12
503.606	86.12
503.823	85.12
504.04	100.12
504.256	98.12
504.473	99.12
504.69	91.12
504.907	86.12
505.123	85.12
505.34	76.12
505.557	95.12
505.773	97.12
505.99	93.12
506.207	94.12
506.423	89.12
506.64	88.12
506.856	93.12
507.073	91.12
507.289	94.12
507.506	77.12
507.722	97.12
507.939	88.12
508.155	97.12
508.372	92.12
508.588	84.12
508.805	103.12
509.021	89.12
509.238	83.12
509.454	95.12
509.67	89.12
509.887	71.12
510.103	88.12
510.319	73.12
510.536	75.12
510.752	82.12
510.968	96.12
511.184	80.12
511.401	85.12
511.617	80.12
511.833	83.12
512.049	84.12
512.265	72.12
512.481	87.12
512.698	88.12
512.914	82.12
513.13	74.12
513.346	94.12
513.562	97.12
513.778	80.12
513.994	83.12
514.21	71.12
514.426	88.12
514.642	83.12
514.858	93.12
515.074	90.12
515.29	73.12
515.506	82.12
515.721	83.12
515.937	77.12
516.153	90.12
516.369	92.12
516.585	77.12
516.801	83.12
517.016	90.12
517.232	90.12
517.448	88.12
517.664	83.12
517.879	89.12
518.095	87.12
