Data from Location3.07152019.Energy5.Lamp.07192019.3%Agarose_HRD10591_15-19-24-270.txt Node
Date: Fri Jul 19 15:19:24 EDT 2019
User: cochatt
Spectrometer: HR+D1059
Trigger mode: 1
Integration Time (sec): 1.000000E-1
Scans to average: 1
Electric dark correction enabled: true
Nonlinearity correction enabled: false
Boxcar width: 0
XAxis mode: Wavelengths
Number of Pixels in Spectrum: 2048
>>>>>Begin Spectral Data<<<<<
223.165	-10.25
223.4	-10.25
223.635	-10.25
223.869	-8.25
224.104	-23.25
224.338	-11.25
224.573	-14.25
224.808	-20.25
225.042	-6.25
225.277	-9.25
225.511	-4.25
225.746	2.75
225.98	14.75
226.215	1.75
226.449	12.75
226.683	17.75
226.918	15.75
227.152	41.75
227.387	33.75
227.621	28.75
227.856	35.75
228.09	50.75
228.324	50.75
228.559	57.75
228.793	58.75
229.027	65.75
229.262	66.75
229.496	57.75
229.73	71.75
229.964	64.75
230.199	55.75
230.433	82.75
230.667	64.75
230.901	81.75
231.136	70.75
231.37	78.75
231.604	80.75
231.838	89.75
232.072	88.75
232.306	86.75
232.541	69.75
232.775	82.75
233.009	88.75
233.243	83.75
233.477	84.75
233.711	85.75
233.945	86.75
234.179	84.75
234.413	70.75
234.647	70.75
234.881	78.75
235.115	76.75
235.349	83.75
235.583	75.75
235.817	80.75
236.051	73.75
236.285	65.75
236.519	67.75
236.753	76.75
236.987	90.75
237.221	78.75
237.455	66.75
237.689	75.75
237.922	66.75
238.156	81.75
238.39	67.75
238.624	77.75
238.858	84.75
239.091	82.75
239.325	76.75
239.559	72.75
239.793	69.75
240.027	81.75
240.26	75.75
240.494	85.75
240.728	78.75
240.961	70.75
241.195	77.75
241.429	83.75
241.662	71.75
241.896	73.75
242.13	80.75
242.363	76.75
242.597	68.75
242.83	83.75
243.064	80.75
243.298	79.75
243.531	63.75
243.765	77.75
243.998	83.75
244.232	69.75
244.465	82.75
244.699	83.75
244.932	73.75
245.166	75.75
245.399	70.75
245.633	80.75
245.866	80.75
246.099	64.75
246.333	75.75
246.566	71.75
246.8	57.75
247.033	86.75
247.266	90.75
247.5	83.75
247.733	67.75
247.966	80.75
248.2	72.75
248.433	76.75
248.666	74.75
248.899	71.75
249.133	81.75
249.366	75.75
249.599	78.75
249.832	79.75
250.066	78.75
250.299	81.75
250.532	79.75
250.765	74.75
250.998	86.75
251.231	85.75
251.465	79.75
251.698	84.75
251.931	82.75
252.164	77.75
252.397	77.75
252.63	80.75
252.863	74.75
253.096	79.75
253.329	79.75
253.562	79.75
253.795	85.75
254.028	78.75
254.261	79.75
254.494	68.75
254.727	67.75
254.96	67.75
255.193	89.75
255.426	79.75
255.659	76.75
255.892	79.75
256.124	76.75
256.357	87.75
256.59	85.75
256.823	79.75
257.056	90.75
257.289	80.75
257.521	90.75
257.754	83.75
257.987	73.75
258.22	93.75
258.452	79.75
258.685	77.75
258.918	77.75
259.151	80.75
259.383	68.75
259.616	78.75
259.849	80.75
260.081	66.75
260.314	69.75
260.547	81.75
260.779	85.75
261.012	79.75
261.244	78.75
261.477	66.75
261.71	87.75
261.942	77.75
262.175	77.75
262.407	85.75
262.64	88.75
262.872	70.75
263.105	79.75
263.337	86.75
263.57	84.75
263.802	83.75
264.035	82.75
264.267	60.75
264.499	80.75
264.732	90.75
264.964	92.75
265.197	80.75
265.429	70.75
265.661	73.75
265.894	72.75
266.126	84.75
266.358	76.75
266.591	77.75
266.823	80.75
267.055	73.75
267.287	80.75
267.52	85.75
267.752	72.75
267.984	79.75
268.216	85.75
268.448	89.75
268.681	83.75
268.913	96.75
269.145	79.75
269.377	77.75
269.609	85.75
269.841	74.75
270.073	82.75
270.306	95.75
270.538	77.75
270.77	76.75
271.002	80.75
271.234	78.75
271.466	93.75
271.698	81.75
271.93	77.75
272.162	66.75
272.394	87.75
272.626	95.75
272.858	86.75
273.09	86.75
273.322	88.75
273.553	86.75
273.785	86.75
274.017	79.75
274.249	82.75
274.481	87.75
274.713	68.75
274.945	74.75
275.176	83.75
275.408	76.75
275.64	89.75
275.872	82.75
276.104	94.75
276.335	79.75
276.567	81.75
276.799	79.75
277.031	70.75
277.262	95.75
277.494	72.75
277.726	99.75
277.957	83.75
278.189	93.75
278.421	80.75
278.652	62.75
278.884	77.75
279.115	78.75
279.347	87.75
279.579	71.75
279.81	67.75
280.042	81.75
280.273	99.75
280.505	85.75
280.736	79.75
280.968	82.75
281.199	80.75
281.431	64.75
281.662	74.75
281.894	82.75
282.125	81.75
282.356	86.75
282.588	80.75
282.819	93.75
283.051	81.75
283.282	73.75
283.513	79.75
283.745	90.75
283.976	81.75
284.207	74.75
284.439	88.75
284.67	90.75
284.901	90.75
285.132	83.75
285.364	73.75
285.595	82.75
285.826	96.75
286.057	73.75
286.288	82.75
286.52	76.75
286.751	74.75
286.982	85.75
287.213	87.75
287.444	80.75
287.675	97.75
287.906	82.75
288.138	71.75
288.369	85.75
288.6	94.75
288.831	98.75
289.062	73.75
289.293	92.75
289.524	84.75
289.755	97.75
289.986	86.75
290.217	78.75
290.448	86.75
290.679	78.75
290.91	74.75
291.141	82.75
291.371	79.75
291.602	95.75
291.833	80.75
292.064	72.75
292.295	92.75
292.526	77.75
292.757	86.75
292.987	88.75
293.218	78.75
293.449	89.75
293.68	83.75
293.91	81.75
294.141	87.75
294.372	73.75
294.603	80.75
294.833	95.75
295.064	87.75
295.295	94.75
295.525	80.75
295.756	83.75
295.987	87.75
296.217	87.75
296.448	83.75
296.679	86.75
296.909	89.75
297.14	74.75
297.37	81.75
297.601	88.75
297.831	81.75
298.062	87.75
298.292	80.75
298.523	89.75
298.753	88.75
298.984	95.75
299.214	86.75
299.445	73.75
299.675	69.75
299.905	87.75
300.136	86.75
300.366	76.75
300.597	73.75
300.827	89.75
301.057	92.75
301.288	92.75
301.518	94.75
301.748	95.75
301.979	89.75
302.209	88.75
302.439	84.75
302.669	75.75
302.9	88.75
303.13	80.75
303.36	79.75
303.59	86.75
303.82	86.75
304.051	87.75
304.281	76.75
304.511	94.75
304.741	75.75
304.971	76.75
305.201	79.75
305.431	83.75
305.661	89.75
305.891	90.75
306.121	85.75
306.352	91.75
306.582	102.75
306.812	69.75
307.042	87.75
307.272	82.75
307.502	89.75
307.731	88.75
307.961	81.75
308.191	79.75
308.421	89.75
308.651	80.75
308.881	88.75
309.111	88.75
309.341	87.75
309.571	80.75
309.8	79.75
310.03	79.75
310.26	78.75
310.49	65.75
310.72	85.75
310.949	81.75
311.179	83.75
311.409	82.75
311.639	79.75
311.868	71.75
312.098	69.75
312.328	89.75
312.557	79.75
312.787	79.75
313.017	79.75
313.246	87.75
313.476	91.75
313.706	82.75
313.935	76.75
314.165	86.75
314.394	91.75
314.624	81.75
314.853	82.75
315.083	85.75
315.312	89.75
315.542	79.75
315.771	78.75
316.001	94.75
316.23	87.75
316.46	80.75
316.689	87.75
316.919	78.75
317.148	85.75
317.377	74.75
317.607	95.75
317.836	79.75
318.065	72.75
318.295	79.75
318.524	73.75
318.753	91.75
318.983	82.75
319.212	89.75
319.441	96.75
319.67	74.75
319.9	69.75
320.129	76.75
320.358	82.75
320.587	69.75
320.816	91.75
321.046	70.75
321.275	82.75
321.504	79.75
321.733	71.75
321.962	71.75
322.191	87.75
322.42	80.75
322.649	72.75
322.878	73.75
323.108	86.75
323.337	95.75
323.566	86.75
323.795	79.75
324.024	88.75
324.253	77.75
324.482	85.75
324.71	82.75
324.939	83.75
325.168	86.75
325.397	80.75
325.626	70.75
325.855	86.75
326.084	104.75
326.313	69.75
326.542	94.75
326.77	86.75
326.999	96.75
327.228	83.75
327.457	80.75
327.686	76.75
327.914	89.75
328.143	85.75
328.372	78.75
328.6	79.75
328.829	86.75
329.058	79.75
329.287	86.75
329.515	71.75
329.744	82.75
329.972	80.75
330.201	83.75
330.43	85.75
330.658	90.75
330.887	70.75
331.115	86.75
331.344	76.75
331.572	90.75
331.801	84.75
332.03	82.75
332.258	73.75
332.486	83.75
332.715	87.75
332.943	86.75
333.172	89.75
333.4	82.75
333.629	86.75
333.857	88.75
334.085	94.75
334.314	88.75
334.542	96.75
334.771	72.75
334.999	82.75
335.227	80.75
335.455	71.75
335.684	81.75
335.912	83.75
336.14	93.75
336.369	77.75
336.597	75.75
336.825	72.75
337.053	80.75
337.281	84.75
337.51	89.75
337.738	84.75
337.966	73.75
338.194	90.75
338.422	87.75
338.65	72.75
338.878	95.75
339.106	82.75
339.334	88.75
339.562	79.75
339.79	84.75
340.018	79.75
340.246	85.75
340.474	86.75
340.702	78.75
340.93	80.75
341.158	73.75
341.386	77.75
341.614	79.75
341.842	87.75
342.07	92.75
342.298	79.75
342.526	83.75
342.754	87.75
342.981	76.75
343.209	71.75
343.437	85.75
343.665	78.75
343.893	77.75
344.12	85.75
344.348	64.75
344.576	81.75
344.804	70.75
345.031	90.75
345.259	78.75
345.487	79.75
345.714	65.75
345.942	84.75
346.17	72.75
346.397	71.75
346.625	81.75
346.853	81.75
347.08	81.75
347.308	95.75
347.535	80.75
347.763	85.75
347.99	74.75
348.218	90.75
348.445	86.75
348.673	82.75
348.9	93.75
349.128	85.75
349.355	100.75
349.583	80.75
349.81	92.75
350.037	74.75
350.265	88.75
350.492	76.75
350.72	79.75
350.947	82.75
351.174	83.75
351.402	79.75
351.629	88.75
351.856	86.75
352.083	85.75
352.311	81.75
352.538	65.75
352.765	70.75
352.992	88.75
353.22	85.75
353.447	82.75
353.674	89.75
353.901	82.75
354.128	93.75
354.355	81.75
354.583	82.75
354.81	83.75
355.037	67.75
355.264	85.75
355.491	83.75
355.718	84.75
355.945	81.75
356.172	78.75
356.399	80.75
356.626	73.75
356.853	74.75
357.08	75.75
357.307	80.75
357.534	75.75
357.761	70.75
357.988	91.75
358.215	79.75
358.441	76.75
358.668	87.75
358.895	92.75
359.122	72.75
359.349	80.75
359.576	68.75
359.802	78.75
360.029	97.75
360.256	78.75
360.483	61.75
360.709	86.75
360.936	82.75
361.163	58.75
361.39	87.75
361.616	75.75
361.843	88.75
362.07	89.75
362.296	74.75
362.523	81.75
362.749	88.75
362.976	82.75
363.203	91.75
363.429	70.75
363.656	82.75
363.882	90.75
364.109	101.75
364.335	79.75
364.562	80.75
364.788	97.75
365.015	89.75
365.241	78.75
365.468	85.75
365.694	75.75
365.92	69.75
366.147	85.75
366.373	83.75
366.599	103.75
366.826	95.75
367.052	75.75
367.278	81.75
367.505	88.75
367.731	93.75
367.957	86.75
368.184	86.75
368.41	73.75
368.636	89.75
368.862	93.75
369.089	91.75
369.315	99.75
369.541	95.75
369.767	74.75
369.993	81.75
370.219	89.75
370.445	84.75
370.672	73.75
370.898	77.75
371.124	82.75
371.35	97.75
371.576	73.75
371.802	80.75
372.028	90.75
372.254	80.75
372.48	72.75
372.706	79.75
372.932	83.75
373.158	86.75
373.384	87.75
373.61	90.75
373.835	87.75
374.061	96.75
374.287	83.75
374.513	77.75
374.739	100.75
374.965	84.75
375.191	79.75
375.416	82.75
375.642	89.75
375.868	75.75
376.094	84.75
376.319	88.75
376.545	88.75
376.771	83.75
376.997	94.75
377.222	85.75
377.448	85.75
377.674	61.75
377.899	83.75
378.125	92.75
378.35	95.75
378.576	82.75
378.802	86.75
379.027	93.75
379.253	91.75
379.478	81.75
379.704	82.75
379.929	88.75
380.155	96.75
380.38	72.75
380.606	90.75
380.831	89.75
381.057	88.75
381.282	101.75
381.507	85.75
381.733	74.75
381.958	85.75
382.184	85.75
382.409	76.75
382.634	84.75
382.86	87.75
383.085	98.75
383.31	88.75
383.535	104.75
383.761	91.75
383.986	97.75
384.211	89.75
384.436	87.75
384.662	87.75
384.887	73.75
385.112	90.75
385.337	77.75
385.562	87.75
385.787	94.75
386.013	91.75
386.238	79.75
386.463	87.75
386.688	88.75
386.913	95.75
387.138	86.75
387.363	65.75
387.588	86.75
387.813	87.75
388.038	80.75
388.263	87.75
388.488	70.75
388.713	75.75
388.938	82.75
389.163	87.75
389.387	76.75
389.612	93.75
389.837	89.75
390.062	87.75
390.287	82.75
390.512	89.75
390.736	78.75
390.961	98.75
391.186	86.75
391.411	96.75
391.636	85.75
391.86	90.75
392.085	83.75
392.31	84.75
392.534	87.75
392.759	83.75
392.984	80.75
393.208	90.75
393.433	78.75
393.658	93.75
393.882	90.75
394.107	96.75
394.331	101.75
394.556	93.75
394.78	78.75
395.005	93.75
395.229	84.75
395.454	81.75
395.678	98.75
395.903	77.75
396.127	97.75
396.352	91.75
396.576	85.75
396.801	75.75
397.025	90.75
397.249	79.75
397.474	87.75
397.698	93.75
397.922	85.75
398.147	92.75
398.371	86.75
398.595	80.75
398.82	91.75
399.044	76.75
399.268	86.75
399.492	78.75
399.717	82.75
399.941	98.75
400.165	93.75
400.389	70.75
400.613	89.75
400.837	87.75
401.062	97.75
401.286	87.75
401.51	88.75
401.734	96.75
401.958	71.75
402.182	85.75
402.406	95.75
402.63	90.75
402.854	78.75
403.078	80.75
403.302	95.75
403.526	83.75
403.75	90.75
403.974	83.75
404.198	88.75
404.422	92.75
404.645	96.75
404.869	84.75
405.093	91.75
405.317	94.75
405.541	88.75
405.765	97.75
405.988	100.75
406.212	102.75
406.436	101.75
406.66	102.75
406.883	96.75
407.107	103.75
407.331	87.75
407.555	85.75
407.778	89.75
408.002	96.75
408.226	85.75
408.449	89.75
408.673	99.75
408.896	84.75
409.12	89.75
409.344	88.75
409.567	90.75
409.791	89.75
410.014	96.75
410.238	81.75
410.461	75.75
410.685	93.75
410.908	80.75
411.132	82.75
411.355	81.75
411.578	95.75
411.802	85.75
412.025	90.75
412.249	98.75
412.472	98.75
412.695	86.75
412.919	103.75
413.142	85.75
413.365	102.75
413.589	97.75
413.812	91.75
414.035	94.75
414.258	99.75
414.482	81.75
414.705	97.75
414.928	82.75
415.151	88.75
415.374	99.75
415.597	82.75
415.821	94.75
416.044	86.75
416.267	105.75
416.49	111.75
416.713	83.75
416.936	98.75
417.159	85.75
417.382	75.75
417.605	92.75
417.828	85.75
418.051	97.75
418.274	91.75
418.497	96.75
418.72	111.75
418.943	109.75
419.166	78.75
419.389	80.75
419.611	109.75
419.834	88.75
420.057	75.75
420.28	97.75
420.503	98.75
420.726	95.75
420.948	92.75
421.171	109.75
421.394	97.75
421.617	87.75
421.839	94.75
422.062	83.75
422.285	88.75
422.507	96.75
422.73	101.75
422.953	92.75
423.175	89.75
423.398	95.75
423.621	98.75
423.843	98.75
424.066	106.75
424.288	90.75
424.511	94.75
424.733	91.75
424.956	78.75
425.178	93.75
425.401	91.75
425.623	94.75
425.846	104.75
426.068	93.75
426.291	95.75
426.513	93.75
426.735	100.75
426.958	102.75
427.18	99.75
427.402	92.75
427.625	93.75
427.847	86.75
428.069	96.75
428.292	103.75
428.514	105.75
428.736	101.75
428.958	91.75
429.181	90.75
429.403	85.75
429.625	81.75
429.847	89.75
430.069	101.75
430.292	97.75
430.514	86.75
430.736	82.75
430.958	94.75
431.18	95.75
431.402	85.75
431.624	92.75
431.846	86.75
432.068	83.75
432.29	94.75
432.512	87.75
432.734	82.75
432.956	91.75
433.178	85.75
433.4	105.75
433.622	81.75
433.844	84.75
434.066	98.75
434.287	81.75
434.509	87.75
434.731	93.75
434.953	72.75
435.175	92.75
435.397	100.75
435.618	71.75
435.84	82.75
436.062	105.75
436.284	90.75
436.505	90.75
436.727	94.75
436.949	93.75
437.17	91.75
437.392	99.75
437.614	95.75
437.835	81.75
438.057	73.75
438.278	86.75
438.5	107.75
438.721	105.75
438.943	88.75
439.165	92.75
439.386	96.75
439.608	117.75
439.829	97.75
440.05	94.75
440.272	104.75
440.493	88.75
440.715	90.75
440.936	95.75
441.158	102.75
441.379	88.75
441.6	97.75
441.822	89.75
442.043	94.75
442.264	97.75
442.486	95.75
442.707	95.75
442.928	84.75
443.149	99.75
443.371	92.75
443.592	94.75
443.813	104.75
444.034	97.75
444.255	90.75
444.476	97.75
444.698	103.75
444.919	95.75
445.14	239.75
445.361	158.75
445.582	105.75
445.803	95.75
446.024	90.75
446.245	98.75
446.466	107.75
446.687	105.75
446.908	110.75
447.129	113.75
447.35	101.75
447.571	96.75
447.792	98.75
448.013	103.75
448.234	96.75
448.455	105.75
448.675	108.75
448.896	95.75
449.117	96.75
449.338	88.75
449.559	95.75
449.779	97.75
450	92.75
450.221	88.75
450.442	92.75
450.662	93.75
450.883	97.75
451.104	109.75
451.324	93.75
451.545	91.75
451.766	88.75
451.986	103.75
452.207	101.75
452.428	85.75
452.648	104.75
452.869	104.75
453.089	83.75
453.31	88.75
453.53	85.75
453.751	87.75
453.971	102.75
454.192	90.75
454.412	91.75
454.633	95.75
454.853	83.75
455.073	82.75
455.294	81.75
455.514	90.75
455.734	105.75
455.955	83.75
456.175	94.75
456.395	97.75
456.616	77.75
456.836	101.75
457.056	102.75
457.276	71.75
457.497	93.75
457.717	79.75
457.937	90.75
458.157	87.75
458.377	93.75
458.598	81.75
458.818	88.75
459.038	76.75
459.258	86.75
459.478	74.75
459.698	89.75
459.918	86.75
460.138	75.75
460.358	82.75
460.578	86.75
460.798	77.75
461.018	74.75
461.238	102.75
461.458	105.75
461.678	85.75
461.898	102.75
462.118	85.75
462.338	88.75
462.558	95.75
462.777	89.75
462.997	99.75
463.217	86.75
463.437	74.75
463.657	102.75
463.876	102.75
464.096	83.75
464.316	80.75
464.536	89.75
464.755	88.75
464.975	91.75
465.195	86.75
465.414	90.75
465.634	96.75
465.854	94.75
466.073	86.75
466.293	99.75
466.512	94.75
466.732	83.75
466.951	84.75
467.171	99.75
467.391	99.75
467.61	93.75
467.829	85.75
468.049	85.75
468.268	86.75
468.488	104.75
468.707	106.75
468.927	92.75
469.146	107.75
469.365	107.75
469.585	98.75
469.804	98.75
470.023	95.75
470.243	101.75
470.462	81.75
470.681	95.75
470.901	104.75
471.12	92.75
471.339	93.75
471.558	88.75
471.777	94.75
471.997	98.75
472.216	82.75
472.435	93.75
472.654	88.75
472.873	90.75
473.092	94.75
473.311	91.75
473.53	111.75
473.749	101.75
473.968	104.75
474.187	83.75
474.406	82.75
474.625	81.75
474.844	92.75
475.063	87.75
475.282	93.75
475.501	95.75
475.72	100.75
475.939	87.75
476.158	101.75
476.377	101.75
476.596	97.75
476.814	95.75
477.033	88.75
477.252	87.75
477.471	96.75
477.69	95.75
477.908	109.75
478.127	93.75
478.346	90.75
478.564	109.75
478.783	95.75
479.002	98.75
479.22	97.75
479.439	86.75
479.658	99.75
479.876	92.75
480.095	88.75
480.313	85.75
480.532	90.75
480.751	117.75
480.969	97.75
481.188	84.75
481.406	87.75
481.624	80.75
481.843	77.75
482.061	80.75
482.28	95.75
482.498	83.75
482.717	89.75
482.935	91.75
483.153	89.75
483.372	101.75
483.59	94.75
483.808	86.75
484.027	81.75
484.245	86.75
484.463	100.75
484.681	114.75
484.9	91.75
485.118	102.75
485.336	102.75
485.554	83.75
485.772	99.75
485.99	90.75
486.209	92.75
486.427	85.75
486.645	86.75
486.863	90.75
487.081	106.75
487.299	100.75
487.517	90.75
487.735	100.75
487.953	117.75
488.171	101.75
488.389	105.75
488.607	86.75
488.825	86.75
489.043	90.75
489.261	96.75
489.479	101.75
489.696	94.75
489.914	84.75
490.132	99.75
490.35	100.75
490.568	101.75
490.786	115.75
491.003	99.75
491.221	103.75
491.439	111.75
491.657	109.75
491.874	116.75
492.092	131.75
492.31	125.75
492.527	111.75
492.745	133.75
492.963	124.75
493.18	109.75
493.398	107.75
493.615	115.75
493.833	111.75
494.05	110.75
494.268	101.75
494.485	111.75
494.703	113.75
494.92	105.75
495.138	104.75
495.355	108.75
495.573	102.75
495.79	113.75
496.008	103.75
496.225	113.75
496.442	101.75
496.66	109.75
496.877	90.75
497.094	108.75
497.312	111.75
497.529	102.75
497.746	98.75
497.963	93.75
498.181	97.75
498.398	93.75
498.615	115.75
498.832	102.75
499.049	91.75
499.267	82.75
499.484	93.75
499.701	85.75
499.918	90.75
500.135	112.75
500.352	95.75
500.569	109.75
500.786	103.75
501.003	99.75
501.22	96.75
501.437	101.75
501.654	100.75
501.871	101.75
502.088	84.75
502.305	92.75
502.522	77.75
502.739	97.75
502.956	82.75
503.172	106.75
503.389	109.75
503.606	85.75
503.823	101.75
504.04	89.75
504.256	86.75
504.473	86.75
504.69	93.75
504.907	97.75
505.123	94.75
505.34	92.75
505.557	103.75
505.773	98.75
505.99	83.75
506.207	90.75
506.423	89.75
506.64	86.75
506.856	93.75
507.073	93.75
507.289	106.75
507.506	88.75
507.722	99.75
507.939	88.75
508.155	82.75
508.372	92.75
508.588	85.75
508.805	94.75
509.021	80.75
509.238	84.75
509.454	89.75
509.67	83.75
509.887	93.75
510.103	80.75
510.319	76.75
510.536	86.75
510.752	81.75
510.968	69.75
511.184	67.75
511.401	79.75
511.617	70.75
511.833	82.75
512.049	89.75
512.265	94.75
512.481	86.75
512.698	92.75
512.914	90.75
513.13	63.75
513.346	78.75
513.562	80.75
513.778	72.75
513.994	88.75
514.21	81.75
514.426	87.75
514.642	75.75
514.858	82.75
515.074	88.75
515.29	85.75
515.506	82.75
515.721	68.75
515.937	83.75
516.153	92.75
516.369	89.75
516.585	78.75
516.801	81.75
517.016	83.75
517.232	89.75
517.448	81.75
517.664	82.75
