Data from Location3.07152019.Energy5.Lamp.07192019.3%Agarose_HRD10591_15-16-39-269.txt Node
Date: Fri Jul 19 15:16:39 EDT 2019
User: cochatt
Spectrometer: HR+D1059
Trigger mode: 1
Integration Time (sec): 1.000000E-1
Scans to average: 1
Electric dark correction enabled: true
Nonlinearity correction enabled: false
Boxcar width: 0
XAxis mode: Wavelengths
Number of Pixels in Spectrum: 2048
>>>>>Begin Spectral Data<<<<<
223.165	-22.94
223.4	-22.94
223.635	-22.94
223.869	-8.94
224.104	-18.94
224.338	-15.94
224.573	-12.94
224.808	1.06
225.042	-1.94
225.277	5.06
225.511	-2.94
225.746	0.06
225.98	12.06
226.215	4.06
226.449	-10.94
226.683	19.06
226.918	26.06
227.152	28.06
227.387	43.06
227.621	49.06
227.856	58.06
228.09	50.06
228.324	53.06
228.559	74.06
228.793	47.06
229.027	48.06
229.262	59.06
229.496	75.06
229.73	69.06
229.964	65.06
230.199	60.06
230.433	74.06
230.667	82.06
230.901	85.06
231.136	86.06
231.37	85.06
231.604	74.06
231.838	72.06
232.072	78.06
232.306	67.06
232.541	81.06
232.775	87.06
233.009	92.06
233.243	67.06
233.477	86.06
233.711	91.06
233.945	95.06
234.179	96.06
234.413	91.06
234.647	94.06
234.881	77.06
235.115	92.06
235.349	90.06
235.583	90.06
235.817	92.06
236.051	81.06
236.285	77.06
236.519	64.06
236.753	84.06
236.987	83.06
237.221	74.06
237.455	74.06
237.689	72.06
237.922	76.06
238.156	83.06
238.39	63.06
238.624	82.06
238.858	93.06
239.091	88.06
239.325	78.06
239.559	81.06
239.793	74.06
240.027	90.06
240.26	93.06
240.494	77.06
240.728	81.06
240.961	85.06
241.195	85.06
241.429	81.06
241.662	75.06
241.896	83.06
242.13	77.06
242.363	80.06
242.597	77.06
242.83	70.06
243.064	81.06
243.298	80.06
243.531	71.06
243.765	72.06
243.998	79.06
244.232	84.06
244.465	74.06
244.699	88.06
244.932	81.06
245.166	84.06
245.399	93.06
245.633	92.06
245.866	89.06
246.099	81.06
246.333	83.06
246.566	83.06
246.8	77.06
247.033	76.06
247.266	96.06
247.5	73.06
247.733	83.06
247.966	64.06
248.2	91.06
248.433	81.06
248.666	89.06
248.899	82.06
249.133	79.06
249.366	92.06
249.599	80.06
249.832	78.06
250.066	102.06
250.299	77.06
250.532	75.06
250.765	90.06
250.998	94.06
251.231	97.06
251.465	90.06
251.698	86.06
251.931	79.06
252.164	81.06
252.397	93.06
252.63	88.06
252.863	85.06
253.096	77.06
253.329	86.06
253.562	82.06
253.795	76.06
254.028	75.06
254.261	83.06
254.494	88.06
254.727	92.06
254.96	90.06
255.193	75.06
255.426	85.06
255.659	84.06
255.892	79.06
256.124	80.06
256.357	78.06
256.59	81.06
256.823	85.06
257.056	82.06
257.289	83.06
257.521	90.06
257.754	76.06
257.987	94.06
258.22	99.06
258.452	76.06
258.685	82.06
258.918	73.06
259.151	76.06
259.383	90.06
259.616	75.06
259.849	87.06
260.081	82.06
260.314	85.06
260.547	88.06
260.779	85.06
261.012	89.06
261.244	86.06
261.477	88.06
261.71	77.06
261.942	82.06
262.175	91.06
262.407	93.06
262.64	93.06
262.872	83.06
263.105	87.06
263.337	84.06
263.57	84.06
263.802	90.06
264.035	82.06
264.267	89.06
264.499	88.06
264.732	82.06
264.964	69.06
265.197	86.06
265.429	92.06
265.661	82.06
265.894	87.06
266.126	78.06
266.358	81.06
266.591	92.06
266.823	78.06
267.055	78.06
267.287	86.06
267.52	86.06
267.752	84.06
267.984	87.06
268.216	98.06
268.448	85.06
268.681	87.06
268.913	93.06
269.145	70.06
269.377	86.06
269.609	74.06
269.841	78.06
270.073	76.06
270.306	85.06
270.538	92.06
270.77	82.06
271.002	99.06
271.234	88.06
271.466	90.06
271.698	84.06
271.93	81.06
272.162	91.06
272.394	82.06
272.626	95.06
272.858	98.06
273.09	81.06
273.322	78.06
273.553	82.06
273.785	82.06
274.017	87.06
274.249	93.06
274.481	64.06
274.713	99.06
274.945	73.06
275.176	95.06
275.408	86.06
275.64	96.06
275.872	74.06
276.104	83.06
276.335	97.06
276.567	84.06
276.799	76.06
277.031	91.06
277.262	81.06
277.494	84.06
277.726	90.06
277.957	80.06
278.189	74.06
278.421	82.06
278.652	78.06
278.884	80.06
279.115	72.06
279.347	95.06
279.579	81.06
279.81	77.06
280.042	85.06
280.273	87.06
280.505	89.06
280.736	85.06
280.968	82.06
281.199	76.06
281.431	78.06
281.662	70.06
281.894	73.06
282.125	80.06
282.356	91.06
282.588	103.06
282.819	87.06
283.051	92.06
283.282	84.06
283.513	75.06
283.745	93.06
283.976	74.06
284.207	80.06
284.439	91.06
284.67	75.06
284.901	87.06
285.132	68.06
285.364	88.06
285.595	89.06
285.826	77.06
286.057	88.06
286.288	90.06
286.52	84.06
286.751	82.06
286.982	79.06
287.213	74.06
287.444	89.06
287.675	77.06
287.906	86.06
288.138	71.06
288.369	86.06
288.6	87.06
288.831	96.06
289.062	92.06
289.293	86.06
289.524	85.06
289.755	112.06
289.986	93.06
290.217	73.06
290.448	79.06
290.679	70.06
290.91	97.06
291.141	78.06
291.371	97.06
291.602	80.06
291.833	82.06
292.064	90.06
292.295	85.06
292.526	84.06
292.757	89.06
292.987	76.06
293.218	82.06
293.449	80.06
293.68	88.06
293.91	82.06
294.141	92.06
294.372	86.06
294.603	103.06
294.833	90.06
295.064	87.06
295.295	105.06
295.525	82.06
295.756	83.06
295.987	91.06
296.217	78.06
296.448	88.06
296.679	89.06
296.909	102.06
297.14	85.06
297.37	88.06
297.601	92.06
297.831	83.06
298.062	85.06
298.292	94.06
298.523	88.06
298.753	71.06
298.984	97.06
299.214	91.06
299.445	98.06
299.675	73.06
299.905	84.06
300.136	82.06
300.366	87.06
300.597	80.06
300.827	89.06
301.057	76.06
301.288	100.06
301.518	74.06
301.748	77.06
301.979	97.06
302.209	92.06
302.439	86.06
302.669	98.06
302.9	79.06
303.13	84.06
303.36	84.06
303.59	93.06
303.82	91.06
304.051	84.06
304.281	74.06
304.511	109.06
304.741	85.06
304.971	73.06
305.201	85.06
305.431	94.06
305.661	93.06
305.891	91.06
306.121	96.06
306.352	80.06
306.582	86.06
306.812	85.06
307.042	86.06
307.272	92.06
307.502	76.06
307.731	83.06
307.961	83.06
308.191	81.06
308.421	86.06
308.651	85.06
308.881	92.06
309.111	85.06
309.341	87.06
309.571	75.06
309.8	85.06
310.03	79.06
310.26	73.06
310.49	82.06
310.72	79.06
310.949	74.06
311.179	85.06
311.409	83.06
311.639	79.06
311.868	103.06
312.098	90.06
312.328	77.06
312.557	92.06
312.787	83.06
313.017	90.06
313.246	96.06
313.476	79.06
313.706	94.06
313.935	93.06
314.165	91.06
314.394	85.06
314.624	92.06
314.853	96.06
315.083	82.06
315.312	72.06
315.542	85.06
315.771	101.06
316.001	84.06
316.23	79.06
316.46	79.06
316.689	83.06
316.919	96.06
317.148	102.06
317.377	74.06
317.607	84.06
317.836	82.06
318.065	91.06
318.295	87.06
318.524	91.06
318.753	96.06
318.983	97.06
319.212	101.06
319.441	94.06
319.67	93.06
319.9	93.06
320.129	103.06
320.358	84.06
320.587	90.06
320.816	95.06
321.046	77.06
321.275	91.06
321.504	94.06
321.733	84.06
321.962	86.06
322.191	90.06
322.42	85.06
322.649	87.06
322.878	87.06
323.108	75.06
323.337	74.06
323.566	61.06
323.795	87.06
324.024	89.06
324.253	96.06
324.482	78.06
324.71	83.06
324.939	92.06
325.168	95.06
325.397	102.06
325.626	85.06
325.855	82.06
326.084	82.06
326.313	79.06
326.542	79.06
326.77	92.06
326.999	81.06
327.228	87.06
327.457	89.06
327.686	82.06
327.914	95.06
328.143	93.06
328.372	80.06
328.6	96.06
328.829	100.06
329.058	79.06
329.287	97.06
329.515	82.06
329.744	88.06
329.972	84.06
330.201	84.06
330.43	92.06
330.658	90.06
330.887	80.06
331.115	80.06
331.344	72.06
331.572	91.06
331.801	71.06
332.03	93.06
332.258	93.06
332.486	81.06
332.715	79.06
332.943	81.06
333.172	91.06
333.4	88.06
333.629	93.06
333.857	96.06
334.085	83.06
334.314	77.06
334.542	96.06
334.771	84.06
334.999	91.06
335.227	76.06
335.455	97.06
335.684	85.06
335.912	83.06
336.14	78.06
336.369	85.06
336.597	84.06
336.825	96.06
337.053	89.06
337.281	85.06
337.51	89.06
337.738	92.06
337.966	86.06
338.194	79.06
338.422	102.06
338.65	92.06
338.878	93.06
339.106	77.06
339.334	88.06
339.562	78.06
339.79	78.06
340.018	74.06
340.246	91.06
340.474	82.06
340.702	66.06
340.93	84.06
341.158	82.06
341.386	90.06
341.614	103.06
341.842	87.06
342.07	71.06
342.298	81.06
342.526	80.06
342.754	88.06
342.981	86.06
343.209	82.06
343.437	102.06
343.665	93.06
343.893	85.06
344.12	91.06
344.348	93.06
344.576	89.06
344.804	76.06
345.031	74.06
345.259	88.06
345.487	86.06
345.714	85.06
345.942	84.06
346.17	90.06
346.397	74.06
346.625	79.06
346.853	83.06
347.08	83.06
347.308	92.06
347.535	75.06
347.763	86.06
347.99	86.06
348.218	89.06
348.445	76.06
348.673	88.06
348.9	77.06
349.128	91.06
349.355	78.06
349.583	86.06
349.81	78.06
350.037	91.06
350.265	74.06
350.492	86.06
350.72	74.06
350.947	94.06
351.174	82.06
351.402	87.06
351.629	84.06
351.856	81.06
352.083	87.06
352.311	92.06
352.538	85.06
352.765	86.06
352.992	89.06
353.22	83.06
353.447	93.06
353.674	92.06
353.901	91.06
354.128	81.06
354.355	91.06
354.583	83.06
354.81	85.06
355.037	91.06
355.264	84.06
355.491	79.06
355.718	76.06
355.945	87.06
356.172	70.06
356.399	83.06
356.626	86.06
356.853	87.06
357.08	97.06
357.307	103.06
357.534	95.06
357.761	99.06
357.988	76.06
358.215	96.06
358.441	82.06
358.668	84.06
358.895	89.06
359.122	89.06
359.349	99.06
359.576	96.06
359.802	91.06
360.029	68.06
360.256	67.06
360.483	88.06
360.709	85.06
360.936	91.06
361.163	85.06
361.39	88.06
361.616	87.06
361.843	80.06
362.07	81.06
362.296	76.06
362.523	98.06
362.749	75.06
362.976	89.06
363.203	97.06
363.429	88.06
363.656	85.06
363.882	71.06
364.109	73.06
364.335	93.06
364.562	76.06
364.788	100.06
365.015	88.06
365.241	91.06
365.468	82.06
365.694	71.06
365.92	97.06
366.147	86.06
366.373	92.06
366.599	83.06
366.826	86.06
367.052	76.06
367.278	78.06
367.505	75.06
367.731	85.06
367.957	88.06
368.184	92.06
368.41	89.06
368.636	78.06
368.862	99.06
369.089	63.06
369.315	78.06
369.541	97.06
369.767	77.06
369.993	93.06
370.219	83.06
370.445	83.06
370.672	76.06
370.898	88.06
371.124	88.06
371.35	65.06
371.576	68.06
371.802	57.06
372.028	99.06
372.254	96.06
372.48	87.06
372.706	83.06
372.932	82.06
373.158	82.06
373.384	94.06
373.61	90.06
373.835	91.06
374.061	99.06
374.287	91.06
374.513	92.06
374.739	96.06
374.965	93.06
375.191	92.06
375.416	95.06
375.642	78.06
375.868	79.06
376.094	96.06
376.319	78.06
376.545	90.06
376.771	91.06
376.997	89.06
377.222	78.06
377.448	86.06
377.674	93.06
377.899	96.06
378.125	65.06
378.35	94.06
378.576	84.06
378.802	92.06
379.027	78.06
379.253	87.06
379.478	102.06
379.704	76.06
379.929	74.06
380.155	92.06
380.38	81.06
380.606	98.06
380.831	90.06
381.057	89.06
381.282	84.06
381.507	74.06
381.733	90.06
381.958	90.06
382.184	91.06
382.409	89.06
382.634	102.06
382.86	90.06
383.085	75.06
383.31	99.06
383.535	90.06
383.761	102.06
383.986	94.06
384.211	89.06
384.436	101.06
384.662	92.06
384.887	86.06
385.112	90.06
385.337	89.06
385.562	76.06
385.787	90.06
386.013	91.06
386.238	77.06
386.463	92.06
386.688	74.06
386.913	92.06
387.138	80.06
387.363	80.06
387.588	87.06
387.813	93.06
388.038	83.06
388.263	79.06
388.488	97.06
388.713	91.06
388.938	88.06
389.163	83.06
389.387	98.06
389.612	89.06
389.837	89.06
390.062	80.06
390.287	104.06
390.512	93.06
390.736	97.06
390.961	92.06
391.186	93.06
391.411	84.06
391.636	92.06
391.86	90.06
392.085	97.06
392.31	77.06
392.534	85.06
392.759	89.06
392.984	91.06
393.208	84.06
393.433	98.06
393.658	89.06
393.882	84.06
394.107	80.06
394.331	90.06
394.556	70.06
394.78	82.06
395.005	93.06
395.229	90.06
395.454	93.06
395.678	85.06
395.903	89.06
396.127	98.06
396.352	89.06
396.576	92.06
396.801	94.06
397.025	82.06
397.249	99.06
397.474	90.06
397.698	95.06
397.922	69.06
398.147	94.06
398.371	77.06
398.595	101.06
398.82	101.06
399.044	98.06
399.268	94.06
399.492	87.06
399.717	98.06
399.941	108.06
400.165	88.06
400.389	97.06
400.613	92.06
400.837	84.06
401.062	96.06
401.286	95.06
401.51	90.06
401.734	101.06
401.958	85.06
402.182	95.06
402.406	94.06
402.63	87.06
402.854	93.06
403.078	90.06
403.302	95.06
403.526	82.06
403.75	105.06
403.974	86.06
404.198	95.06
404.422	104.06
404.645	93.06
404.869	84.06
405.093	96.06
405.317	89.06
405.541	94.06
405.765	98.06
405.988	84.06
406.212	109.06
406.436	95.06
406.66	76.06
406.883	84.06
407.107	106.06
407.331	104.06
407.555	103.06
407.778	93.06
408.002	94.06
408.226	91.06
408.449	92.06
408.673	86.06
408.896	95.06
409.12	89.06
409.344	82.06
409.567	89.06
409.791	89.06
410.014	91.06
410.238	98.06
410.461	107.06
410.685	102.06
410.908	88.06
411.132	93.06
411.355	98.06
411.578	110.06
411.802	69.06
412.025	85.06
412.249	80.06
412.472	93.06
412.695	86.06
412.919	100.06
413.142	99.06
413.365	99.06
413.589	107.06
413.812	90.06
414.035	92.06
414.258	81.06
414.482	91.06
414.705	98.06
414.928	80.06
415.151	103.06
415.374	83.06
415.597	87.06
415.821	106.06
416.044	92.06
416.267	94.06
416.49	94.06
416.713	88.06
416.936	95.06
417.159	96.06
417.382	108.06
417.605	98.06
417.828	94.06
418.051	104.06
418.274	98.06
418.497	114.06
418.72	107.06
418.943	104.06
419.166	98.06
419.389	101.06
419.611	98.06
419.834	112.06
420.057	93.06
420.28	99.06
420.503	100.06
420.726	100.06
420.948	85.06
421.171	93.06
421.394	112.06
421.617	102.06
421.839	106.06
422.062	100.06
422.285	101.06
422.507	97.06
422.73	86.06
422.953	99.06
423.175	107.06
423.398	89.06
423.621	98.06
423.843	96.06
424.066	113.06
424.288	114.06
424.511	89.06
424.733	102.06
424.956	96.06
425.178	85.06
425.401	110.06
425.623	93.06
425.846	104.06
426.068	96.06
426.291	100.06
426.513	93.06
426.735	104.06
426.958	94.06
427.18	82.06
427.402	104.06
427.625	84.06
427.847	96.06
428.069	98.06
428.292	105.06
428.514	96.06
428.736	109.06
428.958	102.06
429.181	97.06
429.403	108.06
429.625	84.06
429.847	90.06
430.069	93.06
430.292	101.06
430.514	98.06
430.736	86.06
430.958	90.06
431.18	88.06
431.402	95.06
431.624	82.06
431.846	99.06
432.068	93.06
432.29	78.06
432.512	81.06
432.734	108.06
432.956	107.06
433.178	105.06
433.4	97.06
433.622	89.06
433.844	91.06
434.066	84.06
434.287	89.06
434.509	88.06
434.731	78.06
434.953	84.06
435.175	87.06
435.397	95.06
435.618	102.06
435.84	88.06
436.062	75.06
436.284	105.06
436.505	86.06
436.727	97.06
436.949	79.06
437.17	103.06
437.392	84.06
437.614	105.06
437.835	85.06
438.057	86.06
438.278	87.06
438.5	90.06
438.721	107.06
438.943	105.06
439.165	96.06
439.386	91.06
439.608	109.06
439.829	92.06
440.05	106.06
440.272	108.06
440.493	108.06
440.715	90.06
440.936	97.06
441.158	98.06
441.379	85.06
441.6	103.06
441.822	101.06
442.043	103.06
442.264	94.06
442.486	101.06
442.707	99.06
442.928	84.06
443.149	103.06
443.371	102.06
443.592	87.06
443.813	99.06
444.034	94.06
444.255	90.06
444.476	90.06
444.698	95.06
444.919	95.06
445.14	182.06
445.361	123.06
445.582	105.06
445.803	112.06
446.024	88.06
446.245	96.06
446.466	110.06
446.687	103.06
446.908	102.06
447.129	106.06
447.35	109.06
447.571	96.06
447.792	100.06
448.013	98.06
448.234	97.06
448.455	101.06
448.675	97.06
448.896	104.06
449.117	109.06
449.338	94.06
449.559	116.06
449.779	109.06
450	96.06
450.221	89.06
450.442	102.06
450.662	102.06
450.883	88.06
451.104	84.06
451.324	80.06
451.545	104.06
451.766	97.06
451.986	99.06
452.207	91.06
452.428	101.06
452.648	95.06
452.869	87.06
453.089	100.06
453.31	97.06
453.53	84.06
453.751	88.06
453.971	112.06
454.192	93.06
454.412	93.06
454.633	105.06
454.853	91.06
455.073	85.06
455.294	95.06
455.514	99.06
455.734	85.06
455.955	105.06
456.175	105.06
456.395	89.06
456.616	88.06
456.836	71.06
457.056	101.06
457.276	94.06
457.497	97.06
457.717	89.06
457.937	97.06
458.157	89.06
458.377	87.06
458.598	103.06
458.818	89.06
459.038	92.06
459.258	75.06
459.478	86.06
459.698	86.06
459.918	85.06
460.138	104.06
460.358	97.06
460.578	82.06
460.798	74.06
461.018	86.06
461.238	91.06
461.458	88.06
461.678	88.06
461.898	91.06
462.118	93.06
462.338	89.06
462.558	103.06
462.777	84.06
462.997	98.06
463.217	96.06
463.437	89.06
463.657	98.06
463.876	89.06
464.096	92.06
464.316	82.06
464.536	80.06
464.755	85.06
464.975	95.06
465.195	102.06
465.414	81.06
465.634	92.06
465.854	101.06
466.073	100.06
466.293	100.06
466.512	83.06
466.732	90.06
466.951	109.06
467.171	84.06
467.391	88.06
467.61	91.06
467.829	108.06
468.049	98.06
468.268	100.06
468.488	95.06
468.707	98.06
468.927	98.06
469.146	97.06
469.365	98.06
469.585	110.06
469.804	105.06
470.023	116.06
470.243	89.06
470.462	107.06
470.681	113.06
470.901	103.06
471.12	105.06
471.339	86.06
471.558	101.06
471.777	106.06
471.997	104.06
472.216	105.06
472.435	94.06
472.654	99.06
472.873	99.06
473.092	89.06
473.311	104.06
473.53	112.06
473.749	106.06
473.968	95.06
474.187	90.06
474.406	98.06
474.625	105.06
474.844	101.06
475.063	99.06
475.282	102.06
475.501	77.06
475.72	98.06
475.939	92.06
476.158	103.06
476.377	93.06
476.596	95.06
476.814	90.06
477.033	94.06
477.252	103.06
477.471	108.06
477.69	93.06
477.908	92.06
478.127	109.06
478.346	114.06
478.564	104.06
478.783	104.06
479.002	106.06
479.22	92.06
479.439	92.06
479.658	87.06
479.876	83.06
480.095	87.06
480.313	97.06
480.532	89.06
480.751	85.06
480.969	89.06
481.188	86.06
481.406	89.06
481.624	85.06
481.843	80.06
482.061	86.06
482.28	102.06
482.498	97.06
482.717	101.06
482.935	92.06
483.153	100.06
483.372	112.06
483.59	109.06
483.808	102.06
484.027	89.06
484.245	112.06
484.463	128.06
484.681	105.06
484.9	100.06
485.118	108.06
485.336	99.06
485.554	87.06
485.772	97.06
485.99	85.06
486.209	88.06
486.427	88.06
486.645	77.06
486.863	92.06
487.081	96.06
487.299	101.06
487.517	118.06
487.735	108.06
487.953	113.06
488.171	109.06
488.389	98.06
488.607	116.06
488.825	99.06
489.043	89.06
489.261	104.06
489.479	92.06
489.696	112.06
489.914	109.06
490.132	89.06
490.35	113.06
490.568	112.06
490.786	99.06
491.003	101.06
491.221	113.06
491.439	126.06
491.657	122.06
491.874	114.06
492.092	136.06
492.31	127.06
492.527	143.06
492.745	125.06
492.963	127.06
493.18	121.06
493.398	114.06
493.615	115.06
493.833	118.06
494.05	122.06
494.268	101.06
494.485	104.06
494.703	112.06
494.92	120.06
495.138	114.06
495.355	101.06
495.573	96.06
495.79	105.06
496.008	110.06
496.225	98.06
496.442	102.06
496.66	114.06
496.877	109.06
497.094	111.06
497.312	103.06
497.529	107.06
497.746	99.06
497.963	100.06
498.181	103.06
498.398	105.06
498.615	94.06
498.832	89.06
499.049	80.06
499.267	99.06
499.484	104.06
499.701	91.06
499.918	104.06
500.135	104.06
500.352	108.06
500.569	105.06
500.786	105.06
501.003	92.06
501.22	119.06
501.437	109.06
501.654	104.06
501.871	103.06
502.088	101.06
502.305	113.06
502.522	102.06
502.739	97.06
502.956	101.06
503.172	91.06
503.389	92.06
503.606	99.06
503.823	105.06
504.04	103.06
504.256	100.06
504.473	100.06
504.69	98.06
504.907	106.06
505.123	100.06
505.34	86.06
505.557	100.06
505.773	93.06
505.99	93.06
506.207	101.06
506.423	88.06
506.64	100.06
506.856	95.06
507.073	83.06
507.289	83.06
507.506	89.06
507.722	115.06
507.939	92.06
508.155	96.06
508.372	92.06
508.588	92.06
508.805	83.06
509.021	97.06
509.238	90.06
509.454	86.06
509.67	91.06
509.887	87.06
510.103	99.06
510.319	87.06
510.536	90.06
510.752	86.06
510.968	83.06
511.184	88.06
511.401	78.06
511.617	83.06
511.833	80.06
512.049	89.06
512.265	82.06
512.481	101.06
512.698	89.06
512.914	95.06
513.13	92.06
513.346	85.06
513.562	88.06
513.778	94.06
513.994	83.06
514.21	77.06
514.426	99.06
514.642	84.06
514.858	81.06
515.074	84.06
515.29	70.06
515.506	75.06
515.721	88.06
515.937	81.06
516.153	90.06
516.369	80.06
