Data from Location3.07152019.Energy5.Lamp.07192019.3%Agarose_HRD10591_15-17-57-269.txt Node
Date: Fri Jul 19 15:17:57 EDT 2019
User: cochatt
Spectrometer: HR+D1059
Trigger mode: 1
Integration Time (sec): 1.000000E-1
Scans to average: 1
Electric dark correction enabled: true
Nonlinearity correction enabled: false
Boxcar width: 0
XAxis mode: Wavelengths
Number of Pixels in Spectrum: 2048
>>>>>Begin Spectral Data<<<<<
223.165	-0.81
223.4	-0.81
223.635	-0.81
223.869	-21.81
224.104	-18.81
224.338	-16.81
224.573	-26.81
224.808	-27.81
225.042	-14.81
225.277	-2.81
225.511	12.19
225.746	14.19
225.98	1.19
226.215	5.19
226.449	22.19
226.683	32.19
226.918	17.19
227.152	26.19
227.387	32.19
227.621	29.19
227.856	27.19
228.09	32.19
228.324	52.19
228.559	42.19
228.793	68.19
229.027	74.19
229.262	65.19
229.496	57.19
229.73	63.19
229.964	73.19
230.199	66.19
230.433	82.19
230.667	70.19
230.901	73.19
231.136	81.19
231.37	82.19
231.604	90.19
231.838	83.19
232.072	71.19
232.306	86.19
232.541	83.19
232.775	71.19
233.009	74.19
233.243	82.19
233.477	79.19
233.711	91.19
233.945	72.19
234.179	75.19
234.413	78.19
234.647	83.19
234.881	87.19
235.115	86.19
235.349	74.19
235.583	80.19
235.817	85.19
236.051	78.19
236.285	74.19
236.519	87.19
236.753	72.19
236.987	73.19
237.221	74.19
237.455	76.19
237.689	72.19
237.922	79.19
238.156	85.19
238.39	80.19
238.624	81.19
238.858	77.19
239.091	80.19
239.325	72.19
239.559	63.19
239.793	82.19
240.027	78.19
240.26	79.19
240.494	64.19
240.728	79.19
240.961	69.19
241.195	85.19
241.429	66.19
241.662	69.19
241.896	65.19
242.13	74.19
242.363	73.19
242.597	79.19
242.83	69.19
243.064	66.19
243.298	80.19
243.531	75.19
243.765	80.19
243.998	78.19
244.232	76.19
244.465	77.19
244.699	66.19
244.932	70.19
245.166	70.19
245.399	72.19
245.633	77.19
245.866	91.19
246.099	56.19
246.333	88.19
246.566	82.19
246.8	65.19
247.033	63.19
247.266	75.19
247.5	80.19
247.733	89.19
247.966	71.19
248.2	71.19
248.433	73.19
248.666	86.19
248.899	82.19
249.133	83.19
249.366	84.19
249.599	64.19
249.832	82.19
250.066	86.19
250.299	92.19
250.532	76.19
250.765	67.19
250.998	53.19
251.231	71.19
251.465	64.19
251.698	80.19
251.931	99.19
252.164	79.19
252.397	82.19
252.63	81.19
252.863	75.19
253.096	70.19
253.329	82.19
253.562	69.19
253.795	83.19
254.028	78.19
254.261	83.19
254.494	75.19
254.727	78.19
254.96	79.19
255.193	83.19
255.426	71.19
255.659	73.19
255.892	83.19
256.124	66.19
256.357	78.19
256.59	84.19
256.823	72.19
257.056	82.19
257.289	81.19
257.521	78.19
257.754	79.19
257.987	77.19
258.22	74.19
258.452	76.19
258.685	78.19
258.918	73.19
259.151	72.19
259.383	87.19
259.616	75.19
259.849	92.19
260.081	79.19
260.314	60.19
260.547	75.19
260.779	80.19
261.012	83.19
261.244	80.19
261.477	93.19
261.71	73.19
261.942	77.19
262.175	71.19
262.407	68.19
262.64	69.19
262.872	81.19
263.105	80.19
263.337	82.19
263.57	79.19
263.802	97.19
264.035	84.19
264.267	68.19
264.499	77.19
264.732	81.19
264.964	83.19
265.197	75.19
265.429	85.19
265.661	74.19
265.894	73.19
266.126	91.19
266.358	64.19
266.591	73.19
266.823	72.19
267.055	71.19
267.287	81.19
267.52	80.19
267.752	90.19
267.984	69.19
268.216	82.19
268.448	85.19
268.681	82.19
268.913	70.19
269.145	80.19
269.377	82.19
269.609	75.19
269.841	66.19
270.073	85.19
270.306	85.19
270.538	65.19
270.77	87.19
271.002	74.19
271.234	82.19
271.466	80.19
271.698	64.19
271.93	73.19
272.162	73.19
272.394	78.19
272.626	92.19
272.858	80.19
273.09	73.19
273.322	97.19
273.553	77.19
273.785	80.19
274.017	76.19
274.249	76.19
274.481	81.19
274.713	81.19
274.945	88.19
275.176	90.19
275.408	89.19
275.64	96.19
275.872	79.19
276.104	88.19
276.335	78.19
276.567	77.19
276.799	87.19
277.031	77.19
277.262	85.19
277.494	64.19
277.726	78.19
277.957	80.19
278.189	96.19
278.421	68.19
278.652	76.19
278.884	75.19
279.115	88.19
279.347	72.19
279.579	84.19
279.81	82.19
280.042	94.19
280.273	72.19
280.505	80.19
280.736	82.19
280.968	88.19
281.199	80.19
281.431	74.19
281.662	81.19
281.894	68.19
282.125	89.19
282.356	82.19
282.588	81.19
282.819	92.19
283.051	89.19
283.282	80.19
283.513	83.19
283.745	74.19
283.976	91.19
284.207	83.19
284.439	85.19
284.67	87.19
284.901	83.19
285.132	56.19
285.364	74.19
285.595	73.19
285.826	74.19
286.057	82.19
286.288	89.19
286.52	84.19
286.751	74.19
286.982	74.19
287.213	91.19
287.444	77.19
287.675	86.19
287.906	89.19
288.138	84.19
288.369	84.19
288.6	72.19
288.831	80.19
289.062	86.19
289.293	84.19
289.524	66.19
289.755	88.19
289.986	87.19
290.217	86.19
290.448	91.19
290.679	84.19
290.91	74.19
291.141	79.19
291.371	94.19
291.602	87.19
291.833	80.19
292.064	94.19
292.295	90.19
292.526	84.19
292.757	73.19
292.987	74.19
293.218	90.19
293.449	83.19
293.68	73.19
293.91	76.19
294.141	96.19
294.372	86.19
294.603	101.19
294.833	81.19
295.064	82.19
295.295	81.19
295.525	101.19
295.756	84.19
295.987	78.19
296.217	80.19
296.448	88.19
296.679	78.19
296.909	71.19
297.14	79.19
297.37	87.19
297.601	83.19
297.831	98.19
298.062	82.19
298.292	96.19
298.523	93.19
298.753	94.19
298.984	88.19
299.214	88.19
299.445	71.19
299.675	80.19
299.905	88.19
300.136	88.19
300.366	79.19
300.597	80.19
300.827	85.19
301.057	82.19
301.288	82.19
301.518	73.19
301.748	78.19
301.979	91.19
302.209	89.19
302.439	86.19
302.669	74.19
302.9	84.19
303.13	79.19
303.36	79.19
303.59	85.19
303.82	88.19
304.051	82.19
304.281	88.19
304.511	73.19
304.741	87.19
304.971	72.19
305.201	80.19
305.431	96.19
305.661	85.19
305.891	110.19
306.121	78.19
306.352	84.19
306.582	83.19
306.812	83.19
307.042	88.19
307.272	89.19
307.502	93.19
307.731	94.19
307.961	80.19
308.191	79.19
308.421	81.19
308.651	81.19
308.881	90.19
309.111	92.19
309.341	69.19
309.571	74.19
309.8	81.19
310.03	84.19
310.26	81.19
310.49	97.19
310.72	71.19
310.949	80.19
311.179	101.19
311.409	79.19
311.639	94.19
311.868	90.19
312.098	84.19
312.328	82.19
312.557	84.19
312.787	78.19
313.017	81.19
313.246	77.19
313.476	77.19
313.706	92.19
313.935	74.19
314.165	70.19
314.394	82.19
314.624	87.19
314.853	92.19
315.083	73.19
315.312	82.19
315.542	84.19
315.771	78.19
316.001	110.19
316.23	84.19
316.46	79.19
316.689	75.19
316.919	96.19
317.148	82.19
317.377	85.19
317.607	83.19
317.836	93.19
318.065	86.19
318.295	79.19
318.524	81.19
318.753	88.19
318.983	85.19
319.212	81.19
319.441	76.19
319.67	84.19
319.9	84.19
320.129	74.19
320.358	81.19
320.587	82.19
320.816	92.19
321.046	103.19
321.275	84.19
321.504	85.19
321.733	86.19
321.962	89.19
322.191	81.19
322.42	89.19
322.649	80.19
322.878	79.19
323.108	95.19
323.337	84.19
323.566	87.19
323.795	79.19
324.024	67.19
324.253	69.19
324.482	82.19
324.71	72.19
324.939	88.19
325.168	84.19
325.397	80.19
325.626	82.19
325.855	79.19
326.084	94.19
326.313	89.19
326.542	87.19
326.77	76.19
326.999	98.19
327.228	88.19
327.457	86.19
327.686	83.19
327.914	91.19
328.143	93.19
328.372	78.19
328.6	81.19
328.829	74.19
329.058	94.19
329.287	97.19
329.515	84.19
329.744	84.19
329.972	93.19
330.201	95.19
330.43	79.19
330.658	77.19
330.887	78.19
331.115	75.19
331.344	91.19
331.572	85.19
331.801	74.19
332.03	81.19
332.258	83.19
332.486	83.19
332.715	94.19
332.943	86.19
333.172	81.19
333.4	82.19
333.629	73.19
333.857	70.19
334.085	64.19
334.314	78.19
334.542	89.19
334.771	74.19
334.999	72.19
335.227	77.19
335.455	76.19
335.684	82.19
335.912	78.19
336.14	83.19
336.369	61.19
336.597	91.19
336.825	83.19
337.053	88.19
337.281	84.19
337.51	94.19
337.738	85.19
337.966	79.19
338.194	71.19
338.422	74.19
338.65	76.19
338.878	96.19
339.106	90.19
339.334	83.19
339.562	83.19
339.79	82.19
340.018	81.19
340.246	68.19
340.474	78.19
340.702	89.19
340.93	68.19
341.158	87.19
341.386	69.19
341.614	70.19
341.842	71.19
342.07	72.19
342.298	75.19
342.526	72.19
342.754	77.19
342.981	79.19
343.209	84.19
343.437	85.19
343.665	74.19
343.893	78.19
344.12	90.19
344.348	77.19
344.576	81.19
344.804	81.19
345.031	88.19
345.259	83.19
345.487	75.19
345.714	84.19
345.942	74.19
346.17	71.19
346.397	80.19
346.625	81.19
346.853	86.19
347.08	94.19
347.308	77.19
347.535	86.19
347.763	96.19
347.99	90.19
348.218	83.19
348.445	86.19
348.673	80.19
348.9	91.19
349.128	92.19
349.355	87.19
349.583	93.19
349.81	86.19
350.037	84.19
350.265	79.19
350.492	81.19
350.72	76.19
350.947	87.19
351.174	97.19
351.402	70.19
351.629	87.19
351.856	78.19
352.083	84.19
352.311	91.19
352.538	98.19
352.765	92.19
352.992	80.19
353.22	71.19
353.447	90.19
353.674	70.19
353.901	82.19
354.128	85.19
354.355	88.19
354.583	88.19
354.81	77.19
355.037	92.19
355.264	92.19
355.491	75.19
355.718	85.19
355.945	66.19
356.172	86.19
356.399	72.19
356.626	79.19
356.853	92.19
357.08	73.19
357.307	86.19
357.534	87.19
357.761	68.19
357.988	81.19
358.215	73.19
358.441	73.19
358.668	89.19
358.895	90.19
359.122	78.19
359.349	82.19
359.576	72.19
359.802	74.19
360.029	95.19
360.256	95.19
360.483	80.19
360.709	94.19
360.936	81.19
361.163	73.19
361.39	80.19
361.616	88.19
361.843	79.19
362.07	91.19
362.296	77.19
362.523	96.19
362.749	87.19
362.976	84.19
363.203	82.19
363.429	87.19
363.656	79.19
363.882	83.19
364.109	65.19
364.335	80.19
364.562	80.19
364.788	83.19
365.015	84.19
365.241	86.19
365.468	83.19
365.694	74.19
365.92	64.19
366.147	74.19
366.373	90.19
366.599	92.19
366.826	76.19
367.052	80.19
367.278	92.19
367.505	72.19
367.731	83.19
367.957	75.19
368.184	89.19
368.41	71.19
368.636	90.19
368.862	79.19
369.089	76.19
369.315	74.19
369.541	75.19
369.767	78.19
369.993	88.19
370.219	92.19
370.445	73.19
370.672	80.19
370.898	103.19
371.124	84.19
371.35	93.19
371.576	74.19
371.802	76.19
372.028	96.19
372.254	94.19
372.48	79.19
372.706	85.19
372.932	74.19
373.158	89.19
373.384	84.19
373.61	75.19
373.835	83.19
374.061	81.19
374.287	84.19
374.513	88.19
374.739	78.19
374.965	78.19
375.191	78.19
375.416	86.19
375.642	89.19
375.868	90.19
376.094	81.19
376.319	81.19
376.545	72.19
376.771	79.19
376.997	87.19
377.222	96.19
377.448	94.19
377.674	105.19
377.899	84.19
378.125	86.19
378.35	81.19
378.576	100.19
378.802	72.19
379.027	84.19
379.253	91.19
379.478	80.19
379.704	88.19
379.929	70.19
380.155	80.19
380.38	85.19
380.606	92.19
380.831	89.19
381.057	77.19
381.282	78.19
381.507	88.19
381.733	75.19
381.958	79.19
382.184	89.19
382.409	87.19
382.634	67.19
382.86	76.19
383.085	91.19
383.31	80.19
383.535	71.19
383.761	91.19
383.986	86.19
384.211	95.19
384.436	88.19
384.662	86.19
384.887	81.19
385.112	73.19
385.337	79.19
385.562	81.19
385.787	81.19
386.013	82.19
386.238	76.19
386.463	88.19
386.688	79.19
386.913	84.19
387.138	88.19
387.363	90.19
387.588	89.19
387.813	93.19
388.038	91.19
388.263	92.19
388.488	88.19
388.713	96.19
388.938	88.19
389.163	77.19
389.387	87.19
389.612	80.19
389.837	81.19
390.062	82.19
390.287	94.19
390.512	80.19
390.736	80.19
390.961	88.19
391.186	94.19
391.411	84.19
391.636	88.19
391.86	99.19
392.085	92.19
392.31	91.19
392.534	87.19
392.759	83.19
392.984	94.19
393.208	78.19
393.433	92.19
393.658	85.19
393.882	90.19
394.107	96.19
394.331	89.19
394.556	104.19
394.78	99.19
395.005	87.19
395.229	98.19
395.454	87.19
395.678	82.19
395.903	82.19
396.127	81.19
396.352	80.19
396.576	75.19
396.801	85.19
397.025	76.19
397.249	78.19
397.474	84.19
397.698	86.19
397.922	72.19
398.147	80.19
398.371	86.19
398.595	87.19
398.82	79.19
399.044	88.19
399.268	93.19
399.492	94.19
399.717	94.19
399.941	83.19
400.165	79.19
400.389	84.19
400.613	84.19
400.837	86.19
401.062	83.19
401.286	81.19
401.51	85.19
401.734	93.19
401.958	83.19
402.182	93.19
402.406	98.19
402.63	96.19
402.854	79.19
403.078	83.19
403.302	89.19
403.526	95.19
403.75	97.19
403.974	85.19
404.198	89.19
404.422	95.19
404.645	81.19
404.869	98.19
405.093	84.19
405.317	96.19
405.541	86.19
405.765	110.19
405.988	82.19
406.212	102.19
406.436	96.19
406.66	86.19
406.883	94.19
407.107	77.19
407.331	90.19
407.555	95.19
407.778	80.19
408.002	90.19
408.226	85.19
408.449	78.19
408.673	82.19
408.896	96.19
409.12	82.19
409.344	80.19
409.567	93.19
409.791	78.19
410.014	82.19
410.238	104.19
410.461	100.19
410.685	92.19
410.908	74.19
411.132	102.19
411.355	90.19
411.578	72.19
411.802	96.19
412.025	81.19
412.249	81.19
412.472	95.19
412.695	88.19
412.919	93.19
413.142	99.19
413.365	88.19
413.589	78.19
413.812	86.19
414.035	96.19
414.258	95.19
414.482	96.19
414.705	101.19
414.928	93.19
415.151	90.19
415.374	83.19
415.597	91.19
415.821	101.19
416.044	96.19
416.267	101.19
416.49	78.19
416.713	96.19
416.936	94.19
417.159	91.19
417.382	77.19
417.605	93.19
417.828	100.19
418.051	81.19
418.274	87.19
418.497	80.19
418.72	94.19
418.943	97.19
419.166	96.19
419.389	97.19
419.611	102.19
419.834	94.19
420.057	92.19
420.28	88.19
420.503	82.19
420.726	95.19
420.948	90.19
421.171	96.19
421.394	86.19
421.617	97.19
421.839	87.19
422.062	78.19
422.285	90.19
422.507	100.19
422.73	91.19
422.953	82.19
423.175	91.19
423.398	93.19
423.621	94.19
423.843	93.19
424.066	93.19
424.288	94.19
424.511	91.19
424.733	85.19
424.956	92.19
425.178	85.19
425.401	97.19
425.623	89.19
425.846	90.19
426.068	96.19
426.291	108.19
426.513	92.19
426.735	102.19
426.958	93.19
427.18	98.19
427.402	108.19
427.625	83.19
427.847	84.19
428.069	100.19
428.292	98.19
428.514	108.19
428.736	76.19
428.958	84.19
429.181	89.19
429.403	90.19
429.625	85.19
429.847	96.19
430.069	87.19
430.292	94.19
430.514	92.19
430.736	103.19
430.958	106.19
431.18	86.19
431.402	93.19
431.624	95.19
431.846	95.19
432.068	83.19
432.29	88.19
432.512	85.19
432.734	92.19
432.956	82.19
433.178	100.19
433.4	92.19
433.622	92.19
433.844	90.19
434.066	91.19
434.287	77.19
434.509	79.19
434.731	89.19
434.953	81.19
435.175	82.19
435.397	84.19
435.618	80.19
435.84	85.19
436.062	86.19
436.284	87.19
436.505	79.19
436.727	85.19
436.949	93.19
437.17	101.19
437.392	87.19
437.614	81.19
437.835	70.19
438.057	84.19
438.278	73.19
438.5	85.19
438.721	77.19
438.943	89.19
439.165	90.19
439.386	85.19
439.608	94.19
439.829	91.19
440.05	80.19
440.272	103.19
440.493	105.19
440.715	97.19
440.936	101.19
441.158	86.19
441.379	99.19
441.6	91.19
441.822	91.19
442.043	86.19
442.264	102.19
442.486	97.19
442.707	98.19
442.928	95.19
443.149	99.19
443.371	93.19
443.592	88.19
443.813	84.19
444.034	105.19
444.255	98.19
444.476	89.19
444.698	86.19
444.919	90.19
445.14	189.19
445.361	141.19
445.582	102.19
445.803	98.19
446.024	89.19
446.245	97.19
446.466	103.19
446.687	83.19
446.908	96.19
447.129	109.19
447.35	93.19
447.571	110.19
447.792	88.19
448.013	93.19
448.234	101.19
448.455	94.19
448.675	96.19
448.896	90.19
449.117	101.19
449.338	103.19
449.559	106.19
449.779	106.19
450	88.19
450.221	93.19
450.442	104.19
450.662	89.19
450.883	98.19
451.104	83.19
451.324	98.19
451.545	88.19
451.766	95.19
451.986	97.19
452.207	105.19
452.428	104.19
452.648	86.19
452.869	85.19
453.089	96.19
453.31	89.19
453.53	99.19
453.751	85.19
453.971	102.19
454.192	86.19
454.412	85.19
454.633	93.19
454.853	84.19
455.073	91.19
455.294	82.19
455.514	94.19
455.734	81.19
455.955	94.19
456.175	96.19
456.395	98.19
456.616	78.19
456.836	81.19
457.056	96.19
457.276	93.19
457.497	89.19
457.717	88.19
457.937	77.19
458.157	78.19
458.377	88.19
458.598	76.19
458.818	82.19
459.038	87.19
459.258	82.19
459.478	78.19
459.698	71.19
459.918	80.19
460.138	107.19
460.358	88.19
460.578	71.19
460.798	89.19
461.018	104.19
461.238	81.19
461.458	89.19
461.678	102.19
461.898	66.19
462.118	86.19
462.338	95.19
462.558	79.19
462.777	88.19
462.997	86.19
463.217	80.19
463.437	90.19
463.657	86.19
463.876	102.19
464.096	78.19
464.316	87.19
464.536	94.19
464.755	87.19
464.975	93.19
465.195	89.19
465.414	89.19
465.634	100.19
465.854	98.19
466.073	84.19
466.293	95.19
466.512	89.19
466.732	97.19
466.951	85.19
467.171	97.19
467.391	88.19
467.61	94.19
467.829	94.19
468.049	94.19
468.268	91.19
468.488	87.19
468.707	95.19
468.927	100.19
469.146	88.19
469.365	104.19
469.585	98.19
469.804	99.19
470.023	98.19
470.243	100.19
470.462	98.19
470.681	94.19
470.901	88.19
471.12	88.19
471.339	90.19
471.558	94.19
471.777	87.19
471.997	98.19
472.216	89.19
472.435	84.19
472.654	76.19
472.873	76.19
473.092	87.19
473.311	101.19
473.53	96.19
473.749	90.19
473.968	70.19
474.187	86.19
474.406	100.19
474.625	93.19
474.844	94.19
475.063	87.19
475.282	85.19
475.501	98.19
475.72	95.19
475.939	86.19
476.158	84.19
476.377	94.19
476.596	81.19
476.814	86.19
477.033	87.19
477.252	96.19
477.471	94.19
477.69	99.19
477.908	94.19
478.127	104.19
478.346	104.19
478.564	95.19
478.783	92.19
479.002	98.19
479.22	101.19
479.439	98.19
479.658	89.19
479.876	83.19
480.095	95.19
480.313	106.19
480.532	88.19
480.751	86.19
480.969	85.19
481.188	82.19
481.406	77.19
481.624	83.19
481.843	94.19
482.061	78.19
482.28	103.19
482.498	93.19
482.717	87.19
482.935	96.19
483.153	96.19
483.372	87.19
483.59	96.19
483.808	101.19
484.027	101.19
484.245	94.19
484.463	105.19
484.681	103.19
484.9	102.19
485.118	90.19
485.336	104.19
485.554	84.19
485.772	64.19
485.99	93.19
486.209	83.19
486.427	85.19
486.645	85.19
486.863	93.19
487.081	95.19
487.299	87.19
487.517	108.19
487.735	113.19
487.953	117.19
488.171	110.19
488.389	88.19
488.607	86.19
488.825	99.19
489.043	101.19
489.261	110.19
489.479	90.19
489.696	95.19
489.914	110.19
490.132	97.19
490.35	104.19
490.568	102.19
490.786	110.19
491.003	92.19
491.221	101.19
491.439	127.19
491.657	111.19
491.874	120.19
492.092	121.19
492.31	117.19
492.527	135.19
492.745	104.19
492.963	112.19
493.18	105.19
493.398	106.19
493.615	98.19
493.833	104.19
494.05	111.19
494.268	106.19
494.485	104.19
494.703	110.19
494.92	120.19
495.138	105.19
495.355	110.19
495.573	93.19
495.79	113.19
496.008	119.19
496.225	95.19
496.442	104.19
496.66	89.19
496.877	110.19
497.094	110.19
497.312	104.19
497.529	101.19
497.746	115.19
497.963	95.19
498.181	94.19
498.398	83.19
498.615	80.19
498.832	93.19
499.049	83.19
499.267	103.19
499.484	88.19
499.701	89.19
499.918	93.19
500.135	103.19
500.352	100.19
500.569	85.19
500.786	98.19
501.003	121.19
501.22	87.19
501.437	92.19
501.654	79.19
501.871	99.19
502.088	94.19
502.305	106.19
502.522	90.19
502.739	97.19
502.956	86.19
503.172	92.19
503.389	92.19
503.606	104.19
503.823	86.19
504.04	98.19
504.256	114.19
504.473	78.19
504.69	87.19
504.907	95.19
505.123	90.19
505.34	91.19
505.557	86.19
505.773	88.19
505.99	85.19
506.207	87.19
506.423	107.19
506.64	93.19
506.856	94.19
507.073	96.19
507.289	96.19
507.506	92.19
507.722	82.19
507.939	84.19
508.155	89.19
508.372	91.19
508.588	87.19
508.805	109.19
509.021	84.19
509.238	83.19
509.454	80.19
509.67	95.19
509.887	93.19
510.103	78.19
510.319	79.19
510.536	76.19
510.752	64.19
510.968	59.19
511.184	72.19
511.401	88.19
511.617	70.19
511.833	88.19
512.049	92.19
512.265	96.19
512.481	109.19
512.698	81.19
512.914	88.19
513.13	90.19
513.346	81.19
513.562	74.19
513.778	84.19
513.994	80.19
514.21	90.19
514.426	76.19
514.642	82.19
514.858	86.19
515.074	81.19
515.29	89.19
515.506	83.19
515.721	83.19
515.937	73.19
516.153	84.19
516.369	76.19
516.585	87.19
516.801	67.19
517.016	81.19
517.232	84.19
517.448	80.19
517.664	81.19
517.879	89.19
