Data from Location3.07152019.Energy5.Lamp.07192019.3%Agarose_HRD10591_15-19-14-270.txt Node
Date: Fri Jul 19 15:19:14 EDT 2019
User: cochatt
Spectrometer: HR+D1059
Trigger mode: 1
Integration Time (sec): 1.000000E-1
Scans to average: 1
Electric dark correction enabled: true
Nonlinearity correction enabled: false
Boxcar width: 0
XAxis mode: Wavelengths
Number of Pixels in Spectrum: 2048
>>>>>Begin Spectral Data<<<<<
223.165	-16.62
223.4	-16.62
223.635	-16.62
223.869	-14.62
224.104	-16.62
224.338	-16.62
224.573	-1.62
224.808	-14.62
225.042	-1.62
225.277	-10.62
225.511	7.38
225.746	16.38
225.98	-2.62
226.215	13.38
226.449	16.38
226.683	2.38
226.918	24.38
227.152	15.38
227.387	38.38
227.621	41.38
227.856	45.38
228.09	45.38
228.324	56.38
228.559	51.38
228.793	59.38
229.027	49.38
229.262	68.38
229.496	72.38
229.73	62.38
229.964	64.38
230.199	79.38
230.433	67.38
230.667	56.38
230.901	88.38
231.136	73.38
231.37	85.38
231.604	78.38
231.838	77.38
232.072	77.38
232.306	79.38
232.541	84.38
232.775	70.38
233.009	69.38
233.243	78.38
233.477	71.38
233.711	83.38
233.945	80.38
234.179	78.38
234.413	81.38
234.647	67.38
234.881	75.38
235.115	67.38
235.349	86.38
235.583	75.38
235.817	68.38
236.051	63.38
236.285	80.38
236.519	65.38
236.753	66.38
236.987	69.38
237.221	82.38
237.455	73.38
237.689	65.38
237.922	74.38
238.156	77.38
238.39	89.38
238.624	82.38
238.858	68.38
239.091	74.38
239.325	79.38
239.559	74.38
239.793	63.38
240.027	93.38
240.26	77.38
240.494	55.38
240.728	73.38
240.961	54.38
241.195	74.38
241.429	79.38
241.662	62.38
241.896	87.38
242.13	74.38
242.363	83.38
242.597	68.38
242.83	78.38
243.064	75.38
243.298	85.38
243.531	69.38
243.765	73.38
243.998	75.38
244.232	91.38
244.465	84.38
244.699	78.38
244.932	78.38
245.166	81.38
245.399	83.38
245.633	72.38
245.866	81.38
246.099	84.38
246.333	82.38
246.566	74.38
246.8	80.38
247.033	71.38
247.266	87.38
247.5	77.38
247.733	82.38
247.966	76.38
248.2	78.38
248.433	81.38
248.666	71.38
248.899	80.38
249.133	75.38
249.366	89.38
249.599	73.38
249.832	79.38
250.066	87.38
250.299	100.38
250.532	80.38
250.765	90.38
250.998	87.38
251.231	67.38
251.465	74.38
251.698	78.38
251.931	77.38
252.164	71.38
252.397	82.38
252.63	81.38
252.863	86.38
253.096	80.38
253.329	75.38
253.562	77.38
253.795	73.38
254.028	75.38
254.261	76.38
254.494	96.38
254.727	86.38
254.96	86.38
255.193	76.38
255.426	81.38
255.659	85.38
255.892	82.38
256.124	70.38
256.357	72.38
256.59	84.38
256.823	81.38
257.056	89.38
257.289	79.38
257.521	88.38
257.754	81.38
257.987	79.38
258.22	88.38
258.452	78.38
258.685	74.38
258.918	83.38
259.151	81.38
259.383	83.38
259.616	80.38
259.849	85.38
260.081	87.38
260.314	70.38
260.547	73.38
260.779	85.38
261.012	82.38
261.244	92.38
261.477	71.38
261.71	76.38
261.942	70.38
262.175	86.38
262.407	78.38
262.64	75.38
262.872	74.38
263.105	87.38
263.337	86.38
263.57	71.38
263.802	83.38
264.035	83.38
264.267	79.38
264.499	78.38
264.732	87.38
264.964	83.38
265.197	92.38
265.429	78.38
265.661	85.38
265.894	81.38
266.126	90.38
266.358	78.38
266.591	97.38
266.823	85.38
267.055	77.38
267.287	73.38
267.52	78.38
267.752	82.38
267.984	80.38
268.216	72.38
268.448	75.38
268.681	78.38
268.913	91.38
269.145	84.38
269.377	75.38
269.609	95.38
269.841	85.38
270.073	81.38
270.306	85.38
270.538	89.38
270.77	79.38
271.002	88.38
271.234	86.38
271.466	81.38
271.698	97.38
271.93	83.38
272.162	75.38
272.394	86.38
272.626	76.38
272.858	83.38
273.09	93.38
273.322	82.38
273.553	78.38
273.785	81.38
274.017	82.38
274.249	71.38
274.481	67.38
274.713	83.38
274.945	81.38
275.176	74.38
275.408	85.38
275.64	89.38
275.872	67.38
276.104	78.38
276.335	84.38
276.567	84.38
276.799	84.38
277.031	84.38
277.262	86.38
277.494	79.38
277.726	66.38
277.957	78.38
278.189	90.38
278.421	89.38
278.652	86.38
278.884	88.38
279.115	84.38
279.347	86.38
279.579	85.38
279.81	79.38
280.042	77.38
280.273	74.38
280.505	92.38
280.736	86.38
280.968	77.38
281.199	74.38
281.431	81.38
281.662	80.38
281.894	73.38
282.125	79.38
282.356	110.38
282.588	92.38
282.819	79.38
283.051	83.38
283.282	86.38
283.513	82.38
283.745	86.38
283.976	73.38
284.207	80.38
284.439	69.38
284.67	75.38
284.901	90.38
285.132	96.38
285.364	76.38
285.595	70.38
285.826	71.38
286.057	91.38
286.288	80.38
286.52	81.38
286.751	78.38
286.982	94.38
287.213	82.38
287.444	86.38
287.675	81.38
287.906	65.38
288.138	75.38
288.369	80.38
288.6	74.38
288.831	67.38
289.062	88.38
289.293	84.38
289.524	75.38
289.755	90.38
289.986	88.38
290.217	91.38
290.448	79.38
290.679	88.38
290.91	79.38
291.141	88.38
291.371	79.38
291.602	79.38
291.833	72.38
292.064	80.38
292.295	97.38
292.526	85.38
292.757	82.38
292.987	78.38
293.218	74.38
293.449	81.38
293.68	71.38
293.91	81.38
294.141	92.38
294.372	87.38
294.603	88.38
294.833	83.38
295.064	85.38
295.295	63.38
295.525	94.38
295.756	93.38
295.987	86.38
296.217	88.38
296.448	81.38
296.679	98.38
296.909	90.38
297.14	77.38
297.37	79.38
297.601	74.38
297.831	73.38
298.062	89.38
298.292	83.38
298.523	96.38
298.753	64.38
298.984	89.38
299.214	93.38
299.445	81.38
299.675	86.38
299.905	85.38
300.136	94.38
300.366	75.38
300.597	86.38
300.827	90.38
301.057	95.38
301.288	97.38
301.518	91.38
301.748	67.38
301.979	96.38
302.209	90.38
302.439	83.38
302.669	95.38
302.9	93.38
303.13	96.38
303.36	79.38
303.59	96.38
303.82	85.38
304.051	93.38
304.281	101.38
304.511	99.38
304.741	83.38
304.971	81.38
305.201	91.38
305.431	92.38
305.661	83.38
305.891	89.38
306.121	78.38
306.352	87.38
306.582	85.38
306.812	87.38
307.042	67.38
307.272	81.38
307.502	80.38
307.731	99.38
307.961	98.38
308.191	87.38
308.421	84.38
308.651	84.38
308.881	86.38
309.111	74.38
309.341	91.38
309.571	83.38
309.8	93.38
310.03	95.38
310.26	79.38
310.49	75.38
310.72	83.38
310.949	74.38
311.179	83.38
311.409	89.38
311.639	68.38
311.868	81.38
312.098	89.38
312.328	90.38
312.557	92.38
312.787	101.38
313.017	82.38
313.246	77.38
313.476	75.38
313.706	81.38
313.935	78.38
314.165	90.38
314.394	89.38
314.624	82.38
314.853	86.38
315.083	72.38
315.312	73.38
315.542	87.38
315.771	76.38
316.001	78.38
316.23	92.38
316.46	97.38
316.689	86.38
316.919	81.38
317.148	91.38
317.377	89.38
317.607	83.38
317.836	75.38
318.065	83.38
318.295	81.38
318.524	72.38
318.753	79.38
318.983	81.38
319.212	86.38
319.441	84.38
319.67	85.38
319.9	89.38
320.129	79.38
320.358	85.38
320.587	108.38
320.816	87.38
321.046	82.38
321.275	109.38
321.504	87.38
321.733	104.38
321.962	99.38
322.191	84.38
322.42	71.38
322.649	87.38
322.878	85.38
323.108	85.38
323.337	86.38
323.566	76.38
323.795	83.38
324.024	78.38
324.253	62.38
324.482	77.38
324.71	88.38
324.939	80.38
325.168	80.38
325.397	88.38
325.626	71.38
325.855	83.38
326.084	94.38
326.313	88.38
326.542	80.38
326.77	88.38
326.999	80.38
327.228	78.38
327.457	80.38
327.686	80.38
327.914	73.38
328.143	89.38
328.372	80.38
328.6	82.38
328.829	90.38
329.058	95.38
329.287	78.38
329.515	82.38
329.744	87.38
329.972	95.38
330.201	91.38
330.43	83.38
330.658	93.38
330.887	72.38
331.115	95.38
331.344	82.38
331.572	84.38
331.801	87.38
332.03	86.38
332.258	81.38
332.486	89.38
332.715	67.38
332.943	78.38
333.172	74.38
333.4	87.38
333.629	88.38
333.857	89.38
334.085	86.38
334.314	85.38
334.542	88.38
334.771	69.38
334.999	94.38
335.227	85.38
335.455	85.38
335.684	93.38
335.912	82.38
336.14	83.38
336.369	79.38
336.597	76.38
336.825	82.38
337.053	89.38
337.281	81.38
337.51	78.38
337.738	87.38
337.966	82.38
338.194	81.38
338.422	70.38
338.65	73.38
338.878	79.38
339.106	91.38
339.334	83.38
339.562	83.38
339.79	93.38
340.018	93.38
340.246	84.38
340.474	78.38
340.702	100.38
340.93	80.38
341.158	67.38
341.386	97.38
341.614	97.38
341.842	69.38
342.07	88.38
342.298	76.38
342.526	90.38
342.754	82.38
342.981	90.38
343.209	88.38
343.437	73.38
343.665	89.38
343.893	77.38
344.12	87.38
344.348	88.38
344.576	96.38
344.804	94.38
345.031	86.38
345.259	82.38
345.487	72.38
345.714	79.38
345.942	82.38
346.17	84.38
346.397	82.38
346.625	88.38
346.853	84.38
347.08	75.38
347.308	82.38
347.535	78.38
347.763	76.38
347.99	75.38
348.218	85.38
348.445	82.38
348.673	82.38
348.9	97.38
349.128	85.38
349.355	70.38
349.583	82.38
349.81	71.38
350.037	86.38
350.265	71.38
350.492	86.38
350.72	86.38
350.947	91.38
351.174	85.38
351.402	84.38
351.629	80.38
351.856	90.38
352.083	83.38
352.311	80.38
352.538	71.38
352.765	71.38
352.992	84.38
353.22	69.38
353.447	78.38
353.674	81.38
353.901	81.38
354.128	87.38
354.355	85.38
354.583	80.38
354.81	94.38
355.037	76.38
355.264	95.38
355.491	84.38
355.718	98.38
355.945	84.38
356.172	81.38
356.399	89.38
356.626	70.38
356.853	76.38
357.08	89.38
357.307	94.38
357.534	93.38
357.761	86.38
357.988	78.38
358.215	85.38
358.441	95.38
358.668	89.38
358.895	64.38
359.122	82.38
359.349	91.38
359.576	85.38
359.802	86.38
360.029	91.38
360.256	77.38
360.483	75.38
360.709	71.38
360.936	93.38
361.163	94.38
361.39	98.38
361.616	93.38
361.843	86.38
362.07	97.38
362.296	81.38
362.523	74.38
362.749	82.38
362.976	78.38
363.203	79.38
363.429	85.38
363.656	85.38
363.882	80.38
364.109	83.38
364.335	88.38
364.562	76.38
364.788	90.38
365.015	92.38
365.241	89.38
365.468	85.38
365.694	84.38
365.92	81.38
366.147	64.38
366.373	92.38
366.599	82.38
366.826	78.38
367.052	82.38
367.278	70.38
367.505	89.38
367.731	87.38
367.957	65.38
368.184	67.38
368.41	102.38
368.636	84.38
368.862	91.38
369.089	99.38
369.315	88.38
369.541	98.38
369.767	70.38
369.993	87.38
370.219	97.38
370.445	89.38
370.672	85.38
370.898	94.38
371.124	78.38
371.35	87.38
371.576	73.38
371.802	74.38
372.028	77.38
372.254	89.38
372.48	76.38
372.706	84.38
372.932	101.38
373.158	85.38
373.384	77.38
373.61	95.38
373.835	100.38
374.061	82.38
374.287	97.38
374.513	78.38
374.739	82.38
374.965	67.38
375.191	85.38
375.416	85.38
375.642	84.38
375.868	89.38
376.094	79.38
376.319	83.38
376.545	85.38
376.771	78.38
376.997	76.38
377.222	100.38
377.448	81.38
377.674	82.38
377.899	85.38
378.125	82.38
378.35	80.38
378.576	81.38
378.802	75.38
379.027	69.38
379.253	84.38
379.478	95.38
379.704	97.38
379.929	71.38
380.155	102.38
380.38	85.38
380.606	84.38
380.831	81.38
381.057	81.38
381.282	89.38
381.507	88.38
381.733	89.38
381.958	83.38
382.184	84.38
382.409	86.38
382.634	99.38
382.86	87.38
383.085	81.38
383.31	84.38
383.535	79.38
383.761	85.38
383.986	89.38
384.211	88.38
384.436	98.38
384.662	81.38
384.887	73.38
385.112	88.38
385.337	90.38
385.562	89.38
385.787	89.38
386.013	90.38
386.238	108.38
386.463	92.38
386.688	102.38
386.913	87.38
387.138	84.38
387.363	109.38
387.588	80.38
387.813	91.38
388.038	86.38
388.263	80.38
388.488	85.38
388.713	75.38
388.938	83.38
389.163	81.38
389.387	92.38
389.612	69.38
389.837	89.38
390.062	65.38
390.287	75.38
390.512	90.38
390.736	99.38
390.961	96.38
391.186	89.38
391.411	85.38
391.636	95.38
391.86	93.38
392.085	97.38
392.31	83.38
392.534	92.38
392.759	72.38
392.984	87.38
393.208	99.38
393.433	87.38
393.658	98.38
393.882	82.38
394.107	83.38
394.331	70.38
394.556	81.38
394.78	101.38
395.005	87.38
395.229	93.38
395.454	90.38
395.678	93.38
395.903	81.38
396.127	91.38
396.352	86.38
396.576	75.38
396.801	96.38
397.025	97.38
397.249	87.38
397.474	96.38
397.698	79.38
397.922	95.38
398.147	97.38
398.371	88.38
398.595	87.38
398.82	80.38
399.044	84.38
399.268	81.38
399.492	84.38
399.717	104.38
399.941	92.38
400.165	101.38
400.389	97.38
400.613	84.38
400.837	94.38
401.062	78.38
401.286	99.38
401.51	90.38
401.734	81.38
401.958	103.38
402.182	83.38
402.406	97.38
402.63	96.38
402.854	58.38
403.078	104.38
403.302	101.38
403.526	97.38
403.75	92.38
403.974	95.38
404.198	89.38
404.422	94.38
404.645	93.38
404.869	96.38
405.093	83.38
405.317	94.38
405.541	102.38
405.765	94.38
405.988	81.38
406.212	90.38
406.436	93.38
406.66	82.38
406.883	92.38
407.107	79.38
407.331	79.38
407.555	99.38
407.778	86.38
408.002	81.38
408.226	80.38
408.449	86.38
408.673	83.38
408.896	96.38
409.12	91.38
409.344	96.38
409.567	79.38
409.791	88.38
410.014	88.38
410.238	93.38
410.461	86.38
410.685	86.38
410.908	87.38
411.132	86.38
411.355	110.38
411.578	101.38
411.802	97.38
412.025	97.38
412.249	98.38
412.472	95.38
412.695	98.38
412.919	108.38
413.142	104.38
413.365	101.38
413.589	82.38
413.812	83.38
414.035	103.38
414.258	86.38
414.482	73.38
414.705	103.38
414.928	79.38
415.151	94.38
415.374	96.38
415.597	96.38
415.821	101.38
416.044	93.38
416.267	83.38
416.49	88.38
416.713	90.38
416.936	99.38
417.159	92.38
417.382	101.38
417.605	109.38
417.828	96.38
418.051	97.38
418.274	82.38
418.497	105.38
418.72	95.38
418.943	78.38
419.166	96.38
419.389	89.38
419.611	87.38
419.834	99.38
420.057	101.38
420.28	96.38
420.503	98.38
420.726	91.38
420.948	102.38
421.171	96.38
421.394	93.38
421.617	93.38
421.839	91.38
422.062	104.38
422.285	87.38
422.507	99.38
422.73	110.38
422.953	84.38
423.175	85.38
423.398	92.38
423.621	84.38
423.843	114.38
424.066	95.38
424.288	77.38
424.511	81.38
424.733	87.38
424.956	93.38
425.178	101.38
425.401	109.38
425.623	91.38
425.846	106.38
426.068	109.38
426.291	105.38
426.513	97.38
426.735	101.38
426.958	81.38
427.18	89.38
427.402	98.38
427.625	110.38
427.847	90.38
428.069	81.38
428.292	86.38
428.514	95.38
428.736	74.38
428.958	97.38
429.181	93.38
429.403	91.38
429.625	100.38
429.847	93.38
430.069	99.38
430.292	108.38
430.514	102.38
430.736	93.38
430.958	93.38
431.18	87.38
431.402	96.38
431.624	97.38
431.846	84.38
432.068	93.38
432.29	88.38
432.512	104.38
432.734	89.38
432.956	104.38
433.178	86.38
433.4	110.38
433.622	107.38
433.844	86.38
434.066	87.38
434.287	92.38
434.509	93.38
434.731	76.38
434.953	90.38
435.175	89.38
435.397	87.38
435.618	87.38
435.84	88.38
436.062	91.38
436.284	95.38
436.505	97.38
436.727	90.38
436.949	104.38
437.17	89.38
437.392	88.38
437.614	90.38
437.835	94.38
438.057	87.38
438.278	103.38
438.5	94.38
438.721	86.38
438.943	90.38
439.165	93.38
439.386	91.38
439.608	104.38
439.829	110.38
440.05	105.38
440.272	115.38
440.493	97.38
440.715	102.38
440.936	99.38
441.158	93.38
441.379	102.38
441.6	105.38
441.822	113.38
442.043	102.38
442.264	91.38
442.486	85.38
442.707	99.38
442.928	85.38
443.149	99.38
443.371	99.38
443.592	119.38
443.813	102.38
444.034	97.38
444.255	101.38
444.476	103.38
444.698	95.38
444.919	103.38
445.14	233.38
445.361	159.38
445.582	96.38
445.803	91.38
446.024	109.38
446.245	105.38
446.466	94.38
446.687	94.38
446.908	109.38
447.129	91.38
447.35	102.38
447.571	84.38
447.792	103.38
448.013	97.38
448.234	99.38
448.455	93.38
448.675	89.38
448.896	91.38
449.117	97.38
449.338	95.38
449.559	102.38
449.779	94.38
450	102.38
450.221	90.38
450.442	105.38
450.662	96.38
450.883	81.38
451.104	88.38
451.324	120.38
451.545	99.38
451.766	88.38
451.986	85.38
452.207	97.38
452.428	89.38
452.648	85.38
452.869	86.38
453.089	110.38
453.31	88.38
453.53	85.38
453.751	77.38
453.971	78.38
454.192	85.38
454.412	77.38
454.633	77.38
454.853	82.38
455.073	98.38
455.294	87.38
455.514	98.38
455.734	86.38
455.955	98.38
456.175	105.38
456.395	88.38
456.616	93.38
456.836	90.38
457.056	97.38
457.276	91.38
457.497	91.38
457.717	79.38
457.937	86.38
458.157	92.38
458.377	87.38
458.598	81.38
458.818	86.38
459.038	91.38
459.258	82.38
459.478	76.38
459.698	83.38
459.918	91.38
460.138	84.38
460.358	93.38
460.578	101.38
460.798	79.38
461.018	83.38
461.238	88.38
461.458	99.38
461.678	89.38
461.898	96.38
462.118	97.38
462.338	88.38
462.558	94.38
462.777	91.38
462.997	97.38
463.217	83.38
463.437	90.38
463.657	93.38
463.876	98.38
464.096	103.38
464.316	82.38
464.536	89.38
464.755	91.38
464.975	96.38
465.195	93.38
465.414	88.38
465.634	91.38
465.854	88.38
466.073	84.38
466.293	98.38
466.512	93.38
466.732	86.38
466.951	88.38
467.171	117.38
467.391	101.38
467.61	101.38
467.829	104.38
468.049	94.38
468.268	104.38
468.488	106.38
468.707	84.38
468.927	85.38
469.146	101.38
469.365	111.38
469.585	101.38
469.804	98.38
470.023	88.38
470.243	102.38
470.462	88.38
470.681	84.38
470.901	90.38
471.12	95.38
471.339	106.38
471.558	83.38
471.777	102.38
471.997	99.38
472.216	97.38
472.435	95.38
472.654	90.38
472.873	91.38
473.092	78.38
473.311	98.38
473.53	91.38
473.749	98.38
473.968	99.38
474.187	98.38
474.406	90.38
474.625	88.38
474.844	96.38
475.063	88.38
475.282	97.38
475.501	99.38
475.72	93.38
475.939	82.38
476.158	90.38
476.377	92.38
476.596	100.38
476.814	96.38
477.033	86.38
477.252	102.38
477.471	96.38
477.69	93.38
477.908	74.38
478.127	91.38
478.346	105.38
478.564	95.38
478.783	98.38
479.002	109.38
479.22	110.38
479.439	111.38
479.658	95.38
479.876	90.38
480.095	97.38
480.313	102.38
480.532	83.38
480.751	95.38
480.969	90.38
481.188	97.38
481.406	85.38
481.624	77.38
481.843	97.38
482.061	90.38
482.28	110.38
482.498	80.38
482.717	95.38
482.935	89.38
483.153	90.38
483.372	109.38
483.59	99.38
483.808	98.38
484.027	96.38
484.245	101.38
484.463	91.38
484.681	104.38
484.9	98.38
485.118	98.38
485.336	96.38
485.554	76.38
485.772	85.38
485.99	85.38
486.209	86.38
486.427	98.38
486.645	89.38
486.863	82.38
487.081	100.38
487.299	101.38
487.517	102.38
487.735	107.38
487.953	112.38
488.171	117.38
488.389	109.38
488.607	104.38
488.825	94.38
489.043	102.38
489.261	93.38
489.479	106.38
489.696	97.38
489.914	90.38
490.132	94.38
490.35	100.38
490.568	110.38
490.786	111.38
491.003	103.38
491.221	125.38
491.439	110.38
491.657	106.38
491.874	115.38
492.092	137.38
492.31	121.38
492.527	120.38
492.745	121.38
492.963	118.38
493.18	115.38
493.398	119.38
493.615	111.38
493.833	110.38
494.05	106.38
494.268	106.38
494.485	107.38
494.703	119.38
494.92	121.38
495.138	112.38
495.355	102.38
495.573	127.38
495.79	114.38
496.008	99.38
496.225	110.38
496.442	110.38
496.66	102.38
496.877	105.38
497.094	99.38
497.312	88.38
497.529	114.38
497.746	113.38
497.963	105.38
498.181	102.38
498.398	104.38
498.615	105.38
498.832	96.38
499.049	112.38
499.267	96.38
499.484	86.38
499.701	92.38
499.918	97.38
500.135	106.38
500.352	99.38
500.569	103.38
500.786	110.38
501.003	106.38
501.22	95.38
501.437	94.38
501.654	78.38
501.871	90.38
502.088	90.38
502.305	102.38
502.522	87.38
502.739	94.38
502.956	75.38
503.172	90.38
503.389	98.38
503.606	85.38
503.823	84.38
504.04	97.38
504.256	98.38
504.473	95.38
504.69	92.38
504.907	89.38
505.123	109.38
505.34	96.38
505.557	88.38
505.773	101.38
505.99	95.38
506.207	95.38
506.423	95.38
506.64	87.38
506.856	88.38
507.073	96.38
507.289	102.38
507.506	92.38
507.722	94.38
507.939	84.38
508.155	84.38
508.372	88.38
508.588	91.38
508.805	84.38
509.021	82.38
509.238	84.38
509.454	87.38
509.67	90.38
509.887	95.38
510.103	74.38
510.319	87.38
510.536	84.38
510.752	88.38
510.968	101.38
511.184	76.38
511.401	75.38
511.617	89.38
511.833	82.38
512.049	84.38
512.265	83.38
512.481	90.38
512.698	75.38
512.914	85.38
513.13	80.38
513.346	91.38
513.562	74.38
513.778	104.38
513.994	76.38
514.21	95.38
514.426	98.38
514.642	90.38
514.858	89.38
515.074	90.38
515.29	82.38
515.506	91.38
515.721	86.38
515.937	71.38
516.153	81.38
516.369	77.38
516.585	90.38
516.801	87.38
517.016	102.38
517.232	82.38
