Data from Location3.07152019.Energy5.Lamp.07192019.3%Agarose_HRD10591_15-17-40-268.txt Node
Date: Fri Jul 19 15:17:40 EDT 2019
User: cochatt
Spectrometer: HR+D1059
Trigger mode: 1
Integration Time (sec): 1.000000E-1
Scans to average: 1
Electric dark correction enabled: true
Nonlinearity correction enabled: false
Boxcar width: 0
XAxis mode: Wavelengths
Number of Pixels in Spectrum: 2048
>>>>>Begin Spectral Data<<<<<
223.165	-18.75
223.4	-18.75
223.635	-18.75
223.869	-19.75
224.104	-25.75
224.338	-21.75
224.573	-7.75
224.808	-6.75
225.042	-5.75
225.277	-1.75
225.511	10.25
225.746	18.25
225.98	6.25
226.215	5.25
226.449	16.25
226.683	8.25
226.918	23.25
227.152	20.25
227.387	25.25
227.621	36.25
227.856	44.25
228.09	30.25
228.324	52.25
228.559	61.25
228.793	49.25
229.027	70.25
229.262	64.25
229.496	64.25
229.73	53.25
229.964	67.25
230.199	76.25
230.433	80.25
230.667	74.25
230.901	70.25
231.136	100.25
231.37	76.25
231.604	88.25
231.838	80.25
232.072	85.25
232.306	70.25
232.541	90.25
232.775	96.25
233.009	72.25
233.243	89.25
233.477	74.25
233.711	83.25
233.945	79.25
234.179	75.25
234.413	77.25
234.647	91.25
234.881	80.25
235.115	84.25
235.349	85.25
235.583	86.25
235.817	81.25
236.051	70.25
236.285	93.25
236.519	70.25
236.753	77.25
236.987	74.25
237.221	74.25
237.455	65.25
237.689	78.25
237.922	62.25
238.156	77.25
238.39	85.25
238.624	67.25
238.858	69.25
239.091	71.25
239.325	68.25
239.559	76.25
239.793	68.25
240.027	83.25
240.26	83.25
240.494	72.25
240.728	81.25
240.961	87.25
241.195	74.25
241.429	78.25
241.662	77.25
241.896	91.25
242.13	79.25
242.363	77.25
242.597	85.25
242.83	75.25
243.064	66.25
243.298	70.25
243.531	78.25
243.765	87.25
243.998	73.25
244.232	78.25
244.465	88.25
244.699	70.25
244.932	77.25
245.166	72.25
245.399	66.25
245.633	66.25
245.866	65.25
246.099	64.25
246.333	75.25
246.566	76.25
246.8	74.25
247.033	73.25
247.266	77.25
247.5	72.25
247.733	72.25
247.966	80.25
248.2	62.25
248.433	85.25
248.666	75.25
248.899	84.25
249.133	84.25
249.366	73.25
249.599	62.25
249.832	75.25
250.066	74.25
250.299	85.25
250.532	66.25
250.765	73.25
250.998	70.25
251.231	83.25
251.465	71.25
251.698	75.25
251.931	79.25
252.164	64.25
252.397	79.25
252.63	79.25
252.863	76.25
253.096	77.25
253.329	96.25
253.562	69.25
253.795	76.25
254.028	95.25
254.261	63.25
254.494	78.25
254.727	78.25
254.96	74.25
255.193	74.25
255.426	88.25
255.659	79.25
255.892	90.25
256.124	84.25
256.357	72.25
256.59	80.25
256.823	81.25
257.056	95.25
257.289	82.25
257.521	86.25
257.754	74.25
257.987	65.25
258.22	78.25
258.452	94.25
258.685	72.25
258.918	79.25
259.151	78.25
259.383	77.25
259.616	68.25
259.849	79.25
260.081	83.25
260.314	83.25
260.547	86.25
260.779	81.25
261.012	73.25
261.244	85.25
261.477	72.25
261.71	67.25
261.942	84.25
262.175	72.25
262.407	79.25
262.64	79.25
262.872	90.25
263.105	77.25
263.337	79.25
263.57	88.25
263.802	77.25
264.035	86.25
264.267	78.25
264.499	87.25
264.732	74.25
264.964	80.25
265.197	78.25
265.429	88.25
265.661	82.25
265.894	87.25
266.126	78.25
266.358	98.25
266.591	81.25
266.823	77.25
267.055	72.25
267.287	82.25
267.52	102.25
267.752	86.25
267.984	82.25
268.216	71.25
268.448	90.25
268.681	68.25
268.913	90.25
269.145	76.25
269.377	72.25
269.609	71.25
269.841	80.25
270.073	75.25
270.306	71.25
270.538	72.25
270.77	79.25
271.002	84.25
271.234	69.25
271.466	75.25
271.698	84.25
271.93	90.25
272.162	78.25
272.394	80.25
272.626	81.25
272.858	75.25
273.09	94.25
273.322	84.25
273.553	85.25
273.785	83.25
274.017	82.25
274.249	77.25
274.481	83.25
274.713	90.25
274.945	84.25
275.176	79.25
275.408	93.25
275.64	64.25
275.872	71.25
276.104	81.25
276.335	71.25
276.567	80.25
276.799	79.25
277.031	76.25
277.262	75.25
277.494	93.25
277.726	73.25
277.957	79.25
278.189	100.25
278.421	89.25
278.652	82.25
278.884	83.25
279.115	79.25
279.347	77.25
279.579	70.25
279.81	92.25
280.042	72.25
280.273	93.25
280.505	79.25
280.736	74.25
280.968	78.25
281.199	78.25
281.431	79.25
281.662	90.25
281.894	71.25
282.125	74.25
282.356	93.25
282.588	73.25
282.819	86.25
283.051	74.25
283.282	79.25
283.513	82.25
283.745	81.25
283.976	84.25
284.207	85.25
284.439	80.25
284.67	89.25
284.901	83.25
285.132	76.25
285.364	76.25
285.595	73.25
285.826	82.25
286.057	71.25
286.288	71.25
286.52	85.25
286.751	81.25
286.982	74.25
287.213	77.25
287.444	92.25
287.675	86.25
287.906	79.25
288.138	87.25
288.369	77.25
288.6	70.25
288.831	68.25
289.062	80.25
289.293	87.25
289.524	80.25
289.755	68.25
289.986	72.25
290.217	90.25
290.448	83.25
290.679	81.25
290.91	83.25
291.141	90.25
291.371	84.25
291.602	88.25
291.833	78.25
292.064	99.25
292.295	82.25
292.526	93.25
292.757	72.25
292.987	96.25
293.218	84.25
293.449	71.25
293.68	84.25
293.91	80.25
294.141	74.25
294.372	91.25
294.603	79.25
294.833	84.25
295.064	89.25
295.295	79.25
295.525	76.25
295.756	79.25
295.987	88.25
296.217	88.25
296.448	100.25
296.679	87.25
296.909	93.25
297.14	93.25
297.37	75.25
297.601	75.25
297.831	73.25
298.062	81.25
298.292	85.25
298.523	85.25
298.753	81.25
298.984	79.25
299.214	89.25
299.445	82.25
299.675	82.25
299.905	77.25
300.136	76.25
300.366	70.25
300.597	97.25
300.827	82.25
301.057	97.25
301.288	81.25
301.518	95.25
301.748	80.25
301.979	81.25
302.209	92.25
302.439	74.25
302.669	75.25
302.9	85.25
303.13	88.25
303.36	81.25
303.59	87.25
303.82	84.25
304.051	77.25
304.281	83.25
304.511	97.25
304.741	83.25
304.971	89.25
305.201	100.25
305.431	84.25
305.661	82.25
305.891	87.25
306.121	91.25
306.352	86.25
306.582	76.25
306.812	92.25
307.042	83.25
307.272	73.25
307.502	91.25
307.731	81.25
307.961	88.25
308.191	74.25
308.421	96.25
308.651	91.25
308.881	88.25
309.111	78.25
309.341	72.25
309.571	85.25
309.8	94.25
310.03	84.25
310.26	75.25
310.49	84.25
310.72	82.25
310.949	79.25
311.179	88.25
311.409	67.25
311.639	84.25
311.868	88.25
312.098	87.25
312.328	85.25
312.557	87.25
312.787	86.25
313.017	66.25
313.246	76.25
313.476	86.25
313.706	83.25
313.935	90.25
314.165	84.25
314.394	83.25
314.624	79.25
314.853	84.25
315.083	85.25
315.312	71.25
315.542	88.25
315.771	91.25
316.001	70.25
316.23	80.25
316.46	69.25
316.689	88.25
316.919	78.25
317.148	84.25
317.377	72.25
317.607	80.25
317.836	84.25
318.065	81.25
318.295	104.25
318.524	84.25
318.753	92.25
318.983	92.25
319.212	72.25
319.441	78.25
319.67	83.25
319.9	82.25
320.129	93.25
320.358	95.25
320.587	92.25
320.816	78.25
321.046	82.25
321.275	92.25
321.504	90.25
321.733	79.25
321.962	88.25
322.191	97.25
322.42	87.25
322.649	88.25
322.878	80.25
323.108	87.25
323.337	84.25
323.566	78.25
323.795	79.25
324.024	86.25
324.253	82.25
324.482	83.25
324.71	101.25
324.939	73.25
325.168	73.25
325.397	79.25
325.626	79.25
325.855	90.25
326.084	86.25
326.313	74.25
326.542	76.25
326.77	94.25
326.999	97.25
327.228	86.25
327.457	86.25
327.686	84.25
327.914	87.25
328.143	83.25
328.372	91.25
328.6	88.25
328.829	81.25
329.058	92.25
329.287	78.25
329.515	83.25
329.744	81.25
329.972	89.25
330.201	95.25
330.43	78.25
330.658	82.25
330.887	87.25
331.115	92.25
331.344	80.25
331.572	85.25
331.801	75.25
332.03	81.25
332.258	85.25
332.486	79.25
332.715	86.25
332.943	80.25
333.172	75.25
333.4	90.25
333.629	76.25
333.857	69.25
334.085	77.25
334.314	71.25
334.542	78.25
334.771	85.25
334.999	92.25
335.227	89.25
335.455	89.25
335.684	87.25
335.912	81.25
336.14	88.25
336.369	73.25
336.597	84.25
336.825	90.25
337.053	81.25
337.281	88.25
337.51	81.25
337.738	94.25
337.966	82.25
338.194	79.25
338.422	81.25
338.65	77.25
338.878	77.25
339.106	88.25
339.334	101.25
339.562	91.25
339.79	83.25
340.018	79.25
340.246	77.25
340.474	76.25
340.702	81.25
340.93	57.25
341.158	66.25
341.386	75.25
341.614	79.25
341.842	94.25
342.07	81.25
342.298	82.25
342.526	77.25
342.754	84.25
342.981	86.25
343.209	82.25
343.437	75.25
343.665	75.25
343.893	86.25
344.12	80.25
344.348	81.25
344.576	72.25
344.804	80.25
345.031	73.25
345.259	95.25
345.487	79.25
345.714	85.25
345.942	69.25
346.17	84.25
346.397	80.25
346.625	85.25
346.853	95.25
347.08	84.25
347.308	82.25
347.535	83.25
347.763	67.25
347.99	80.25
348.218	84.25
348.445	85.25
348.673	78.25
348.9	80.25
349.128	85.25
349.355	76.25
349.583	82.25
349.81	67.25
350.037	66.25
350.265	90.25
350.492	85.25
350.72	85.25
350.947	92.25
351.174	88.25
351.402	81.25
351.629	85.25
351.856	75.25
352.083	88.25
352.311	89.25
352.538	82.25
352.765	85.25
352.992	92.25
353.22	86.25
353.447	69.25
353.674	74.25
353.901	85.25
354.128	89.25
354.355	80.25
354.583	75.25
354.81	90.25
355.037	92.25
355.264	66.25
355.491	72.25
355.718	84.25
355.945	107.25
356.172	90.25
356.399	80.25
356.626	77.25
356.853	78.25
357.08	93.25
357.307	88.25
357.534	74.25
357.761	78.25
357.988	95.25
358.215	91.25
358.441	69.25
358.668	71.25
358.895	90.25
359.122	83.25
359.349	78.25
359.576	73.25
359.802	78.25
360.029	84.25
360.256	83.25
360.483	85.25
360.709	85.25
360.936	88.25
361.163	74.25
361.39	81.25
361.616	74.25
361.843	85.25
362.07	80.25
362.296	89.25
362.523	78.25
362.749	82.25
362.976	78.25
363.203	70.25
363.429	95.25
363.656	63.25
363.882	75.25
364.109	86.25
364.335	67.25
364.562	85.25
364.788	89.25
365.015	71.25
365.241	74.25
365.468	77.25
365.694	79.25
365.92	71.25
366.147	74.25
366.373	88.25
366.599	84.25
366.826	84.25
367.052	73.25
367.278	84.25
367.505	90.25
367.731	83.25
367.957	85.25
368.184	92.25
368.41	85.25
368.636	81.25
368.862	79.25
369.089	84.25
369.315	90.25
369.541	80.25
369.767	95.25
369.993	85.25
370.219	64.25
370.445	90.25
370.672	89.25
370.898	88.25
371.124	81.25
371.35	85.25
371.576	80.25
371.802	85.25
372.028	81.25
372.254	77.25
372.48	87.25
372.706	85.25
372.932	84.25
373.158	84.25
373.384	73.25
373.61	90.25
373.835	94.25
374.061	74.25
374.287	80.25
374.513	75.25
374.739	74.25
374.965	83.25
375.191	79.25
375.416	94.25
375.642	93.25
375.868	88.25
376.094	62.25
376.319	87.25
376.545	80.25
376.771	69.25
376.997	80.25
377.222	85.25
377.448	70.25
377.674	80.25
377.899	77.25
378.125	80.25
378.35	71.25
378.576	82.25
378.802	82.25
379.027	77.25
379.253	84.25
379.478	90.25
379.704	89.25
379.929	85.25
380.155	79.25
380.38	84.25
380.606	68.25
380.831	84.25
381.057	86.25
381.282	64.25
381.507	76.25
381.733	82.25
381.958	81.25
382.184	74.25
382.409	87.25
382.634	88.25
382.86	105.25
383.085	88.25
383.31	107.25
383.535	87.25
383.761	81.25
383.986	79.25
384.211	81.25
384.436	69.25
384.662	78.25
384.887	97.25
385.112	84.25
385.337	82.25
385.562	90.25
385.787	66.25
386.013	79.25
386.238	79.25
386.463	79.25
386.688	76.25
386.913	74.25
387.138	69.25
387.363	83.25
387.588	79.25
387.813	81.25
388.038	94.25
388.263	83.25
388.488	82.25
388.713	98.25
388.938	86.25
389.163	78.25
389.387	85.25
389.612	82.25
389.837	81.25
390.062	76.25
390.287	73.25
390.512	87.25
390.736	80.25
390.961	79.25
391.186	78.25
391.411	89.25
391.636	98.25
391.86	84.25
392.085	92.25
392.31	90.25
392.534	76.25
392.759	79.25
392.984	88.25
393.208	88.25
393.433	103.25
393.658	78.25
393.882	86.25
394.107	90.25
394.331	95.25
394.556	73.25
394.78	89.25
395.005	80.25
395.229	92.25
395.454	88.25
395.678	72.25
395.903	87.25
396.127	88.25
396.352	92.25
396.576	81.25
396.801	72.25
397.025	97.25
397.249	97.25
397.474	87.25
397.698	90.25
397.922	94.25
398.147	90.25
398.371	85.25
398.595	79.25
398.82	80.25
399.044	81.25
399.268	85.25
399.492	92.25
399.717	81.25
399.941	98.25
400.165	96.25
400.389	76.25
400.613	89.25
400.837	88.25
401.062	67.25
401.286	98.25
401.51	82.25
401.734	73.25
401.958	87.25
402.182	89.25
402.406	102.25
402.63	96.25
402.854	82.25
403.078	82.25
403.302	72.25
403.526	95.25
403.75	80.25
403.974	82.25
404.198	79.25
404.422	90.25
404.645	86.25
404.869	83.25
405.093	101.25
405.317	91.25
405.541	86.25
405.765	84.25
405.988	92.25
406.212	84.25
406.436	90.25
406.66	90.25
406.883	75.25
407.107	71.25
407.331	79.25
407.555	96.25
407.778	79.25
408.002	95.25
408.226	92.25
408.449	87.25
408.673	80.25
408.896	82.25
409.12	111.25
409.344	97.25
409.567	90.25
409.791	76.25
410.014	76.25
410.238	85.25
410.461	87.25
410.685	88.25
410.908	84.25
411.132	95.25
411.355	95.25
411.578	96.25
411.802	90.25
412.025	103.25
412.249	80.25
412.472	88.25
412.695	93.25
412.919	98.25
413.142	84.25
413.365	90.25
413.589	90.25
413.812	98.25
414.035	87.25
414.258	95.25
414.482	83.25
414.705	70.25
414.928	78.25
415.151	93.25
415.374	88.25
415.597	83.25
415.821	93.25
416.044	86.25
416.267	87.25
416.49	109.25
416.713	80.25
416.936	92.25
417.159	86.25
417.382	95.25
417.605	94.25
417.828	99.25
418.051	90.25
418.274	97.25
418.497	86.25
418.72	79.25
418.943	90.25
419.166	104.25
419.389	95.25
419.611	85.25
419.834	90.25
420.057	90.25
420.28	91.25
420.503	82.25
420.726	102.25
420.948	84.25
421.171	87.25
421.394	97.25
421.617	92.25
421.839	93.25
422.062	99.25
422.285	99.25
422.507	89.25
422.73	93.25
422.953	82.25
423.175	89.25
423.398	92.25
423.621	86.25
423.843	79.25
424.066	97.25
424.288	115.25
424.511	94.25
424.733	99.25
424.956	105.25
425.178	98.25
425.401	98.25
425.623	96.25
425.846	94.25
426.068	93.25
426.291	92.25
426.513	94.25
426.735	104.25
426.958	90.25
427.18	92.25
427.402	100.25
427.625	94.25
427.847	89.25
428.069	84.25
428.292	77.25
428.514	80.25
428.736	93.25
428.958	83.25
429.181	99.25
429.403	102.25
429.625	86.25
429.847	92.25
430.069	98.25
430.292	93.25
430.514	105.25
430.736	93.25
430.958	103.25
431.18	85.25
431.402	82.25
431.624	101.25
431.846	85.25
432.068	84.25
432.29	82.25
432.512	84.25
432.734	85.25
432.956	101.25
433.178	102.25
433.4	93.25
433.622	91.25
433.844	93.25
434.066	95.25
434.287	76.25
434.509	80.25
434.731	85.25
434.953	94.25
435.175	88.25
435.397	82.25
435.618	90.25
435.84	95.25
436.062	100.25
436.284	97.25
436.505	80.25
436.727	93.25
436.949	76.25
437.17	99.25
437.392	86.25
437.614	88.25
437.835	94.25
438.057	81.25
438.278	79.25
438.5	80.25
438.721	111.25
438.943	87.25
439.165	86.25
439.386	92.25
439.608	90.25
439.829	92.25
440.05	95.25
440.272	94.25
440.493	84.25
440.715	81.25
440.936	98.25
441.158	92.25
441.379	88.25
441.6	69.25
441.822	98.25
442.043	110.25
442.264	106.25
442.486	104.25
442.707	91.25
442.928	106.25
443.149	80.25
443.371	104.25
443.592	102.25
443.813	93.25
444.034	95.25
444.255	103.25
444.476	98.25
444.698	87.25
444.919	96.25
445.14	207.25
445.361	140.25
445.582	96.25
445.803	97.25
446.024	97.25
446.245	106.25
446.466	99.25
446.687	92.25
446.908	89.25
447.129	112.25
447.35	97.25
447.571	94.25
447.792	102.25
448.013	111.25
448.234	97.25
448.455	100.25
448.675	82.25
448.896	98.25
449.117	95.25
449.338	102.25
449.559	92.25
449.779	94.25
450	105.25
450.221	98.25
450.442	85.25
450.662	91.25
450.883	100.25
451.104	92.25
451.324	97.25
451.545	96.25
451.766	82.25
451.986	95.25
452.207	101.25
452.428	70.25
452.648	104.25
452.869	97.25
453.089	83.25
453.31	95.25
453.53	77.25
453.751	80.25
453.971	82.25
454.192	85.25
454.412	89.25
454.633	90.25
454.853	78.25
455.073	111.25
455.294	85.25
455.514	100.25
455.734	83.25
455.955	100.25
456.175	102.25
456.395	91.25
456.616	92.25
456.836	74.25
457.056	88.25
457.276	88.25
457.497	79.25
457.717	84.25
457.937	83.25
458.157	82.25
458.377	77.25
458.598	78.25
458.818	73.25
459.038	73.25
459.258	78.25
459.478	90.25
459.698	80.25
459.918	78.25
460.138	82.25
460.358	103.25
460.578	91.25
460.798	84.25
461.018	82.25
461.238	105.25
461.458	104.25
461.678	90.25
461.898	90.25
462.118	99.25
462.338	98.25
462.558	90.25
462.777	100.25
462.997	85.25
463.217	94.25
463.437	72.25
463.657	78.25
463.876	100.25
464.096	88.25
464.316	103.25
464.536	79.25
464.755	88.25
464.975	92.25
465.195	88.25
465.414	80.25
465.634	91.25
465.854	90.25
466.073	81.25
466.293	84.25
466.512	105.25
466.732	101.25
466.951	89.25
467.171	86.25
467.391	84.25
467.61	90.25
467.829	112.25
468.049	100.25
468.268	94.25
468.488	87.25
468.707	94.25
468.927	86.25
469.146	85.25
469.365	103.25
469.585	88.25
469.804	101.25
470.023	89.25
470.243	88.25
470.462	85.25
470.681	100.25
470.901	90.25
471.12	88.25
471.339	93.25
471.558	94.25
471.777	95.25
471.997	94.25
472.216	112.25
472.435	84.25
472.654	71.25
472.873	91.25
473.092	83.25
473.311	68.25
473.53	96.25
473.749	81.25
473.968	100.25
474.187	89.25
474.406	94.25
474.625	78.25
474.844	87.25
475.063	74.25
475.282	87.25
475.501	74.25
475.72	82.25
475.939	90.25
476.158	84.25
476.377	89.25
476.596	89.25
476.814	99.25
477.033	87.25
477.252	82.25
477.471	98.25
477.69	95.25
477.908	100.25
478.127	97.25
478.346	105.25
478.564	110.25
478.783	84.25
479.002	108.25
479.22	102.25
479.439	87.25
479.658	87.25
479.876	100.25
480.095	83.25
480.313	89.25
480.532	95.25
480.751	87.25
480.969	88.25
481.188	94.25
481.406	72.25
481.624	93.25
481.843	84.25
482.061	84.25
482.28	82.25
482.498	83.25
482.717	85.25
482.935	84.25
483.153	101.25
483.372	94.25
483.59	89.25
483.808	105.25
484.027	77.25
484.245	96.25
484.463	110.25
484.681	113.25
484.9	92.25
485.118	96.25
485.336	98.25
485.554	97.25
485.772	82.25
485.99	79.25
486.209	92.25
486.427	95.25
486.645	87.25
486.863	105.25
487.081	116.25
487.299	100.25
487.517	103.25
487.735	98.25
487.953	99.25
488.171	112.25
488.389	98.25
488.607	97.25
488.825	93.25
489.043	93.25
489.261	87.25
489.479	109.25
489.696	100.25
489.914	102.25
490.132	101.25
490.35	97.25
490.568	113.25
490.786	108.25
491.003	104.25
491.221	111.25
491.439	116.25
491.657	114.25
491.874	99.25
492.092	126.25
492.31	112.25
492.527	125.25
492.745	118.25
492.963	117.25
493.18	102.25
493.398	116.25
493.615	94.25
493.833	104.25
494.05	117.25
494.268	105.25
494.485	97.25
494.703	98.25
494.92	111.25
495.138	101.25
495.355	102.25
495.573	111.25
495.79	108.25
496.008	109.25
496.225	106.25
496.442	112.25
496.66	117.25
496.877	96.25
497.094	113.25
497.312	98.25
497.529	106.25
497.746	99.25
497.963	88.25
498.181	92.25
498.398	100.25
498.615	93.25
498.832	101.25
499.049	90.25
499.267	99.25
499.484	71.25
499.701	80.25
499.918	105.25
500.135	95.25
500.352	95.25
500.569	103.25
500.786	100.25
501.003	88.25
501.22	101.25
501.437	99.25
501.654	93.25
501.871	96.25
502.088	94.25
502.305	94.25
502.522	111.25
502.739	90.25
502.956	98.25
503.172	85.25
503.389	87.25
503.606	87.25
503.823	84.25
504.04	92.25
504.256	91.25
504.473	85.25
504.69	82.25
504.907	76.25
505.123	85.25
505.34	88.25
505.557	79.25
505.773	78.25
505.99	84.25
506.207	90.25
506.423	89.25
506.64	108.25
506.856	99.25
507.073	97.25
507.289	87.25
507.506	82.25
507.722	103.25
507.939	89.25
508.155	91.25
508.372	88.25
508.588	102.25
508.805	88.25
509.021	99.25
509.238	88.25
509.454	86.25
509.67	92.25
509.887	80.25
510.103	78.25
510.319	79.25
510.536	86.25
510.752	88.25
510.968	91.25
511.184	81.25
511.401	85.25
511.617	80.25
511.833	96.25
512.049	83.25
512.265	86.25
512.481	80.25
512.698	80.25
512.914	78.25
513.13	80.25
513.346	79.25
513.562	104.25
513.778	95.25
513.994	92.25
514.21	78.25
514.426	80.25
514.642	83.25
514.858	90.25
515.074	87.25
515.29	72.25
515.506	94.25
515.721	73.25
515.937	93.25
516.153	81.25
516.369	85.25
516.585	75.25
516.801	79.25
517.016	91.25
517.232	86.25
517.448	81.25
517.664	95.25
