Data from Location3.07152019.Energy5.Lamp.07192019.3%Agarose_HRD10591_15-16-30-269.txt Node
Date: Fri Jul 19 15:16:30 EDT 2019
User: cochatt
Spectrometer: HR+D1059
Trigger mode: 1
Integration Time (sec): 1.000000E-1
Scans to average: 1
Electric dark correction enabled: true
Nonlinearity correction enabled: false
Boxcar width: 0
XAxis mode: Wavelengths
Number of Pixels in Spectrum: 2048
>>>>>Begin Spectral Data<<<<<
223.165	-25.38
223.4	-25.38
223.635	-25.38
223.869	-1.38
224.104	-27.38
224.338	-7.38
224.573	-13.38
224.808	-16.38
225.042	-2.38
225.277	-7.38
225.511	6.62
225.746	1.62
225.98	6.62
226.215	13.62
226.449	9.62
226.683	17.62
226.918	18.62
227.152	26.62
227.387	16.62
227.621	30.62
227.856	30.62
228.09	47.62
228.324	59.62
228.559	51.62
228.793	49.62
229.027	54.62
229.262	61.62
229.496	62.62
229.73	66.62
229.964	67.62
230.199	66.62
230.433	69.62
230.667	66.62
230.901	80.62
231.136	68.62
231.37	72.62
231.604	82.62
231.838	70.62
232.072	77.62
232.306	85.62
232.541	89.62
232.775	75.62
233.009	81.62
233.243	77.62
233.477	72.62
233.711	78.62
233.945	65.62
234.179	85.62
234.413	73.62
234.647	87.62
234.881	73.62
235.115	82.62
235.349	79.62
235.583	69.62
235.817	80.62
236.051	82.62
236.285	60.62
236.519	59.62
236.753	78.62
236.987	68.62
237.221	66.62
237.455	68.62
237.689	74.62
237.922	64.62
238.156	70.62
238.39	64.62
238.624	62.62
238.858	73.62
239.091	72.62
239.325	73.62
239.559	78.62
239.793	69.62
240.027	56.62
240.26	67.62
240.494	78.62
240.728	88.62
240.961	60.62
241.195	76.62
241.429	63.62
241.662	71.62
241.896	79.62
242.13	74.62
242.363	72.62
242.597	61.62
242.83	79.62
243.064	80.62
243.298	76.62
243.531	64.62
243.765	81.62
243.998	66.62
244.232	48.62
244.465	75.62
244.699	84.62
244.932	59.62
245.166	71.62
245.399	79.62
245.633	76.62
245.866	72.62
246.099	72.62
246.333	56.62
246.566	73.62
246.8	79.62
247.033	67.62
247.266	73.62
247.5	70.62
247.733	73.62
247.966	72.62
248.2	76.62
248.433	82.62
248.666	95.62
248.899	63.62
249.133	73.62
249.366	77.62
249.599	79.62
249.832	74.62
250.066	69.62
250.299	66.62
250.532	62.62
250.765	62.62
250.998	63.62
251.231	72.62
251.465	79.62
251.698	74.62
251.931	88.62
252.164	77.62
252.397	76.62
252.63	67.62
252.863	80.62
253.096	70.62
253.329	85.62
253.562	96.62
253.795	78.62
254.028	69.62
254.261	68.62
254.494	84.62
254.727	78.62
254.96	76.62
255.193	59.62
255.426	66.62
255.659	87.62
255.892	69.62
256.124	70.62
256.357	83.62
256.59	81.62
256.823	72.62
257.056	84.62
257.289	87.62
257.521	64.62
257.754	78.62
257.987	80.62
258.22	90.62
258.452	95.62
258.685	83.62
258.918	82.62
259.151	68.62
259.383	72.62
259.616	77.62
259.849	75.62
260.081	70.62
260.314	71.62
260.547	77.62
260.779	85.62
261.012	75.62
261.244	60.62
261.477	84.62
261.71	69.62
261.942	70.62
262.175	81.62
262.407	82.62
262.64	83.62
262.872	71.62
263.105	68.62
263.337	82.62
263.57	78.62
263.802	74.62
264.035	54.62
264.267	59.62
264.499	69.62
264.732	72.62
264.964	76.62
265.197	58.62
265.429	80.62
265.661	98.62
265.894	83.62
266.126	61.62
266.358	59.62
266.591	77.62
266.823	72.62
267.055	71.62
267.287	84.62
267.52	78.62
267.752	79.62
267.984	75.62
268.216	71.62
268.448	80.62
268.681	78.62
268.913	82.62
269.145	82.62
269.377	88.62
269.609	77.62
269.841	75.62
270.073	79.62
270.306	78.62
270.538	75.62
270.77	90.62
271.002	78.62
271.234	80.62
271.466	80.62
271.698	87.62
271.93	75.62
272.162	85.62
272.394	91.62
272.626	79.62
272.858	69.62
273.09	61.62
273.322	66.62
273.553	84.62
273.785	76.62
274.017	86.62
274.249	83.62
274.481	74.62
274.713	66.62
274.945	72.62
275.176	83.62
275.408	73.62
275.64	74.62
275.872	81.62
276.104	79.62
276.335	81.62
276.567	88.62
276.799	75.62
277.031	70.62
277.262	81.62
277.494	79.62
277.726	87.62
277.957	63.62
278.189	73.62
278.421	82.62
278.652	85.62
278.884	78.62
279.115	87.62
279.347	83.62
279.579	86.62
279.81	68.62
280.042	78.62
280.273	71.62
280.505	81.62
280.736	87.62
280.968	84.62
281.199	73.62
281.431	89.62
281.662	80.62
281.894	67.62
282.125	75.62
282.356	74.62
282.588	88.62
282.819	82.62
283.051	81.62
283.282	78.62
283.513	73.62
283.745	87.62
283.976	80.62
284.207	76.62
284.439	93.62
284.67	84.62
284.901	85.62
285.132	87.62
285.364	80.62
285.595	91.62
285.826	80.62
286.057	75.62
286.288	82.62
286.52	74.62
286.751	78.62
286.982	74.62
287.213	78.62
287.444	77.62
287.675	77.62
287.906	78.62
288.138	83.62
288.369	91.62
288.6	73.62
288.831	87.62
289.062	77.62
289.293	82.62
289.524	77.62
289.755	77.62
289.986	82.62
290.217	81.62
290.448	71.62
290.679	71.62
290.91	90.62
291.141	87.62
291.371	91.62
291.602	83.62
291.833	77.62
292.064	68.62
292.295	83.62
292.526	85.62
292.757	74.62
292.987	82.62
293.218	74.62
293.449	75.62
293.68	65.62
293.91	84.62
294.141	82.62
294.372	76.62
294.603	90.62
294.833	80.62
295.064	89.62
295.295	92.62
295.525	76.62
295.756	75.62
295.987	79.62
296.217	74.62
296.448	68.62
296.679	69.62
296.909	77.62
297.14	84.62
297.37	83.62
297.601	84.62
297.831	75.62
298.062	93.62
298.292	72.62
298.523	77.62
298.753	84.62
298.984	80.62
299.214	76.62
299.445	83.62
299.675	76.62
299.905	79.62
300.136	79.62
300.366	94.62
300.597	70.62
300.827	79.62
301.057	99.62
301.288	71.62
301.518	81.62
301.748	77.62
301.979	83.62
302.209	70.62
302.439	85.62
302.669	88.62
302.9	88.62
303.13	87.62
303.36	88.62
303.59	82.62
303.82	83.62
304.051	88.62
304.281	82.62
304.511	90.62
304.741	83.62
304.971	71.62
305.201	87.62
305.431	77.62
305.661	73.62
305.891	86.62
306.121	82.62
306.352	87.62
306.582	85.62
306.812	81.62
307.042	91.62
307.272	79.62
307.502	72.62
307.731	70.62
307.961	94.62
308.191	85.62
308.421	82.62
308.651	82.62
308.881	81.62
309.111	90.62
309.341	80.62
309.571	73.62
309.8	78.62
310.03	90.62
310.26	91.62
310.49	77.62
310.72	76.62
310.949	63.62
311.179	83.62
311.409	72.62
311.639	81.62
311.868	77.62
312.098	64.62
312.328	86.62
312.557	75.62
312.787	86.62
313.017	82.62
313.246	88.62
313.476	92.62
313.706	84.62
313.935	79.62
314.165	83.62
314.394	79.62
314.624	90.62
314.853	71.62
315.083	79.62
315.312	61.62
315.542	80.62
315.771	81.62
316.001	71.62
316.23	83.62
316.46	75.62
316.689	86.62
316.919	82.62
317.148	69.62
317.377	77.62
317.607	82.62
317.836	82.62
318.065	96.62
318.295	78.62
318.524	79.62
318.753	72.62
318.983	85.62
319.212	74.62
319.441	97.62
319.67	94.62
319.9	71.62
320.129	72.62
320.358	74.62
320.587	89.62
320.816	82.62
321.046	79.62
321.275	79.62
321.504	83.62
321.733	77.62
321.962	82.62
322.191	87.62
322.42	85.62
322.649	83.62
322.878	88.62
323.108	91.62
323.337	75.62
323.566	92.62
323.795	78.62
324.024	90.62
324.253	89.62
324.482	78.62
324.71	60.62
324.939	80.62
325.168	78.62
325.397	91.62
325.626	89.62
325.855	76.62
326.084	95.62
326.313	76.62
326.542	71.62
326.77	78.62
326.999	69.62
327.228	85.62
327.457	69.62
327.686	82.62
327.914	88.62
328.143	84.62
328.372	78.62
328.6	80.62
328.829	83.62
329.058	72.62
329.287	71.62
329.515	69.62
329.744	93.62
329.972	93.62
330.201	79.62
330.43	75.62
330.658	83.62
330.887	87.62
331.115	82.62
331.344	90.62
331.572	85.62
331.801	86.62
332.03	84.62
332.258	74.62
332.486	81.62
332.715	84.62
332.943	89.62
333.172	93.62
333.4	76.62
333.629	81.62
333.857	91.62
334.085	90.62
334.314	80.62
334.542	76.62
334.771	80.62
334.999	83.62
335.227	74.62
335.455	83.62
335.684	83.62
335.912	92.62
336.14	84.62
336.369	79.62
336.597	80.62
336.825	87.62
337.053	81.62
337.281	80.62
337.51	88.62
337.738	71.62
337.966	83.62
338.194	77.62
338.422	99.62
338.65	83.62
338.878	83.62
339.106	69.62
339.334	83.62
339.562	66.62
339.79	84.62
340.018	79.62
340.246	70.62
340.474	73.62
340.702	79.62
340.93	75.62
341.158	90.62
341.386	84.62
341.614	79.62
341.842	82.62
342.07	88.62
342.298	75.62
342.526	88.62
342.754	90.62
342.981	92.62
343.209	90.62
343.437	91.62
343.665	74.62
343.893	71.62
344.12	85.62
344.348	70.62
344.576	85.62
344.804	88.62
345.031	84.62
345.259	81.62
345.487	85.62
345.714	76.62
345.942	77.62
346.17	82.62
346.397	72.62
346.625	64.62
346.853	88.62
347.08	83.62
347.308	83.62
347.535	90.62
347.763	68.62
347.99	77.62
348.218	78.62
348.445	95.62
348.673	72.62
348.9	75.62
349.128	90.62
349.355	83.62
349.583	77.62
349.81	86.62
350.037	78.62
350.265	93.62
350.492	98.62
350.72	82.62
350.947	81.62
351.174	82.62
351.402	82.62
351.629	76.62
351.856	87.62
352.083	73.62
352.311	79.62
352.538	84.62
352.765	87.62
352.992	82.62
353.22	89.62
353.447	83.62
353.674	82.62
353.901	89.62
354.128	78.62
354.355	92.62
354.583	92.62
354.81	88.62
355.037	85.62
355.264	80.62
355.491	76.62
355.718	78.62
355.945	78.62
356.172	69.62
356.399	86.62
356.626	86.62
356.853	92.62
357.08	78.62
357.307	70.62
357.534	78.62
357.761	91.62
357.988	82.62
358.215	83.62
358.441	81.62
358.668	72.62
358.895	86.62
359.122	97.62
359.349	71.62
359.576	77.62
359.802	78.62
360.029	81.62
360.256	80.62
360.483	86.62
360.709	82.62
360.936	79.62
361.163	86.62
361.39	78.62
361.616	85.62
361.843	90.62
362.07	88.62
362.296	106.62
362.523	77.62
362.749	84.62
362.976	72.62
363.203	77.62
363.429	80.62
363.656	80.62
363.882	96.62
364.109	100.62
364.335	88.62
364.562	83.62
364.788	78.62
365.015	80.62
365.241	87.62
365.468	83.62
365.694	76.62
365.92	81.62
366.147	85.62
366.373	79.62
366.599	88.62
366.826	70.62
367.052	78.62
367.278	86.62
367.505	88.62
367.731	98.62
367.957	81.62
368.184	80.62
368.41	77.62
368.636	76.62
368.862	73.62
369.089	102.62
369.315	94.62
369.541	85.62
369.767	93.62
369.993	84.62
370.219	81.62
370.445	91.62
370.672	100.62
370.898	81.62
371.124	75.62
371.35	80.62
371.576	87.62
371.802	80.62
372.028	75.62
372.254	78.62
372.48	78.62
372.706	82.62
372.932	68.62
373.158	86.62
373.384	94.62
373.61	69.62
373.835	81.62
374.061	79.62
374.287	76.62
374.513	73.62
374.739	79.62
374.965	89.62
375.191	76.62
375.416	80.62
375.642	83.62
375.868	83.62
376.094	85.62
376.319	92.62
376.545	84.62
376.771	74.62
376.997	82.62
377.222	83.62
377.448	79.62
377.674	95.62
377.899	90.62
378.125	92.62
378.35	71.62
378.576	66.62
378.802	67.62
379.027	78.62
379.253	75.62
379.478	75.62
379.704	85.62
379.929	91.62
380.155	79.62
380.38	84.62
380.606	63.62
380.831	90.62
381.057	109.62
381.282	92.62
381.507	82.62
381.733	90.62
381.958	84.62
382.184	73.62
382.409	85.62
382.634	91.62
382.86	106.62
383.085	90.62
383.31	86.62
383.535	88.62
383.761	84.62
383.986	84.62
384.211	79.62
384.436	77.62
384.662	79.62
384.887	92.62
385.112	84.62
385.337	88.62
385.562	83.62
385.787	71.62
386.013	79.62
386.238	88.62
386.463	97.62
386.688	97.62
386.913	92.62
387.138	74.62
387.363	82.62
387.588	87.62
387.813	88.62
388.038	88.62
388.263	89.62
388.488	75.62
388.713	78.62
388.938	80.62
389.163	75.62
389.387	81.62
389.612	86.62
389.837	85.62
390.062	70.62
390.287	79.62
390.512	81.62
390.736	92.62
390.961	92.62
391.186	80.62
391.411	80.62
391.636	81.62
391.86	91.62
392.085	76.62
392.31	88.62
392.534	78.62
392.759	84.62
392.984	96.62
393.208	70.62
393.433	99.62
393.658	86.62
393.882	83.62
394.107	79.62
394.331	92.62
394.556	91.62
394.78	90.62
395.005	86.62
395.229	73.62
395.454	81.62
395.678	86.62
395.903	73.62
396.127	86.62
396.352	82.62
396.576	81.62
396.801	82.62
397.025	84.62
397.249	83.62
397.474	91.62
397.698	80.62
397.922	84.62
398.147	89.62
398.371	94.62
398.595	99.62
398.82	72.62
399.044	96.62
399.268	85.62
399.492	86.62
399.717	99.62
399.941	88.62
400.165	93.62
400.389	87.62
400.613	93.62
400.837	79.62
401.062	86.62
401.286	82.62
401.51	84.62
401.734	92.62
401.958	81.62
402.182	83.62
402.406	74.62
402.63	85.62
402.854	71.62
403.078	93.62
403.302	91.62
403.526	91.62
403.75	92.62
403.974	67.62
404.198	69.62
404.422	83.62
404.645	90.62
404.869	88.62
405.093	94.62
405.317	96.62
405.541	84.62
405.765	86.62
405.988	95.62
406.212	82.62
406.436	78.62
406.66	94.62
406.883	88.62
407.107	84.62
407.331	114.62
407.555	96.62
407.778	82.62
408.002	78.62
408.226	70.62
408.449	79.62
408.673	87.62
408.896	92.62
409.12	80.62
409.344	80.62
409.567	96.62
409.791	91.62
410.014	94.62
410.238	74.62
410.461	79.62
410.685	72.62
410.908	79.62
411.132	81.62
411.355	83.62
411.578	88.62
411.802	85.62
412.025	77.62
412.249	96.62
412.472	95.62
412.695	82.62
412.919	72.62
413.142	97.62
413.365	92.62
413.589	81.62
413.812	90.62
414.035	102.62
414.258	80.62
414.482	93.62
414.705	89.62
414.928	81.62
415.151	88.62
415.374	85.62
415.597	98.62
415.821	90.62
416.044	110.62
416.267	96.62
416.49	94.62
416.713	97.62
416.936	84.62
417.159	98.62
417.382	93.62
417.605	86.62
417.828	104.62
418.051	98.62
418.274	86.62
418.497	91.62
418.72	95.62
418.943	91.62
419.166	88.62
419.389	93.62
419.611	97.62
419.834	91.62
420.057	98.62
420.28	103.62
420.503	84.62
420.726	92.62
420.948	94.62
421.171	86.62
421.394	98.62
421.617	89.62
421.839	85.62
422.062	100.62
422.285	74.62
422.507	88.62
422.73	95.62
422.953	94.62
423.175	92.62
423.398	98.62
423.621	96.62
423.843	99.62
424.066	89.62
424.288	106.62
424.511	81.62
424.733	87.62
424.956	103.62
425.178	111.62
425.401	88.62
425.623	77.62
425.846	90.62
426.068	80.62
426.291	82.62
426.513	79.62
426.735	83.62
426.958	106.62
427.18	114.62
427.402	92.62
427.625	84.62
427.847	102.62
428.069	83.62
428.292	79.62
428.514	85.62
428.736	83.62
428.958	104.62
429.181	90.62
429.403	91.62
429.625	86.62
429.847	84.62
430.069	102.62
430.292	99.62
430.514	108.62
430.736	89.62
430.958	94.62
431.18	94.62
431.402	94.62
431.624	96.62
431.846	96.62
432.068	86.62
432.29	79.62
432.512	84.62
432.734	87.62
432.956	93.62
433.178	100.62
433.4	78.62
433.622	95.62
433.844	87.62
434.066	102.62
434.287	89.62
434.509	90.62
434.731	84.62
434.953	74.62
435.175	94.62
435.397	94.62
435.618	97.62
435.84	82.62
436.062	81.62
436.284	94.62
436.505	98.62
436.727	91.62
436.949	88.62
437.17	64.62
437.392	83.62
437.614	87.62
437.835	97.62
438.057	90.62
438.278	77.62
438.5	79.62
438.721	84.62
438.943	99.62
439.165	89.62
439.386	91.62
439.608	96.62
439.829	85.62
440.05	85.62
440.272	85.62
440.493	81.62
440.715	97.62
440.936	110.62
441.158	88.62
441.379	96.62
441.6	95.62
441.822	97.62
442.043	109.62
442.264	102.62
442.486	90.62
442.707	96.62
442.928	97.62
443.149	94.62
443.371	91.62
443.592	89.62
443.813	96.62
444.034	95.62
444.255	103.62
444.476	91.62
444.698	101.62
444.919	91.62
445.14	166.62
445.361	135.62
445.582	90.62
445.803	102.62
446.024	107.62
446.245	88.62
446.466	88.62
446.687	89.62
446.908	96.62
447.129	94.62
447.35	82.62
447.571	95.62
447.792	90.62
448.013	92.62
448.234	102.62
448.455	92.62
448.675	103.62
448.896	90.62
449.117	93.62
449.338	91.62
449.559	97.62
449.779	96.62
450	102.62
450.221	94.62
450.442	84.62
450.662	101.62
450.883	83.62
451.104	95.62
451.324	94.62
451.545	89.62
451.766	93.62
451.986	103.62
452.207	84.62
452.428	85.62
452.648	95.62
452.869	92.62
453.089	94.62
453.31	102.62
453.53	89.62
453.751	76.62
453.971	81.62
454.192	81.62
454.412	89.62
454.633	85.62
454.853	94.62
455.073	84.62
455.294	95.62
455.514	92.62
455.734	90.62
455.955	91.62
456.175	93.62
456.395	76.62
456.616	95.62
456.836	83.62
457.056	95.62
457.276	88.62
457.497	85.62
457.717	87.62
457.937	92.62
458.157	98.62
458.377	79.62
458.598	86.62
458.818	80.62
459.038	81.62
459.258	75.62
459.478	78.62
459.698	82.62
459.918	86.62
460.138	79.62
460.358	85.62
460.578	85.62
460.798	92.62
461.018	82.62
461.238	77.62
461.458	84.62
461.678	82.62
461.898	87.62
462.118	87.62
462.338	77.62
462.558	83.62
462.777	79.62
462.997	78.62
463.217	90.62
463.437	90.62
463.657	86.62
463.876	86.62
464.096	85.62
464.316	83.62
464.536	91.62
464.755	94.62
464.975	83.62
465.195	100.62
465.414	87.62
465.634	92.62
465.854	81.62
466.073	94.62
466.293	79.62
466.512	78.62
466.732	99.62
466.951	87.62
467.171	76.62
467.391	99.62
467.61	82.62
467.829	96.62
468.049	86.62
468.268	95.62
468.488	95.62
468.707	84.62
468.927	88.62
469.146	98.62
469.365	99.62
469.585	87.62
469.804	91.62
470.023	94.62
470.243	94.62
470.462	90.62
470.681	82.62
470.901	96.62
471.12	92.62
471.339	87.62
471.558	96.62
471.777	84.62
471.997	91.62
472.216	111.62
472.435	91.62
472.654	95.62
472.873	83.62
473.092	87.62
473.311	87.62
473.53	91.62
473.749	99.62
473.968	109.62
474.187	90.62
474.406	87.62
474.625	91.62
474.844	91.62
475.063	78.62
475.282	82.62
475.501	85.62
475.72	91.62
475.939	72.62
476.158	91.62
476.377	74.62
476.596	78.62
476.814	95.62
477.033	76.62
477.252	96.62
477.471	97.62
477.69	90.62
477.908	102.62
478.127	104.62
478.346	84.62
478.564	97.62
478.783	90.62
479.002	86.62
479.22	84.62
479.439	69.62
479.658	78.62
479.876	91.62
480.095	88.62
480.313	86.62
480.532	97.62
480.751	93.62
480.969	72.62
481.188	91.62
481.406	92.62
481.624	87.62
481.843	79.62
482.061	75.62
482.28	74.62
482.498	81.62
482.717	78.62
482.935	97.62
483.153	89.62
483.372	86.62
483.59	98.62
483.808	91.62
484.027	97.62
484.245	95.62
484.463	88.62
484.681	95.62
484.9	96.62
485.118	91.62
485.336	87.62
485.554	94.62
485.772	94.62
485.99	85.62
486.209	79.62
486.427	86.62
486.645	98.62
486.863	94.62
487.081	97.62
487.299	93.62
487.517	97.62
487.735	79.62
487.953	110.62
488.171	106.62
488.389	115.62
488.607	96.62
488.825	85.62
489.043	96.62
489.261	95.62
489.479	92.62
489.696	97.62
489.914	84.62
490.132	73.62
490.35	96.62
490.568	95.62
490.786	100.62
491.003	97.62
491.221	99.62
491.439	106.62
491.657	102.62
491.874	111.62
492.092	119.62
492.31	126.62
492.527	127.62
492.745	113.62
492.963	120.62
493.18	103.62
493.398	87.62
493.615	91.62
493.833	111.62
494.05	111.62
494.268	103.62
494.485	116.62
494.703	107.62
494.92	108.62
495.138	113.62
495.355	110.62
495.573	103.62
495.79	100.62
496.008	97.62
496.225	96.62
496.442	97.62
496.66	111.62
496.877	100.62
497.094	98.62
497.312	103.62
497.529	107.62
497.746	98.62
497.963	90.62
498.181	87.62
498.398	86.62
498.615	96.62
498.832	93.62
499.049	97.62
499.267	89.62
499.484	85.62
499.701	98.62
499.918	83.62
500.135	76.62
500.352	84.62
500.569	98.62
500.786	94.62
501.003	93.62
501.22	92.62
501.437	111.62
501.654	84.62
501.871	98.62
502.088	95.62
502.305	85.62
502.522	99.62
502.739	88.62
502.956	86.62
503.172	84.62
503.389	100.62
503.606	99.62
503.823	95.62
504.04	107.62
504.256	85.62
504.473	96.62
504.69	89.62
504.907	87.62
505.123	85.62
505.34	85.62
505.557	110.62
505.773	92.62
505.99	91.62
506.207	72.62
506.423	95.62
506.64	88.62
506.856	82.62
507.073	85.62
507.289	96.62
507.506	89.62
507.722	77.62
507.939	95.62
508.155	80.62
508.372	78.62
508.588	81.62
508.805	87.62
509.021	71.62
509.238	75.62
509.454	80.62
509.67	72.62
509.887	92.62
510.103	75.62
510.319	88.62
510.536	85.62
510.752	68.62
510.968	77.62
511.184	83.62
511.401	78.62
511.617	82.62
511.833	86.62
512.049	83.62
512.265	87.62
512.481	79.62
512.698	88.62
512.914	75.62
513.13	79.62
513.346	84.62
513.562	83.62
513.778	79.62
513.994	89.62
514.21	78.62
514.426	90.62
514.642	71.62
514.858	66.62
515.074	78.62
515.29	78.62
515.506	75.62
515.721	88.62
515.937	76.62
516.153	74.62
516.369	83.62
516.585	75.62
516.801	84.62
517.016	95.62
517.232	81.62
517.448	72.62
517.664	90.62
517.879	107.62
518.095	78.62
518.311	84.62
518.527	67.62
