Data from Location3.07152019.Energy5.Lamp.07192019.3%Agarose_HRD10591_15-17-01-268.txt Node
Date: Fri Jul 19 15:17:01 EDT 2019
User: cochatt
Spectrometer: HR+D1059
Trigger mode: 1
Integration Time (sec): 1.000000E-1
Scans to average: 1
Electric dark correction enabled: true
Nonlinearity correction enabled: false
Boxcar width: 0
XAxis mode: Wavelengths
Number of Pixels in Spectrum: 2048
>>>>>Begin Spectral Data<<<<<
223.165	-9.81
223.4	-9.81
223.635	-9.81
223.869	-18.81
224.104	-10.81
224.338	-10.81
224.573	-5.81
224.808	-17.81
225.042	-11.81
225.277	11.19
225.511	-11.81
225.746	-10.81
225.98	4.19
226.215	11.19
226.449	12.19
226.683	23.19
226.918	17.19
227.152	29.19
227.387	25.19
227.621	47.19
227.856	55.19
228.09	52.19
228.324	51.19
228.559	45.19
228.793	52.19
229.027	54.19
229.262	58.19
229.496	69.19
229.73	61.19
229.964	62.19
230.199	73.19
230.433	76.19
230.667	69.19
230.901	77.19
231.136	76.19
231.37	68.19
231.604	76.19
231.838	96.19
232.072	68.19
232.306	74.19
232.541	71.19
232.775	79.19
233.009	79.19
233.243	68.19
233.477	83.19
233.711	62.19
233.945	92.19
234.179	71.19
234.413	81.19
234.647	82.19
234.881	84.19
235.115	74.19
235.349	72.19
235.583	81.19
235.817	78.19
236.051	85.19
236.285	79.19
236.519	72.19
236.753	75.19
236.987	86.19
237.221	74.19
237.455	76.19
237.689	68.19
237.922	67.19
238.156	67.19
238.39	77.19
238.624	82.19
238.858	82.19
239.091	69.19
239.325	64.19
239.559	75.19
239.793	83.19
240.027	79.19
240.26	80.19
240.494	66.19
240.728	71.19
240.961	72.19
241.195	81.19
241.429	79.19
241.662	81.19
241.896	63.19
242.13	71.19
242.363	64.19
242.597	73.19
242.83	63.19
243.064	69.19
243.298	74.19
243.531	65.19
243.765	75.19
243.998	80.19
244.232	67.19
244.465	67.19
244.699	70.19
244.932	79.19
245.166	59.19
245.399	73.19
245.633	80.19
245.866	71.19
246.099	71.19
246.333	71.19
246.566	63.19
246.8	80.19
247.033	65.19
247.266	68.19
247.5	79.19
247.733	66.19
247.966	79.19
248.2	73.19
248.433	81.19
248.666	79.19
248.899	71.19
249.133	77.19
249.366	87.19
249.599	96.19
249.832	69.19
250.066	71.19
250.299	75.19
250.532	75.19
250.765	70.19
250.998	83.19
251.231	65.19
251.465	79.19
251.698	78.19
251.931	53.19
252.164	75.19
252.397	82.19
252.63	67.19
252.863	72.19
253.096	70.19
253.329	76.19
253.562	78.19
253.795	87.19
254.028	80.19
254.261	78.19
254.494	66.19
254.727	89.19
254.96	71.19
255.193	70.19
255.426	83.19
255.659	89.19
255.892	82.19
256.124	74.19
256.357	66.19
256.59	62.19
256.823	85.19
257.056	76.19
257.289	87.19
257.521	84.19
257.754	85.19
257.987	72.19
258.22	74.19
258.452	90.19
258.685	71.19
258.918	84.19
259.151	77.19
259.383	73.19
259.616	87.19
259.849	75.19
260.081	81.19
260.314	81.19
260.547	80.19
260.779	82.19
261.012	79.19
261.244	71.19
261.477	79.19
261.71	84.19
261.942	72.19
262.175	84.19
262.407	87.19
262.64	84.19
262.872	71.19
263.105	63.19
263.337	80.19
263.57	77.19
263.802	83.19
264.035	79.19
264.267	78.19
264.499	79.19
264.732	81.19
264.964	79.19
265.197	76.19
265.429	75.19
265.661	70.19
265.894	68.19
266.126	81.19
266.358	70.19
266.591	66.19
266.823	85.19
267.055	86.19
267.287	80.19
267.52	76.19
267.752	73.19
267.984	72.19
268.216	70.19
268.448	81.19
268.681	74.19
268.913	80.19
269.145	84.19
269.377	71.19
269.609	79.19
269.841	86.19
270.073	74.19
270.306	70.19
270.538	85.19
270.77	84.19
271.002	75.19
271.234	84.19
271.466	83.19
271.698	70.19
271.93	88.19
272.162	87.19
272.394	87.19
272.626	76.19
272.858	86.19
273.09	79.19
273.322	75.19
273.553	67.19
273.785	78.19
274.017	84.19
274.249	84.19
274.481	91.19
274.713	81.19
274.945	84.19
275.176	75.19
275.408	72.19
275.64	75.19
275.872	76.19
276.104	81.19
276.335	78.19
276.567	82.19
276.799	91.19
277.031	64.19
277.262	86.19
277.494	72.19
277.726	74.19
277.957	82.19
278.189	80.19
278.421	89.19
278.652	76.19
278.884	75.19
279.115	87.19
279.347	62.19
279.579	81.19
279.81	78.19
280.042	72.19
280.273	79.19
280.505	69.19
280.736	81.19
280.968	75.19
281.199	85.19
281.431	91.19
281.662	84.19
281.894	80.19
282.125	93.19
282.356	91.19
282.588	80.19
282.819	87.19
283.051	86.19
283.282	83.19
283.513	73.19
283.745	84.19
283.976	96.19
284.207	86.19
284.439	66.19
284.67	75.19
284.901	82.19
285.132	87.19
285.364	68.19
285.595	76.19
285.826	82.19
286.057	76.19
286.288	70.19
286.52	75.19
286.751	98.19
286.982	80.19
287.213	76.19
287.444	82.19
287.675	75.19
287.906	72.19
288.138	84.19
288.369	80.19
288.6	74.19
288.831	78.19
289.062	96.19
289.293	99.19
289.524	78.19
289.755	89.19
289.986	71.19
290.217	93.19
290.448	87.19
290.679	78.19
290.91	82.19
291.141	76.19
291.371	67.19
291.602	83.19
291.833	89.19
292.064	88.19
292.295	83.19
292.526	70.19
292.757	78.19
292.987	76.19
293.218	77.19
293.449	81.19
293.68	106.19
293.91	83.19
294.141	76.19
294.372	83.19
294.603	81.19
294.833	85.19
295.064	78.19
295.295	87.19
295.525	85.19
295.756	71.19
295.987	69.19
296.217	68.19
296.448	70.19
296.679	73.19
296.909	94.19
297.14	69.19
297.37	84.19
297.601	80.19
297.831	66.19
298.062	90.19
298.292	75.19
298.523	72.19
298.753	80.19
298.984	77.19
299.214	70.19
299.445	92.19
299.675	83.19
299.905	78.19
300.136	79.19
300.366	87.19
300.597	95.19
300.827	84.19
301.057	77.19
301.288	88.19
301.518	82.19
301.748	71.19
301.979	90.19
302.209	84.19
302.439	81.19
302.669	82.19
302.9	84.19
303.13	78.19
303.36	82.19
303.59	78.19
303.82	85.19
304.051	99.19
304.281	77.19
304.511	76.19
304.741	66.19
304.971	80.19
305.201	79.19
305.431	85.19
305.661	85.19
305.891	82.19
306.121	81.19
306.352	84.19
306.582	86.19
306.812	93.19
307.042	88.19
307.272	82.19
307.502	68.19
307.731	73.19
307.961	70.19
308.191	67.19
308.421	79.19
308.651	84.19
308.881	79.19
309.111	85.19
309.341	83.19
309.571	67.19
309.8	87.19
310.03	66.19
310.26	76.19
310.49	78.19
310.72	86.19
310.949	81.19
311.179	89.19
311.409	87.19
311.639	77.19
311.868	85.19
312.098	80.19
312.328	63.19
312.557	96.19
312.787	78.19
313.017	91.19
313.246	88.19
313.476	90.19
313.706	59.19
313.935	73.19
314.165	81.19
314.394	87.19
314.624	86.19
314.853	76.19
315.083	69.19
315.312	94.19
315.542	76.19
315.771	70.19
316.001	78.19
316.23	85.19
316.46	68.19
316.689	82.19
316.919	80.19
317.148	92.19
317.377	104.19
317.607	64.19
317.836	79.19
318.065	78.19
318.295	84.19
318.524	74.19
318.753	83.19
318.983	67.19
319.212	74.19
319.441	69.19
319.67	83.19
319.9	79.19
320.129	83.19
320.358	77.19
320.587	74.19
320.816	67.19
321.046	82.19
321.275	80.19
321.504	79.19
321.733	76.19
321.962	83.19
322.191	95.19
322.42	88.19
322.649	78.19
322.878	77.19
323.108	87.19
323.337	70.19
323.566	85.19
323.795	87.19
324.024	87.19
324.253	75.19
324.482	81.19
324.71	72.19
324.939	87.19
325.168	83.19
325.397	76.19
325.626	95.19
325.855	80.19
326.084	90.19
326.313	80.19
326.542	72.19
326.77	84.19
326.999	94.19
327.228	84.19
327.457	80.19
327.686	81.19
327.914	72.19
328.143	82.19
328.372	97.19
328.6	98.19
328.829	84.19
329.058	74.19
329.287	78.19
329.515	80.19
329.744	79.19
329.972	77.19
330.201	78.19
330.43	71.19
330.658	94.19
330.887	83.19
331.115	79.19
331.344	79.19
331.572	89.19
331.801	78.19
332.03	79.19
332.258	78.19
332.486	73.19
332.715	76.19
332.943	74.19
333.172	76.19
333.4	77.19
333.629	106.19
333.857	81.19
334.085	83.19
334.314	82.19
334.542	76.19
334.771	83.19
334.999	75.19
335.227	71.19
335.455	72.19
335.684	79.19
335.912	62.19
336.14	87.19
336.369	73.19
336.597	69.19
336.825	73.19
337.053	79.19
337.281	88.19
337.51	70.19
337.738	77.19
337.966	77.19
338.194	75.19
338.422	87.19
338.65	73.19
338.878	79.19
339.106	76.19
339.334	98.19
339.562	95.19
339.79	71.19
340.018	85.19
340.246	70.19
340.474	76.19
340.702	75.19
340.93	80.19
341.158	83.19
341.386	81.19
341.614	75.19
341.842	69.19
342.07	87.19
342.298	77.19
342.526	80.19
342.754	90.19
342.981	67.19
343.209	78.19
343.437	90.19
343.665	70.19
343.893	68.19
344.12	87.19
344.348	80.19
344.576	71.19
344.804	77.19
345.031	82.19
345.259	79.19
345.487	77.19
345.714	68.19
345.942	76.19
346.17	59.19
346.397	86.19
346.625	99.19
346.853	71.19
347.08	76.19
347.308	89.19
347.535	93.19
347.763	90.19
347.99	86.19
348.218	83.19
348.445	81.19
348.673	91.19
348.9	90.19
349.128	87.19
349.355	86.19
349.583	68.19
349.81	79.19
350.037	78.19
350.265	88.19
350.492	84.19
350.72	89.19
350.947	75.19
351.174	96.19
351.402	81.19
351.629	83.19
351.856	75.19
352.083	86.19
352.311	84.19
352.538	92.19
352.765	79.19
352.992	82.19
353.22	101.19
353.447	79.19
353.674	82.19
353.901	87.19
354.128	66.19
354.355	63.19
354.583	80.19
354.81	92.19
355.037	86.19
355.264	74.19
355.491	80.19
355.718	81.19
355.945	71.19
356.172	86.19
356.399	86.19
356.626	70.19
356.853	85.19
357.08	91.19
357.307	76.19
357.534	79.19
357.761	70.19
357.988	83.19
358.215	81.19
358.441	87.19
358.668	73.19
358.895	81.19
359.122	82.19
359.349	79.19
359.576	77.19
359.802	92.19
360.029	85.19
360.256	70.19
360.483	79.19
360.709	64.19
360.936	80.19
361.163	81.19
361.39	72.19
361.616	81.19
361.843	68.19
362.07	80.19
362.296	85.19
362.523	79.19
362.749	81.19
362.976	86.19
363.203	86.19
363.429	77.19
363.656	68.19
363.882	85.19
364.109	88.19
364.335	75.19
364.562	81.19
364.788	82.19
365.015	95.19
365.241	76.19
365.468	80.19
365.694	84.19
365.92	82.19
366.147	80.19
366.373	87.19
366.599	80.19
366.826	82.19
367.052	79.19
367.278	68.19
367.505	100.19
367.731	81.19
367.957	85.19
368.184	79.19
368.41	79.19
368.636	88.19
368.862	82.19
369.089	86.19
369.315	83.19
369.541	83.19
369.767	89.19
369.993	67.19
370.219	83.19
370.445	64.19
370.672	76.19
370.898	90.19
371.124	77.19
371.35	78.19
371.576	77.19
371.802	78.19
372.028	95.19
372.254	78.19
372.48	82.19
372.706	77.19
372.932	72.19
373.158	91.19
373.384	79.19
373.61	80.19
373.835	82.19
374.061	80.19
374.287	87.19
374.513	70.19
374.739	70.19
374.965	77.19
375.191	84.19
375.416	79.19
375.642	78.19
375.868	83.19
376.094	68.19
376.319	77.19
376.545	93.19
376.771	80.19
376.997	83.19
377.222	70.19
377.448	74.19
377.674	69.19
377.899	87.19
378.125	87.19
378.35	70.19
378.576	78.19
378.802	76.19
379.027	69.19
379.253	76.19
379.478	76.19
379.704	91.19
379.929	89.19
380.155	74.19
380.38	75.19
380.606	91.19
380.831	85.19
381.057	97.19
381.282	76.19
381.507	76.19
381.733	85.19
381.958	92.19
382.184	70.19
382.409	77.19
382.634	87.19
382.86	90.19
383.085	78.19
383.31	89.19
383.535	85.19
383.761	73.19
383.986	79.19
384.211	80.19
384.436	85.19
384.662	76.19
384.887	72.19
385.112	74.19
385.337	80.19
385.562	73.19
385.787	70.19
386.013	85.19
386.238	78.19
386.463	85.19
386.688	91.19
386.913	78.19
387.138	83.19
387.363	93.19
387.588	76.19
387.813	83.19
388.038	95.19
388.263	76.19
388.488	90.19
388.713	92.19
388.938	82.19
389.163	71.19
389.387	69.19
389.612	82.19
389.837	88.19
390.062	77.19
390.287	76.19
390.512	86.19
390.736	80.19
390.961	84.19
391.186	79.19
391.411	75.19
391.636	75.19
391.86	75.19
392.085	84.19
392.31	84.19
392.534	75.19
392.759	92.19
392.984	81.19
393.208	89.19
393.433	94.19
393.658	85.19
393.882	89.19
394.107	83.19
394.331	86.19
394.556	86.19
394.78	80.19
395.005	95.19
395.229	83.19
395.454	95.19
395.678	83.19
395.903	83.19
396.127	79.19
396.352	86.19
396.576	92.19
396.801	80.19
397.025	84.19
397.249	74.19
397.474	89.19
397.698	82.19
397.922	80.19
398.147	81.19
398.371	80.19
398.595	87.19
398.82	85.19
399.044	84.19
399.268	84.19
399.492	87.19
399.717	97.19
399.941	81.19
400.165	89.19
400.389	83.19
400.613	89.19
400.837	90.19
401.062	70.19
401.286	76.19
401.51	78.19
401.734	92.19
401.958	80.19
402.182	73.19
402.406	83.19
402.63	76.19
402.854	84.19
403.078	86.19
403.302	80.19
403.526	73.19
403.75	77.19
403.974	91.19
404.198	77.19
404.422	92.19
404.645	71.19
404.869	72.19
405.093	94.19
405.317	87.19
405.541	94.19
405.765	82.19
405.988	98.19
406.212	78.19
406.436	75.19
406.66	65.19
406.883	84.19
407.107	86.19
407.331	82.19
407.555	91.19
407.778	94.19
408.002	77.19
408.226	96.19
408.449	81.19
408.673	98.19
408.896	84.19
409.12	106.19
409.344	84.19
409.567	81.19
409.791	75.19
410.014	91.19
410.238	96.19
410.461	76.19
410.685	89.19
410.908	83.19
411.132	99.19
411.355	89.19
411.578	92.19
411.802	94.19
412.025	76.19
412.249	81.19
412.472	78.19
412.695	83.19
412.919	93.19
413.142	82.19
413.365	81.19
413.589	85.19
413.812	85.19
414.035	74.19
414.258	106.19
414.482	84.19
414.705	88.19
414.928	80.19
415.151	79.19
415.374	79.19
415.597	77.19
415.821	88.19
416.044	96.19
416.267	94.19
416.49	77.19
416.713	86.19
416.936	92.19
417.159	83.19
417.382	107.19
417.605	93.19
417.828	80.19
418.051	81.19
418.274	98.19
418.497	76.19
418.72	90.19
418.943	89.19
419.166	77.19
419.389	89.19
419.611	86.19
419.834	100.19
420.057	83.19
420.28	94.19
420.503	96.19
420.726	91.19
420.948	90.19
421.171	98.19
421.394	87.19
421.617	89.19
421.839	95.19
422.062	83.19
422.285	67.19
422.507	82.19
422.73	76.19
422.953	82.19
423.175	85.19
423.398	97.19
423.621	94.19
423.843	81.19
424.066	84.19
424.288	86.19
424.511	78.19
424.733	93.19
424.956	92.19
425.178	90.19
425.401	94.19
425.623	95.19
425.846	94.19
426.068	96.19
426.291	91.19
426.513	84.19
426.735	101.19
426.958	79.19
427.18	94.19
427.402	90.19
427.625	105.19
427.847	91.19
428.069	86.19
428.292	86.19
428.514	88.19
428.736	97.19
428.958	91.19
429.181	100.19
429.403	92.19
429.625	68.19
429.847	78.19
430.069	82.19
430.292	94.19
430.514	84.19
430.736	77.19
430.958	80.19
431.18	93.19
431.402	94.19
431.624	111.19
431.846	77.19
432.068	79.19
432.29	72.19
432.512	83.19
432.734	79.19
432.956	117.19
433.178	86.19
433.4	89.19
433.622	97.19
433.844	83.19
434.066	93.19
434.287	74.19
434.509	89.19
434.731	65.19
434.953	81.19
435.175	79.19
435.397	82.19
435.618	72.19
435.84	81.19
436.062	81.19
436.284	93.19
436.505	98.19
436.727	91.19
436.949	86.19
437.17	89.19
437.392	85.19
437.614	99.19
437.835	71.19
438.057	86.19
438.278	96.19
438.5	91.19
438.721	96.19
438.943	89.19
439.165	86.19
439.386	97.19
439.608	87.19
439.829	111.19
440.05	96.19
440.272	113.19
440.493	94.19
440.715	65.19
440.936	90.19
441.158	99.19
441.379	96.19
441.6	97.19
441.822	102.19
442.043	91.19
442.264	103.19
442.486	84.19
442.707	99.19
442.928	95.19
443.149	90.19
443.371	86.19
443.592	96.19
443.813	95.19
444.034	93.19
444.255	96.19
444.476	82.19
444.698	86.19
444.919	88.19
445.14	220.19
445.361	149.19
445.582	82.19
445.803	95.19
446.024	93.19
446.245	89.19
446.466	97.19
446.687	95.19
446.908	93.19
447.129	103.19
447.35	77.19
447.571	103.19
447.792	93.19
448.013	74.19
448.234	88.19
448.455	97.19
448.675	97.19
448.896	85.19
449.117	97.19
449.338	89.19
449.559	86.19
449.779	88.19
450	95.19
450.221	91.19
450.442	77.19
450.662	84.19
450.883	80.19
451.104	95.19
451.324	98.19
451.545	78.19
451.766	101.19
451.986	102.19
452.207	83.19
452.428	95.19
452.648	91.19
452.869	86.19
453.089	90.19
453.31	80.19
453.53	67.19
453.751	74.19
453.971	77.19
454.192	82.19
454.412	85.19
454.633	79.19
454.853	82.19
455.073	90.19
455.294	85.19
455.514	87.19
455.734	79.19
455.955	79.19
456.175	86.19
456.395	86.19
456.616	82.19
456.836	76.19
457.056	96.19
457.276	96.19
457.497	87.19
457.717	85.19
457.937	73.19
458.157	79.19
458.377	78.19
458.598	78.19
458.818	95.19
459.038	71.19
459.258	79.19
459.478	87.19
459.698	79.19
459.918	91.19
460.138	90.19
460.358	79.19
460.578	86.19
460.798	74.19
461.018	75.19
461.238	86.19
461.458	93.19
461.678	81.19
461.898	79.19
462.118	97.19
462.338	101.19
462.558	92.19
462.777	89.19
462.997	76.19
463.217	88.19
463.437	84.19
463.657	82.19
463.876	88.19
464.096	83.19
464.316	79.19
464.536	100.19
464.755	88.19
464.975	64.19
465.195	78.19
465.414	89.19
465.634	89.19
465.854	72.19
466.073	91.19
466.293	91.19
466.512	92.19
466.732	95.19
466.951	100.19
467.171	77.19
467.391	99.19
467.61	94.19
467.829	95.19
468.049	99.19
468.268	91.19
468.488	97.19
468.707	100.19
468.927	94.19
469.146	100.19
469.365	91.19
469.585	90.19
469.804	101.19
470.023	84.19
470.243	105.19
470.462	92.19
470.681	88.19
470.901	94.19
471.12	81.19
471.339	99.19
471.558	98.19
471.777	101.19
471.997	98.19
472.216	90.19
472.435	76.19
472.654	82.19
472.873	92.19
473.092	88.19
473.311	93.19
473.53	92.19
473.749	86.19
473.968	89.19
474.187	95.19
474.406	92.19
474.625	94.19
474.844	93.19
475.063	102.19
475.282	94.19
475.501	95.19
475.72	87.19
475.939	93.19
476.158	99.19
476.377	90.19
476.596	95.19
476.814	97.19
477.033	84.19
477.252	91.19
477.471	92.19
477.69	95.19
477.908	80.19
478.127	101.19
478.346	81.19
478.564	84.19
478.783	103.19
479.002	78.19
479.22	96.19
479.439	95.19
479.658	93.19
479.876	81.19
480.095	80.19
480.313	89.19
480.532	102.19
480.751	77.19
480.969	93.19
481.188	98.19
481.406	96.19
481.624	90.19
481.843	69.19
482.061	85.19
482.28	87.19
482.498	82.19
482.717	91.19
482.935	83.19
483.153	102.19
483.372	98.19
483.59	86.19
483.808	91.19
484.027	98.19
484.245	95.19
484.463	115.19
484.681	115.19
484.9	106.19
485.118	91.19
485.336	92.19
485.554	87.19
485.772	80.19
485.99	84.19
486.209	75.19
486.427	87.19
486.645	69.19
486.863	90.19
487.081	100.19
487.299	85.19
487.517	88.19
487.735	96.19
487.953	112.19
488.171	112.19
488.389	102.19
488.607	120.19
488.825	93.19
489.043	105.19
489.261	93.19
489.479	93.19
489.696	89.19
489.914	85.19
490.132	98.19
490.35	94.19
490.568	98.19
490.786	121.19
491.003	96.19
491.221	114.19
491.439	117.19
491.657	134.19
491.874	122.19
492.092	136.19
492.31	114.19
492.527	117.19
492.745	121.19
492.963	108.19
493.18	112.19
493.398	109.19
493.615	120.19
493.833	121.19
494.05	116.19
494.268	116.19
494.485	98.19
494.703	99.19
494.92	86.19
495.138	96.19
495.355	101.19
495.573	101.19
495.79	108.19
496.008	108.19
496.225	100.19
496.442	90.19
496.66	101.19
496.877	99.19
497.094	116.19
497.312	96.19
497.529	90.19
497.746	90.19
497.963	89.19
498.181	88.19
498.398	91.19
498.615	90.19
498.832	91.19
499.049	93.19
499.267	91.19
499.484	86.19
499.701	93.19
499.918	102.19
500.135	93.19
500.352	91.19
500.569	95.19
500.786	88.19
501.003	102.19
501.22	93.19
501.437	87.19
501.654	85.19
501.871	102.19
502.088	90.19
502.305	109.19
502.522	85.19
502.739	89.19
502.956	94.19
503.172	91.19
503.389	77.19
503.606	80.19
503.823	91.19
504.04	95.19
504.256	102.19
504.473	90.19
504.69	101.19
504.907	97.19
505.123	82.19
505.34	100.19
505.557	85.19
505.773	75.19
505.99	82.19
506.207	90.19
506.423	99.19
506.64	100.19
506.856	74.19
507.073	96.19
507.289	87.19
507.506	83.19
507.722	82.19
507.939	84.19
508.155	95.19
508.372	84.19
508.588	93.19
508.805	92.19
509.021	86.19
509.238	99.19
509.454	81.19
509.67	79.19
509.887	93.19
510.103	82.19
510.319	92.19
510.536	91.19
510.752	86.19
510.968	97.19
511.184	84.19
511.401	72.19
511.617	87.19
511.833	93.19
512.049	83.19
512.265	82.19
512.481	90.19
512.698	79.19
512.914	67.19
513.13	79.19
513.346	84.19
513.562	84.19
513.778	77.19
513.994	85.19
514.21	90.19
514.426	84.19
514.642	85.19
514.858	76.19
515.074	70.19
515.29	75.19
515.506	84.19
515.721	67.19
515.937	81.19
516.153	73.19
516.369	91.19
516.585	79.19
516.801	86.19
517.016	87.19
517.232	79.19
517.448	77.19
517.664	71.19
517.879	80.19
518.095	79.19
518.311	78.19
518.527	77.19
