Data from Location3.07152019.Energy5.Lamp.07192019.3%Agarose_HRD10591_15-16-46-268.txt Node
Date: Fri Jul 19 15:16:46 EDT 2019
User: cochatt
Spectrometer: HR+D1059
Trigger mode: 1
Integration Time (sec): 1.000000E-1
Scans to average: 1
Electric dark correction enabled: true
Nonlinearity correction enabled: false
Boxcar width: 0
XAxis mode: Wavelengths
Number of Pixels in Spectrum: 2048
>>>>>Begin Spectral Data<<<<<
223.165	-12.31
223.4	-12.31
223.635	-12.31
223.869	-19.31
224.104	-13.31
224.338	-9.31
224.573	-16.31
224.808	2.69
225.042	-7.31
225.277	-6.31
225.511	-3.31
225.746	-3.31
225.98	11.69
226.215	18.69
226.449	8.69
226.683	21.69
226.918	5.69
227.152	21.69
227.387	36.69
227.621	37.69
227.856	33.69
228.09	53.69
228.324	43.69
228.559	51.69
228.793	57.69
229.027	61.69
229.262	67.69
229.496	70.69
229.73	61.69
229.964	74.69
230.199	63.69
230.433	71.69
230.667	81.69
230.901	78.69
231.136	82.69
231.37	75.69
231.604	95.69
231.838	85.69
232.072	92.69
232.306	91.69
232.541	93.69
232.775	76.69
233.009	77.69
233.243	74.69
233.477	97.69
233.711	79.69
233.945	100.69
234.179	79.69
234.413	75.69
234.647	84.69
234.881	89.69
235.115	77.69
235.349	78.69
235.583	76.69
235.817	81.69
236.051	83.69
236.285	74.69
236.519	73.69
236.753	75.69
236.987	83.69
237.221	85.69
237.455	69.69
237.689	82.69
237.922	70.69
238.156	72.69
238.39	86.69
238.624	73.69
238.858	85.69
239.091	87.69
239.325	80.69
239.559	82.69
239.793	71.69
240.027	80.69
240.26	77.69
240.494	73.69
240.728	76.69
240.961	71.69
241.195	95.69
241.429	72.69
241.662	74.69
241.896	76.69
242.13	61.69
242.363	68.69
242.597	73.69
242.83	94.69
243.064	73.69
243.298	87.69
243.531	70.69
243.765	80.69
243.998	82.69
244.232	66.69
244.465	74.69
244.699	72.69
244.932	70.69
245.166	85.69
245.399	77.69
245.633	64.69
245.866	70.69
246.099	71.69
246.333	74.69
246.566	82.69
246.8	91.69
247.033	65.69
247.266	84.69
247.5	61.69
247.733	82.69
247.966	80.69
248.2	67.69
248.433	83.69
248.666	93.69
248.899	84.69
249.133	97.69
249.366	90.69
249.599	87.69
249.832	81.69
250.066	83.69
250.299	73.69
250.532	91.69
250.765	86.69
250.998	67.69
251.231	91.69
251.465	84.69
251.698	87.69
251.931	83.69
252.164	74.69
252.397	73.69
252.63	74.69
252.863	76.69
253.096	83.69
253.329	72.69
253.562	78.69
253.795	78.69
254.028	80.69
254.261	89.69
254.494	75.69
254.727	80.69
254.96	77.69
255.193	87.69
255.426	77.69
255.659	78.69
255.892	85.69
256.124	75.69
256.357	80.69
256.59	83.69
256.823	84.69
257.056	85.69
257.289	98.69
257.521	94.69
257.754	82.69
257.987	85.69
258.22	83.69
258.452	79.69
258.685	84.69
258.918	73.69
259.151	89.69
259.383	80.69
259.616	91.69
259.849	85.69
260.081	78.69
260.314	78.69
260.547	80.69
260.779	85.69
261.012	74.69
261.244	89.69
261.477	86.69
261.71	84.69
261.942	92.69
262.175	83.69
262.407	101.69
262.64	75.69
262.872	99.69
263.105	71.69
263.337	79.69
263.57	92.69
263.802	83.69
264.035	92.69
264.267	75.69
264.499	64.69
264.732	73.69
264.964	83.69
265.197	90.69
265.429	81.69
265.661	88.69
265.894	89.69
266.126	77.69
266.358	73.69
266.591	73.69
266.823	72.69
267.055	64.69
267.287	88.69
267.52	95.69
267.752	85.69
267.984	78.69
268.216	83.69
268.448	63.69
268.681	74.69
268.913	73.69
269.145	90.69
269.377	95.69
269.609	87.69
269.841	73.69
270.073	88.69
270.306	83.69
270.538	91.69
270.77	92.69
271.002	91.69
271.234	79.69
271.466	77.69
271.698	72.69
271.93	83.69
272.162	88.69
272.394	79.69
272.626	76.69
272.858	91.69
273.09	93.69
273.322	108.69
273.553	72.69
273.785	75.69
274.017	85.69
274.249	94.69
274.481	81.69
274.713	87.69
274.945	77.69
275.176	91.69
275.408	69.69
275.64	71.69
275.872	84.69
276.104	92.69
276.335	76.69
276.567	79.69
276.799	93.69
277.031	74.69
277.262	73.69
277.494	81.69
277.726	82.69
277.957	108.69
278.189	77.69
278.421	69.69
278.652	85.69
278.884	79.69
279.115	89.69
279.347	102.69
279.579	85.69
279.81	91.69
280.042	87.69
280.273	89.69
280.505	74.69
280.736	87.69
280.968	81.69
281.199	80.69
281.431	80.69
281.662	85.69
281.894	92.69
282.125	89.69
282.356	92.69
282.588	90.69
282.819	73.69
283.051	84.69
283.282	74.69
283.513	83.69
283.745	96.69
283.976	85.69
284.207	88.69
284.439	104.69
284.67	98.69
284.901	88.69
285.132	97.69
285.364	84.69
285.595	85.69
285.826	90.69
286.057	97.69
286.288	98.69
286.52	79.69
286.751	94.69
286.982	77.69
287.213	73.69
287.444	82.69
287.675	91.69
287.906	82.69
288.138	81.69
288.369	83.69
288.6	79.69
288.831	76.69
289.062	86.69
289.293	86.69
289.524	102.69
289.755	87.69
289.986	96.69
290.217	84.69
290.448	91.69
290.679	89.69
290.91	89.69
291.141	75.69
291.371	100.69
291.602	76.69
291.833	93.69
292.064	86.69
292.295	89.69
292.526	96.69
292.757	83.69
292.987	89.69
293.218	91.69
293.449	89.69
293.68	81.69
293.91	84.69
294.141	85.69
294.372	72.69
294.603	85.69
294.833	93.69
295.064	87.69
295.295	73.69
295.525	85.69
295.756	81.69
295.987	89.69
296.217	80.69
296.448	88.69
296.679	76.69
296.909	85.69
297.14	83.69
297.37	90.69
297.601	86.69
297.831	96.69
298.062	69.69
298.292	96.69
298.523	81.69
298.753	75.69
298.984	83.69
299.214	85.69
299.445	82.69
299.675	78.69
299.905	80.69
300.136	78.69
300.366	70.69
300.597	98.69
300.827	89.69
301.057	88.69
301.288	95.69
301.518	98.69
301.748	94.69
301.979	80.69
302.209	82.69
302.439	81.69
302.669	97.69
302.9	100.69
303.13	83.69
303.36	87.69
303.59	82.69
303.82	91.69
304.051	93.69
304.281	82.69
304.511	80.69
304.741	90.69
304.971	89.69
305.201	94.69
305.431	99.69
305.661	103.69
305.891	105.69
306.121	102.69
306.352	105.69
306.582	84.69
306.812	89.69
307.042	83.69
307.272	73.69
307.502	85.69
307.731	86.69
307.961	80.69
308.191	83.69
308.421	75.69
308.651	92.69
308.881	83.69
309.111	76.69
309.341	91.69
309.571	87.69
309.8	77.69
310.03	84.69
310.26	89.69
310.49	78.69
310.72	76.69
310.949	91.69
311.179	84.69
311.409	91.69
311.639	90.69
311.868	76.69
312.098	83.69
312.328	85.69
312.557	80.69
312.787	87.69
313.017	83.69
313.246	92.69
313.476	74.69
313.706	93.69
313.935	77.69
314.165	80.69
314.394	100.69
314.624	103.69
314.853	83.69
315.083	87.69
315.312	105.69
315.542	76.69
315.771	92.69
316.001	89.69
316.23	89.69
316.46	77.69
316.689	83.69
316.919	83.69
317.148	70.69
317.377	84.69
317.607	96.69
317.836	87.69
318.065	96.69
318.295	84.69
318.524	77.69
318.753	96.69
318.983	95.69
319.212	84.69
319.441	80.69
319.67	98.69
319.9	106.69
320.129	100.69
320.358	87.69
320.587	92.69
320.816	90.69
321.046	90.69
321.275	91.69
321.504	82.69
321.733	90.69
321.962	94.69
322.191	86.69
322.42	91.69
322.649	81.69
322.878	95.69
323.108	92.69
323.337	80.69
323.566	93.69
323.795	94.69
324.024	95.69
324.253	72.69
324.482	99.69
324.71	72.69
324.939	117.69
325.168	97.69
325.397	85.69
325.626	83.69
325.855	98.69
326.084	77.69
326.313	84.69
326.542	79.69
326.77	87.69
326.999	84.69
327.228	99.69
327.457	69.69
327.686	81.69
327.914	84.69
328.143	82.69
328.372	81.69
328.6	82.69
328.829	85.69
329.058	82.69
329.287	69.69
329.515	83.69
329.744	76.69
329.972	76.69
330.201	75.69
330.43	92.69
330.658	93.69
330.887	100.69
331.115	87.69
331.344	77.69
331.572	95.69
331.801	86.69
332.03	82.69
332.258	85.69
332.486	97.69
332.715	87.69
332.943	74.69
333.172	81.69
333.4	91.69
333.629	84.69
333.857	86.69
334.085	82.69
334.314	80.69
334.542	72.69
334.771	74.69
334.999	77.69
335.227	92.69
335.455	93.69
335.684	86.69
335.912	87.69
336.14	92.69
336.369	88.69
336.597	84.69
336.825	89.69
337.053	85.69
337.281	95.69
337.51	82.69
337.738	94.69
337.966	81.69
338.194	92.69
338.422	88.69
338.65	91.69
338.878	96.69
339.106	87.69
339.334	81.69
339.562	96.69
339.79	87.69
340.018	76.69
340.246	85.69
340.474	98.69
340.702	87.69
340.93	96.69
341.158	81.69
341.386	92.69
341.614	88.69
341.842	97.69
342.07	84.69
342.298	95.69
342.526	93.69
342.754	81.69
342.981	96.69
343.209	82.69
343.437	91.69
343.665	102.69
343.893	84.69
344.12	90.69
344.348	86.69
344.576	81.69
344.804	95.69
345.031	80.69
345.259	88.69
345.487	88.69
345.714	89.69
345.942	80.69
346.17	85.69
346.397	73.69
346.625	89.69
346.853	100.69
347.08	81.69
347.308	85.69
347.535	86.69
347.763	89.69
347.99	80.69
348.218	87.69
348.445	82.69
348.673	86.69
348.9	90.69
349.128	80.69
349.355	102.69
349.583	80.69
349.81	89.69
350.037	87.69
350.265	84.69
350.492	85.69
350.72	81.69
350.947	96.69
351.174	85.69
351.402	84.69
351.629	76.69
351.856	83.69
352.083	83.69
352.311	100.69
352.538	79.69
352.765	90.69
352.992	88.69
353.22	75.69
353.447	84.69
353.674	86.69
353.901	93.69
354.128	90.69
354.355	87.69
354.583	76.69
354.81	84.69
355.037	94.69
355.264	87.69
355.491	76.69
355.718	89.69
355.945	77.69
356.172	81.69
356.399	74.69
356.626	65.69
356.853	86.69
357.08	97.69
357.307	101.69
357.534	90.69
357.761	94.69
357.988	89.69
358.215	78.69
358.441	84.69
358.668	89.69
358.895	91.69
359.122	91.69
359.349	69.69
359.576	81.69
359.802	77.69
360.029	88.69
360.256	84.69
360.483	82.69
360.709	71.69
360.936	91.69
361.163	76.69
361.39	83.69
361.616	90.69
361.843	84.69
362.07	90.69
362.296	98.69
362.523	92.69
362.749	90.69
362.976	94.69
363.203	82.69
363.429	88.69
363.656	64.69
363.882	74.69
364.109	87.69
364.335	68.69
364.562	85.69
364.788	91.69
365.015	80.69
365.241	99.69
365.468	96.69
365.694	87.69
365.92	75.69
366.147	80.69
366.373	90.69
366.599	90.69
366.826	76.69
367.052	79.69
367.278	88.69
367.505	93.69
367.731	73.69
367.957	72.69
368.184	92.69
368.41	79.69
368.636	84.69
368.862	83.69
369.089	81.69
369.315	83.69
369.541	88.69
369.767	86.69
369.993	87.69
370.219	83.69
370.445	96.69
370.672	84.69
370.898	86.69
371.124	75.69
371.35	80.69
371.576	81.69
371.802	76.69
372.028	81.69
372.254	84.69
372.48	72.69
372.706	88.69
372.932	72.69
373.158	90.69
373.384	92.69
373.61	96.69
373.835	86.69
374.061	80.69
374.287	91.69
374.513	87.69
374.739	72.69
374.965	80.69
375.191	83.69
375.416	85.69
375.642	94.69
375.868	83.69
376.094	100.69
376.319	85.69
376.545	78.69
376.771	86.69
376.997	84.69
377.222	87.69
377.448	86.69
377.674	72.69
377.899	84.69
378.125	89.69
378.35	88.69
378.576	95.69
378.802	81.69
379.027	82.69
379.253	83.69
379.478	76.69
379.704	86.69
379.929	90.69
380.155	102.69
380.38	77.69
380.606	99.69
380.831	87.69
381.057	105.69
381.282	71.69
381.507	86.69
381.733	79.69
381.958	84.69
382.184	90.69
382.409	87.69
382.634	94.69
382.86	85.69
383.085	95.69
383.31	64.69
383.535	102.69
383.761	94.69
383.986	87.69
384.211	89.69
384.436	72.69
384.662	81.69
384.887	81.69
385.112	92.69
385.337	92.69
385.562	93.69
385.787	97.69
386.013	95.69
386.238	77.69
386.463	82.69
386.688	94.69
386.913	95.69
387.138	91.69
387.363	89.69
387.588	100.69
387.813	83.69
388.038	95.69
388.263	91.69
388.488	77.69
388.713	86.69
388.938	83.69
389.163	96.69
389.387	83.69
389.612	79.69
389.837	95.69
390.062	91.69
390.287	81.69
390.512	96.69
390.736	80.69
390.961	85.69
391.186	87.69
391.411	81.69
391.636	83.69
391.86	89.69
392.085	93.69
392.31	87.69
392.534	84.69
392.759	88.69
392.984	88.69
393.208	97.69
393.433	89.69
393.658	92.69
393.882	98.69
394.107	82.69
394.331	85.69
394.556	99.69
394.78	88.69
395.005	91.69
395.229	85.69
395.454	81.69
395.678	69.69
395.903	85.69
396.127	98.69
396.352	80.69
396.576	96.69
396.801	96.69
397.025	73.69
397.249	94.69
397.474	89.69
397.698	85.69
397.922	90.69
398.147	99.69
398.371	92.69
398.595	93.69
398.82	85.69
399.044	76.69
399.268	89.69
399.492	91.69
399.717	86.69
399.941	95.69
400.165	95.69
400.389	90.69
400.613	81.69
400.837	83.69
401.062	88.69
401.286	101.69
401.51	86.69
401.734	92.69
401.958	97.69
402.182	96.69
402.406	89.69
402.63	80.69
402.854	90.69
403.078	95.69
403.302	88.69
403.526	72.69
403.75	100.69
403.974	91.69
404.198	88.69
404.422	106.69
404.645	93.69
404.869	95.69
405.093	93.69
405.317	86.69
405.541	89.69
405.765	100.69
405.988	84.69
406.212	83.69
406.436	89.69
406.66	86.69
406.883	103.69
407.107	91.69
407.331	88.69
407.555	103.69
407.778	99.69
408.002	87.69
408.226	105.69
408.449	91.69
408.673	80.69
408.896	97.69
409.12	97.69
409.344	91.69
409.567	96.69
409.791	88.69
410.014	89.69
410.238	94.69
410.461	81.69
410.685	92.69
410.908	96.69
411.132	96.69
411.355	92.69
411.578	98.69
411.802	103.69
412.025	82.69
412.249	81.69
412.472	90.69
412.695	90.69
412.919	87.69
413.142	105.69
413.365	94.69
413.589	87.69
413.812	95.69
414.035	104.69
414.258	113.69
414.482	100.69
414.705	86.69
414.928	88.69
415.151	86.69
415.374	86.69
415.597	96.69
415.821	107.69
416.044	95.69
416.267	87.69
416.49	86.69
416.713	92.69
416.936	108.69
417.159	100.69
417.382	79.69
417.605	95.69
417.828	85.69
418.051	91.69
418.274	91.69
418.497	107.69
418.72	87.69
418.943	100.69
419.166	101.69
419.389	81.69
419.611	96.69
419.834	93.69
420.057	90.69
420.28	96.69
420.503	99.69
420.726	95.69
420.948	83.69
421.171	96.69
421.394	81.69
421.617	107.69
421.839	80.69
422.062	99.69
422.285	90.69
422.507	96.69
422.73	92.69
422.953	111.69
423.175	100.69
423.398	91.69
423.621	95.69
423.843	89.69
424.066	92.69
424.288	100.69
424.511	92.69
424.733	85.69
424.956	96.69
425.178	91.69
425.401	101.69
425.623	103.69
425.846	106.69
426.068	91.69
426.291	100.69
426.513	83.69
426.735	95.69
426.958	96.69
427.18	100.69
427.402	102.69
427.625	94.69
427.847	94.69
428.069	87.69
428.292	89.69
428.514	91.69
428.736	94.69
428.958	88.69
429.181	107.69
429.403	99.69
429.625	83.69
429.847	87.69
430.069	113.69
430.292	96.69
430.514	95.69
430.736	97.69
430.958	106.69
431.18	95.69
431.402	91.69
431.624	88.69
431.846	88.69
432.068	78.69
432.29	97.69
432.512	82.69
432.734	107.69
432.956	101.69
433.178	112.69
433.4	97.69
433.622	96.69
433.844	106.69
434.066	96.69
434.287	99.69
434.509	87.69
434.731	85.69
434.953	82.69
435.175	93.69
435.397	90.69
435.618	113.69
435.84	98.69
436.062	95.69
436.284	85.69
436.505	89.69
436.727	81.69
436.949	88.69
437.17	93.69
437.392	88.69
437.614	106.69
437.835	73.69
438.057	87.69
438.278	88.69
438.5	86.69
438.721	76.69
438.943	87.69
439.165	98.69
439.386	95.69
439.608	86.69
439.829	102.69
440.05	105.69
440.272	100.69
440.493	83.69
440.715	101.69
440.936	93.69
441.158	100.69
441.379	100.69
441.6	95.69
441.822	96.69
442.043	113.69
442.264	106.69
442.486	111.69
442.707	85.69
442.928	93.69
443.149	108.69
443.371	105.69
443.592	89.69
443.813	103.69
444.034	105.69
444.255	98.69
444.476	100.69
444.698	94.69
444.919	97.69
445.14	182.69
445.361	132.69
445.582	89.69
445.803	103.69
446.024	111.69
446.245	103.69
446.466	101.69
446.687	106.69
446.908	98.69
447.129	113.69
447.35	99.69
447.571	98.69
447.792	96.69
448.013	113.69
448.234	101.69
448.455	83.69
448.675	83.69
448.896	81.69
449.117	100.69
449.338	95.69
449.559	92.69
449.779	108.69
450	94.69
450.221	101.69
450.442	103.69
450.662	89.69
450.883	104.69
451.104	107.69
451.324	98.69
451.545	106.69
451.766	97.69
451.986	92.69
452.207	94.69
452.428	93.69
452.648	96.69
452.869	96.69
453.089	90.69
453.31	83.69
453.53	95.69
453.751	96.69
453.971	95.69
454.192	76.69
454.412	84.69
454.633	89.69
454.853	91.69
455.073	88.69
455.294	91.69
455.514	95.69
455.734	92.69
455.955	89.69
456.175	83.69
456.395	86.69
456.616	102.69
456.836	99.69
457.056	94.69
457.276	88.69
457.497	88.69
457.717	114.69
457.937	95.69
458.157	80.69
458.377	86.69
458.598	88.69
458.818	81.69
459.038	83.69
459.258	93.69
459.478	81.69
459.698	88.69
459.918	88.69
460.138	92.69
460.358	91.69
460.578	83.69
460.798	90.69
461.018	95.69
461.238	92.69
461.458	86.69
461.678	96.69
461.898	86.69
462.118	90.69
462.338	85.69
462.558	91.69
462.777	101.69
462.997	96.69
463.217	92.69
463.437	86.69
463.657	91.69
463.876	102.69
464.096	96.69
464.316	90.69
464.536	99.69
464.755	98.69
464.975	85.69
465.195	91.69
465.414	91.69
465.634	88.69
465.854	96.69
466.073	99.69
466.293	94.69
466.512	96.69
466.732	95.69
466.951	93.69
467.171	102.69
467.391	102.69
467.61	106.69
467.829	106.69
468.049	99.69
468.268	107.69
468.488	94.69
468.707	103.69
468.927	86.69
469.146	100.69
469.365	106.69
469.585	72.69
469.804	97.69
470.023	97.69
470.243	98.69
470.462	91.69
470.681	107.69
470.901	108.69
471.12	87.69
471.339	103.69
471.558	82.69
471.777	87.69
471.997	103.69
472.216	92.69
472.435	95.69
472.654	91.69
472.873	96.69
473.092	81.69
473.311	98.69
473.53	85.69
473.749	109.69
473.968	84.69
474.187	97.69
474.406	95.69
474.625	98.69
474.844	100.69
475.063	103.69
475.282	95.69
475.501	84.69
475.72	115.69
475.939	92.69
476.158	114.69
476.377	85.69
476.596	104.69
476.814	80.69
477.033	74.69
477.252	86.69
477.471	88.69
477.69	100.69
477.908	114.69
478.127	107.69
478.346	103.69
478.564	102.69
478.783	107.69
479.002	104.69
479.22	100.69
479.439	104.69
479.658	81.69
479.876	98.69
480.095	94.69
480.313	96.69
480.532	85.69
480.751	106.69
480.969	100.69
481.188	93.69
481.406	91.69
481.624	66.69
481.843	77.69
482.061	93.69
482.28	87.69
482.498	87.69
482.717	92.69
482.935	86.69
483.153	100.69
483.372	109.69
483.59	99.69
483.808	114.69
484.027	103.69
484.245	93.69
484.463	95.69
484.681	101.69
484.9	119.69
485.118	115.69
485.336	101.69
485.554	103.69
485.772	85.69
485.99	73.69
486.209	102.69
486.427	90.69
486.645	96.69
486.863	93.69
487.081	91.69
487.299	85.69
487.517	100.69
487.735	111.69
487.953	109.69
488.171	106.69
488.389	102.69
488.607	97.69
488.825	104.69
489.043	101.69
489.261	102.69
489.479	99.69
489.696	92.69
489.914	105.69
490.132	116.69
490.35	97.69
490.568	110.69
490.786	109.69
491.003	107.69
491.221	115.69
491.439	106.69
491.657	112.69
491.874	123.69
492.092	120.69
492.31	136.69
492.527	122.69
492.745	117.69
492.963	107.69
493.18	119.69
493.398	111.69
493.615	104.69
493.833	121.69
494.05	107.69
494.268	115.69
494.485	125.69
494.703	112.69
494.92	111.69
495.138	118.69
495.355	115.69
495.573	112.69
495.79	119.69
496.008	119.69
496.225	115.69
496.442	111.69
496.66	106.69
496.877	99.69
497.094	115.69
497.312	106.69
497.529	99.69
497.746	101.69
497.963	100.69
498.181	76.69
498.398	98.69
498.615	90.69
498.832	93.69
499.049	89.69
499.267	97.69
499.484	99.69
499.701	94.69
499.918	105.69
500.135	98.69
500.352	98.69
500.569	98.69
500.786	97.69
501.003	91.69
501.22	91.69
501.437	106.69
501.654	104.69
501.871	103.69
502.088	99.69
502.305	95.69
502.522	91.69
502.739	99.69
502.956	87.69
503.172	98.69
503.389	97.69
503.606	92.69
503.823	95.69
504.04	84.69
504.256	112.69
504.473	98.69
504.69	93.69
504.907	97.69
505.123	83.69
505.34	91.69
505.557	97.69
505.773	102.69
505.99	106.69
506.207	87.69
506.423	90.69
506.64	108.69
506.856	97.69
507.073	88.69
507.289	102.69
507.506	92.69
507.722	97.69
507.939	85.69
508.155	97.69
508.372	84.69
508.588	95.69
508.805	101.69
509.021	95.69
509.238	87.69
509.454	96.69
509.67	84.69
509.887	98.69
510.103	80.69
510.319	82.69
510.536	85.69
510.752	88.69
510.968	100.69
511.184	82.69
511.401	80.69
511.617	82.69
511.833	95.69
512.049	85.69
512.265	75.69
512.481	83.69
512.698	98.69
512.914	75.69
513.13	88.69
513.346	74.69
513.562	81.69
513.778	86.69
513.994	104.69
514.21	107.69
514.426	96.69
514.642	86.69
514.858	97.69
515.074	92.69
515.29	70.69
515.506	86.69
515.721	96.69
515.937	83.69
516.153	100.69
516.369	85.69
516.585	67.69
516.801	79.69
