Data from Location3.07152019.Energy5.Lamp.07192019.3%Agarose_HRD10591_15-17-34-269.txt Node
Date: Fri Jul 19 15:17:34 EDT 2019
User: cochatt
Spectrometer: HR+D1059
Trigger mode: 1
Integration Time (sec): 1.000000E-1
Scans to average: 1
Electric dark correction enabled: true
Nonlinearity correction enabled: false
Boxcar width: 0
XAxis mode: Wavelengths
Number of Pixels in Spectrum: 2048
>>>>>Begin Spectral Data<<<<<
223.165	-17.75
223.4	-17.75
223.635	-17.75
223.869	-15.75
224.104	-12.75
224.338	-18.75
224.573	-23.75
224.808	-6.75
225.042	8.25
225.277	-6.75
225.511	-12.75
225.746	4.25
225.98	12.25
226.215	5.25
226.449	11.25
226.683	17.25
226.918	26.25
227.152	30.25
227.387	26.25
227.621	33.25
227.856	33.25
228.09	42.25
228.324	67.25
228.559	69.25
228.793	52.25
229.027	59.25
229.262	59.25
229.496	55.25
229.73	75.25
229.964	85.25
230.199	79.25
230.433	80.25
230.667	76.25
230.901	84.25
231.136	75.25
231.37	88.25
231.604	78.25
231.838	73.25
232.072	85.25
232.306	94.25
232.541	83.25
232.775	85.25
233.009	77.25
233.243	82.25
233.477	72.25
233.711	76.25
233.945	89.25
234.179	81.25
234.413	94.25
234.647	85.25
234.881	66.25
235.115	78.25
235.349	82.25
235.583	96.25
235.817	73.25
236.051	84.25
236.285	75.25
236.519	80.25
236.753	72.25
236.987	80.25
237.221	83.25
237.455	65.25
237.689	61.25
237.922	83.25
238.156	75.25
238.39	81.25
238.624	60.25
238.858	69.25
239.091	67.25
239.325	65.25
239.559	67.25
239.793	86.25
240.027	76.25
240.26	62.25
240.494	71.25
240.728	58.25
240.961	78.25
241.195	84.25
241.429	75.25
241.662	67.25
241.896	74.25
242.13	81.25
242.363	72.25
242.597	76.25
242.83	97.25
243.064	73.25
243.298	71.25
243.531	86.25
243.765	75.25
243.998	82.25
244.232	91.25
244.465	77.25
244.699	82.25
244.932	88.25
245.166	82.25
245.399	87.25
245.633	70.25
245.866	85.25
246.099	91.25
246.333	74.25
246.566	75.25
246.8	72.25
247.033	85.25
247.266	81.25
247.5	82.25
247.733	71.25
247.966	79.25
248.2	69.25
248.433	91.25
248.666	76.25
248.899	78.25
249.133	88.25
249.366	71.25
249.599	81.25
249.832	70.25
250.066	88.25
250.299	72.25
250.532	78.25
250.765	77.25
250.998	89.25
251.231	74.25
251.465	71.25
251.698	72.25
251.931	89.25
252.164	64.25
252.397	74.25
252.63	86.25
252.863	81.25
253.096	87.25
253.329	75.25
253.562	67.25
253.795	65.25
254.028	89.25
254.261	82.25
254.494	91.25
254.727	85.25
254.96	77.25
255.193	77.25
255.426	80.25
255.659	87.25
255.892	83.25
256.124	78.25
256.357	79.25
256.59	78.25
256.823	82.25
257.056	96.25
257.289	86.25
257.521	81.25
257.754	78.25
257.987	87.25
258.22	78.25
258.452	83.25
258.685	67.25
258.918	65.25
259.151	81.25
259.383	87.25
259.616	101.25
259.849	79.25
260.081	87.25
260.314	69.25
260.547	84.25
260.779	79.25
261.012	80.25
261.244	96.25
261.477	83.25
261.71	81.25
261.942	88.25
262.175	83.25
262.407	73.25
262.64	66.25
262.872	87.25
263.105	78.25
263.337	88.25
263.57	69.25
263.802	85.25
264.035	94.25
264.267	75.25
264.499	93.25
264.732	76.25
264.964	74.25
265.197	89.25
265.429	87.25
265.661	90.25
265.894	82.25
266.126	75.25
266.358	85.25
266.591	80.25
266.823	70.25
267.055	80.25
267.287	85.25
267.52	79.25
267.752	72.25
267.984	74.25
268.216	89.25
268.448	87.25
268.681	83.25
268.913	65.25
269.145	88.25
269.377	82.25
269.609	87.25
269.841	70.25
270.073	87.25
270.306	80.25
270.538	85.25
270.77	83.25
271.002	94.25
271.234	98.25
271.466	69.25
271.698	73.25
271.93	81.25
272.162	85.25
272.394	72.25
272.626	80.25
272.858	70.25
273.09	81.25
273.322	83.25
273.553	78.25
273.785	78.25
274.017	76.25
274.249	60.25
274.481	74.25
274.713	80.25
274.945	90.25
275.176	66.25
275.408	97.25
275.64	89.25
275.872	85.25
276.104	70.25
276.335	79.25
276.567	87.25
276.799	85.25
277.031	77.25
277.262	75.25
277.494	85.25
277.726	71.25
277.957	86.25
278.189	87.25
278.421	73.25
278.652	90.25
278.884	83.25
279.115	74.25
279.347	77.25
279.579	97.25
279.81	81.25
280.042	69.25
280.273	84.25
280.505	66.25
280.736	89.25
280.968	89.25
281.199	76.25
281.431	89.25
281.662	93.25
281.894	77.25
282.125	77.25
282.356	88.25
282.588	88.25
282.819	58.25
283.051	78.25
283.282	89.25
283.513	86.25
283.745	82.25
283.976	94.25
284.207	86.25
284.439	78.25
284.67	82.25
284.901	93.25
285.132	75.25
285.364	87.25
285.595	83.25
285.826	93.25
286.057	76.25
286.288	84.25
286.52	88.25
286.751	91.25
286.982	81.25
287.213	70.25
287.444	99.25
287.675	91.25
287.906	79.25
288.138	91.25
288.369	77.25
288.6	80.25
288.831	78.25
289.062	98.25
289.293	93.25
289.524	89.25
289.755	82.25
289.986	79.25
290.217	85.25
290.448	92.25
290.679	88.25
290.91	86.25
291.141	84.25
291.371	94.25
291.602	88.25
291.833	90.25
292.064	92.25
292.295	79.25
292.526	78.25
292.757	86.25
292.987	86.25
293.218	87.25
293.449	84.25
293.68	96.25
293.91	87.25
294.141	85.25
294.372	80.25
294.603	74.25
294.833	80.25
295.064	91.25
295.295	87.25
295.525	72.25
295.756	90.25
295.987	86.25
296.217	70.25
296.448	75.25
296.679	88.25
296.909	80.25
297.14	77.25
297.37	84.25
297.601	79.25
297.831	89.25
298.062	93.25
298.292	77.25
298.523	76.25
298.753	87.25
298.984	85.25
299.214	76.25
299.445	75.25
299.675	83.25
299.905	88.25
300.136	76.25
300.366	71.25
300.597	78.25
300.827	75.25
301.057	82.25
301.288	87.25
301.518	73.25
301.748	75.25
301.979	79.25
302.209	82.25
302.439	89.25
302.669	85.25
302.9	75.25
303.13	87.25
303.36	88.25
303.59	73.25
303.82	75.25
304.051	90.25
304.281	84.25
304.511	81.25
304.741	101.25
304.971	87.25
305.201	87.25
305.431	87.25
305.661	75.25
305.891	89.25
306.121	77.25
306.352	81.25
306.582	86.25
306.812	90.25
307.042	77.25
307.272	79.25
307.502	94.25
307.731	78.25
307.961	78.25
308.191	68.25
308.421	86.25
308.651	79.25
308.881	90.25
309.111	83.25
309.341	91.25
309.571	77.25
309.8	68.25
310.03	79.25
310.26	91.25
310.49	95.25
310.72	67.25
310.949	85.25
311.179	74.25
311.409	82.25
311.639	86.25
311.868	71.25
312.098	80.25
312.328	74.25
312.557	88.25
312.787	96.25
313.017	83.25
313.246	90.25
313.476	78.25
313.706	83.25
313.935	90.25
314.165	90.25
314.394	87.25
314.624	88.25
314.853	72.25
315.083	84.25
315.312	89.25
315.542	83.25
315.771	80.25
316.001	95.25
316.23	94.25
316.46	86.25
316.689	76.25
316.919	75.25
317.148	77.25
317.377	87.25
317.607	74.25
317.836	72.25
318.065	82.25
318.295	84.25
318.524	80.25
318.753	90.25
318.983	80.25
319.212	73.25
319.441	71.25
319.67	85.25
319.9	97.25
320.129	71.25
320.358	85.25
320.587	93.25
320.816	81.25
321.046	73.25
321.275	78.25
321.504	77.25
321.733	87.25
321.962	75.25
322.191	90.25
322.42	88.25
322.649	81.25
322.878	84.25
323.108	73.25
323.337	72.25
323.566	89.25
323.795	88.25
324.024	76.25
324.253	89.25
324.482	79.25
324.71	77.25
324.939	83.25
325.168	81.25
325.397	79.25
325.626	74.25
325.855	78.25
326.084	89.25
326.313	81.25
326.542	77.25
326.77	101.25
326.999	90.25
327.228	87.25
327.457	83.25
327.686	80.25
327.914	71.25
328.143	87.25
328.372	77.25
328.6	80.25
328.829	72.25
329.058	67.25
329.287	82.25
329.515	78.25
329.744	81.25
329.972	86.25
330.201	94.25
330.43	83.25
330.658	70.25
330.887	85.25
331.115	85.25
331.344	85.25
331.572	83.25
331.801	86.25
332.03	83.25
332.258	85.25
332.486	74.25
332.715	77.25
332.943	69.25
333.172	71.25
333.4	78.25
333.629	79.25
333.857	78.25
334.085	72.25
334.314	76.25
334.542	90.25
334.771	81.25
334.999	81.25
335.227	81.25
335.455	88.25
335.684	84.25
335.912	75.25
336.14	89.25
336.369	76.25
336.597	99.25
336.825	87.25
337.053	83.25
337.281	75.25
337.51	91.25
337.738	89.25
337.966	89.25
338.194	91.25
338.422	85.25
338.65	84.25
338.878	82.25
339.106	95.25
339.334	80.25
339.562	83.25
339.79	85.25
340.018	91.25
340.246	91.25
340.474	87.25
340.702	71.25
340.93	90.25
341.158	74.25
341.386	66.25
341.614	79.25
341.842	80.25
342.07	90.25
342.298	81.25
342.526	73.25
342.754	86.25
342.981	87.25
343.209	86.25
343.437	87.25
343.665	90.25
343.893	88.25
344.12	77.25
344.348	74.25
344.576	82.25
344.804	70.25
345.031	89.25
345.259	77.25
345.487	79.25
345.714	83.25
345.942	74.25
346.17	77.25
346.397	85.25
346.625	88.25
346.853	86.25
347.08	98.25
347.308	89.25
347.535	84.25
347.763	74.25
347.99	77.25
348.218	79.25
348.445	89.25
348.673	82.25
348.9	65.25
349.128	89.25
349.355	72.25
349.583	75.25
349.81	80.25
350.037	91.25
350.265	79.25
350.492	79.25
350.72	91.25
350.947	69.25
351.174	64.25
351.402	85.25
351.629	69.25
351.856	76.25
352.083	83.25
352.311	85.25
352.538	79.25
352.765	70.25
352.992	77.25
353.22	96.25
353.447	79.25
353.674	85.25
353.901	88.25
354.128	71.25
354.355	85.25
354.583	93.25
354.81	92.25
355.037	87.25
355.264	92.25
355.491	74.25
355.718	73.25
355.945	84.25
356.172	90.25
356.399	78.25
356.626	78.25
356.853	93.25
357.08	82.25
357.307	79.25
357.534	88.25
357.761	64.25
357.988	77.25
358.215	78.25
358.441	77.25
358.668	84.25
358.895	83.25
359.122	79.25
359.349	79.25
359.576	68.25
359.802	72.25
360.029	78.25
360.256	83.25
360.483	75.25
360.709	70.25
360.936	87.25
361.163	81.25
361.39	76.25
361.616	90.25
361.843	88.25
362.07	78.25
362.296	72.25
362.523	73.25
362.749	100.25
362.976	92.25
363.203	96.25
363.429	84.25
363.656	88.25
363.882	78.25
364.109	82.25
364.335	88.25
364.562	78.25
364.788	66.25
365.015	83.25
365.241	74.25
365.468	88.25
365.694	72.25
365.92	79.25
366.147	83.25
366.373	93.25
366.599	86.25
366.826	74.25
367.052	98.25
367.278	87.25
367.505	88.25
367.731	83.25
367.957	90.25
368.184	80.25
368.41	76.25
368.636	80.25
368.862	88.25
369.089	72.25
369.315	81.25
369.541	63.25
369.767	86.25
369.993	80.25
370.219	85.25
370.445	92.25
370.672	79.25
370.898	67.25
371.124	80.25
371.35	79.25
371.576	82.25
371.802	101.25
372.028	88.25
372.254	74.25
372.48	94.25
372.706	80.25
372.932	77.25
373.158	79.25
373.384	90.25
373.61	82.25
373.835	75.25
374.061	72.25
374.287	94.25
374.513	91.25
374.739	88.25
374.965	81.25
375.191	87.25
375.416	84.25
375.642	73.25
375.868	79.25
376.094	83.25
376.319	82.25
376.545	75.25
376.771	76.25
376.997	67.25
377.222	73.25
377.448	79.25
377.674	78.25
377.899	77.25
378.125	73.25
378.35	74.25
378.576	82.25
378.802	81.25
379.027	84.25
379.253	92.25
379.478	80.25
379.704	87.25
379.929	94.25
380.155	70.25
380.38	81.25
380.606	76.25
380.831	96.25
381.057	94.25
381.282	91.25
381.507	74.25
381.733	81.25
381.958	76.25
382.184	87.25
382.409	86.25
382.634	98.25
382.86	87.25
383.085	79.25
383.31	84.25
383.535	85.25
383.761	90.25
383.986	85.25
384.211	86.25
384.436	82.25
384.662	89.25
384.887	85.25
385.112	86.25
385.337	81.25
385.562	80.25
385.787	89.25
386.013	85.25
386.238	76.25
386.463	77.25
386.688	76.25
386.913	86.25
387.138	87.25
387.363	103.25
387.588	97.25
387.813	84.25
388.038	89.25
388.263	82.25
388.488	75.25
388.713	83.25
388.938	77.25
389.163	74.25
389.387	79.25
389.612	80.25
389.837	78.25
390.062	85.25
390.287	76.25
390.512	83.25
390.736	95.25
390.961	84.25
391.186	97.25
391.411	82.25
391.636	77.25
391.86	86.25
392.085	90.25
392.31	93.25
392.534	82.25
392.759	83.25
392.984	89.25
393.208	83.25
393.433	83.25
393.658	77.25
393.882	83.25
394.107	69.25
394.331	73.25
394.556	94.25
394.78	88.25
395.005	104.25
395.229	94.25
395.454	98.25
395.678	100.25
395.903	96.25
396.127	87.25
396.352	81.25
396.576	85.25
396.801	90.25
397.025	85.25
397.249	82.25
397.474	88.25
397.698	66.25
397.922	91.25
398.147	76.25
398.371	86.25
398.595	94.25
398.82	97.25
399.044	87.25
399.268	86.25
399.492	70.25
399.717	90.25
399.941	94.25
400.165	89.25
400.389	89.25
400.613	94.25
400.837	83.25
401.062	79.25
401.286	97.25
401.51	89.25
401.734	98.25
401.958	94.25
402.182	91.25
402.406	91.25
402.63	80.25
402.854	67.25
403.078	75.25
403.302	89.25
403.526	79.25
403.75	87.25
403.974	83.25
404.198	81.25
404.422	98.25
404.645	74.25
404.869	73.25
405.093	82.25
405.317	81.25
405.541	86.25
405.765	92.25
405.988	104.25
406.212	86.25
406.436	73.25
406.66	74.25
406.883	80.25
407.107	90.25
407.331	90.25
407.555	100.25
407.778	80.25
408.002	96.25
408.226	103.25
408.449	83.25
408.673	94.25
408.896	87.25
409.12	86.25
409.344	95.25
409.567	86.25
409.791	90.25
410.014	83.25
410.238	104.25
410.461	92.25
410.685	99.25
410.908	85.25
411.132	86.25
411.355	83.25
411.578	85.25
411.802	83.25
412.025	83.25
412.249	99.25
412.472	78.25
412.695	93.25
412.919	80.25
413.142	89.25
413.365	98.25
413.589	85.25
413.812	89.25
414.035	85.25
414.258	88.25
414.482	91.25
414.705	88.25
414.928	80.25
415.151	87.25
415.374	89.25
415.597	86.25
415.821	100.25
416.044	93.25
416.267	72.25
416.49	100.25
416.713	95.25
416.936	92.25
417.159	94.25
417.382	90.25
417.605	87.25
417.828	89.25
418.051	100.25
418.274	94.25
418.497	101.25
418.72	72.25
418.943	91.25
419.166	99.25
419.389	98.25
419.611	99.25
419.834	94.25
420.057	68.25
420.28	92.25
420.503	84.25
420.726	91.25
420.948	93.25
421.171	91.25
421.394	85.25
421.617	84.25
421.839	96.25
422.062	101.25
422.285	99.25
422.507	94.25
422.73	99.25
422.953	89.25
423.175	85.25
423.398	83.25
423.621	104.25
423.843	102.25
424.066	83.25
424.288	85.25
424.511	92.25
424.733	95.25
424.956	87.25
425.178	103.25
425.401	93.25
425.623	81.25
425.846	97.25
426.068	87.25
426.291	73.25
426.513	84.25
426.735	91.25
426.958	101.25
427.18	93.25
427.402	99.25
427.625	99.25
427.847	90.25
428.069	88.25
428.292	82.25
428.514	83.25
428.736	77.25
428.958	89.25
429.181	99.25
429.403	89.25
429.625	82.25
429.847	98.25
430.069	89.25
430.292	98.25
430.514	87.25
430.736	88.25
430.958	94.25
431.18	93.25
431.402	92.25
431.624	101.25
431.846	89.25
432.068	78.25
432.29	91.25
432.512	90.25
432.734	105.25
432.956	100.25
433.178	101.25
433.4	100.25
433.622	100.25
433.844	99.25
434.066	92.25
434.287	99.25
434.509	89.25
434.731	79.25
434.953	76.25
435.175	91.25
435.397	85.25
435.618	78.25
435.84	97.25
436.062	86.25
436.284	91.25
436.505	90.25
436.727	93.25
436.949	94.25
437.17	90.25
437.392	92.25
437.614	87.25
437.835	82.25
438.057	90.25
438.278	81.25
438.5	78.25
438.721	88.25
438.943	101.25
439.165	98.25
439.386	90.25
439.608	76.25
439.829	84.25
440.05	90.25
440.272	97.25
440.493	95.25
440.715	107.25
440.936	107.25
441.158	100.25
441.379	99.25
441.6	102.25
441.822	106.25
442.043	82.25
442.264	92.25
442.486	91.25
442.707	75.25
442.928	105.25
443.149	98.25
443.371	85.25
443.592	103.25
443.813	96.25
444.034	89.25
444.255	90.25
444.476	95.25
444.698	96.25
444.919	92.25
445.14	202.25
445.361	168.25
445.582	102.25
445.803	103.25
446.024	92.25
446.245	99.25
446.466	103.25
446.687	102.25
446.908	96.25
447.129	97.25
447.35	105.25
447.571	102.25
447.792	98.25
448.013	97.25
448.234	80.25
448.455	114.25
448.675	97.25
448.896	99.25
449.117	113.25
449.338	111.25
449.559	95.25
449.779	104.25
450	96.25
450.221	101.25
450.442	106.25
450.662	99.25
450.883	83.25
451.104	101.25
451.324	96.25
451.545	99.25
451.766	95.25
451.986	65.25
452.207	95.25
452.428	88.25
452.648	96.25
452.869	101.25
453.089	81.25
453.31	79.25
453.53	91.25
453.751	88.25
453.971	86.25
454.192	73.25
454.412	79.25
454.633	88.25
454.853	91.25
455.073	84.25
455.294	86.25
455.514	95.25
455.734	100.25
455.955	99.25
456.175	102.25
456.395	100.25
456.616	86.25
456.836	84.25
457.056	92.25
457.276	83.25
457.497	81.25
457.717	94.25
457.937	90.25
458.157	90.25
458.377	78.25
458.598	98.25
458.818	89.25
459.038	71.25
459.258	74.25
459.478	72.25
459.698	88.25
459.918	88.25
460.138	96.25
460.358	82.25
460.578	77.25
460.798	86.25
461.018	89.25
461.238	94.25
461.458	99.25
461.678	93.25
461.898	102.25
462.118	85.25
462.338	99.25
462.558	110.25
462.777	85.25
462.997	90.25
463.217	84.25
463.437	100.25
463.657	90.25
463.876	71.25
464.096	91.25
464.316	81.25
464.536	85.25
464.755	102.25
464.975	74.25
465.195	90.25
465.414	91.25
465.634	82.25
465.854	96.25
466.073	101.25
466.293	83.25
466.512	99.25
466.732	99.25
466.951	83.25
467.171	95.25
467.391	97.25
467.61	79.25
467.829	86.25
468.049	89.25
468.268	84.25
468.488	86.25
468.707	89.25
468.927	89.25
469.146	109.25
469.365	92.25
469.585	97.25
469.804	97.25
470.023	106.25
470.243	102.25
470.462	97.25
470.681	100.25
470.901	98.25
471.12	97.25
471.339	113.25
471.558	98.25
471.777	113.25
471.997	100.25
472.216	100.25
472.435	94.25
472.654	85.25
472.873	86.25
473.092	90.25
473.311	85.25
473.53	84.25
473.749	100.25
473.968	106.25
474.187	100.25
474.406	87.25
474.625	87.25
474.844	106.25
475.063	90.25
475.282	97.25
475.501	101.25
475.72	89.25
475.939	91.25
476.158	87.25
476.377	97.25
476.596	94.25
476.814	82.25
477.033	67.25
477.252	91.25
477.471	92.25
477.69	106.25
477.908	99.25
478.127	108.25
478.346	98.25
478.564	91.25
478.783	100.25
479.002	97.25
479.22	97.25
479.439	105.25
479.658	95.25
479.876	106.25
480.095	86.25
480.313	88.25
480.532	95.25
480.751	99.25
480.969	88.25
481.188	64.25
481.406	75.25
481.624	72.25
481.843	78.25
482.061	82.25
482.28	96.25
482.498	92.25
482.717	92.25
482.935	90.25
483.153	99.25
483.372	96.25
483.59	98.25
483.808	96.25
484.027	74.25
484.245	80.25
484.463	109.25
484.681	113.25
484.9	102.25
485.118	101.25
485.336	93.25
485.554	86.25
485.772	75.25
485.99	86.25
486.209	94.25
486.427	100.25
486.645	92.25
486.863	95.25
487.081	83.25
487.299	88.25
487.517	92.25
487.735	109.25
487.953	111.25
488.171	112.25
488.389	112.25
488.607	107.25
488.825	106.25
489.043	95.25
489.261	99.25
489.479	87.25
489.696	91.25
489.914	106.25
490.132	91.25
490.35	93.25
490.568	102.25
490.786	111.25
491.003	115.25
491.221	112.25
491.439	118.25
491.657	100.25
491.874	125.25
492.092	123.25
492.31	120.25
492.527	101.25
492.745	123.25
492.963	121.25
493.18	124.25
493.398	125.25
493.615	114.25
493.833	102.25
494.05	90.25
494.268	110.25
494.485	102.25
494.703	102.25
494.92	118.25
495.138	106.25
495.355	117.25
495.573	121.25
495.79	129.25
496.008	115.25
496.225	111.25
496.442	116.25
496.66	116.25
496.877	91.25
497.094	108.25
497.312	109.25
497.529	112.25
497.746	114.25
497.963	84.25
498.181	87.25
498.398	90.25
498.615	99.25
498.832	100.25
499.049	99.25
499.267	98.25
499.484	76.25
499.701	94.25
499.918	96.25
500.135	88.25
500.352	99.25
500.569	102.25
500.786	93.25
501.003	104.25
501.22	98.25
501.437	94.25
501.654	104.25
501.871	100.25
502.088	96.25
502.305	100.25
502.522	96.25
502.739	97.25
502.956	90.25
503.172	99.25
503.389	91.25
503.606	81.25
503.823	87.25
504.04	103.25
504.256	90.25
504.473	89.25
504.69	100.25
504.907	103.25
505.123	96.25
505.34	101.25
505.557	100.25
505.773	94.25
505.99	89.25
506.207	98.25
506.423	97.25
506.64	90.25
506.856	80.25
507.073	83.25
507.289	83.25
507.506	102.25
507.722	95.25
507.939	97.25
508.155	94.25
508.372	103.25
508.588	96.25
508.805	94.25
509.021	80.25
509.238	81.25
509.454	87.25
509.67	83.25
509.887	83.25
510.103	74.25
510.319	75.25
510.536	90.25
510.752	86.25
510.968	83.25
511.184	85.25
511.401	84.25
511.617	86.25
511.833	86.25
512.049	71.25
512.265	79.25
512.481	83.25
512.698	89.25
512.914	85.25
513.13	78.25
513.346	91.25
513.562	86.25
513.778	88.25
513.994	95.25
514.21	79.25
514.426	81.25
514.642	86.25
514.858	79.25
515.074	85.25
515.29	87.25
515.506	84.25
515.721	89.25
515.937	80.25
516.153	73.25
516.369	87.25
516.585	87.25
516.801	86.25
517.016	91.25
517.232	96.25
517.448	85.25
517.664	69.25
