Data from Location3.07152019.Energy5.Lamp.07192019.3%Agarose_HRD10591_15-17-47-269.txt Node
Date: Fri Jul 19 15:17:47 EDT 2019
User: cochatt
Spectrometer: HR+D1059
Trigger mode: 1
Integration Time (sec): 1.000000E-1
Scans to average: 1
Electric dark correction enabled: true
Nonlinearity correction enabled: false
Boxcar width: 0
XAxis mode: Wavelengths
Number of Pixels in Spectrum: 2048
>>>>>Begin Spectral Data<<<<<
223.165	-9.19
223.4	-9.19
223.635	-9.19
223.869	-22.19
224.104	-9.19
224.338	-15.19
224.573	-8.19
224.808	-14.19
225.042	-11.19
225.277	-9.19
225.511	-18.19
225.746	12.81
225.98	-0.19
226.215	0.81
226.449	13.81
226.683	19.81
226.918	26.81
227.152	42.81
227.387	32.81
227.621	41.81
227.856	42.81
228.09	38.81
228.324	62.81
228.559	66.81
228.793	61.81
229.027	61.81
229.262	58.81
229.496	60.81
229.73	70.81
229.964	83.81
230.199	73.81
230.433	78.81
230.667	75.81
230.901	62.81
231.136	75.81
231.37	81.81
231.604	81.81
231.838	70.81
232.072	80.81
232.306	82.81
232.541	77.81
232.775	77.81
233.009	85.81
233.243	85.81
233.477	87.81
233.711	91.81
233.945	90.81
234.179	75.81
234.413	84.81
234.647	87.81
234.881	71.81
235.115	80.81
235.349	86.81
235.583	81.81
235.817	73.81
236.051	72.81
236.285	78.81
236.519	71.81
236.753	81.81
236.987	76.81
237.221	78.81
237.455	80.81
237.689	74.81
237.922	89.81
238.156	73.81
238.39	80.81
238.624	66.81
238.858	75.81
239.091	75.81
239.325	74.81
239.559	81.81
239.793	76.81
240.027	87.81
240.26	69.81
240.494	69.81
240.728	75.81
240.961	77.81
241.195	69.81
241.429	83.81
241.662	68.81
241.896	84.81
242.13	79.81
242.363	74.81
242.597	77.81
242.83	65.81
243.064	73.81
243.298	90.81
243.531	78.81
243.765	76.81
243.998	73.81
244.232	69.81
244.465	74.81
244.699	65.81
244.932	81.81
245.166	73.81
245.399	68.81
245.633	67.81
245.866	67.81
246.099	78.81
246.333	85.81
246.566	89.81
246.8	77.81
247.033	75.81
247.266	79.81
247.5	69.81
247.733	94.81
247.966	81.81
248.2	70.81
248.433	69.81
248.666	90.81
248.899	80.81
249.133	75.81
249.366	85.81
249.599	83.81
249.832	67.81
250.066	84.81
250.299	71.81
250.532	87.81
250.765	82.81
250.998	73.81
251.231	81.81
251.465	72.81
251.698	81.81
251.931	79.81
252.164	73.81
252.397	67.81
252.63	68.81
252.863	76.81
253.096	83.81
253.329	81.81
253.562	75.81
253.795	92.81
254.028	84.81
254.261	91.81
254.494	86.81
254.727	76.81
254.96	70.81
255.193	71.81
255.426	77.81
255.659	78.81
255.892	90.81
256.124	84.81
256.357	77.81
256.59	89.81
256.823	74.81
257.056	83.81
257.289	79.81
257.521	78.81
257.754	75.81
257.987	87.81
258.22	68.81
258.452	81.81
258.685	80.81
258.918	74.81
259.151	84.81
259.383	81.81
259.616	67.81
259.849	82.81
260.081	75.81
260.314	80.81
260.547	81.81
260.779	72.81
261.012	72.81
261.244	80.81
261.477	81.81
261.71	76.81
261.942	80.81
262.175	89.81
262.407	84.81
262.64	91.81
262.872	89.81
263.105	81.81
263.337	72.81
263.57	85.81
263.802	82.81
264.035	84.81
264.267	91.81
264.499	87.81
264.732	70.81
264.964	80.81
265.197	79.81
265.429	83.81
265.661	75.81
265.894	83.81
266.126	102.81
266.358	86.81
266.591	83.81
266.823	81.81
267.055	75.81
267.287	74.81
267.52	79.81
267.752	79.81
267.984	91.81
268.216	84.81
268.448	88.81
268.681	76.81
268.913	99.81
269.145	90.81
269.377	81.81
269.609	80.81
269.841	74.81
270.073	88.81
270.306	76.81
270.538	95.81
270.77	84.81
271.002	81.81
271.234	93.81
271.466	87.81
271.698	88.81
271.93	78.81
272.162	91.81
272.394	82.81
272.626	81.81
272.858	66.81
273.09	88.81
273.322	87.81
273.553	87.81
273.785	78.81
274.017	80.81
274.249	89.81
274.481	85.81
274.713	77.81
274.945	74.81
275.176	93.81
275.408	89.81
275.64	75.81
275.872	85.81
276.104	87.81
276.335	81.81
276.567	82.81
276.799	75.81
277.031	81.81
277.262	97.81
277.494	87.81
277.726	71.81
277.957	86.81
278.189	82.81
278.421	92.81
278.652	101.81
278.884	95.81
279.115	73.81
279.347	80.81
279.579	77.81
279.81	80.81
280.042	85.81
280.273	83.81
280.505	78.81
280.736	72.81
280.968	86.81
281.199	91.81
281.431	95.81
281.662	88.81
281.894	79.81
282.125	92.81
282.356	88.81
282.588	87.81
282.819	89.81
283.051	85.81
283.282	84.81
283.513	77.81
283.745	78.81
283.976	97.81
284.207	75.81
284.439	83.81
284.67	82.81
284.901	90.81
285.132	70.81
285.364	81.81
285.595	80.81
285.826	85.81
286.057	84.81
286.288	88.81
286.52	71.81
286.751	72.81
286.982	73.81
287.213	80.81
287.444	99.81
287.675	81.81
287.906	104.81
288.138	88.81
288.369	76.81
288.6	86.81
288.831	96.81
289.062	89.81
289.293	75.81
289.524	78.81
289.755	89.81
289.986	91.81
290.217	83.81
290.448	91.81
290.679	90.81
290.91	81.81
291.141	92.81
291.371	77.81
291.602	87.81
291.833	89.81
292.064	93.81
292.295	81.81
292.526	95.81
292.757	83.81
292.987	82.81
293.218	87.81
293.449	90.81
293.68	68.81
293.91	76.81
294.141	80.81
294.372	87.81
294.603	79.81
294.833	92.81
295.064	93.81
295.295	91.81
295.525	84.81
295.756	90.81
295.987	95.81
296.217	86.81
296.448	89.81
296.679	86.81
296.909	89.81
297.14	84.81
297.37	74.81
297.601	78.81
297.831	85.81
298.062	80.81
298.292	83.81
298.523	90.81
298.753	78.81
298.984	94.81
299.214	80.81
299.445	81.81
299.675	92.81
299.905	102.81
300.136	81.81
300.366	85.81
300.597	88.81
300.827	81.81
301.057	81.81
301.288	88.81
301.518	86.81
301.748	82.81
301.979	91.81
302.209	89.81
302.439	79.81
302.669	82.81
302.9	78.81
303.13	91.81
303.36	92.81
303.59	69.81
303.82	91.81
304.051	79.81
304.281	91.81
304.511	84.81
304.741	77.81
304.971	87.81
305.201	85.81
305.431	88.81
305.661	76.81
305.891	85.81
306.121	77.81
306.352	78.81
306.582	89.81
306.812	73.81
307.042	89.81
307.272	88.81
307.502	87.81
307.731	78.81
307.961	76.81
308.191	74.81
308.421	89.81
308.651	83.81
308.881	90.81
309.111	98.81
309.341	86.81
309.571	91.81
309.8	77.81
310.03	94.81
310.26	71.81
310.49	96.81
310.72	89.81
310.949	72.81
311.179	90.81
311.409	98.81
311.639	86.81
311.868	85.81
312.098	93.81
312.328	88.81
312.557	95.81
312.787	76.81
313.017	91.81
313.246	64.81
313.476	73.81
313.706	80.81
313.935	84.81
314.165	90.81
314.394	76.81
314.624	102.81
314.853	86.81
315.083	98.81
315.312	78.81
315.542	77.81
315.771	88.81
316.001	83.81
316.23	67.81
316.46	80.81
316.689	90.81
316.919	88.81
317.148	84.81
317.377	91.81
317.607	79.81
317.836	86.81
318.065	82.81
318.295	89.81
318.524	67.81
318.753	83.81
318.983	72.81
319.212	93.81
319.441	86.81
319.67	87.81
319.9	80.81
320.129	88.81
320.358	97.81
320.587	87.81
320.816	85.81
321.046	86.81
321.275	83.81
321.504	82.81
321.733	82.81
321.962	78.81
322.191	83.81
322.42	85.81
322.649	87.81
322.878	81.81
323.108	95.81
323.337	83.81
323.566	84.81
323.795	82.81
324.024	84.81
324.253	92.81
324.482	75.81
324.71	85.81
324.939	76.81
325.168	90.81
325.397	93.81
325.626	76.81
325.855	93.81
326.084	98.81
326.313	96.81
326.542	95.81
326.77	93.81
326.999	87.81
327.228	73.81
327.457	75.81
327.686	87.81
327.914	87.81
328.143	90.81
328.372	86.81
328.6	90.81
328.829	85.81
329.058	85.81
329.287	83.81
329.515	85.81
329.744	90.81
329.972	78.81
330.201	80.81
330.43	96.81
330.658	91.81
330.887	111.81
331.115	78.81
331.344	86.81
331.572	74.81
331.801	82.81
332.03	83.81
332.258	76.81
332.486	85.81
332.715	90.81
332.943	91.81
333.172	88.81
333.4	80.81
333.629	88.81
333.857	82.81
334.085	85.81
334.314	87.81
334.542	90.81
334.771	69.81
334.999	81.81
335.227	88.81
335.455	89.81
335.684	83.81
335.912	70.81
336.14	75.81
336.369	84.81
336.597	74.81
336.825	100.81
337.053	85.81
337.281	79.81
337.51	91.81
337.738	97.81
337.966	100.81
338.194	76.81
338.422	92.81
338.65	85.81
338.878	95.81
339.106	85.81
339.334	61.81
339.562	93.81
339.79	73.81
340.018	92.81
340.246	77.81
340.474	93.81
340.702	89.81
340.93	75.81
341.158	76.81
341.386	80.81
341.614	97.81
341.842	99.81
342.07	90.81
342.298	69.81
342.526	90.81
342.754	83.81
342.981	75.81
343.209	100.81
343.437	89.81
343.665	75.81
343.893	83.81
344.12	99.81
344.348	75.81
344.576	86.81
344.804	76.81
345.031	87.81
345.259	81.81
345.487	87.81
345.714	96.81
345.942	79.81
346.17	90.81
346.397	85.81
346.625	90.81
346.853	84.81
347.08	80.81
347.308	94.81
347.535	69.81
347.763	69.81
347.99	79.81
348.218	94.81
348.445	106.81
348.673	85.81
348.9	81.81
349.128	80.81
349.355	73.81
349.583	77.81
349.81	85.81
350.037	92.81
350.265	80.81
350.492	98.81
350.72	73.81
350.947	79.81
351.174	83.81
351.402	82.81
351.629	81.81
351.856	87.81
352.083	82.81
352.311	94.81
352.538	86.81
352.765	86.81
352.992	82.81
353.22	78.81
353.447	92.81
353.674	91.81
353.901	99.81
354.128	75.81
354.355	80.81
354.583	82.81
354.81	74.81
355.037	78.81
355.264	79.81
355.491	77.81
355.718	89.81
355.945	88.81
356.172	87.81
356.399	85.81
356.626	81.81
356.853	76.81
357.08	97.81
357.307	83.81
357.534	76.81
357.761	80.81
357.988	84.81
358.215	94.81
358.441	77.81
358.668	77.81
358.895	82.81
359.122	82.81
359.349	85.81
359.576	83.81
359.802	79.81
360.029	88.81
360.256	83.81
360.483	86.81
360.709	72.81
360.936	87.81
361.163	77.81
361.39	90.81
361.616	88.81
361.843	88.81
362.07	96.81
362.296	81.81
362.523	82.81
362.749	88.81
362.976	95.81
363.203	89.81
363.429	81.81
363.656	92.81
363.882	93.81
364.109	77.81
364.335	86.81
364.562	88.81
364.788	88.81
365.015	79.81
365.241	86.81
365.468	100.81
365.694	83.81
365.92	83.81
366.147	90.81
366.373	85.81
366.599	79.81
366.826	102.81
367.052	94.81
367.278	92.81
367.505	96.81
367.731	79.81
367.957	90.81
368.184	84.81
368.41	80.81
368.636	90.81
368.862	93.81
369.089	92.81
369.315	93.81
369.541	85.81
369.767	83.81
369.993	73.81
370.219	78.81
370.445	83.81
370.672	84.81
370.898	83.81
371.124	87.81
371.35	86.81
371.576	87.81
371.802	79.81
372.028	84.81
372.254	77.81
372.48	89.81
372.706	91.81
372.932	82.81
373.158	84.81
373.384	88.81
373.61	83.81
373.835	105.81
374.061	91.81
374.287	91.81
374.513	80.81
374.739	92.81
374.965	98.81
375.191	91.81
375.416	63.81
375.642	78.81
375.868	82.81
376.094	93.81
376.319	83.81
376.545	80.81
376.771	80.81
376.997	82.81
377.222	82.81
377.448	92.81
377.674	76.81
377.899	76.81
378.125	85.81
378.35	83.81
378.576	95.81
378.802	102.81
379.027	88.81
379.253	89.81
379.478	75.81
379.704	84.81
379.929	90.81
380.155	82.81
380.38	98.81
380.606	82.81
380.831	85.81
381.057	107.81
381.282	85.81
381.507	79.81
381.733	87.81
381.958	83.81
382.184	89.81
382.409	84.81
382.634	84.81
382.86	97.81
383.085	86.81
383.31	78.81
383.535	85.81
383.761	92.81
383.986	89.81
384.211	99.81
384.436	78.81
384.662	85.81
384.887	96.81
385.112	87.81
385.337	63.81
385.562	90.81
385.787	92.81
386.013	89.81
386.238	82.81
386.463	70.81
386.688	90.81
386.913	93.81
387.138	82.81
387.363	85.81
387.588	88.81
387.813	102.81
388.038	98.81
388.263	84.81
388.488	97.81
388.713	92.81
388.938	93.81
389.163	95.81
389.387	85.81
389.612	77.81
389.837	91.81
390.062	82.81
390.287	83.81
390.512	91.81
390.736	83.81
390.961	82.81
391.186	97.81
391.411	77.81
391.636	78.81
391.86	86.81
392.085	93.81
392.31	100.81
392.534	69.81
392.759	96.81
392.984	93.81
393.208	92.81
393.433	83.81
393.658	97.81
393.882	88.81
394.107	90.81
394.331	85.81
394.556	87.81
394.78	82.81
395.005	80.81
395.229	100.81
395.454	89.81
395.678	81.81
395.903	77.81
396.127	86.81
396.352	74.81
396.576	91.81
396.801	89.81
397.025	93.81
397.249	88.81
397.474	95.81
397.698	97.81
397.922	84.81
398.147	80.81
398.371	94.81
398.595	91.81
398.82	85.81
399.044	82.81
399.268	91.81
399.492	88.81
399.717	100.81
399.941	85.81
400.165	93.81
400.389	84.81
400.613	95.81
400.837	83.81
401.062	98.81
401.286	86.81
401.51	89.81
401.734	89.81
401.958	103.81
402.182	89.81
402.406	98.81
402.63	100.81
402.854	98.81
403.078	105.81
403.302	76.81
403.526	90.81
403.75	81.81
403.974	98.81
404.198	93.81
404.422	95.81
404.645	91.81
404.869	95.81
405.093	91.81
405.317	77.81
405.541	96.81
405.765	92.81
405.988	85.81
406.212	94.81
406.436	105.81
406.66	106.81
406.883	96.81
407.107	90.81
407.331	112.81
407.555	82.81
407.778	91.81
408.002	90.81
408.226	79.81
408.449	91.81
408.673	85.81
408.896	80.81
409.12	81.81
409.344	108.81
409.567	92.81
409.791	92.81
410.014	81.81
410.238	101.81
410.461	97.81
410.685	106.81
410.908	106.81
411.132	88.81
411.355	97.81
411.578	95.81
411.802	92.81
412.025	95.81
412.249	94.81
412.472	94.81
412.695	82.81
412.919	105.81
413.142	94.81
413.365	99.81
413.589	85.81
413.812	97.81
414.035	85.81
414.258	89.81
414.482	100.81
414.705	92.81
414.928	96.81
415.151	85.81
415.374	95.81
415.597	105.81
415.821	111.81
416.044	94.81
416.267	95.81
416.49	92.81
416.713	90.81
416.936	94.81
417.159	97.81
417.382	95.81
417.605	89.81
417.828	100.81
418.051	84.81
418.274	103.81
418.497	92.81
418.72	89.81
418.943	92.81
419.166	100.81
419.389	103.81
419.611	103.81
419.834	99.81
420.057	85.81
420.28	83.81
420.503	93.81
420.726	100.81
420.948	90.81
421.171	94.81
421.394	89.81
421.617	84.81
421.839	104.81
422.062	98.81
422.285	95.81
422.507	103.81
422.73	106.81
422.953	96.81
423.175	100.81
423.398	102.81
423.621	89.81
423.843	87.81
424.066	123.81
424.288	84.81
424.511	95.81
424.733	87.81
424.956	84.81
425.178	83.81
425.401	100.81
425.623	112.81
425.846	81.81
426.068	93.81
426.291	89.81
426.513	96.81
426.735	102.81
426.958	93.81
427.18	93.81
427.402	109.81
427.625	82.81
427.847	103.81
428.069	94.81
428.292	106.81
428.514	93.81
428.736	108.81
428.958	90.81
429.181	92.81
429.403	98.81
429.625	106.81
429.847	91.81
430.069	107.81
430.292	96.81
430.514	107.81
430.736	107.81
430.958	85.81
431.18	98.81
431.402	104.81
431.624	99.81
431.846	104.81
432.068	90.81
432.29	96.81
432.512	100.81
432.734	91.81
432.956	88.81
433.178	81.81
433.4	104.81
433.622	98.81
433.844	87.81
434.066	94.81
434.287	104.81
434.509	98.81
434.731	90.81
434.953	92.81
435.175	96.81
435.397	97.81
435.618	96.81
435.84	90.81
436.062	98.81
436.284	87.81
436.505	89.81
436.727	88.81
436.949	99.81
437.17	87.81
437.392	96.81
437.614	98.81
437.835	86.81
438.057	97.81
438.278	88.81
438.5	93.81
438.721	99.81
438.943	97.81
439.165	98.81
439.386	107.81
439.608	109.81
439.829	103.81
440.05	113.81
440.272	103.81
440.493	108.81
440.715	95.81
440.936	100.81
441.158	106.81
441.379	91.81
441.6	107.81
441.822	100.81
442.043	104.81
442.264	112.81
442.486	109.81
442.707	83.81
442.928	85.81
443.149	88.81
443.371	94.81
443.592	98.81
443.813	103.81
444.034	84.81
444.255	87.81
444.476	93.81
444.698	84.81
444.919	92.81
445.14	219.81
445.361	150.81
445.582	103.81
445.803	95.81
446.024	99.81
446.245	101.81
446.466	104.81
446.687	97.81
446.908	114.81
447.129	115.81
447.35	105.81
447.571	88.81
447.792	96.81
448.013	98.81
448.234	88.81
448.455	103.81
448.675	97.81
448.896	90.81
449.117	101.81
449.338	77.81
449.559	99.81
449.779	85.81
450	85.81
450.221	96.81
450.442	96.81
450.662	100.81
450.883	96.81
451.104	98.81
451.324	108.81
451.545	87.81
451.766	93.81
451.986	90.81
452.207	93.81
452.428	97.81
452.648	95.81
452.869	94.81
453.089	91.81
453.31	93.81
453.53	94.81
453.751	89.81
453.971	93.81
454.192	82.81
454.412	91.81
454.633	92.81
454.853	85.81
455.073	93.81
455.294	104.81
455.514	89.81
455.734	86.81
455.955	87.81
456.175	81.81
456.395	86.81
456.616	87.81
456.836	92.81
457.056	89.81
457.276	72.81
457.497	91.81
457.717	107.81
457.937	88.81
458.157	79.81
458.377	95.81
458.598	85.81
458.818	86.81
459.038	86.81
459.258	67.81
459.478	78.81
459.698	84.81
459.918	83.81
460.138	83.81
460.358	88.81
460.578	100.81
460.798	85.81
461.018	95.81
461.238	107.81
461.458	97.81
461.678	93.81
461.898	91.81
462.118	94.81
462.338	102.81
462.558	92.81
462.777	96.81
462.997	82.81
463.217	98.81
463.437	97.81
463.657	87.81
463.876	87.81
464.096	97.81
464.316	88.81
464.536	86.81
464.755	96.81
464.975	91.81
465.195	104.81
465.414	101.81
465.634	89.81
465.854	96.81
466.073	91.81
466.293	99.81
466.512	97.81
466.732	112.81
466.951	87.81
467.171	92.81
467.391	85.81
467.61	98.81
467.829	91.81
468.049	79.81
468.268	87.81
468.488	86.81
468.707	108.81
468.927	95.81
469.146	98.81
469.365	92.81
469.585	112.81
469.804	90.81
470.023	110.81
470.243	91.81
470.462	88.81
470.681	90.81
470.901	92.81
471.12	92.81
471.339	97.81
471.558	98.81
471.777	95.81
471.997	98.81
472.216	88.81
472.435	82.81
472.654	86.81
472.873	92.81
473.092	96.81
473.311	97.81
473.53	83.81
473.749	102.81
473.968	94.81
474.187	99.81
474.406	88.81
474.625	87.81
474.844	87.81
475.063	102.81
475.282	89.81
475.501	85.81
475.72	97.81
475.939	89.81
476.158	94.81
476.377	109.81
476.596	97.81
476.814	84.81
477.033	80.81
477.252	85.81
477.471	99.81
477.69	88.81
477.908	99.81
478.127	95.81
478.346	89.81
478.564	87.81
478.783	106.81
479.002	98.81
479.22	103.81
479.439	83.81
479.658	96.81
479.876	80.81
480.095	90.81
480.313	95.81
480.532	95.81
480.751	92.81
480.969	82.81
481.188	84.81
481.406	86.81
481.624	76.81
481.843	87.81
482.061	72.81
482.28	89.81
482.498	105.81
482.717	82.81
482.935	104.81
483.153	95.81
483.372	103.81
483.59	100.81
483.808	108.81
484.027	93.81
484.245	91.81
484.463	95.81
484.681	112.81
484.9	95.81
485.118	88.81
485.336	91.81
485.554	98.81
485.772	87.81
485.99	89.81
486.209	90.81
486.427	87.81
486.645	83.81
486.863	90.81
487.081	108.81
487.299	93.81
487.517	104.81
487.735	103.81
487.953	121.81
488.171	111.81
488.389	106.81
488.607	98.81
488.825	90.81
489.043	100.81
489.261	106.81
489.479	86.81
489.696	96.81
489.914	96.81
490.132	87.81
490.35	103.81
490.568	103.81
490.786	99.81
491.003	104.81
491.221	107.81
491.439	114.81
491.657	119.81
491.874	125.81
492.092	133.81
492.31	124.81
492.527	115.81
492.745	117.81
492.963	124.81
493.18	112.81
493.398	109.81
493.615	113.81
493.833	112.81
494.05	114.81
494.268	98.81
494.485	93.81
494.703	110.81
494.92	97.81
495.138	106.81
495.355	104.81
495.573	118.81
495.79	111.81
496.008	113.81
496.225	109.81
496.442	113.81
496.66	99.81
496.877	99.81
497.094	112.81
497.312	100.81
497.529	98.81
497.746	104.81
497.963	69.81
498.181	105.81
498.398	89.81
498.615	91.81
498.832	92.81
499.049	89.81
499.267	95.81
499.484	87.81
499.701	102.81
499.918	96.81
500.135	106.81
500.352	105.81
500.569	104.81
500.786	106.81
501.003	100.81
501.22	95.81
501.437	94.81
501.654	98.81
501.871	90.81
502.088	92.81
502.305	99.81
502.522	103.81
502.739	103.81
502.956	109.81
503.172	95.81
503.389	104.81
503.606	94.81
503.823	95.81
504.04	88.81
504.256	87.81
504.473	98.81
504.69	97.81
504.907	93.81
505.123	99.81
505.34	85.81
505.557	92.81
505.773	87.81
505.99	87.81
506.207	88.81
506.423	91.81
506.64	99.81
506.856	94.81
507.073	93.81
507.289	91.81
507.506	103.81
507.722	93.81
507.939	88.81
508.155	87.81
508.372	87.81
508.588	93.81
508.805	96.81
509.021	76.81
509.238	91.81
509.454	80.81
509.67	92.81
509.887	87.81
510.103	85.81
510.319	76.81
510.536	96.81
510.752	85.81
510.968	88.81
511.184	72.81
511.401	82.81
511.617	97.81
511.833	98.81
512.049	82.81
512.265	89.81
512.481	77.81
512.698	88.81
512.914	79.81
513.13	90.81
513.346	93.81
513.562	80.81
513.778	90.81
513.994	76.81
514.21	77.81
514.426	83.81
514.642	82.81
514.858	73.81
515.074	102.81
515.29	87.81
515.506	95.81
515.721	79.81
515.937	92.81
516.153	72.81
516.369	85.81
516.585	77.81
516.801	76.81
517.016	90.81
517.232	82.81
