Data from Location3.07152019.Energy5.Lamp.07192019.3%Agarose_HRD10591_15-19-11-269.txt Node
Date: Fri Jul 19 15:19:11 EDT 2019
User: cochatt
Spectrometer: HR+D1059
Trigger mode: 1
Integration Time (sec): 1.000000E-1
Scans to average: 1
Electric dark correction enabled: true
Nonlinearity correction enabled: false
Boxcar width: 0
XAxis mode: Wavelengths
Number of Pixels in Spectrum: 2048
>>>>>Begin Spectral Data<<<<<
223.165	-3.56
223.4	-3.56
223.635	-3.56
223.869	-9.56
224.104	-26.56
224.338	-19.56
224.573	-11.56
224.808	-7.56
225.042	-10.56
225.277	-9.56
225.511	-13.56
225.746	-0.56
225.98	6.44
226.215	6.44
226.449	13.44
226.683	31.44
226.918	31.44
227.152	23.44
227.387	36.44
227.621	33.44
227.856	40.44
228.09	44.44
228.324	48.44
228.559	67.44
228.793	60.44
229.027	60.44
229.262	57.44
229.496	66.44
229.73	56.44
229.964	74.44
230.199	76.44
230.433	76.44
230.667	65.44
230.901	77.44
231.136	81.44
231.37	72.44
231.604	84.44
231.838	80.44
232.072	74.44
232.306	91.44
232.541	86.44
232.775	81.44
233.009	83.44
233.243	85.44
233.477	97.44
233.711	80.44
233.945	78.44
234.179	84.44
234.413	73.44
234.647	96.44
234.881	83.44
235.115	81.44
235.349	77.44
235.583	105.44
235.817	68.44
236.051	73.44
236.285	89.44
236.519	82.44
236.753	86.44
236.987	74.44
237.221	69.44
237.455	70.44
237.689	84.44
237.922	80.44
238.156	81.44
238.39	74.44
238.624	64.44
238.858	77.44
239.091	62.44
239.325	72.44
239.559	80.44
239.793	77.44
240.027	93.44
240.26	76.44
240.494	73.44
240.728	74.44
240.961	82.44
241.195	81.44
241.429	85.44
241.662	73.44
241.896	77.44
242.13	78.44
242.363	73.44
242.597	80.44
242.83	79.44
243.064	90.44
243.298	87.44
243.531	76.44
243.765	75.44
243.998	74.44
244.232	81.44
244.465	60.44
244.699	60.44
244.932	72.44
245.166	85.44
245.399	76.44
245.633	83.44
245.866	74.44
246.099	71.44
246.333	68.44
246.566	65.44
246.8	72.44
247.033	89.44
247.266	82.44
247.5	81.44
247.733	86.44
247.966	72.44
248.2	77.44
248.433	80.44
248.666	78.44
248.899	66.44
249.133	61.44
249.366	93.44
249.599	84.44
249.832	78.44
250.066	84.44
250.299	73.44
250.532	82.44
250.765	74.44
250.998	66.44
251.231	64.44
251.465	72.44
251.698	72.44
251.931	96.44
252.164	70.44
252.397	91.44
252.63	80.44
252.863	82.44
253.096	82.44
253.329	85.44
253.562	78.44
253.795	85.44
254.028	67.44
254.261	78.44
254.494	73.44
254.727	80.44
254.96	73.44
255.193	82.44
255.426	79.44
255.659	79.44
255.892	82.44
256.124	64.44
256.357	82.44
256.59	83.44
256.823	78.44
257.056	80.44
257.289	86.44
257.521	96.44
257.754	64.44
257.987	71.44
258.22	72.44
258.452	81.44
258.685	69.44
258.918	79.44
259.151	86.44
259.383	86.44
259.616	78.44
259.849	72.44
260.081	85.44
260.314	73.44
260.547	73.44
260.779	74.44
261.012	74.44
261.244	82.44
261.477	89.44
261.71	80.44
261.942	70.44
262.175	84.44
262.407	82.44
262.64	74.44
262.872	81.44
263.105	66.44
263.337	84.44
263.57	95.44
263.802	88.44
264.035	89.44
264.267	69.44
264.499	80.44
264.732	81.44
264.964	80.44
265.197	79.44
265.429	82.44
265.661	89.44
265.894	83.44
266.126	80.44
266.358	73.44
266.591	70.44
266.823	80.44
267.055	73.44
267.287	86.44
267.52	74.44
267.752	75.44
267.984	87.44
268.216	82.44
268.448	89.44
268.681	87.44
268.913	66.44
269.145	66.44
269.377	67.44
269.609	76.44
269.841	93.44
270.073	72.44
270.306	88.44
270.538	76.44
270.77	83.44
271.002	81.44
271.234	75.44
271.466	88.44
271.698	75.44
271.93	79.44
272.162	88.44
272.394	86.44
272.626	82.44
272.858	83.44
273.09	90.44
273.322	84.44
273.553	84.44
273.785	68.44
274.017	80.44
274.249	85.44
274.481	89.44
274.713	78.44
274.945	93.44
275.176	83.44
275.408	79.44
275.64	76.44
275.872	73.44
276.104	75.44
276.335	84.44
276.567	88.44
276.799	85.44
277.031	72.44
277.262	92.44
277.494	74.44
277.726	80.44
277.957	75.44
278.189	75.44
278.421	78.44
278.652	84.44
278.884	88.44
279.115	94.44
279.347	85.44
279.579	80.44
279.81	78.44
280.042	85.44
280.273	90.44
280.505	84.44
280.736	87.44
280.968	78.44
281.199	84.44
281.431	84.44
281.662	89.44
281.894	85.44
282.125	96.44
282.356	83.44
282.588	81.44
282.819	89.44
283.051	90.44
283.282	88.44
283.513	81.44
283.745	81.44
283.976	77.44
284.207	83.44
284.439	69.44
284.67	83.44
284.901	98.44
285.132	80.44
285.364	75.44
285.595	74.44
285.826	78.44
286.057	96.44
286.288	90.44
286.52	86.44
286.751	84.44
286.982	94.44
287.213	92.44
287.444	81.44
287.675	81.44
287.906	83.44
288.138	82.44
288.369	82.44
288.6	79.44
288.831	81.44
289.062	86.44
289.293	74.44
289.524	81.44
289.755	78.44
289.986	81.44
290.217	85.44
290.448	77.44
290.679	84.44
290.91	97.44
291.141	86.44
291.371	84.44
291.602	72.44
291.833	85.44
292.064	78.44
292.295	79.44
292.526	77.44
292.757	79.44
292.987	79.44
293.218	83.44
293.449	89.44
293.68	74.44
293.91	81.44
294.141	90.44
294.372	60.44
294.603	92.44
294.833	79.44
295.064	87.44
295.295	78.44
295.525	86.44
295.756	84.44
295.987	79.44
296.217	89.44
296.448	78.44
296.679	83.44
296.909	73.44
297.14	85.44
297.37	84.44
297.601	83.44
297.831	89.44
298.062	81.44
298.292	93.44
298.523	86.44
298.753	96.44
298.984	85.44
299.214	85.44
299.445	89.44
299.675	96.44
299.905	90.44
300.136	83.44
300.366	90.44
300.597	84.44
300.827	90.44
301.057	68.44
301.288	87.44
301.518	81.44
301.748	78.44
301.979	94.44
302.209	81.44
302.439	80.44
302.669	91.44
302.9	82.44
303.13	84.44
303.36	94.44
303.59	85.44
303.82	88.44
304.051	94.44
304.281	87.44
304.511	92.44
304.741	81.44
304.971	78.44
305.201	100.44
305.431	75.44
305.661	95.44
305.891	84.44
306.121	66.44
306.352	77.44
306.582	87.44
306.812	88.44
307.042	93.44
307.272	89.44
307.502	80.44
307.731	90.44
307.961	78.44
308.191	88.44
308.421	85.44
308.651	73.44
308.881	80.44
309.111	95.44
309.341	96.44
309.571	84.44
309.8	75.44
310.03	88.44
310.26	74.44
310.49	76.44
310.72	56.44
310.949	78.44
311.179	90.44
311.409	78.44
311.639	102.44
311.868	78.44
312.098	89.44
312.328	88.44
312.557	77.44
312.787	83.44
313.017	81.44
313.246	87.44
313.476	73.44
313.706	84.44
313.935	82.44
314.165	94.44
314.394	88.44
314.624	83.44
314.853	72.44
315.083	83.44
315.312	88.44
315.542	71.44
315.771	88.44
316.001	90.44
316.23	97.44
316.46	99.44
316.689	88.44
316.919	66.44
317.148	91.44
317.377	99.44
317.607	81.44
317.836	78.44
318.065	78.44
318.295	81.44
318.524	85.44
318.753	78.44
318.983	80.44
319.212	85.44
319.441	93.44
319.67	89.44
319.9	89.44
320.129	87.44
320.358	89.44
320.587	84.44
320.816	85.44
321.046	77.44
321.275	88.44
321.504	84.44
321.733	89.44
321.962	80.44
322.191	72.44
322.42	83.44
322.649	100.44
322.878	85.44
323.108	76.44
323.337	86.44
323.566	79.44
323.795	80.44
324.024	81.44
324.253	93.44
324.482	77.44
324.71	70.44
324.939	83.44
325.168	84.44
325.397	83.44
325.626	76.44
325.855	86.44
326.084	81.44
326.313	86.44
326.542	82.44
326.77	77.44
326.999	79.44
327.228	75.44
327.457	83.44
327.686	93.44
327.914	92.44
328.143	74.44
328.372	80.44
328.6	87.44
328.829	80.44
329.058	87.44
329.287	85.44
329.515	86.44
329.744	91.44
329.972	76.44
330.201	94.44
330.43	89.44
330.658	71.44
330.887	74.44
331.115	82.44
331.344	88.44
331.572	95.44
331.801	92.44
332.03	82.44
332.258	79.44
332.486	100.44
332.715	74.44
332.943	85.44
333.172	65.44
333.4	85.44
333.629	90.44
333.857	83.44
334.085	76.44
334.314	82.44
334.542	81.44
334.771	85.44
334.999	86.44
335.227	74.44
335.455	79.44
335.684	82.44
335.912	82.44
336.14	87.44
336.369	89.44
336.597	85.44
336.825	94.44
337.053	79.44
337.281	76.44
337.51	80.44
337.738	83.44
337.966	85.44
338.194	89.44
338.422	93.44
338.65	96.44
338.878	89.44
339.106	81.44
339.334	75.44
339.562	81.44
339.79	79.44
340.018	86.44
340.246	72.44
340.474	82.44
340.702	90.44
340.93	87.44
341.158	94.44
341.386	90.44
341.614	73.44
341.842	67.44
342.07	85.44
342.298	85.44
342.526	85.44
342.754	72.44
342.981	74.44
343.209	81.44
343.437	80.44
343.665	82.44
343.893	74.44
344.12	74.44
344.348	79.44
344.576	111.44
344.804	88.44
345.031	84.44
345.259	85.44
345.487	73.44
345.714	82.44
345.942	75.44
346.17	90.44
346.397	71.44
346.625	90.44
346.853	81.44
347.08	83.44
347.308	79.44
347.535	83.44
347.763	91.44
347.99	77.44
348.218	82.44
348.445	84.44
348.673	90.44
348.9	85.44
349.128	83.44
349.355	70.44
349.583	92.44
349.81	88.44
350.037	83.44
350.265	79.44
350.492	88.44
350.72	88.44
350.947	69.44
351.174	96.44
351.402	77.44
351.629	92.44
351.856	94.44
352.083	73.44
352.311	82.44
352.538	91.44
352.765	87.44
352.992	97.44
353.22	90.44
353.447	89.44
353.674	83.44
353.901	81.44
354.128	71.44
354.355	78.44
354.583	88.44
354.81	80.44
355.037	71.44
355.264	80.44
355.491	75.44
355.718	88.44
355.945	98.44
356.172	81.44
356.399	64.44
356.626	76.44
356.853	87.44
357.08	88.44
357.307	90.44
357.534	76.44
357.761	76.44
357.988	97.44
358.215	83.44
358.441	97.44
358.668	81.44
358.895	81.44
359.122	85.44
359.349	92.44
359.576	79.44
359.802	85.44
360.029	88.44
360.256	95.44
360.483	84.44
360.709	80.44
360.936	88.44
361.163	97.44
361.39	75.44
361.616	80.44
361.843	83.44
362.07	97.44
362.296	88.44
362.523	84.44
362.749	80.44
362.976	94.44
363.203	84.44
363.429	86.44
363.656	85.44
363.882	72.44
364.109	87.44
364.335	78.44
364.562	96.44
364.788	80.44
365.015	81.44
365.241	84.44
365.468	78.44
365.694	68.44
365.92	74.44
366.147	85.44
366.373	79.44
366.599	83.44
366.826	91.44
367.052	90.44
367.278	85.44
367.505	81.44
367.731	83.44
367.957	82.44
368.184	88.44
368.41	83.44
368.636	74.44
368.862	96.44
369.089	79.44
369.315	93.44
369.541	84.44
369.767	85.44
369.993	98.44
370.219	81.44
370.445	84.44
370.672	70.44
370.898	94.44
371.124	79.44
371.35	81.44
371.576	87.44
371.802	74.44
372.028	87.44
372.254	87.44
372.48	87.44
372.706	86.44
372.932	90.44
373.158	82.44
373.384	82.44
373.61	79.44
373.835	86.44
374.061	88.44
374.287	80.44
374.513	84.44
374.739	87.44
374.965	79.44
375.191	85.44
375.416	67.44
375.642	67.44
375.868	83.44
376.094	92.44
376.319	89.44
376.545	74.44
376.771	81.44
376.997	89.44
377.222	93.44
377.448	83.44
377.674	81.44
377.899	82.44
378.125	74.44
378.35	90.44
378.576	97.44
378.802	89.44
379.027	80.44
379.253	63.44
379.478	83.44
379.704	79.44
379.929	81.44
380.155	70.44
380.38	85.44
380.606	81.44
380.831	85.44
381.057	84.44
381.282	83.44
381.507	95.44
381.733	91.44
381.958	91.44
382.184	83.44
382.409	85.44
382.634	78.44
382.86	89.44
383.085	89.44
383.31	87.44
383.535	74.44
383.761	83.44
383.986	83.44
384.211	83.44
384.436	82.44
384.662	91.44
384.887	92.44
385.112	71.44
385.337	81.44
385.562	78.44
385.787	81.44
386.013	90.44
386.238	89.44
386.463	87.44
386.688	83.44
386.913	82.44
387.138	83.44
387.363	87.44
387.588	86.44
387.813	91.44
388.038	90.44
388.263	83.44
388.488	79.44
388.713	95.44
388.938	77.44
389.163	83.44
389.387	87.44
389.612	88.44
389.837	103.44
390.062	85.44
390.287	88.44
390.512	92.44
390.736	85.44
390.961	76.44
391.186	70.44
391.411	90.44
391.636	85.44
391.86	86.44
392.085	88.44
392.31	96.44
392.534	87.44
392.759	72.44
392.984	86.44
393.208	80.44
393.433	85.44
393.658	83.44
393.882	93.44
394.107	87.44
394.331	89.44
394.556	83.44
394.78	87.44
395.005	89.44
395.229	72.44
395.454	78.44
395.678	68.44
395.903	95.44
396.127	87.44
396.352	93.44
396.576	79.44
396.801	79.44
397.025	92.44
397.249	83.44
397.474	81.44
397.698	86.44
397.922	81.44
398.147	82.44
398.371	84.44
398.595	89.44
398.82	82.44
399.044	80.44
399.268	93.44
399.492	101.44
399.717	80.44
399.941	80.44
400.165	92.44
400.389	89.44
400.613	81.44
400.837	85.44
401.062	82.44
401.286	86.44
401.51	85.44
401.734	99.44
401.958	92.44
402.182	80.44
402.406	95.44
402.63	92.44
402.854	79.44
403.078	84.44
403.302	96.44
403.526	91.44
403.75	85.44
403.974	77.44
404.198	82.44
404.422	100.44
404.645	82.44
404.869	89.44
405.093	97.44
405.317	87.44
405.541	85.44
405.765	78.44
405.988	89.44
406.212	99.44
406.436	86.44
406.66	76.44
406.883	90.44
407.107	101.44
407.331	92.44
407.555	89.44
407.778	70.44
408.002	93.44
408.226	88.44
408.449	95.44
408.673	77.44
408.896	94.44
409.12	80.44
409.344	70.44
409.567	93.44
409.791	82.44
410.014	94.44
410.238	88.44
410.461	94.44
410.685	92.44
410.908	83.44
411.132	93.44
411.355	91.44
411.578	84.44
411.802	81.44
412.025	83.44
412.249	89.44
412.472	96.44
412.695	88.44
412.919	82.44
413.142	83.44
413.365	103.44
413.589	99.44
413.812	82.44
414.035	90.44
414.258	76.44
414.482	88.44
414.705	92.44
414.928	91.44
415.151	88.44
415.374	103.44
415.597	84.44
415.821	78.44
416.044	92.44
416.267	93.44
416.49	102.44
416.713	73.44
416.936	108.44
417.159	113.44
417.382	94.44
417.605	95.44
417.828	91.44
418.051	104.44
418.274	76.44
418.497	87.44
418.72	88.44
418.943	95.44
419.166	88.44
419.389	83.44
419.611	83.44
419.834	104.44
420.057	78.44
420.28	98.44
420.503	84.44
420.726	90.44
420.948	84.44
421.171	95.44
421.394	94.44
421.617	97.44
421.839	86.44
422.062	94.44
422.285	95.44
422.507	95.44
422.73	79.44
422.953	87.44
423.175	100.44
423.398	86.44
423.621	93.44
423.843	100.44
424.066	97.44
424.288	102.44
424.511	93.44
424.733	97.44
424.956	91.44
425.178	95.44
425.401	90.44
425.623	84.44
425.846	97.44
426.068	95.44
426.291	81.44
426.513	94.44
426.735	108.44
426.958	84.44
427.18	83.44
427.402	111.44
427.625	94.44
427.847	102.44
428.069	93.44
428.292	88.44
428.514	83.44
428.736	92.44
428.958	83.44
429.181	105.44
429.403	102.44
429.625	93.44
429.847	109.44
430.069	92.44
430.292	88.44
430.514	86.44
430.736	84.44
430.958	90.44
431.18	106.44
431.402	97.44
431.624	85.44
431.846	80.44
432.068	73.44
432.29	85.44
432.512	86.44
432.734	85.44
432.956	92.44
433.178	101.44
433.4	100.44
433.622	99.44
433.844	105.44
434.066	88.44
434.287	99.44
434.509	89.44
434.731	79.44
434.953	85.44
435.175	92.44
435.397	90.44
435.618	93.44
435.84	98.44
436.062	88.44
436.284	73.44
436.505	96.44
436.727	93.44
436.949	80.44
437.17	97.44
437.392	95.44
437.614	96.44
437.835	76.44
438.057	82.44
438.278	99.44
438.5	98.44
438.721	107.44
438.943	110.44
439.165	95.44
439.386	94.44
439.608	94.44
439.829	88.44
440.05	99.44
440.272	91.44
440.493	103.44
440.715	100.44
440.936	105.44
441.158	100.44
441.379	93.44
441.6	92.44
441.822	90.44
442.043	99.44
442.264	97.44
442.486	100.44
442.707	82.44
442.928	91.44
443.149	102.44
443.371	100.44
443.592	96.44
443.813	103.44
444.034	95.44
444.255	109.44
444.476	106.44
444.698	83.44
444.919	90.44
445.14	230.44
445.361	145.44
445.582	97.44
445.803	102.44
446.024	101.44
446.245	83.44
446.466	97.44
446.687	104.44
446.908	110.44
447.129	108.44
447.35	104.44
447.571	94.44
447.792	99.44
448.013	85.44
448.234	98.44
448.455	102.44
448.675	86.44
448.896	92.44
449.117	104.44
449.338	93.44
449.559	100.44
449.779	96.44
450	86.44
450.221	98.44
450.442	95.44
450.662	97.44
450.883	103.44
451.104	102.44
451.324	104.44
451.545	101.44
451.766	84.44
451.986	96.44
452.207	105.44
452.428	94.44
452.648	93.44
452.869	96.44
453.089	79.44
453.31	86.44
453.53	78.44
453.751	84.44
453.971	94.44
454.192	85.44
454.412	93.44
454.633	80.44
454.853	88.44
455.073	75.44
455.294	78.44
455.514	84.44
455.734	84.44
455.955	96.44
456.175	82.44
456.395	76.44
456.616	88.44
456.836	88.44
457.056	85.44
457.276	82.44
457.497	90.44
457.717	86.44
457.937	93.44
458.157	90.44
458.377	79.44
458.598	70.44
458.818	82.44
459.038	80.44
459.258	87.44
459.478	80.44
459.698	91.44
459.918	97.44
460.138	82.44
460.358	96.44
460.578	90.44
460.798	79.44
461.018	88.44
461.238	93.44
461.458	92.44
461.678	85.44
461.898	108.44
462.118	89.44
462.338	100.44
462.558	93.44
462.777	100.44
462.997	84.44
463.217	92.44
463.437	90.44
463.657	94.44
463.876	95.44
464.096	83.44
464.316	89.44
464.536	100.44
464.755	96.44
464.975	85.44
465.195	88.44
465.414	109.44
465.634	98.44
465.854	80.44
466.073	89.44
466.293	92.44
466.512	97.44
466.732	104.44
466.951	86.44
467.171	94.44
467.391	86.44
467.61	91.44
467.829	91.44
468.049	98.44
468.268	81.44
468.488	104.44
468.707	98.44
468.927	94.44
469.146	98.44
469.365	101.44
469.585	102.44
469.804	98.44
470.023	102.44
470.243	86.44
470.462	92.44
470.681	101.44
470.901	94.44
471.12	105.44
471.339	97.44
471.558	79.44
471.777	100.44
471.997	99.44
472.216	100.44
472.435	97.44
472.654	77.44
472.873	87.44
473.092	80.44
473.311	88.44
473.53	99.44
473.749	99.44
473.968	105.44
474.187	103.44
474.406	82.44
474.625	79.44
474.844	101.44
475.063	90.44
475.282	92.44
475.501	101.44
475.72	93.44
475.939	91.44
476.158	99.44
476.377	89.44
476.596	96.44
476.814	103.44
477.033	102.44
477.252	81.44
477.471	100.44
477.69	101.44
477.908	96.44
478.127	112.44
478.346	113.44
478.564	94.44
478.783	91.44
479.002	96.44
479.22	102.44
479.439	89.44
479.658	86.44
479.876	81.44
480.095	95.44
480.313	105.44
480.532	97.44
480.751	90.44
480.969	85.44
481.188	85.44
481.406	83.44
481.624	76.44
481.843	96.44
482.061	87.44
482.28	84.44
482.498	94.44
482.717	95.44
482.935	108.44
483.153	102.44
483.372	88.44
483.59	95.44
483.808	111.44
484.027	99.44
484.245	101.44
484.463	106.44
484.681	112.44
484.9	104.44
485.118	98.44
485.336	92.44
485.554	80.44
485.772	84.44
485.99	80.44
486.209	85.44
486.427	77.44
486.645	78.44
486.863	86.44
487.081	110.44
487.299	89.44
487.517	109.44
487.735	102.44
487.953	107.44
488.171	122.44
488.389	115.44
488.607	120.44
488.825	96.44
489.043	85.44
489.261	91.44
489.479	103.44
489.696	85.44
489.914	101.44
490.132	89.44
490.35	109.44
490.568	110.44
490.786	103.44
491.003	98.44
491.221	115.44
491.439	100.44
491.657	106.44
491.874	115.44
492.092	122.44
492.31	121.44
492.527	119.44
492.745	111.44
492.963	104.44
493.18	124.44
493.398	109.44
493.615	107.44
493.833	116.44
494.05	95.44
494.268	104.44
494.485	87.44
494.703	97.44
494.92	104.44
495.138	104.44
495.355	121.44
495.573	109.44
495.79	117.44
496.008	109.44
496.225	102.44
496.442	104.44
496.66	113.44
496.877	120.44
497.094	115.44
497.312	91.44
497.529	118.44
497.746	104.44
497.963	116.44
498.181	94.44
498.398	93.44
498.615	93.44
498.832	87.44
499.049	78.44
499.267	86.44
499.484	96.44
499.701	96.44
499.918	92.44
500.135	93.44
500.352	94.44
500.569	102.44
500.786	109.44
501.003	110.44
501.22	103.44
501.437	100.44
501.654	93.44
501.871	88.44
502.088	103.44
502.305	95.44
502.522	98.44
502.739	109.44
502.956	90.44
503.172	80.44
503.389	93.44
503.606	95.44
503.823	108.44
504.04	83.44
504.256	94.44
504.473	94.44
504.69	78.44
504.907	96.44
505.123	77.44
505.34	79.44
505.557	90.44
505.773	92.44
505.99	97.44
506.207	88.44
506.423	85.44
506.64	91.44
506.856	94.44
507.073	90.44
507.289	92.44
507.506	92.44
507.722	113.44
507.939	90.44
508.155	100.44
508.372	91.44
508.588	87.44
508.805	92.44
509.021	72.44
509.238	88.44
509.454	91.44
509.67	79.44
509.887	84.44
510.103	95.44
510.319	91.44
510.536	84.44
510.752	89.44
510.968	84.44
511.184	73.44
511.401	75.44
511.617	83.44
511.833	86.44
512.049	93.44
512.265	72.44
512.481	82.44
512.698	79.44
512.914	97.44
513.13	92.44
513.346	76.44
513.562	75.44
513.778	85.44
513.994	92.44
514.21	91.44
514.426	88.44
514.642	97.44
514.858	92.44
515.074	87.44
515.29	79.44
515.506	81.44
515.721	81.44
515.937	85.44
516.153	91.44
516.369	77.44
516.585	85.44
516.801	92.44
517.016	84.44
517.232	82.44
517.448	87.44
