Data from Location3.07152019.Energy5.Lamp.07192019.3%Agarose_HRD10591_15-16-31-268.txt Node
Date: Fri Jul 19 15:16:31 EDT 2019
User: cochatt
Spectrometer: HR+D1059
Trigger mode: 1
Integration Time (sec): 1.000000E-1
Scans to average: 1
Electric dark correction enabled: true
Nonlinearity correction enabled: false
Boxcar width: 0
XAxis mode: Wavelengths
Number of Pixels in Spectrum: 2048
>>>>>Begin Spectral Data<<<<<
223.165	-8.44
223.4	-8.44
223.635	-8.44
223.869	-4.44
224.104	-28.44
224.338	-16.44
224.573	4.56
224.808	-27.44
225.042	-17.44
225.277	-6.44
225.511	-2.44
225.746	5.56
225.98	7.56
226.215	9.56
226.449	9.56
226.683	17.56
226.918	19.56
227.152	37.56
227.387	26.56
227.621	45.56
227.856	48.56
228.09	53.56
228.324	44.56
228.559	47.56
228.793	63.56
229.027	70.56
229.262	57.56
229.496	58.56
229.73	70.56
229.964	77.56
230.199	73.56
230.433	77.56
230.667	83.56
230.901	83.56
231.136	90.56
231.37	71.56
231.604	90.56
231.838	81.56
232.072	83.56
232.306	89.56
232.541	77.56
232.775	81.56
233.009	93.56
233.243	79.56
233.477	86.56
233.711	79.56
233.945	84.56
234.179	83.56
234.413	79.56
234.647	81.56
234.881	74.56
235.115	88.56
235.349	91.56
235.583	86.56
235.817	76.56
236.051	80.56
236.285	77.56
236.519	77.56
236.753	84.56
236.987	86.56
237.221	76.56
237.455	79.56
237.689	88.56
237.922	84.56
238.156	80.56
238.39	81.56
238.624	76.56
238.858	83.56
239.091	74.56
239.325	90.56
239.559	89.56
239.793	72.56
240.027	83.56
240.26	87.56
240.494	79.56
240.728	63.56
240.961	79.56
241.195	89.56
241.429	70.56
241.662	80.56
241.896	83.56
242.13	87.56
242.363	79.56
242.597	74.56
242.83	67.56
243.064	82.56
243.298	79.56
243.531	80.56
243.765	60.56
243.998	71.56
244.232	83.56
244.465	88.56
244.699	74.56
244.932	89.56
245.166	84.56
245.399	76.56
245.633	77.56
245.866	72.56
246.099	87.56
246.333	78.56
246.566	83.56
246.8	82.56
247.033	84.56
247.266	72.56
247.5	89.56
247.733	73.56
247.966	83.56
248.2	59.56
248.433	93.56
248.666	87.56
248.899	82.56
249.133	83.56
249.366	83.56
249.599	77.56
249.832	68.56
250.066	85.56
250.299	97.56
250.532	85.56
250.765	85.56
250.998	81.56
251.231	87.56
251.465	85.56
251.698	83.56
251.931	82.56
252.164	73.56
252.397	72.56
252.63	87.56
252.863	87.56
253.096	88.56
253.329	93.56
253.562	84.56
253.795	90.56
254.028	78.56
254.261	79.56
254.494	89.56
254.727	72.56
254.96	73.56
255.193	81.56
255.426	80.56
255.659	71.56
255.892	87.56
256.124	85.56
256.357	84.56
256.59	80.56
256.823	64.56
257.056	76.56
257.289	83.56
257.521	97.56
257.754	72.56
257.987	79.56
258.22	96.56
258.452	87.56
258.685	78.56
258.918	85.56
259.151	79.56
259.383	88.56
259.616	75.56
259.849	86.56
260.081	75.56
260.314	66.56
260.547	73.56
260.779	75.56
261.012	94.56
261.244	95.56
261.477	87.56
261.71	88.56
261.942	82.56
262.175	86.56
262.407	77.56
262.64	91.56
262.872	91.56
263.105	86.56
263.337	78.56
263.57	78.56
263.802	83.56
264.035	74.56
264.267	74.56
264.499	87.56
264.732	73.56
264.964	83.56
265.197	83.56
265.429	83.56
265.661	88.56
265.894	86.56
266.126	75.56
266.358	89.56
266.591	84.56
266.823	84.56
267.055	88.56
267.287	101.56
267.52	101.56
267.752	91.56
267.984	79.56
268.216	77.56
268.448	79.56
268.681	78.56
268.913	86.56
269.145	105.56
269.377	85.56
269.609	89.56
269.841	89.56
270.073	77.56
270.306	77.56
270.538	82.56
270.77	85.56
271.002	81.56
271.234	93.56
271.466	91.56
271.698	70.56
271.93	99.56
272.162	80.56
272.394	83.56
272.626	84.56
272.858	83.56
273.09	63.56
273.322	76.56
273.553	96.56
273.785	103.56
274.017	95.56
274.249	75.56
274.481	94.56
274.713	95.56
274.945	88.56
275.176	82.56
275.408	82.56
275.64	86.56
275.872	93.56
276.104	95.56
276.335	89.56
276.567	87.56
276.799	85.56
277.031	88.56
277.262	89.56
277.494	73.56
277.726	90.56
277.957	82.56
278.189	92.56
278.421	85.56
278.652	67.56
278.884	68.56
279.115	87.56
279.347	97.56
279.579	86.56
279.81	82.56
280.042	96.56
280.273	92.56
280.505	87.56
280.736	83.56
280.968	91.56
281.199	89.56
281.431	68.56
281.662	85.56
281.894	87.56
282.125	83.56
282.356	84.56
282.588	76.56
282.819	91.56
283.051	92.56
283.282	82.56
283.513	86.56
283.745	92.56
283.976	99.56
284.207	76.56
284.439	85.56
284.67	103.56
284.901	92.56
285.132	83.56
285.364	96.56
285.595	89.56
285.826	86.56
286.057	97.56
286.288	88.56
286.52	82.56
286.751	97.56
286.982	98.56
287.213	103.56
287.444	101.56
287.675	94.56
287.906	104.56
288.138	81.56
288.369	78.56
288.6	72.56
288.831	83.56
289.062	91.56
289.293	77.56
289.524	77.56
289.755	88.56
289.986	99.56
290.217	92.56
290.448	90.56
290.679	71.56
290.91	76.56
291.141	85.56
291.371	73.56
291.602	94.56
291.833	98.56
292.064	83.56
292.295	79.56
292.526	84.56
292.757	88.56
292.987	92.56
293.218	86.56
293.449	90.56
293.68	85.56
293.91	92.56
294.141	84.56
294.372	76.56
294.603	81.56
294.833	82.56
295.064	83.56
295.295	92.56
295.525	106.56
295.756	77.56
295.987	81.56
296.217	87.56
296.448	89.56
296.679	82.56
296.909	86.56
297.14	77.56
297.37	96.56
297.601	101.56
297.831	86.56
298.062	81.56
298.292	89.56
298.523	83.56
298.753	76.56
298.984	97.56
299.214	91.56
299.445	104.56
299.675	97.56
299.905	91.56
300.136	70.56
300.366	72.56
300.597	85.56
300.827	76.56
301.057	83.56
301.288	76.56
301.518	88.56
301.748	81.56
301.979	99.56
302.209	85.56
302.439	78.56
302.669	96.56
302.9	74.56
303.13	92.56
303.36	105.56
303.59	89.56
303.82	72.56
304.051	65.56
304.281	89.56
304.511	83.56
304.741	74.56
304.971	95.56
305.201	84.56
305.431	78.56
305.661	87.56
305.891	97.56
306.121	96.56
306.352	74.56
306.582	85.56
306.812	81.56
307.042	88.56
307.272	95.56
307.502	93.56
307.731	92.56
307.961	92.56
308.191	75.56
308.421	73.56
308.651	94.56
308.881	80.56
309.111	81.56
309.341	72.56
309.571	84.56
309.8	86.56
310.03	76.56
310.26	87.56
310.49	82.56
310.72	89.56
310.949	81.56
311.179	79.56
311.409	81.56
311.639	99.56
311.868	77.56
312.098	80.56
312.328	89.56
312.557	90.56
312.787	71.56
313.017	75.56
313.246	77.56
313.476	81.56
313.706	85.56
313.935	71.56
314.165	83.56
314.394	85.56
314.624	90.56
314.853	96.56
315.083	79.56
315.312	95.56
315.542	90.56
315.771	95.56
316.001	84.56
316.23	90.56
316.46	81.56
316.689	82.56
316.919	87.56
317.148	97.56
317.377	78.56
317.607	100.56
317.836	77.56
318.065	96.56
318.295	92.56
318.524	88.56
318.753	96.56
318.983	105.56
319.212	96.56
319.441	82.56
319.67	84.56
319.9	85.56
320.129	91.56
320.358	88.56
320.587	83.56
320.816	94.56
321.046	91.56
321.275	98.56
321.504	87.56
321.733	82.56
321.962	77.56
322.191	73.56
322.42	83.56
322.649	80.56
322.878	81.56
323.108	92.56
323.337	96.56
323.566	63.56
323.795	94.56
324.024	86.56
324.253	96.56
324.482	82.56
324.71	97.56
324.939	84.56
325.168	82.56
325.397	89.56
325.626	89.56
325.855	86.56
326.084	91.56
326.313	79.56
326.542	75.56
326.77	85.56
326.999	86.56
327.228	77.56
327.457	87.56
327.686	77.56
327.914	99.56
328.143	83.56
328.372	95.56
328.6	86.56
328.829	75.56
329.058	79.56
329.287	85.56
329.515	96.56
329.744	89.56
329.972	90.56
330.201	76.56
330.43	84.56
330.658	85.56
330.887	91.56
331.115	90.56
331.344	80.56
331.572	81.56
331.801	88.56
332.03	76.56
332.258	97.56
332.486	70.56
332.715	77.56
332.943	68.56
333.172	92.56
333.4	85.56
333.629	99.56
333.857	90.56
334.085	103.56
334.314	90.56
334.542	81.56
334.771	88.56
334.999	104.56
335.227	81.56
335.455	81.56
335.684	96.56
335.912	76.56
336.14	75.56
336.369	76.56
336.597	83.56
336.825	90.56
337.053	82.56
337.281	68.56
337.51	98.56
337.738	90.56
337.966	95.56
338.194	98.56
338.422	90.56
338.65	98.56
338.878	83.56
339.106	68.56
339.334	92.56
339.562	73.56
339.79	79.56
340.018	87.56
340.246	89.56
340.474	90.56
340.702	88.56
340.93	71.56
341.158	83.56
341.386	69.56
341.614	91.56
341.842	92.56
342.07	89.56
342.298	85.56
342.526	85.56
342.754	92.56
342.981	87.56
343.209	76.56
343.437	87.56
343.665	75.56
343.893	76.56
344.12	83.56
344.348	91.56
344.576	88.56
344.804	97.56
345.031	89.56
345.259	70.56
345.487	62.56
345.714	82.56
345.942	93.56
346.17	104.56
346.397	92.56
346.625	84.56
346.853	86.56
347.08	80.56
347.308	85.56
347.535	92.56
347.763	79.56
347.99	88.56
348.218	72.56
348.445	91.56
348.673	86.56
348.9	94.56
349.128	83.56
349.355	77.56
349.583	89.56
349.81	80.56
350.037	85.56
350.265	98.56
350.492	87.56
350.72	83.56
350.947	93.56
351.174	73.56
351.402	75.56
351.629	95.56
351.856	76.56
352.083	79.56
352.311	83.56
352.538	82.56
352.765	88.56
352.992	93.56
353.22	75.56
353.447	83.56
353.674	83.56
353.901	75.56
354.128	97.56
354.355	96.56
354.583	84.56
354.81	80.56
355.037	104.56
355.264	82.56
355.491	101.56
355.718	94.56
355.945	77.56
356.172	85.56
356.399	78.56
356.626	89.56
356.853	88.56
357.08	80.56
357.307	77.56
357.534	88.56
357.761	83.56
357.988	77.56
358.215	94.56
358.441	92.56
358.668	85.56
358.895	85.56
359.122	83.56
359.349	93.56
359.576	68.56
359.802	89.56
360.029	97.56
360.256	81.56
360.483	83.56
360.709	84.56
360.936	88.56
361.163	77.56
361.39	95.56
361.616	72.56
361.843	87.56
362.07	81.56
362.296	80.56
362.523	77.56
362.749	92.56
362.976	82.56
363.203	83.56
363.429	80.56
363.656	82.56
363.882	90.56
364.109	90.56
364.335	99.56
364.562	89.56
364.788	94.56
365.015	68.56
365.241	86.56
365.468	92.56
365.694	78.56
365.92	80.56
366.147	80.56
366.373	83.56
366.599	80.56
366.826	87.56
367.052	76.56
367.278	96.56
367.505	80.56
367.731	81.56
367.957	83.56
368.184	84.56
368.41	83.56
368.636	85.56
368.862	88.56
369.089	96.56
369.315	92.56
369.541	82.56
369.767	89.56
369.993	73.56
370.219	94.56
370.445	79.56
370.672	95.56
370.898	79.56
371.124	77.56
371.35	69.56
371.576	81.56
371.802	86.56
372.028	89.56
372.254	91.56
372.48	89.56
372.706	84.56
372.932	85.56
373.158	99.56
373.384	89.56
373.61	89.56
373.835	80.56
374.061	91.56
374.287	85.56
374.513	80.56
374.739	67.56
374.965	100.56
375.191	73.56
375.416	81.56
375.642	91.56
375.868	92.56
376.094	83.56
376.319	74.56
376.545	72.56
376.771	83.56
376.997	84.56
377.222	81.56
377.448	82.56
377.674	89.56
377.899	77.56
378.125	90.56
378.35	88.56
378.576	81.56
378.802	70.56
379.027	95.56
379.253	82.56
379.478	87.56
379.704	88.56
379.929	87.56
380.155	84.56
380.38	92.56
380.606	102.56
380.831	89.56
381.057	98.56
381.282	91.56
381.507	83.56
381.733	93.56
381.958	99.56
382.184	88.56
382.409	87.56
382.634	88.56
382.86	85.56
383.085	85.56
383.31	90.56
383.535	106.56
383.761	83.56
383.986	89.56
384.211	70.56
384.436	85.56
384.662	106.56
384.887	95.56
385.112	83.56
385.337	86.56
385.562	83.56
385.787	79.56
386.013	97.56
386.238	104.56
386.463	81.56
386.688	69.56
386.913	83.56
387.138	79.56
387.363	92.56
387.588	98.56
387.813	84.56
388.038	90.56
388.263	95.56
388.488	84.56
388.713	75.56
388.938	90.56
389.163	84.56
389.387	91.56
389.612	102.56
389.837	85.56
390.062	85.56
390.287	86.56
390.512	92.56
390.736	87.56
390.961	83.56
391.186	85.56
391.411	89.56
391.636	85.56
391.86	91.56
392.085	91.56
392.31	92.56
392.534	79.56
392.759	90.56
392.984	73.56
393.208	83.56
393.433	95.56
393.658	83.56
393.882	84.56
394.107	84.56
394.331	98.56
394.556	88.56
394.78	85.56
395.005	73.56
395.229	91.56
395.454	80.56
395.678	84.56
395.903	80.56
396.127	92.56
396.352	88.56
396.576	95.56
396.801	78.56
397.025	103.56
397.249	83.56
397.474	99.56
397.698	95.56
397.922	89.56
398.147	85.56
398.371	95.56
398.595	90.56
398.82	92.56
399.044	82.56
399.268	101.56
399.492	77.56
399.717	77.56
399.941	89.56
400.165	87.56
400.389	105.56
400.613	103.56
400.837	88.56
401.062	80.56
401.286	80.56
401.51	92.56
401.734	90.56
401.958	84.56
402.182	84.56
402.406	96.56
402.63	89.56
402.854	79.56
403.078	91.56
403.302	83.56
403.526	97.56
403.75	81.56
403.974	88.56
404.198	79.56
404.422	89.56
404.645	89.56
404.869	92.56
405.093	95.56
405.317	90.56
405.541	99.56
405.765	92.56
405.988	86.56
406.212	84.56
406.436	103.56
406.66	96.56
406.883	85.56
407.107	78.56
407.331	99.56
407.555	103.56
407.778	101.56
408.002	100.56
408.226	80.56
408.449	83.56
408.673	98.56
408.896	95.56
409.12	91.56
409.344	99.56
409.567	105.56
409.791	97.56
410.014	100.56
410.238	85.56
410.461	97.56
410.685	76.56
410.908	80.56
411.132	92.56
411.355	87.56
411.578	100.56
411.802	91.56
412.025	90.56
412.249	85.56
412.472	88.56
412.695	85.56
412.919	87.56
413.142	83.56
413.365	85.56
413.589	90.56
413.812	83.56
414.035	87.56
414.258	87.56
414.482	89.56
414.705	94.56
414.928	91.56
415.151	82.56
415.374	82.56
415.597	91.56
415.821	82.56
416.044	86.56
416.267	88.56
416.49	83.56
416.713	95.56
416.936	105.56
417.159	96.56
417.382	99.56
417.605	95.56
417.828	90.56
418.051	100.56
418.274	101.56
418.497	98.56
418.72	85.56
418.943	97.56
419.166	84.56
419.389	96.56
419.611	100.56
419.834	86.56
420.057	94.56
420.28	89.56
420.503	91.56
420.726	96.56
420.948	95.56
421.171	100.56
421.394	91.56
421.617	104.56
421.839	103.56
422.062	97.56
422.285	112.56
422.507	98.56
422.73	88.56
422.953	99.56
423.175	104.56
423.398	81.56
423.621	96.56
423.843	96.56
424.066	97.56
424.288	94.56
424.511	104.56
424.733	103.56
424.956	87.56
425.178	111.56
425.401	99.56
425.623	101.56
425.846	77.56
426.068	104.56
426.291	112.56
426.513	98.56
426.735	82.56
426.958	98.56
427.18	76.56
427.402	90.56
427.625	99.56
427.847	111.56
428.069	93.56
428.292	92.56
428.514	100.56
428.736	98.56
428.958	96.56
429.181	107.56
429.403	96.56
429.625	100.56
429.847	95.56
430.069	99.56
430.292	86.56
430.514	75.56
430.736	86.56
430.958	97.56
431.18	90.56
431.402	100.56
431.624	96.56
431.846	79.56
432.068	91.56
432.29	85.56
432.512	87.56
432.734	108.56
432.956	103.56
433.178	89.56
433.4	102.56
433.622	88.56
433.844	95.56
434.066	96.56
434.287	93.56
434.509	90.56
434.731	78.56
434.953	85.56
435.175	87.56
435.397	108.56
435.618	90.56
435.84	99.56
436.062	96.56
436.284	89.56
436.505	94.56
436.727	100.56
436.949	91.56
437.17	94.56
437.392	104.56
437.614	99.56
437.835	92.56
438.057	93.56
438.278	92.56
438.5	105.56
438.721	91.56
438.943	109.56
439.165	88.56
439.386	95.56
439.608	96.56
439.829	108.56
440.05	107.56
440.272	98.56
440.493	119.56
440.715	99.56
440.936	100.56
441.158	93.56
441.379	108.56
441.6	88.56
441.822	91.56
442.043	96.56
442.264	105.56
442.486	89.56
442.707	100.56
442.928	87.56
443.149	98.56
443.371	96.56
443.592	95.56
443.813	104.56
444.034	101.56
444.255	108.56
444.476	108.56
444.698	96.56
444.919	96.56
445.14	191.56
445.361	135.56
445.582	114.56
445.803	102.56
446.024	104.56
446.245	103.56
446.466	90.56
446.687	98.56
446.908	100.56
447.129	106.56
447.35	100.56
447.571	119.56
447.792	92.56
448.013	86.56
448.234	82.56
448.455	85.56
448.675	99.56
448.896	97.56
449.117	92.56
449.338	107.56
449.559	87.56
449.779	102.56
450	95.56
450.221	91.56
450.442	84.56
450.662	94.56
450.883	104.56
451.104	108.56
451.324	99.56
451.545	100.56
451.766	94.56
451.986	106.56
452.207	100.56
452.428	98.56
452.648	100.56
452.869	86.56
453.089	79.56
453.31	88.56
453.53	94.56
453.751	97.56
453.971	95.56
454.192	75.56
454.412	91.56
454.633	95.56
454.853	84.56
455.073	95.56
455.294	102.56
455.514	98.56
455.734	86.56
455.955	105.56
456.175	91.56
456.395	93.56
456.616	73.56
456.836	92.56
457.056	77.56
457.276	81.56
457.497	94.56
457.717	86.56
457.937	88.56
458.157	92.56
458.377	85.56
458.598	72.56
458.818	76.56
459.038	68.56
459.258	92.56
459.478	95.56
459.698	80.56
459.918	94.56
460.138	79.56
460.358	100.56
460.578	102.56
460.798	97.56
461.018	88.56
461.238	88.56
461.458	103.56
461.678	98.56
461.898	76.56
462.118	100.56
462.338	93.56
462.558	85.56
462.777	92.56
462.997	86.56
463.217	91.56
463.437	100.56
463.657	81.56
463.876	93.56
464.096	95.56
464.316	91.56
464.536	91.56
464.755	86.56
464.975	97.56
465.195	91.56
465.414	107.56
465.634	93.56
465.854	97.56
466.073	89.56
466.293	87.56
466.512	85.56
466.732	116.56
466.951	103.56
467.171	88.56
467.391	91.56
467.61	104.56
467.829	93.56
468.049	86.56
468.268	99.56
468.488	86.56
468.707	92.56
468.927	101.56
469.146	97.56
469.365	97.56
469.585	98.56
469.804	94.56
470.023	109.56
470.243	102.56
470.462	102.56
470.681	96.56
470.901	98.56
471.12	99.56
471.339	101.56
471.558	105.56
471.777	92.56
471.997	97.56
472.216	98.56
472.435	101.56
472.654	97.56
472.873	100.56
473.092	94.56
473.311	84.56
473.53	102.56
473.749	99.56
473.968	111.56
474.187	90.56
474.406	86.56
474.625	92.56
474.844	102.56
475.063	90.56
475.282	80.56
475.501	90.56
475.72	91.56
475.939	77.56
476.158	90.56
476.377	91.56
476.596	86.56
476.814	87.56
477.033	98.56
477.252	109.56
477.471	98.56
477.69	102.56
477.908	103.56
478.127	104.56
478.346	87.56
478.564	119.56
478.783	108.56
479.002	87.56
479.22	102.56
479.439	102.56
479.658	95.56
479.876	85.56
480.095	85.56
480.313	93.56
480.532	99.56
480.751	90.56
480.969	65.56
481.188	90.56
481.406	97.56
481.624	89.56
481.843	83.56
482.061	83.56
482.28	103.56
482.498	88.56
482.717	93.56
482.935	97.56
483.153	95.56
483.372	121.56
483.59	102.56
483.808	87.56
484.027	98.56
484.245	94.56
484.463	85.56
484.681	111.56
484.9	115.56
485.118	112.56
485.336	95.56
485.554	89.56
485.772	97.56
485.99	94.56
486.209	95.56
486.427	95.56
486.645	97.56
486.863	95.56
487.081	100.56
487.299	96.56
487.517	95.56
487.735	102.56
487.953	111.56
488.171	103.56
488.389	109.56
488.607	104.56
488.825	90.56
489.043	101.56
489.261	99.56
489.479	98.56
489.696	95.56
489.914	110.56
490.132	98.56
490.35	99.56
490.568	101.56
490.786	104.56
491.003	112.56
491.221	109.56
491.439	104.56
491.657	90.56
491.874	124.56
492.092	135.56
492.31	124.56
492.527	115.56
492.745	130.56
492.963	123.56
493.18	102.56
493.398	113.56
493.615	121.56
493.833	114.56
494.05	123.56
494.268	115.56
494.485	109.56
494.703	115.56
494.92	121.56
495.138	109.56
495.355	101.56
495.573	108.56
495.79	124.56
496.008	108.56
496.225	93.56
496.442	107.56
496.66	106.56
496.877	107.56
497.094	108.56
497.312	105.56
497.529	104.56
497.746	120.56
497.963	103.56
498.181	100.56
498.398	100.56
498.615	86.56
498.832	105.56
499.049	88.56
499.267	83.56
499.484	94.56
499.701	98.56
499.918	95.56
500.135	108.56
500.352	95.56
500.569	79.56
500.786	101.56
501.003	105.56
501.22	100.56
501.437	89.56
501.654	99.56
501.871	77.56
502.088	89.56
502.305	89.56
502.522	100.56
502.739	91.56
502.956	87.56
503.172	87.56
503.389	95.56
503.606	91.56
503.823	102.56
504.04	97.56
504.256	100.56
504.473	99.56
504.69	93.56
504.907	95.56
505.123	108.56
505.34	91.56
505.557	88.56
505.773	93.56
505.99	101.56
506.207	95.56
506.423	93.56
506.64	109.56
506.856	90.56
507.073	84.56
507.289	106.56
507.506	88.56
507.722	84.56
507.939	70.56
508.155	82.56
508.372	95.56
508.588	99.56
508.805	102.56
509.021	77.56
509.238	93.56
509.454	77.56
509.67	90.56
509.887	89.56
510.103	82.56
510.319	94.56
510.536	76.56
510.752	76.56
510.968	77.56
511.184	81.56
511.401	88.56
511.617	81.56
511.833	83.56
512.049	83.56
512.265	88.56
512.481	82.56
512.698	93.56
512.914	84.56
513.13	82.56
513.346	75.56
513.562	94.56
513.778	83.56
513.994	91.56
514.21	104.56
514.426	89.56
514.642	76.56
514.858	103.56
515.074	79.56
515.29	87.56
515.506	85.56
515.721	85.56
515.937	95.56
516.153	97.56
516.369	90.56
516.585	70.56
516.801	70.56
517.016	74.56
