Data from Location3.07152019.Energy5.Lamp.07192019.3%Agarose_HRD10591_15-18-34-270.txt Node
Date: Fri Jul 19 15:18:34 EDT 2019
User: cochatt
Spectrometer: HR+D1059
Trigger mode: 1
Integration Time (sec): 1.000000E-1
Scans to average: 1
Electric dark correction enabled: true
Nonlinearity correction enabled: false
Boxcar width: 0
XAxis mode: Wavelengths
Number of Pixels in Spectrum: 2048
>>>>>Begin Spectral Data<<<<<
223.165	-9.38
223.4	-9.38
223.635	-9.38
223.869	-15.38
224.104	-24.38
224.338	-26.38
224.573	-19.38
224.808	-21.38
225.042	-5.38
225.277	0.62
225.511	-14.38
225.746	1.62
225.98	7.62
226.215	13.62
226.449	24.62
226.683	24.62
226.918	24.62
227.152	38.62
227.387	24.62
227.621	34.62
227.856	31.62
228.09	34.62
228.324	61.62
228.559	45.62
228.793	68.62
229.027	64.62
229.262	55.62
229.496	57.62
229.73	64.62
229.964	72.62
230.199	77.62
230.433	86.62
230.667	78.62
230.901	75.62
231.136	71.62
231.37	75.62
231.604	86.62
231.838	81.62
232.072	80.62
232.306	81.62
232.541	78.62
232.775	80.62
233.009	79.62
233.243	77.62
233.477	75.62
233.711	62.62
233.945	76.62
234.179	74.62
234.413	70.62
234.647	74.62
234.881	74.62
235.115	85.62
235.349	75.62
235.583	78.62
235.817	76.62
236.051	89.62
236.285	94.62
236.519	79.62
236.753	78.62
236.987	77.62
237.221	81.62
237.455	91.62
237.689	69.62
237.922	76.62
238.156	74.62
238.39	91.62
238.624	62.62
238.858	65.62
239.091	67.62
239.325	80.62
239.559	73.62
239.793	89.62
240.027	89.62
240.26	79.62
240.494	69.62
240.728	81.62
240.961	76.62
241.195	80.62
241.429	77.62
241.662	84.62
241.896	74.62
242.13	70.62
242.363	87.62
242.597	78.62
242.83	72.62
243.064	71.62
243.298	81.62
243.531	59.62
243.765	81.62
243.998	66.62
244.232	70.62
244.465	72.62
244.699	73.62
244.932	87.62
245.166	82.62
245.399	75.62
245.633	81.62
245.866	77.62
246.099	82.62
246.333	76.62
246.566	86.62
246.8	77.62
247.033	75.62
247.266	71.62
247.5	71.62
247.733	65.62
247.966	73.62
248.2	80.62
248.433	83.62
248.666	78.62
248.899	85.62
249.133	74.62
249.366	73.62
249.599	78.62
249.832	82.62
250.066	83.62
250.299	71.62
250.532	68.62
250.765	68.62
250.998	70.62
251.231	81.62
251.465	80.62
251.698	74.62
251.931	65.62
252.164	75.62
252.397	79.62
252.63	77.62
252.863	77.62
253.096	69.62
253.329	71.62
253.562	80.62
253.795	84.62
254.028	73.62
254.261	84.62
254.494	67.62
254.727	74.62
254.96	88.62
255.193	69.62
255.426	77.62
255.659	71.62
255.892	82.62
256.124	72.62
256.357	83.62
256.59	84.62
256.823	78.62
257.056	75.62
257.289	77.62
257.521	77.62
257.754	88.62
257.987	72.62
258.22	77.62
258.452	65.62
258.685	72.62
258.918	57.62
259.151	79.62
259.383	82.62
259.616	84.62
259.849	84.62
260.081	71.62
260.314	83.62
260.547	77.62
260.779	82.62
261.012	74.62
261.244	94.62
261.477	81.62
261.71	88.62
261.942	81.62
262.175	74.62
262.407	79.62
262.64	74.62
262.872	74.62
263.105	78.62
263.337	80.62
263.57	78.62
263.802	84.62
264.035	88.62
264.267	80.62
264.499	71.62
264.732	78.62
264.964	81.62
265.197	82.62
265.429	85.62
265.661	77.62
265.894	73.62
266.126	82.62
266.358	69.62
266.591	79.62
266.823	83.62
267.055	62.62
267.287	79.62
267.52	87.62
267.752	80.62
267.984	98.62
268.216	82.62
268.448	78.62
268.681	68.62
268.913	89.62
269.145	71.62
269.377	94.62
269.609	73.62
269.841	78.62
270.073	80.62
270.306	72.62
270.538	78.62
270.77	73.62
271.002	78.62
271.234	89.62
271.466	77.62
271.698	90.62
271.93	77.62
272.162	75.62
272.394	81.62
272.626	82.62
272.858	76.62
273.09	74.62
273.322	76.62
273.553	84.62
273.785	93.62
274.017	81.62
274.249	89.62
274.481	86.62
274.713	93.62
274.945	85.62
275.176	66.62
275.408	80.62
275.64	81.62
275.872	77.62
276.104	78.62
276.335	85.62
276.567	86.62
276.799	71.62
277.031	79.62
277.262	86.62
277.494	75.62
277.726	86.62
277.957	76.62
278.189	81.62
278.421	82.62
278.652	95.62
278.884	79.62
279.115	93.62
279.347	74.62
279.579	81.62
279.81	80.62
280.042	69.62
280.273	73.62
280.505	85.62
280.736	71.62
280.968	80.62
281.199	71.62
281.431	79.62
281.662	81.62
281.894	95.62
282.125	95.62
282.356	86.62
282.588	69.62
282.819	76.62
283.051	85.62
283.282	92.62
283.513	85.62
283.745	66.62
283.976	74.62
284.207	85.62
284.439	71.62
284.67	101.62
284.901	80.62
285.132	88.62
285.364	70.62
285.595	78.62
285.826	90.62
286.057	75.62
286.288	81.62
286.52	84.62
286.751	83.62
286.982	80.62
287.213	83.62
287.444	78.62
287.675	80.62
287.906	84.62
288.138	73.62
288.369	74.62
288.6	90.62
288.831	67.62
289.062	87.62
289.293	74.62
289.524	88.62
289.755	81.62
289.986	63.62
290.217	84.62
290.448	97.62
290.679	88.62
290.91	74.62
291.141	87.62
291.371	71.62
291.602	87.62
291.833	78.62
292.064	75.62
292.295	86.62
292.526	78.62
292.757	78.62
292.987	81.62
293.218	81.62
293.449	87.62
293.68	80.62
293.91	71.62
294.141	77.62
294.372	66.62
294.603	83.62
294.833	91.62
295.064	74.62
295.295	68.62
295.525	89.62
295.756	77.62
295.987	67.62
296.217	67.62
296.448	86.62
296.679	80.62
296.909	95.62
297.14	80.62
297.37	79.62
297.601	75.62
297.831	91.62
298.062	89.62
298.292	90.62
298.523	92.62
298.753	84.62
298.984	92.62
299.214	70.62
299.445	84.62
299.675	78.62
299.905	78.62
300.136	73.62
300.366	79.62
300.597	85.62
300.827	94.62
301.057	79.62
301.288	71.62
301.518	99.62
301.748	96.62
301.979	70.62
302.209	88.62
302.439	87.62
302.669	86.62
302.9	80.62
303.13	87.62
303.36	81.62
303.59	85.62
303.82	81.62
304.051	100.62
304.281	91.62
304.511	82.62
304.741	69.62
304.971	79.62
305.201	83.62
305.431	91.62
305.661	88.62
305.891	69.62
306.121	91.62
306.352	85.62
306.582	92.62
306.812	59.62
307.042	65.62
307.272	76.62
307.502	70.62
307.731	76.62
307.961	94.62
308.191	95.62
308.421	96.62
308.651	90.62
308.881	85.62
309.111	74.62
309.341	93.62
309.571	78.62
309.8	80.62
310.03	83.62
310.26	72.62
310.49	75.62
310.72	65.62
310.949	80.62
311.179	87.62
311.409	70.62
311.639	82.62
311.868	89.62
312.098	90.62
312.328	71.62
312.557	74.62
312.787	63.62
313.017	77.62
313.246	84.62
313.476	93.62
313.706	77.62
313.935	84.62
314.165	77.62
314.394	74.62
314.624	86.62
314.853	89.62
315.083	93.62
315.312	82.62
315.542	73.62
315.771	85.62
316.001	95.62
316.23	93.62
316.46	78.62
316.689	72.62
316.919	68.62
317.148	82.62
317.377	78.62
317.607	74.62
317.836	71.62
318.065	68.62
318.295	87.62
318.524	78.62
318.753	69.62
318.983	86.62
319.212	83.62
319.441	67.62
319.67	73.62
319.9	86.62
320.129	70.62
320.358	85.62
320.587	83.62
320.816	71.62
321.046	66.62
321.275	76.62
321.504	71.62
321.733	76.62
321.962	78.62
322.191	93.62
322.42	86.62
322.649	80.62
322.878	84.62
323.108	79.62
323.337	82.62
323.566	88.62
323.795	74.62
324.024	78.62
324.253	84.62
324.482	77.62
324.71	79.62
324.939	78.62
325.168	74.62
325.397	93.62
325.626	87.62
325.855	88.62
326.084	93.62
326.313	85.62
326.542	85.62
326.77	65.62
326.999	84.62
327.228	85.62
327.457	89.62
327.686	89.62
327.914	90.62
328.143	75.62
328.372	76.62
328.6	70.62
328.829	80.62
329.058	75.62
329.287	84.62
329.515	86.62
329.744	86.62
329.972	78.62
330.201	81.62
330.43	71.62
330.658	71.62
330.887	83.62
331.115	80.62
331.344	81.62
331.572	82.62
331.801	93.62
332.03	78.62
332.258	86.62
332.486	103.62
332.715	93.62
332.943	79.62
333.172	88.62
333.4	78.62
333.629	85.62
333.857	78.62
334.085	89.62
334.314	92.62
334.542	76.62
334.771	84.62
334.999	81.62
335.227	89.62
335.455	76.62
335.684	77.62
335.912	84.62
336.14	89.62
336.369	86.62
336.597	76.62
336.825	78.62
337.053	90.62
337.281	90.62
337.51	78.62
337.738	77.62
337.966	84.62
338.194	76.62
338.422	67.62
338.65	71.62
338.878	93.62
339.106	76.62
339.334	81.62
339.562	68.62
339.79	75.62
340.018	83.62
340.246	76.62
340.474	92.62
340.702	89.62
340.93	81.62
341.158	86.62
341.386	93.62
341.614	86.62
341.842	82.62
342.07	80.62
342.298	91.62
342.526	76.62
342.754	79.62
342.981	80.62
343.209	88.62
343.437	83.62
343.665	84.62
343.893	77.62
344.12	85.62
344.348	91.62
344.576	77.62
344.804	85.62
345.031	88.62
345.259	72.62
345.487	73.62
345.714	75.62
345.942	76.62
346.17	84.62
346.397	88.62
346.625	67.62
346.853	78.62
347.08	88.62
347.308	79.62
347.535	71.62
347.763	88.62
347.99	69.62
348.218	86.62
348.445	74.62
348.673	86.62
348.9	91.62
349.128	76.62
349.355	75.62
349.583	82.62
349.81	82.62
350.037	89.62
350.265	86.62
350.492	85.62
350.72	77.62
350.947	83.62
351.174	85.62
351.402	84.62
351.629	82.62
351.856	80.62
352.083	90.62
352.311	80.62
352.538	77.62
352.765	95.62
352.992	80.62
353.22	83.62
353.447	93.62
353.674	94.62
353.901	92.62
354.128	98.62
354.355	81.62
354.583	88.62
354.81	66.62
355.037	82.62
355.264	72.62
355.491	74.62
355.718	79.62
355.945	72.62
356.172	80.62
356.399	92.62
356.626	85.62
356.853	79.62
357.08	72.62
357.307	80.62
357.534	83.62
357.761	78.62
357.988	86.62
358.215	83.62
358.441	84.62
358.668	90.62
358.895	84.62
359.122	73.62
359.349	85.62
359.576	77.62
359.802	88.62
360.029	97.62
360.256	81.62
360.483	76.62
360.709	77.62
360.936	75.62
361.163	93.62
361.39	76.62
361.616	72.62
361.843	88.62
362.07	87.62
362.296	94.62
362.523	85.62
362.749	80.62
362.976	75.62
363.203	81.62
363.429	78.62
363.656	84.62
363.882	88.62
364.109	84.62
364.335	93.62
364.562	72.62
364.788	88.62
365.015	84.62
365.241	90.62
365.468	88.62
365.694	70.62
365.92	98.62
366.147	68.62
366.373	74.62
366.599	74.62
366.826	68.62
367.052	70.62
367.278	94.62
367.505	81.62
367.731	86.62
367.957	83.62
368.184	79.62
368.41	88.62
368.636	84.62
368.862	80.62
369.089	85.62
369.315	76.62
369.541	87.62
369.767	84.62
369.993	74.62
370.219	88.62
370.445	70.62
370.672	90.62
370.898	84.62
371.124	80.62
371.35	89.62
371.576	95.62
371.802	73.62
372.028	76.62
372.254	82.62
372.48	79.62
372.706	73.62
372.932	92.62
373.158	70.62
373.384	85.62
373.61	78.62
373.835	80.62
374.061	93.62
374.287	80.62
374.513	72.62
374.739	62.62
374.965	73.62
375.191	87.62
375.416	77.62
375.642	87.62
375.868	78.62
376.094	86.62
376.319	87.62
376.545	74.62
376.771	78.62
376.997	77.62
377.222	73.62
377.448	76.62
377.674	71.62
377.899	88.62
378.125	77.62
378.35	64.62
378.576	81.62
378.802	81.62
379.027	80.62
379.253	88.62
379.478	87.62
379.704	86.62
379.929	83.62
380.155	88.62
380.38	84.62
380.606	86.62
380.831	96.62
381.057	87.62
381.282	85.62
381.507	75.62
381.733	85.62
381.958	82.62
382.184	75.62
382.409	75.62
382.634	76.62
382.86	74.62
383.085	85.62
383.31	86.62
383.535	94.62
383.761	92.62
383.986	85.62
384.211	78.62
384.436	73.62
384.662	78.62
384.887	81.62
385.112	65.62
385.337	77.62
385.562	80.62
385.787	79.62
386.013	87.62
386.238	80.62
386.463	93.62
386.688	81.62
386.913	71.62
387.138	82.62
387.363	76.62
387.588	80.62
387.813	91.62
388.038	78.62
388.263	74.62
388.488	83.62
388.713	92.62
388.938	93.62
389.163	85.62
389.387	88.62
389.612	75.62
389.837	86.62
390.062	88.62
390.287	75.62
390.512	73.62
390.736	80.62
390.961	94.62
391.186	80.62
391.411	89.62
391.636	81.62
391.86	84.62
392.085	94.62
392.31	80.62
392.534	82.62
392.759	69.62
392.984	83.62
393.208	74.62
393.433	82.62
393.658	86.62
393.882	87.62
394.107	80.62
394.331	93.62
394.556	92.62
394.78	78.62
395.005	81.62
395.229	88.62
395.454	89.62
395.678	89.62
395.903	89.62
396.127	86.62
396.352	79.62
396.576	90.62
396.801	87.62
397.025	86.62
397.249	95.62
397.474	97.62
397.698	86.62
397.922	84.62
398.147	95.62
398.371	81.62
398.595	81.62
398.82	88.62
399.044	85.62
399.268	84.62
399.492	89.62
399.717	76.62
399.941	94.62
400.165	99.62
400.389	97.62
400.613	72.62
400.837	77.62
401.062	93.62
401.286	93.62
401.51	87.62
401.734	73.62
401.958	80.62
402.182	84.62
402.406	81.62
402.63	81.62
402.854	84.62
403.078	73.62
403.302	81.62
403.526	97.62
403.75	88.62
403.974	107.62
404.198	89.62
404.422	91.62
404.645	93.62
404.869	97.62
405.093	88.62
405.317	97.62
405.541	93.62
405.765	106.62
405.988	85.62
406.212	86.62
406.436	85.62
406.66	92.62
406.883	86.62
407.107	85.62
407.331	78.62
407.555	87.62
407.778	83.62
408.002	79.62
408.226	88.62
408.449	84.62
408.673	82.62
408.896	88.62
409.12	88.62
409.344	85.62
409.567	92.62
409.791	84.62
410.014	105.62
410.238	84.62
410.461	83.62
410.685	82.62
410.908	88.62
411.132	104.62
411.355	84.62
411.578	104.62
411.802	90.62
412.025	84.62
412.249	81.62
412.472	86.62
412.695	81.62
412.919	100.62
413.142	104.62
413.365	81.62
413.589	104.62
413.812	86.62
414.035	105.62
414.258	96.62
414.482	87.62
414.705	89.62
414.928	69.62
415.151	97.62
415.374	93.62
415.597	101.62
415.821	102.62
416.044	98.62
416.267	83.62
416.49	80.62
416.713	85.62
416.936	84.62
417.159	93.62
417.382	95.62
417.605	91.62
417.828	94.62
418.051	96.62
418.274	82.62
418.497	76.62
418.72	89.62
418.943	85.62
419.166	99.62
419.389	90.62
419.611	95.62
419.834	84.62
420.057	99.62
420.28	98.62
420.503	80.62
420.726	102.62
420.948	82.62
421.171	99.62
421.394	103.62
421.617	99.62
421.839	92.62
422.062	95.62
422.285	93.62
422.507	83.62
422.73	88.62
422.953	86.62
423.175	94.62
423.398	85.62
423.621	99.62
423.843	88.62
424.066	97.62
424.288	100.62
424.511	101.62
424.733	87.62
424.956	111.62
425.178	87.62
425.401	94.62
425.623	97.62
425.846	102.62
426.068	88.62
426.291	78.62
426.513	88.62
426.735	97.62
426.958	88.62
427.18	92.62
427.402	95.62
427.625	97.62
427.847	98.62
428.069	105.62
428.292	86.62
428.514	88.62
428.736	96.62
428.958	81.62
429.181	90.62
429.403	93.62
429.625	90.62
429.847	90.62
430.069	90.62
430.292	106.62
430.514	102.62
430.736	88.62
430.958	97.62
431.18	94.62
431.402	96.62
431.624	99.62
431.846	78.62
432.068	88.62
432.29	87.62
432.512	69.62
432.734	96.62
432.956	87.62
433.178	87.62
433.4	102.62
433.622	80.62
433.844	86.62
434.066	100.62
434.287	89.62
434.509	80.62
434.731	86.62
434.953	83.62
435.175	101.62
435.397	86.62
435.618	86.62
435.84	93.62
436.062	78.62
436.284	84.62
436.505	86.62
436.727	86.62
436.949	86.62
437.17	93.62
437.392	94.62
437.614	102.62
437.835	95.62
438.057	84.62
438.278	86.62
438.5	85.62
438.721	83.62
438.943	96.62
439.165	78.62
439.386	90.62
439.608	83.62
439.829	80.62
440.05	97.62
440.272	81.62
440.493	83.62
440.715	89.62
440.936	99.62
441.158	85.62
441.379	78.62
441.6	103.62
441.822	97.62
442.043	103.62
442.264	103.62
442.486	87.62
442.707	91.62
442.928	88.62
443.149	89.62
443.371	100.62
443.592	99.62
443.813	102.62
444.034	102.62
444.255	100.62
444.476	95.62
444.698	117.62
444.919	114.62
445.14	226.62
445.361	157.62
445.582	96.62
445.803	90.62
446.024	89.62
446.245	78.62
446.466	98.62
446.687	109.62
446.908	112.62
447.129	101.62
447.35	95.62
447.571	111.62
447.792	103.62
448.013	94.62
448.234	98.62
448.455	106.62
448.675	102.62
448.896	90.62
449.117	94.62
449.338	87.62
449.559	110.62
449.779	96.62
450	93.62
450.221	86.62
450.442	98.62
450.662	100.62
450.883	98.62
451.104	95.62
451.324	96.62
451.545	96.62
451.766	95.62
451.986	84.62
452.207	83.62
452.428	98.62
452.648	96.62
452.869	89.62
453.089	76.62
453.31	86.62
453.53	94.62
453.751	76.62
453.971	71.62
454.192	80.62
454.412	82.62
454.633	90.62
454.853	89.62
455.073	87.62
455.294	87.62
455.514	91.62
455.734	101.62
455.955	80.62
456.175	92.62
456.395	103.62
456.616	89.62
456.836	78.62
457.056	93.62
457.276	86.62
457.497	86.62
457.717	93.62
457.937	84.62
458.157	97.62
458.377	81.62
458.598	72.62
458.818	81.62
459.038	72.62
459.258	68.62
459.478	74.62
459.698	73.62
459.918	83.62
460.138	102.62
460.358	94.62
460.578	97.62
460.798	91.62
461.018	85.62
461.238	86.62
461.458	88.62
461.678	93.62
461.898	96.62
462.118	87.62
462.338	74.62
462.558	90.62
462.777	72.62
462.997	85.62
463.217	92.62
463.437	86.62
463.657	89.62
463.876	96.62
464.096	81.62
464.316	83.62
464.536	79.62
464.755	81.62
464.975	89.62
465.195	94.62
465.414	87.62
465.634	87.62
465.854	81.62
466.073	94.62
466.293	81.62
466.512	87.62
466.732	104.62
466.951	82.62
467.171	101.62
467.391	83.62
467.61	95.62
467.829	86.62
468.049	87.62
468.268	88.62
468.488	91.62
468.707	88.62
468.927	89.62
469.146	102.62
469.365	97.62
469.585	104.62
469.804	90.62
470.023	96.62
470.243	87.62
470.462	93.62
470.681	99.62
470.901	102.62
471.12	102.62
471.339	108.62
471.558	94.62
471.777	96.62
471.997	90.62
472.216	80.62
472.435	81.62
472.654	92.62
472.873	86.62
473.092	90.62
473.311	90.62
473.53	90.62
473.749	83.62
473.968	92.62
474.187	92.62
474.406	88.62
474.625	99.62
474.844	107.62
475.063	85.62
475.282	92.62
475.501	96.62
475.72	91.62
475.939	83.62
476.158	87.62
476.377	80.62
476.596	90.62
476.814	95.62
477.033	90.62
477.252	90.62
477.471	87.62
477.69	87.62
477.908	89.62
478.127	92.62
478.346	101.62
478.564	93.62
478.783	89.62
479.002	98.62
479.22	96.62
479.439	89.62
479.658	84.62
479.876	100.62
480.095	88.62
480.313	94.62
480.532	95.62
480.751	90.62
480.969	83.62
481.188	97.62
481.406	85.62
481.624	78.62
481.843	84.62
482.061	79.62
482.28	89.62
482.498	102.62
482.717	93.62
482.935	95.62
483.153	101.62
483.372	94.62
483.59	106.62
483.808	106.62
484.027	101.62
484.245	100.62
484.463	93.62
484.681	104.62
484.9	88.62
485.118	87.62
485.336	81.62
485.554	79.62
485.772	91.62
485.99	83.62
486.209	82.62
486.427	92.62
486.645	81.62
486.863	95.62
487.081	101.62
487.299	91.62
487.517	91.62
487.735	105.62
487.953	118.62
488.171	118.62
488.389	111.62
488.607	99.62
488.825	94.62
489.043	103.62
489.261	96.62
489.479	88.62
489.696	93.62
489.914	99.62
490.132	93.62
490.35	97.62
490.568	105.62
490.786	96.62
491.003	105.62
491.221	127.62
491.439	114.62
491.657	98.62
491.874	120.62
492.092	124.62
492.31	117.62
492.527	110.62
492.745	116.62
492.963	113.62
493.18	112.62
493.398	114.62
493.615	107.62
493.833	108.62
494.05	105.62
494.268	98.62
494.485	110.62
494.703	105.62
494.92	106.62
495.138	108.62
495.355	100.62
495.573	105.62
495.79	97.62
496.008	121.62
496.225	119.62
496.442	108.62
496.66	117.62
496.877	102.62
497.094	111.62
497.312	100.62
497.529	108.62
497.746	95.62
497.963	95.62
498.181	80.62
498.398	86.62
498.615	90.62
498.832	90.62
499.049	95.62
499.267	90.62
499.484	102.62
499.701	94.62
499.918	115.62
500.135	102.62
500.352	100.62
500.569	97.62
500.786	92.62
501.003	94.62
501.22	97.62
501.437	92.62
501.654	98.62
501.871	96.62
502.088	117.62
502.305	102.62
502.522	82.62
502.739	95.62
502.956	78.62
503.172	81.62
503.389	102.62
503.606	97.62
503.823	94.62
504.04	87.62
504.256	83.62
504.473	95.62
504.69	86.62
504.907	92.62
505.123	100.62
505.34	92.62
505.557	100.62
505.773	101.62
505.99	95.62
506.207	80.62
506.423	94.62
506.64	89.62
506.856	102.62
507.073	78.62
507.289	85.62
507.506	95.62
507.722	88.62
507.939	95.62
508.155	86.62
508.372	95.62
508.588	101.62
508.805	103.62
509.021	95.62
509.238	90.62
509.454	85.62
509.67	71.62
509.887	89.62
510.103	81.62
510.319	80.62
510.536	80.62
510.752	81.62
510.968	79.62
511.184	86.62
511.401	72.62
511.617	77.62
511.833	80.62
512.049	88.62
512.265	78.62
512.481	78.62
512.698	70.62
512.914	79.62
513.13	76.62
513.346	83.62
513.562	81.62
513.778	78.62
513.994	71.62
514.21	85.62
514.426	88.62
514.642	93.62
514.858	83.62
515.074	94.62
515.29	81.62
515.506	78.62
515.721	75.62
515.937	77.62
516.153	100.62
516.369	80.62
516.585	72.62
516.801	88.62
517.016	104.62
517.232	80.62
517.448	76.62
517.664	86.62
517.879	78.62
