Data from Location3.07152019.Energy5.Lamp.07192019.3%Agarose_HRD10591_15-16-55-268.txt Node
Date: Fri Jul 19 15:16:55 EDT 2019
User: cochatt
Spectrometer: HR+D1059
Trigger mode: 1
Integration Time (sec): 1.000000E-1
Scans to average: 1
Electric dark correction enabled: true
Nonlinearity correction enabled: false
Boxcar width: 0
XAxis mode: Wavelengths
Number of Pixels in Spectrum: 2048
>>>>>Begin Spectral Data<<<<<
223.165	-24.75
223.4	-24.75
223.635	-24.75
223.869	2.25
224.104	-16.75
224.338	1.25
224.573	-28.75
224.808	-13.75
225.042	-4.75
225.277	-10.75
225.511	4.25
225.746	-0.75
225.98	11.25
226.215	20.25
226.449	7.25
226.683	2.25
226.918	24.25
227.152	27.25
227.387	30.25
227.621	40.25
227.856	27.25
228.09	49.25
228.324	42.25
228.559	52.25
228.793	59.25
229.027	56.25
229.262	70.25
229.496	69.25
229.73	61.25
229.964	82.25
230.199	60.25
230.433	73.25
230.667	86.25
230.901	93.25
231.136	73.25
231.37	81.25
231.604	81.25
231.838	88.25
232.072	81.25
232.306	89.25
232.541	87.25
232.775	80.25
233.009	78.25
233.243	71.25
233.477	81.25
233.711	77.25
233.945	75.25
234.179	82.25
234.413	71.25
234.647	73.25
234.881	88.25
235.115	82.25
235.349	64.25
235.583	90.25
235.817	80.25
236.051	71.25
236.285	80.25
236.519	76.25
236.753	88.25
236.987	64.25
237.221	86.25
237.455	85.25
237.689	78.25
237.922	68.25
238.156	69.25
238.39	81.25
238.624	81.25
238.858	74.25
239.091	82.25
239.325	78.25
239.559	77.25
239.793	74.25
240.027	72.25
240.26	81.25
240.494	89.25
240.728	78.25
240.961	74.25
241.195	76.25
241.429	85.25
241.662	87.25
241.896	76.25
242.13	77.25
242.363	87.25
242.597	79.25
242.83	77.25
243.064	80.25
243.298	73.25
243.531	69.25
243.765	71.25
243.998	59.25
244.232	71.25
244.465	81.25
244.699	83.25
244.932	81.25
245.166	66.25
245.399	90.25
245.633	79.25
245.866	76.25
246.099	75.25
246.333	89.25
246.566	81.25
246.8	89.25
247.033	78.25
247.266	85.25
247.5	84.25
247.733	76.25
247.966	66.25
248.2	81.25
248.433	83.25
248.666	77.25
248.899	92.25
249.133	88.25
249.366	70.25
249.599	74.25
249.832	75.25
250.066	76.25
250.299	68.25
250.532	85.25
250.765	77.25
250.998	76.25
251.231	83.25
251.465	74.25
251.698	67.25
251.931	77.25
252.164	74.25
252.397	78.25
252.63	70.25
252.863	92.25
253.096	77.25
253.329	82.25
253.562	87.25
253.795	81.25
254.028	92.25
254.261	95.25
254.494	83.25
254.727	84.25
254.96	84.25
255.193	95.25
255.426	74.25
255.659	86.25
255.892	79.25
256.124	82.25
256.357	77.25
256.59	96.25
256.823	80.25
257.056	70.25
257.289	88.25
257.521	81.25
257.754	86.25
257.987	87.25
258.22	75.25
258.452	74.25
258.685	79.25
258.918	68.25
259.151	76.25
259.383	93.25
259.616	69.25
259.849	79.25
260.081	81.25
260.314	84.25
260.547	81.25
260.779	79.25
261.012	87.25
261.244	81.25
261.477	85.25
261.71	79.25
261.942	81.25
262.175	72.25
262.407	87.25
262.64	76.25
262.872	91.25
263.105	84.25
263.337	76.25
263.57	69.25
263.802	91.25
264.035	76.25
264.267	82.25
264.499	92.25
264.732	93.25
264.964	76.25
265.197	78.25
265.429	82.25
265.661	87.25
265.894	98.25
266.126	84.25
266.358	83.25
266.591	79.25
266.823	80.25
267.055	91.25
267.287	83.25
267.52	74.25
267.752	70.25
267.984	93.25
268.216	67.25
268.448	70.25
268.681	84.25
268.913	90.25
269.145	68.25
269.377	92.25
269.609	81.25
269.841	84.25
270.073	69.25
270.306	83.25
270.538	74.25
270.77	76.25
271.002	84.25
271.234	83.25
271.466	80.25
271.698	77.25
271.93	79.25
272.162	86.25
272.394	71.25
272.626	88.25
272.858	71.25
273.09	85.25
273.322	84.25
273.553	82.25
273.785	83.25
274.017	81.25
274.249	88.25
274.481	84.25
274.713	93.25
274.945	87.25
275.176	83.25
275.408	90.25
275.64	84.25
275.872	71.25
276.104	70.25
276.335	88.25
276.567	85.25
276.799	89.25
277.031	81.25
277.262	80.25
277.494	84.25
277.726	77.25
277.957	81.25
278.189	80.25
278.421	70.25
278.652	82.25
278.884	81.25
279.115	79.25
279.347	74.25
279.579	80.25
279.81	96.25
280.042	85.25
280.273	84.25
280.505	87.25
280.736	78.25
280.968	80.25
281.199	81.25
281.431	102.25
281.662	86.25
281.894	92.25
282.125	81.25
282.356	80.25
282.588	77.25
282.819	77.25
283.051	74.25
283.282	76.25
283.513	73.25
283.745	85.25
283.976	87.25
284.207	84.25
284.439	87.25
284.67	97.25
284.901	76.25
285.132	79.25
285.364	78.25
285.595	90.25
285.826	84.25
286.057	77.25
286.288	87.25
286.52	89.25
286.751	79.25
286.982	81.25
287.213	81.25
287.444	78.25
287.675	76.25
287.906	85.25
288.138	84.25
288.369	91.25
288.6	86.25
288.831	81.25
289.062	87.25
289.293	90.25
289.524	85.25
289.755	90.25
289.986	81.25
290.217	79.25
290.448	77.25
290.679	82.25
290.91	97.25
291.141	86.25
291.371	106.25
291.602	65.25
291.833	80.25
292.064	78.25
292.295	83.25
292.526	76.25
292.757	82.25
292.987	92.25
293.218	79.25
293.449	74.25
293.68	92.25
293.91	92.25
294.141	76.25
294.372	82.25
294.603	79.25
294.833	84.25
295.064	83.25
295.295	97.25
295.525	85.25
295.756	93.25
295.987	73.25
296.217	88.25
296.448	82.25
296.679	71.25
296.909	85.25
297.14	91.25
297.37	93.25
297.601	89.25
297.831	95.25
298.062	87.25
298.292	97.25
298.523	69.25
298.753	79.25
298.984	102.25
299.214	91.25
299.445	91.25
299.675	81.25
299.905	72.25
300.136	75.25
300.366	83.25
300.597	92.25
300.827	88.25
301.057	75.25
301.288	82.25
301.518	78.25
301.748	86.25
301.979	82.25
302.209	89.25
302.439	84.25
302.669	88.25
302.9	87.25
303.13	93.25
303.36	85.25
303.59	79.25
303.82	82.25
304.051	90.25
304.281	81.25
304.511	89.25
304.741	94.25
304.971	96.25
305.201	85.25
305.431	87.25
305.661	79.25
305.891	81.25
306.121	89.25
306.352	84.25
306.582	95.25
306.812	89.25
307.042	80.25
307.272	94.25
307.502	87.25
307.731	82.25
307.961	96.25
308.191	85.25
308.421	71.25
308.651	78.25
308.881	86.25
309.111	82.25
309.341	87.25
309.571	77.25
309.8	75.25
310.03	89.25
310.26	96.25
310.49	69.25
310.72	75.25
310.949	89.25
311.179	102.25
311.409	81.25
311.639	91.25
311.868	95.25
312.098	83.25
312.328	88.25
312.557	96.25
312.787	88.25
313.017	90.25
313.246	73.25
313.476	91.25
313.706	85.25
313.935	84.25
314.165	82.25
314.394	85.25
314.624	86.25
314.853	77.25
315.083	85.25
315.312	83.25
315.542	89.25
315.771	76.25
316.001	88.25
316.23	89.25
316.46	85.25
316.689	65.25
316.919	81.25
317.148	85.25
317.377	94.25
317.607	94.25
317.836	78.25
318.065	83.25
318.295	84.25
318.524	82.25
318.753	72.25
318.983	99.25
319.212	84.25
319.441	77.25
319.67	91.25
319.9	112.25
320.129	79.25
320.358	85.25
320.587	88.25
320.816	98.25
321.046	82.25
321.275	90.25
321.504	87.25
321.733	80.25
321.962	84.25
322.191	68.25
322.42	75.25
322.649	79.25
322.878	80.25
323.108	84.25
323.337	87.25
323.566	82.25
323.795	84.25
324.024	81.25
324.253	79.25
324.482	89.25
324.71	78.25
324.939	90.25
325.168	77.25
325.397	87.25
325.626	87.25
325.855	77.25
326.084	74.25
326.313	84.25
326.542	88.25
326.77	71.25
326.999	79.25
327.228	92.25
327.457	100.25
327.686	92.25
327.914	79.25
328.143	85.25
328.372	74.25
328.6	79.25
328.829	98.25
329.058	93.25
329.287	85.25
329.515	83.25
329.744	78.25
329.972	91.25
330.201	75.25
330.43	90.25
330.658	72.25
330.887	77.25
331.115	84.25
331.344	94.25
331.572	87.25
331.801	99.25
332.03	89.25
332.258	86.25
332.486	78.25
332.715	81.25
332.943	89.25
333.172	87.25
333.4	79.25
333.629	90.25
333.857	80.25
334.085	83.25
334.314	85.25
334.542	84.25
334.771	84.25
334.999	96.25
335.227	85.25
335.455	77.25
335.684	77.25
335.912	85.25
336.14	84.25
336.369	90.25
336.597	77.25
336.825	84.25
337.053	101.25
337.281	90.25
337.51	85.25
337.738	64.25
337.966	79.25
338.194	90.25
338.422	84.25
338.65	96.25
338.878	88.25
339.106	94.25
339.334	80.25
339.562	90.25
339.79	85.25
340.018	81.25
340.246	75.25
340.474	77.25
340.702	82.25
340.93	87.25
341.158	93.25
341.386	92.25
341.614	59.25
341.842	94.25
342.07	90.25
342.298	84.25
342.526	91.25
342.754	77.25
342.981	88.25
343.209	89.25
343.437	69.25
343.665	76.25
343.893	85.25
344.12	78.25
344.348	85.25
344.576	90.25
344.804	84.25
345.031	98.25
345.259	79.25
345.487	85.25
345.714	71.25
345.942	83.25
346.17	92.25
346.397	88.25
346.625	79.25
346.853	78.25
347.08	76.25
347.308	84.25
347.535	76.25
347.763	88.25
347.99	107.25
348.218	84.25
348.445	72.25
348.673	81.25
348.9	81.25
349.128	81.25
349.355	68.25
349.583	84.25
349.81	98.25
350.037	102.25
350.265	80.25
350.492	89.25
350.72	93.25
350.947	83.25
351.174	96.25
351.402	89.25
351.629	93.25
351.856	91.25
352.083	66.25
352.311	85.25
352.538	81.25
352.765	81.25
352.992	77.25
353.22	79.25
353.447	74.25
353.674	82.25
353.901	85.25
354.128	95.25
354.355	83.25
354.583	82.25
354.81	84.25
355.037	92.25
355.264	75.25
355.491	95.25
355.718	74.25
355.945	86.25
356.172	72.25
356.399	86.25
356.626	88.25
356.853	85.25
357.08	78.25
357.307	83.25
357.534	84.25
357.761	81.25
357.988	84.25
358.215	88.25
358.441	93.25
358.668	85.25
358.895	84.25
359.122	72.25
359.349	94.25
359.576	75.25
359.802	81.25
360.029	74.25
360.256	85.25
360.483	85.25
360.709	93.25
360.936	91.25
361.163	95.25
361.39	79.25
361.616	84.25
361.843	92.25
362.07	76.25
362.296	80.25
362.523	86.25
362.749	84.25
362.976	88.25
363.203	88.25
363.429	73.25
363.656	84.25
363.882	77.25
364.109	88.25
364.335	96.25
364.562	87.25
364.788	80.25
365.015	86.25
365.241	76.25
365.468	77.25
365.694	86.25
365.92	84.25
366.147	89.25
366.373	81.25
366.599	85.25
366.826	73.25
367.052	86.25
367.278	70.25
367.505	81.25
367.731	99.25
367.957	87.25
368.184	91.25
368.41	76.25
368.636	86.25
368.862	92.25
369.089	72.25
369.315	84.25
369.541	85.25
369.767	92.25
369.993	81.25
370.219	85.25
370.445	77.25
370.672	74.25
370.898	75.25
371.124	90.25
371.35	77.25
371.576	84.25
371.802	76.25
372.028	81.25
372.254	87.25
372.48	82.25
372.706	87.25
372.932	71.25
373.158	92.25
373.384	103.25
373.61	96.25
373.835	84.25
374.061	86.25
374.287	80.25
374.513	81.25
374.739	92.25
374.965	82.25
375.191	84.25
375.416	70.25
375.642	93.25
375.868	84.25
376.094	85.25
376.319	96.25
376.545	94.25
376.771	84.25
376.997	93.25
377.222	92.25
377.448	83.25
377.674	82.25
377.899	100.25
378.125	91.25
378.35	82.25
378.576	88.25
378.802	82.25
379.027	86.25
379.253	83.25
379.478	102.25
379.704	78.25
379.929	82.25
380.155	83.25
380.38	80.25
380.606	73.25
380.831	84.25
381.057	95.25
381.282	108.25
381.507	100.25
381.733	96.25
381.958	87.25
382.184	89.25
382.409	90.25
382.634	93.25
382.86	76.25
383.085	92.25
383.31	90.25
383.535	104.25
383.761	79.25
383.986	85.25
384.211	85.25
384.436	67.25
384.662	90.25
384.887	92.25
385.112	82.25
385.337	95.25
385.562	91.25
385.787	85.25
386.013	98.25
386.238	76.25
386.463	80.25
386.688	82.25
386.913	81.25
387.138	76.25
387.363	96.25
387.588	84.25
387.813	89.25
388.038	81.25
388.263	67.25
388.488	75.25
388.713	84.25
388.938	85.25
389.163	97.25
389.387	86.25
389.612	77.25
389.837	84.25
390.062	90.25
390.287	96.25
390.512	92.25
390.736	96.25
390.961	75.25
391.186	84.25
391.411	77.25
391.636	95.25
391.86	91.25
392.085	94.25
392.31	95.25
392.534	89.25
392.759	85.25
392.984	90.25
393.208	88.25
393.433	82.25
393.658	97.25
393.882	81.25
394.107	88.25
394.331	85.25
394.556	79.25
394.78	91.25
395.005	80.25
395.229	77.25
395.454	82.25
395.678	80.25
395.903	97.25
396.127	91.25
396.352	85.25
396.576	78.25
396.801	79.25
397.025	105.25
397.249	83.25
397.474	100.25
397.698	88.25
397.922	89.25
398.147	77.25
398.371	80.25
398.595	99.25
398.82	89.25
399.044	93.25
399.268	99.25
399.492	90.25
399.717	83.25
399.941	98.25
400.165	80.25
400.389	83.25
400.613	106.25
400.837	91.25
401.062	100.25
401.286	87.25
401.51	88.25
401.734	87.25
401.958	81.25
402.182	89.25
402.406	86.25
402.63	99.25
402.854	77.25
403.078	100.25
403.302	92.25
403.526	92.25
403.75	84.25
403.974	77.25
404.198	83.25
404.422	77.25
404.645	88.25
404.869	93.25
405.093	88.25
405.317	84.25
405.541	92.25
405.765	96.25
405.988	98.25
406.212	100.25
406.436	90.25
406.66	107.25
406.883	105.25
407.107	100.25
407.331	81.25
407.555	88.25
407.778	83.25
408.002	91.25
408.226	95.25
408.449	78.25
408.673	92.25
408.896	102.25
409.12	87.25
409.344	101.25
409.567	97.25
409.791	92.25
410.014	81.25
410.238	88.25
410.461	98.25
410.685	92.25
410.908	92.25
411.132	87.25
411.355	99.25
411.578	93.25
411.802	76.25
412.025	89.25
412.249	88.25
412.472	73.25
412.695	87.25
412.919	92.25
413.142	76.25
413.365	80.25
413.589	92.25
413.812	90.25
414.035	104.25
414.258	80.25
414.482	98.25
414.705	90.25
414.928	92.25
415.151	86.25
415.374	98.25
415.597	85.25
415.821	85.25
416.044	77.25
416.267	99.25
416.49	109.25
416.713	95.25
416.936	106.25
417.159	90.25
417.382	102.25
417.605	79.25
417.828	87.25
418.051	111.25
418.274	98.25
418.497	98.25
418.72	89.25
418.943	95.25
419.166	94.25
419.389	88.25
419.611	106.25
419.834	90.25
420.057	96.25
420.28	98.25
420.503	91.25
420.726	81.25
420.948	90.25
421.171	91.25
421.394	89.25
421.617	86.25
421.839	96.25
422.062	108.25
422.285	80.25
422.507	101.25
422.73	97.25
422.953	83.25
423.175	81.25
423.398	86.25
423.621	102.25
423.843	87.25
424.066	90.25
424.288	102.25
424.511	100.25
424.733	105.25
424.956	96.25
425.178	108.25
425.401	93.25
425.623	103.25
425.846	94.25
426.068	93.25
426.291	97.25
426.513	92.25
426.735	95.25
426.958	92.25
427.18	101.25
427.402	100.25
427.625	100.25
427.847	85.25
428.069	103.25
428.292	85.25
428.514	96.25
428.736	99.25
428.958	101.25
429.181	97.25
429.403	99.25
429.625	87.25
429.847	91.25
430.069	88.25
430.292	108.25
430.514	95.25
430.736	87.25
430.958	80.25
431.18	90.25
431.402	104.25
431.624	103.25
431.846	85.25
432.068	87.25
432.29	83.25
432.512	95.25
432.734	87.25
432.956	92.25
433.178	97.25
433.4	104.25
433.622	112.25
433.844	94.25
434.066	87.25
434.287	92.25
434.509	85.25
434.731	84.25
434.953	88.25
435.175	96.25
435.397	98.25
435.618	83.25
435.84	91.25
436.062	91.25
436.284	93.25
436.505	103.25
436.727	116.25
436.949	93.25
437.17	85.25
437.392	100.25
437.614	107.25
437.835	81.25
438.057	85.25
438.278	85.25
438.5	101.25
438.721	107.25
438.943	97.25
439.165	91.25
439.386	101.25
439.608	113.25
439.829	91.25
440.05	88.25
440.272	107.25
440.493	102.25
440.715	113.25
440.936	108.25
441.158	108.25
441.379	99.25
441.6	100.25
441.822	97.25
442.043	105.25
442.264	99.25
442.486	93.25
442.707	91.25
442.928	95.25
443.149	106.25
443.371	81.25
443.592	92.25
443.813	99.25
444.034	97.25
444.255	98.25
444.476	109.25
444.698	88.25
444.919	102.25
445.14	243.25
445.361	159.25
445.582	101.25
445.803	87.25
446.024	95.25
446.245	97.25
446.466	98.25
446.687	96.25
446.908	91.25
447.129	102.25
447.35	103.25
447.571	108.25
447.792	100.25
448.013	105.25
448.234	100.25
448.455	88.25
448.675	98.25
448.896	103.25
449.117	97.25
449.338	98.25
449.559	101.25
449.779	101.25
450	95.25
450.221	90.25
450.442	89.25
450.662	93.25
450.883	115.25
451.104	98.25
451.324	95.25
451.545	92.25
451.766	99.25
451.986	103.25
452.207	85.25
452.428	89.25
452.648	93.25
452.869	93.25
453.089	85.25
453.31	97.25
453.53	87.25
453.751	93.25
453.971	81.25
454.192	89.25
454.412	87.25
454.633	88.25
454.853	92.25
455.073	91.25
455.294	97.25
455.514	105.25
455.734	92.25
455.955	91.25
456.175	95.25
456.395	98.25
456.616	91.25
456.836	83.25
457.056	93.25
457.276	69.25
457.497	87.25
457.717	95.25
457.937	90.25
458.157	103.25
458.377	77.25
458.598	65.25
458.818	99.25
459.038	68.25
459.258	86.25
459.478	79.25
459.698	81.25
459.918	86.25
460.138	93.25
460.358	85.25
460.578	91.25
460.798	82.25
461.018	101.25
461.238	96.25
461.458	98.25
461.678	100.25
461.898	98.25
462.118	105.25
462.338	84.25
462.558	82.25
462.777	89.25
462.997	79.25
463.217	96.25
463.437	106.25
463.657	99.25
463.876	97.25
464.096	96.25
464.316	86.25
464.536	103.25
464.755	90.25
464.975	75.25
465.195	74.25
465.414	76.25
465.634	101.25
465.854	98.25
466.073	95.25
466.293	112.25
466.512	98.25
466.732	87.25
466.951	85.25
467.171	103.25
467.391	112.25
467.61	84.25
467.829	91.25
468.049	94.25
468.268	85.25
468.488	83.25
468.707	97.25
468.927	106.25
469.146	88.25
469.365	97.25
469.585	104.25
469.804	109.25
470.023	92.25
470.243	99.25
470.462	92.25
470.681	99.25
470.901	104.25
471.12	103.25
471.339	114.25
471.558	91.25
471.777	94.25
471.997	91.25
472.216	95.25
472.435	90.25
472.654	87.25
472.873	91.25
473.092	89.25
473.311	87.25
473.53	102.25
473.749	81.25
473.968	97.25
474.187	87.25
474.406	88.25
474.625	99.25
474.844	100.25
475.063	102.25
475.282	81.25
475.501	91.25
475.72	93.25
475.939	107.25
476.158	98.25
476.377	75.25
476.596	87.25
476.814	90.25
477.033	99.25
477.252	95.25
477.471	90.25
477.69	99.25
477.908	107.25
478.127	100.25
478.346	111.25
478.564	111.25
478.783	99.25
479.002	107.25
479.22	103.25
479.439	92.25
479.658	88.25
479.876	98.25
480.095	80.25
480.313	91.25
480.532	91.25
480.751	86.25
480.969	84.25
481.188	85.25
481.406	73.25
481.624	95.25
481.843	95.25
482.061	85.25
482.28	97.25
482.498	96.25
482.717	76.25
482.935	92.25
483.153	97.25
483.372	107.25
483.59	114.25
483.808	98.25
484.027	101.25
484.245	99.25
484.463	91.25
484.681	108.25
484.9	108.25
485.118	107.25
485.336	93.25
485.554	93.25
485.772	82.25
485.99	99.25
486.209	90.25
486.427	98.25
486.645	97.25
486.863	103.25
487.081	102.25
487.299	96.25
487.517	99.25
487.735	106.25
487.953	107.25
488.171	106.25
488.389	112.25
488.607	95.25
488.825	84.25
489.043	97.25
489.261	113.25
489.479	97.25
489.696	93.25
489.914	101.25
490.132	94.25
490.35	104.25
490.568	101.25
490.786	93.25
491.003	104.25
491.221	108.25
491.439	107.25
491.657	117.25
491.874	111.25
492.092	130.25
492.31	125.25
492.527	112.25
492.745	115.25
492.963	118.25
493.18	127.25
493.398	108.25
493.615	106.25
493.833	107.25
494.05	105.25
494.268	98.25
494.485	107.25
494.703	113.25
494.92	99.25
495.138	102.25
495.355	105.25
495.573	112.25
495.79	99.25
496.008	108.25
496.225	92.25
496.442	110.25
496.66	107.25
496.877	118.25
497.094	95.25
497.312	98.25
497.529	108.25
497.746	114.25
497.963	100.25
498.181	89.25
498.398	84.25
498.615	85.25
498.832	89.25
499.049	105.25
499.267	96.25
499.484	90.25
499.701	102.25
499.918	100.25
500.135	91.25
500.352	93.25
500.569	101.25
500.786	106.25
501.003	111.25
501.22	95.25
501.437	108.25
501.654	99.25
501.871	95.25
502.088	97.25
502.305	109.25
502.522	102.25
502.739	88.25
502.956	95.25
503.172	92.25
503.389	98.25
503.606	90.25
503.823	94.25
504.04	93.25
504.256	109.25
504.473	91.25
504.69	96.25
504.907	89.25
505.123	87.25
505.34	104.25
505.557	96.25
505.773	93.25
505.99	98.25
506.207	89.25
506.423	85.25
506.64	86.25
506.856	98.25
507.073	103.25
507.289	90.25
507.506	101.25
507.722	92.25
507.939	94.25
508.155	108.25
508.372	103.25
508.588	98.25
508.805	93.25
509.021	94.25
509.238	96.25
509.454	87.25
509.67	89.25
509.887	89.25
510.103	86.25
510.319	74.25
510.536	79.25
510.752	77.25
510.968	96.25
511.184	92.25
511.401	83.25
511.617	69.25
511.833	81.25
512.049	96.25
512.265	93.25
512.481	86.25
512.698	75.25
512.914	96.25
513.13	76.25
513.346	74.25
513.562	86.25
513.778	93.25
513.994	74.25
514.21	71.25
514.426	80.25
514.642	85.25
514.858	93.25
515.074	76.25
515.29	85.25
515.506	88.25
515.721	91.25
515.937	85.25
516.153	91.25
516.369	77.25
516.585	85.25
516.801	85.25
517.016	95.25
517.232	77.25
