Data from Location3.07152019.Energy5.Lamp.07192019.3%Agarose_HRD10591_15-16-45-270.txt Node
Date: Fri Jul 19 15:16:45 EDT 2019
User: cochatt
Spectrometer: HR+D1059
Trigger mode: 1
Integration Time (sec): 1.000000E-1
Scans to average: 1
Electric dark correction enabled: true
Nonlinearity correction enabled: false
Boxcar width: 0
XAxis mode: Wavelengths
Number of Pixels in Spectrum: 2048
>>>>>Begin Spectral Data<<<<<
223.165	-29.62
223.4	-29.62
223.635	-29.62
223.869	-16.62
224.104	-22.62
224.338	-29.62
224.573	-13.62
224.808	-19.62
225.042	10.38
225.277	-1.62
225.511	-2.62
225.746	-3.62
225.98	9.38
226.215	12.38
226.449	28.38
226.683	29.38
226.918	24.38
227.152	25.38
227.387	38.38
227.621	43.38
227.856	35.38
228.09	47.38
228.324	48.38
228.559	51.38
228.793	64.38
229.027	64.38
229.262	62.38
229.496	66.38
229.73	71.38
229.964	72.38
230.199	71.38
230.433	71.38
230.667	69.38
230.901	66.38
231.136	80.38
231.37	89.38
231.604	77.38
231.838	73.38
232.072	62.38
232.306	88.38
232.541	85.38
232.775	71.38
233.009	72.38
233.243	83.38
233.477	78.38
233.711	85.38
233.945	91.38
234.179	92.38
234.413	88.38
234.647	87.38
234.881	94.38
235.115	73.38
235.349	86.38
235.583	77.38
235.817	74.38
236.051	66.38
236.285	89.38
236.519	83.38
236.753	70.38
236.987	86.38
237.221	84.38
237.455	72.38
237.689	86.38
237.922	83.38
238.156	91.38
238.39	69.38
238.624	74.38
238.858	70.38
239.091	87.38
239.325	78.38
239.559	77.38
239.793	78.38
240.027	84.38
240.26	73.38
240.494	74.38
240.728	79.38
240.961	72.38
241.195	90.38
241.429	83.38
241.662	79.38
241.896	81.38
242.13	54.38
242.363	79.38
242.597	68.38
242.83	69.38
243.064	84.38
243.298	75.38
243.531	75.38
243.765	83.38
243.998	85.38
244.232	69.38
244.465	84.38
244.699	70.38
244.932	87.38
245.166	73.38
245.399	79.38
245.633	82.38
245.866	86.38
246.099	73.38
246.333	79.38
246.566	67.38
246.8	82.38
247.033	82.38
247.266	74.38
247.5	71.38
247.733	69.38
247.966	82.38
248.2	86.38
248.433	58.38
248.666	72.38
248.899	90.38
249.133	91.38
249.366	103.38
249.599	88.38
249.832	87.38
250.066	76.38
250.299	62.38
250.532	72.38
250.765	72.38
250.998	76.38
251.231	83.38
251.465	68.38
251.698	72.38
251.931	66.38
252.164	75.38
252.397	77.38
252.63	81.38
252.863	82.38
253.096	92.38
253.329	66.38
253.562	65.38
253.795	78.38
254.028	68.38
254.261	71.38
254.494	86.38
254.727	84.38
254.96	79.38
255.193	84.38
255.426	77.38
255.659	71.38
255.892	79.38
256.124	79.38
256.357	80.38
256.59	81.38
256.823	70.38
257.056	92.38
257.289	78.38
257.521	79.38
257.754	82.38
257.987	72.38
258.22	70.38
258.452	72.38
258.685	73.38
258.918	76.38
259.151	79.38
259.383	84.38
259.616	83.38
259.849	91.38
260.081	80.38
260.314	76.38
260.547	74.38
260.779	81.38
261.012	79.38
261.244	90.38
261.477	79.38
261.71	79.38
261.942	82.38
262.175	90.38
262.407	84.38
262.64	86.38
262.872	74.38
263.105	85.38
263.337	74.38
263.57	92.38
263.802	68.38
264.035	80.38
264.267	84.38
264.499	87.38
264.732	91.38
264.964	76.38
265.197	85.38
265.429	76.38
265.661	62.38
265.894	80.38
266.126	81.38
266.358	80.38
266.591	94.38
266.823	90.38
267.055	77.38
267.287	88.38
267.52	90.38
267.752	88.38
267.984	82.38
268.216	100.38
268.448	86.38
268.681	92.38
268.913	89.38
269.145	74.38
269.377	85.38
269.609	82.38
269.841	72.38
270.073	83.38
270.306	84.38
270.538	92.38
270.77	79.38
271.002	81.38
271.234	89.38
271.466	97.38
271.698	68.38
271.93	87.38
272.162	80.38
272.394	86.38
272.626	87.38
272.858	80.38
273.09	84.38
273.322	81.38
273.553	95.38
273.785	80.38
274.017	87.38
274.249	70.38
274.481	78.38
274.713	83.38
274.945	96.38
275.176	73.38
275.408	87.38
275.64	77.38
275.872	93.38
276.104	85.38
276.335	80.38
276.567	84.38
276.799	64.38
277.031	75.38
277.262	98.38
277.494	86.38
277.726	79.38
277.957	91.38
278.189	76.38
278.421	84.38
278.652	87.38
278.884	84.38
279.115	83.38
279.347	83.38
279.579	91.38
279.81	78.38
280.042	67.38
280.273	93.38
280.505	94.38
280.736	89.38
280.968	87.38
281.199	74.38
281.431	97.38
281.662	83.38
281.894	84.38
282.125	76.38
282.356	86.38
282.588	83.38
282.819	79.38
283.051	85.38
283.282	86.38
283.513	74.38
283.745	75.38
283.976	80.38
284.207	94.38
284.439	94.38
284.67	77.38
284.901	76.38
285.132	85.38
285.364	87.38
285.595	81.38
285.826	75.38
286.057	92.38
286.288	83.38
286.52	84.38
286.751	82.38
286.982	79.38
287.213	86.38
287.444	94.38
287.675	82.38
287.906	83.38
288.138	81.38
288.369	87.38
288.6	100.38
288.831	90.38
289.062	80.38
289.293	78.38
289.524	89.38
289.755	79.38
289.986	81.38
290.217	81.38
290.448	83.38
290.679	82.38
290.91	89.38
291.141	97.38
291.371	82.38
291.602	95.38
291.833	84.38
292.064	71.38
292.295	82.38
292.526	89.38
292.757	67.38
292.987	92.38
293.218	72.38
293.449	86.38
293.68	93.38
293.91	92.38
294.141	80.38
294.372	78.38
294.603	80.38
294.833	87.38
295.064	86.38
295.295	93.38
295.525	98.38
295.756	89.38
295.987	99.38
296.217	90.38
296.448	81.38
296.679	79.38
296.909	75.38
297.14	79.38
297.37	94.38
297.601	92.38
297.831	68.38
298.062	90.38
298.292	73.38
298.523	77.38
298.753	102.38
298.984	94.38
299.214	77.38
299.445	80.38
299.675	87.38
299.905	85.38
300.136	88.38
300.366	88.38
300.597	104.38
300.827	76.38
301.057	88.38
301.288	85.38
301.518	81.38
301.748	81.38
301.979	85.38
302.209	79.38
302.439	83.38
302.669	70.38
302.9	86.38
303.13	81.38
303.36	87.38
303.59	91.38
303.82	78.38
304.051	85.38
304.281	81.38
304.511	87.38
304.741	72.38
304.971	82.38
305.201	98.38
305.431	92.38
305.661	90.38
305.891	88.38
306.121	71.38
306.352	80.38
306.582	79.38
306.812	80.38
307.042	87.38
307.272	83.38
307.502	82.38
307.731	79.38
307.961	97.38
308.191	96.38
308.421	81.38
308.651	87.38
308.881	83.38
309.111	83.38
309.341	76.38
309.571	89.38
309.8	81.38
310.03	84.38
310.26	78.38
310.49	82.38
310.72	83.38
310.949	86.38
311.179	85.38
311.409	98.38
311.639	90.38
311.868	71.38
312.098	76.38
312.328	78.38
312.557	80.38
312.787	83.38
313.017	83.38
313.246	88.38
313.476	86.38
313.706	95.38
313.935	85.38
314.165	64.38
314.394	92.38
314.624	82.38
314.853	90.38
315.083	74.38
315.312	75.38
315.542	56.38
315.771	77.38
316.001	84.38
316.23	87.38
316.46	83.38
316.689	81.38
316.919	71.38
317.148	93.38
317.377	90.38
317.607	91.38
317.836	79.38
318.065	89.38
318.295	79.38
318.524	75.38
318.753	67.38
318.983	87.38
319.212	79.38
319.441	80.38
319.67	87.38
319.9	89.38
320.129	95.38
320.358	107.38
320.587	91.38
320.816	74.38
321.046	86.38
321.275	96.38
321.504	82.38
321.733	73.38
321.962	90.38
322.191	85.38
322.42	106.38
322.649	76.38
322.878	106.38
323.108	86.38
323.337	89.38
323.566	87.38
323.795	90.38
324.024	83.38
324.253	94.38
324.482	92.38
324.71	95.38
324.939	84.38
325.168	86.38
325.397	87.38
325.626	97.38
325.855	83.38
326.084	91.38
326.313	75.38
326.542	79.38
326.77	92.38
326.999	75.38
327.228	86.38
327.457	90.38
327.686	92.38
327.914	82.38
328.143	89.38
328.372	73.38
328.6	94.38
328.829	101.38
329.058	85.38
329.287	88.38
329.515	83.38
329.744	95.38
329.972	94.38
330.201	88.38
330.43	90.38
330.658	76.38
330.887	87.38
331.115	72.38
331.344	96.38
331.572	97.38
331.801	85.38
332.03	95.38
332.258	74.38
332.486	88.38
332.715	83.38
332.943	87.38
333.172	94.38
333.4	78.38
333.629	69.38
333.857	71.38
334.085	71.38
334.314	81.38
334.542	82.38
334.771	93.38
334.999	79.38
335.227	87.38
335.455	84.38
335.684	82.38
335.912	96.38
336.14	86.38
336.369	75.38
336.597	85.38
336.825	80.38
337.053	85.38
337.281	86.38
337.51	90.38
337.738	83.38
337.966	78.38
338.194	94.38
338.422	94.38
338.65	97.38
338.878	91.38
339.106	66.38
339.334	91.38
339.562	80.38
339.79	87.38
340.018	88.38
340.246	82.38
340.474	98.38
340.702	80.38
340.93	75.38
341.158	76.38
341.386	91.38
341.614	84.38
341.842	90.38
342.07	74.38
342.298	76.38
342.526	79.38
342.754	82.38
342.981	81.38
343.209	93.38
343.437	75.38
343.665	82.38
343.893	92.38
344.12	89.38
344.348	76.38
344.576	78.38
344.804	73.38
345.031	80.38
345.259	99.38
345.487	96.38
345.714	73.38
345.942	82.38
346.17	90.38
346.397	75.38
346.625	88.38
346.853	75.38
347.08	85.38
347.308	81.38
347.535	75.38
347.763	86.38
347.99	79.38
348.218	81.38
348.445	81.38
348.673	79.38
348.9	78.38
349.128	86.38
349.355	79.38
349.583	77.38
349.81	76.38
350.037	82.38
350.265	97.38
350.492	87.38
350.72	77.38
350.947	70.38
351.174	90.38
351.402	88.38
351.629	83.38
351.856	87.38
352.083	86.38
352.311	89.38
352.538	94.38
352.765	71.38
352.992	87.38
353.22	84.38
353.447	70.38
353.674	89.38
353.901	94.38
354.128	84.38
354.355	75.38
354.583	92.38
354.81	84.38
355.037	81.38
355.264	90.38
355.491	81.38
355.718	82.38
355.945	82.38
356.172	86.38
356.399	74.38
356.626	79.38
356.853	82.38
357.08	87.38
357.307	78.38
357.534	85.38
357.761	87.38
357.988	83.38
358.215	100.38
358.441	66.38
358.668	83.38
358.895	83.38
359.122	71.38
359.349	80.38
359.576	95.38
359.802	84.38
360.029	77.38
360.256	83.38
360.483	77.38
360.709	77.38
360.936	72.38
361.163	89.38
361.39	78.38
361.616	71.38
361.843	73.38
362.07	96.38
362.296	82.38
362.523	84.38
362.749	78.38
362.976	81.38
363.203	80.38
363.429	87.38
363.656	93.38
363.882	79.38
364.109	89.38
364.335	93.38
364.562	88.38
364.788	90.38
365.015	83.38
365.241	84.38
365.468	82.38
365.694	81.38
365.92	103.38
366.147	85.38
366.373	79.38
366.599	74.38
366.826	77.38
367.052	87.38
367.278	78.38
367.505	85.38
367.731	92.38
367.957	79.38
368.184	85.38
368.41	86.38
368.636	87.38
368.862	95.38
369.089	82.38
369.315	85.38
369.541	85.38
369.767	95.38
369.993	99.38
370.219	79.38
370.445	82.38
370.672	87.38
370.898	82.38
371.124	80.38
371.35	86.38
371.576	90.38
371.802	86.38
372.028	83.38
372.254	75.38
372.48	75.38
372.706	85.38
372.932	80.38
373.158	88.38
373.384	92.38
373.61	97.38
373.835	94.38
374.061	93.38
374.287	76.38
374.513	99.38
374.739	79.38
374.965	88.38
375.191	93.38
375.416	79.38
375.642	96.38
375.868	89.38
376.094	83.38
376.319	95.38
376.545	95.38
376.771	64.38
376.997	87.38
377.222	85.38
377.448	98.38
377.674	73.38
377.899	78.38
378.125	75.38
378.35	90.38
378.576	79.38
378.802	99.38
379.027	88.38
379.253	97.38
379.478	86.38
379.704	71.38
379.929	84.38
380.155	72.38
380.38	82.38
380.606	84.38
380.831	87.38
381.057	100.38
381.282	91.38
381.507	95.38
381.733	99.38
381.958	90.38
382.184	76.38
382.409	73.38
382.634	76.38
382.86	86.38
383.085	90.38
383.31	78.38
383.535	79.38
383.761	73.38
383.986	82.38
384.211	87.38
384.436	80.38
384.662	81.38
384.887	90.38
385.112	93.38
385.337	90.38
385.562	85.38
385.787	85.38
386.013	89.38
386.238	101.38
386.463	86.38
386.688	91.38
386.913	98.38
387.138	85.38
387.363	83.38
387.588	88.38
387.813	91.38
388.038	86.38
388.263	78.38
388.488	82.38
388.713	101.38
388.938	89.38
389.163	80.38
389.387	78.38
389.612	91.38
389.837	80.38
390.062	82.38
390.287	86.38
390.512	85.38
390.736	91.38
390.961	94.38
391.186	84.38
391.411	80.38
391.636	92.38
391.86	75.38
392.085	87.38
392.31	82.38
392.534	85.38
392.759	100.38
392.984	83.38
393.208	89.38
393.433	85.38
393.658	85.38
393.882	78.38
394.107	85.38
394.331	87.38
394.556	87.38
394.78	80.38
395.005	78.38
395.229	91.38
395.454	89.38
395.678	102.38
395.903	99.38
396.127	96.38
396.352	89.38
396.576	88.38
396.801	90.38
397.025	91.38
397.249	89.38
397.474	87.38
397.698	88.38
397.922	80.38
398.147	75.38
398.371	88.38
398.595	87.38
398.82	86.38
399.044	87.38
399.268	84.38
399.492	73.38
399.717	83.38
399.941	79.38
400.165	84.38
400.389	82.38
400.613	92.38
400.837	99.38
401.062	92.38
401.286	98.38
401.51	89.38
401.734	76.38
401.958	88.38
402.182	81.38
402.406	81.38
402.63	67.38
402.854	76.38
403.078	87.38
403.302	80.38
403.526	101.38
403.75	80.38
403.974	75.38
404.198	93.38
404.422	97.38
404.645	90.38
404.869	90.38
405.093	97.38
405.317	84.38
405.541	71.38
405.765	94.38
405.988	105.38
406.212	82.38
406.436	88.38
406.66	76.38
406.883	82.38
407.107	82.38
407.331	89.38
407.555	94.38
407.778	100.38
408.002	91.38
408.226	101.38
408.449	95.38
408.673	86.38
408.896	89.38
409.12	89.38
409.344	78.38
409.567	91.38
409.791	83.38
410.014	80.38
410.238	81.38
410.461	84.38
410.685	83.38
410.908	90.38
411.132	91.38
411.355	101.38
411.578	84.38
411.802	85.38
412.025	99.38
412.249	89.38
412.472	95.38
412.695	103.38
412.919	85.38
413.142	84.38
413.365	102.38
413.589	87.38
413.812	104.38
414.035	99.38
414.258	103.38
414.482	114.38
414.705	90.38
414.928	93.38
415.151	96.38
415.374	80.38
415.597	88.38
415.821	90.38
416.044	89.38
416.267	97.38
416.49	103.38
416.713	86.38
416.936	94.38
417.159	99.38
417.382	99.38
417.605	95.38
417.828	85.38
418.051	90.38
418.274	91.38
418.497	90.38
418.72	98.38
418.943	96.38
419.166	98.38
419.389	103.38
419.611	90.38
419.834	96.38
420.057	99.38
420.28	102.38
420.503	87.38
420.726	84.38
420.948	87.38
421.171	100.38
421.394	87.38
421.617	95.38
421.839	89.38
422.062	107.38
422.285	83.38
422.507	86.38
422.73	92.38
422.953	89.38
423.175	89.38
423.398	91.38
423.621	99.38
423.843	94.38
424.066	95.38
424.288	89.38
424.511	103.38
424.733	94.38
424.956	105.38
425.178	113.38
425.401	101.38
425.623	81.38
425.846	94.38
426.068	98.38
426.291	100.38
426.513	96.38
426.735	95.38
426.958	95.38
427.18	99.38
427.402	95.38
427.625	88.38
427.847	84.38
428.069	105.38
428.292	103.38
428.514	93.38
428.736	89.38
428.958	90.38
429.181	93.38
429.403	91.38
429.625	89.38
429.847	89.38
430.069	95.38
430.292	91.38
430.514	107.38
430.736	91.38
430.958	94.38
431.18	96.38
431.402	86.38
431.624	89.38
431.846	86.38
432.068	87.38
432.29	60.38
432.512	76.38
432.734	91.38
432.956	101.38
433.178	98.38
433.4	84.38
433.622	99.38
433.844	88.38
434.066	89.38
434.287	91.38
434.509	91.38
434.731	87.38
434.953	83.38
435.175	84.38
435.397	81.38
435.618	93.38
435.84	96.38
436.062	103.38
436.284	95.38
436.505	97.38
436.727	115.38
436.949	94.38
437.17	96.38
437.392	88.38
437.614	104.38
437.835	102.38
438.057	96.38
438.278	95.38
438.5	82.38
438.721	91.38
438.943	99.38
439.165	102.38
439.386	96.38
439.608	92.38
439.829	105.38
440.05	98.38
440.272	91.38
440.493	104.38
440.715	97.38
440.936	102.38
441.158	101.38
441.379	100.38
441.6	101.38
441.822	102.38
442.043	70.38
442.264	84.38
442.486	102.38
442.707	94.38
442.928	104.38
443.149	93.38
443.371	96.38
443.592	95.38
443.813	104.38
444.034	89.38
444.255	98.38
444.476	98.38
444.698	85.38
444.919	97.38
445.14	176.38
445.361	146.38
445.582	105.38
445.803	107.38
446.024	99.38
446.245	103.38
446.466	99.38
446.687	102.38
446.908	105.38
447.129	111.38
447.35	107.38
447.571	104.38
447.792	103.38
448.013	93.38
448.234	101.38
448.455	96.38
448.675	104.38
448.896	101.38
449.117	97.38
449.338	106.38
449.559	91.38
449.779	87.38
450	89.38
450.221	91.38
450.442	89.38
450.662	96.38
450.883	82.38
451.104	97.38
451.324	103.38
451.545	94.38
451.766	98.38
451.986	101.38
452.207	97.38
452.428	81.38
452.648	91.38
452.869	79.38
453.089	97.38
453.31	79.38
453.53	92.38
453.751	91.38
453.971	98.38
454.192	85.38
454.412	92.38
454.633	95.38
454.853	91.38
455.073	83.38
455.294	88.38
455.514	80.38
455.734	87.38
455.955	80.38
456.175	93.38
456.395	87.38
456.616	86.38
456.836	90.38
457.056	97.38
457.276	89.38
457.497	79.38
457.717	87.38
457.937	83.38
458.157	87.38
458.377	82.38
458.598	67.38
458.818	86.38
459.038	98.38
459.258	94.38
459.478	69.38
459.698	80.38
459.918	99.38
460.138	64.38
460.358	71.38
460.578	89.38
460.798	98.38
461.018	89.38
461.238	91.38
461.458	73.38
461.678	92.38
461.898	100.38
462.118	100.38
462.338	103.38
462.558	91.38
462.777	89.38
462.997	100.38
463.217	88.38
463.437	97.38
463.657	85.38
463.876	95.38
464.096	84.38
464.316	92.38
464.536	86.38
464.755	88.38
464.975	93.38
465.195	95.38
465.414	103.38
465.634	92.38
465.854	91.38
466.073	82.38
466.293	96.38
466.512	102.38
466.732	94.38
466.951	101.38
467.171	95.38
467.391	89.38
467.61	98.38
467.829	99.38
468.049	98.38
468.268	87.38
468.488	97.38
468.707	90.38
468.927	95.38
469.146	112.38
469.365	105.38
469.585	103.38
469.804	95.38
470.023	96.38
470.243	86.38
470.462	100.38
470.681	85.38
470.901	94.38
471.12	105.38
471.339	99.38
471.558	86.38
471.777	100.38
471.997	101.38
472.216	91.38
472.435	96.38
472.654	75.38
472.873	90.38
473.092	92.38
473.311	95.38
473.53	91.38
473.749	96.38
473.968	114.38
474.187	99.38
474.406	92.38
474.625	91.38
474.844	92.38
475.063	99.38
475.282	103.38
475.501	94.38
475.72	101.38
475.939	80.38
476.158	96.38
476.377	93.38
476.596	86.38
476.814	100.38
477.033	101.38
477.252	84.38
477.471	97.38
477.69	106.38
477.908	105.38
478.127	97.38
478.346	111.38
478.564	95.38
478.783	89.38
479.002	104.38
479.22	112.38
479.439	109.38
479.658	87.38
479.876	82.38
480.095	87.38
480.313	94.38
480.532	107.38
480.751	95.38
480.969	88.38
481.188	83.38
481.406	84.38
481.624	76.38
481.843	95.38
482.061	95.38
482.28	97.38
482.498	84.38
482.717	84.38
482.935	95.38
483.153	112.38
483.372	114.38
483.59	98.38
483.808	96.38
484.027	100.38
484.245	87.38
484.463	106.38
484.681	103.38
484.9	111.38
485.118	97.38
485.336	105.38
485.554	96.38
485.772	93.38
485.99	86.38
486.209	77.38
486.427	86.38
486.645	93.38
486.863	105.38
487.081	107.38
487.299	111.38
487.517	105.38
487.735	102.38
487.953	120.38
488.171	124.38
488.389	115.38
488.607	122.38
488.825	88.38
489.043	117.38
489.261	94.38
489.479	98.38
489.696	107.38
489.914	106.38
490.132	98.38
490.35	99.38
490.568	96.38
490.786	113.38
491.003	121.38
491.221	117.38
491.439	116.38
491.657	111.38
491.874	123.38
492.092	117.38
492.31	141.38
492.527	132.38
492.745	117.38
492.963	126.38
493.18	110.38
493.398	119.38
493.615	112.38
493.833	114.38
494.05	115.38
494.268	120.38
494.485	97.38
494.703	101.38
494.92	102.38
495.138	117.38
495.355	107.38
495.573	110.38
495.79	114.38
496.008	119.38
496.225	96.38
496.442	109.38
496.66	120.38
496.877	99.38
497.094	104.38
497.312	117.38
497.529	110.38
497.746	99.38
497.963	113.38
498.181	98.38
498.398	104.38
498.615	103.38
498.832	94.38
499.049	107.38
499.267	113.38
499.484	80.38
499.701	94.38
499.918	105.38
500.135	102.38
500.352	107.38
500.569	113.38
500.786	105.38
501.003	110.38
501.22	111.38
501.437	95.38
501.654	97.38
501.871	104.38
502.088	101.38
502.305	85.38
502.522	87.38
502.739	88.38
502.956	100.38
503.172	95.38
503.389	94.38
503.606	107.38
503.823	98.38
504.04	99.38
504.256	88.38
504.473	83.38
504.69	106.38
504.907	101.38
505.123	90.38
505.34	89.38
505.557	105.38
505.773	92.38
505.99	102.38
506.207	91.38
506.423	103.38
506.64	102.38
506.856	99.38
507.073	103.38
507.289	110.38
507.506	107.38
507.722	105.38
507.939	107.38
508.155	92.38
508.372	99.38
508.588	90.38
508.805	99.38
509.021	90.38
509.238	92.38
509.454	96.38
509.67	91.38
509.887	93.38
510.103	98.38
510.319	90.38
510.536	100.38
510.752	87.38
510.968	99.38
511.184	85.38
511.401	84.38
511.617	96.38
511.833	85.38
512.049	96.38
512.265	80.38
512.481	76.38
512.698	88.38
512.914	87.38
513.13	84.38
513.346	82.38
513.562	95.38
513.778	90.38
513.994	100.38
514.21	87.38
514.426	86.38
514.642	94.38
514.858	97.38
515.074	81.38
515.29	74.38
515.506	96.38
515.721	92.38
515.937	86.38
516.153	82.38
516.369	83.38
516.585	88.38
516.801	83.38
517.016	83.38
