Data from Location3.07152019.Energy5.Lamp.07192019.3%Agarose_HRD10591_15-18-51-270.txt Node
Date: Fri Jul 19 15:18:51 EDT 2019
User: cochatt
Spectrometer: HR+D1059
Trigger mode: 1
Integration Time (sec): 1.000000E-1
Scans to average: 1
Electric dark correction enabled: true
Nonlinearity correction enabled: false
Boxcar width: 0
XAxis mode: Wavelengths
Number of Pixels in Spectrum: 2048
>>>>>Begin Spectral Data<<<<<
223.165	-22.56
223.4	-22.56
223.635	-22.56
223.869	-9.56
224.104	-26.56
224.338	-0.56
224.573	-37.56
224.808	-10.56
225.042	-9.56
225.277	-4.56
225.511	-8.56
225.746	7.44
225.98	14.44
226.215	17.44
226.449	12.44
226.683	13.44
226.918	27.44
227.152	37.44
227.387	47.44
227.621	54.44
227.856	37.44
228.09	45.44
228.324	70.44
228.559	54.44
228.793	50.44
229.027	58.44
229.262	62.44
229.496	74.44
229.73	77.44
229.964	80.44
230.199	87.44
230.433	75.44
230.667	82.44
230.901	79.44
231.136	77.44
231.37	77.44
231.604	93.44
231.838	72.44
232.072	83.44
232.306	75.44
232.541	84.44
232.775	83.44
233.009	95.44
233.243	79.44
233.477	77.44
233.711	74.44
233.945	87.44
234.179	75.44
234.413	78.44
234.647	82.44
234.881	91.44
235.115	87.44
235.349	78.44
235.583	90.44
235.817	84.44
236.051	79.44
236.285	65.44
236.519	79.44
236.753	84.44
236.987	84.44
237.221	87.44
237.455	79.44
237.689	85.44
237.922	78.44
238.156	77.44
238.39	97.44
238.624	82.44
238.858	72.44
239.091	79.44
239.325	81.44
239.559	73.44
239.793	79.44
240.027	95.44
240.26	85.44
240.494	88.44
240.728	79.44
240.961	74.44
241.195	85.44
241.429	95.44
241.662	71.44
241.896	86.44
242.13	98.44
242.363	85.44
242.597	87.44
242.83	87.44
243.064	73.44
243.298	75.44
243.531	82.44
243.765	89.44
243.998	78.44
244.232	71.44
244.465	75.44
244.699	84.44
244.932	67.44
245.166	75.44
245.399	84.44
245.633	83.44
245.866	80.44
246.099	92.44
246.333	81.44
246.566	73.44
246.8	81.44
247.033	93.44
247.266	77.44
247.5	90.44
247.733	72.44
247.966	82.44
248.2	75.44
248.433	65.44
248.666	80.44
248.899	82.44
249.133	72.44
249.366	79.44
249.599	78.44
249.832	85.44
250.066	101.44
250.299	92.44
250.532	88.44
250.765	80.44
250.998	76.44
251.231	82.44
251.465	82.44
251.698	78.44
251.931	70.44
252.164	84.44
252.397	71.44
252.63	92.44
252.863	87.44
253.096	86.44
253.329	94.44
253.562	88.44
253.795	86.44
254.028	70.44
254.261	75.44
254.494	77.44
254.727	73.44
254.96	75.44
255.193	85.44
255.426	64.44
255.659	86.44
255.892	82.44
256.124	88.44
256.357	84.44
256.59	81.44
256.823	63.44
257.056	80.44
257.289	93.44
257.521	91.44
257.754	74.44
257.987	80.44
258.22	89.44
258.452	79.44
258.685	108.44
258.918	83.44
259.151	84.44
259.383	82.44
259.616	98.44
259.849	76.44
260.081	79.44
260.314	91.44
260.547	98.44
260.779	79.44
261.012	99.44
261.244	79.44
261.477	83.44
261.71	87.44
261.942	82.44
262.175	82.44
262.407	85.44
262.64	87.44
262.872	100.44
263.105	87.44
263.337	83.44
263.57	86.44
263.802	91.44
264.035	83.44
264.267	87.44
264.499	79.44
264.732	82.44
264.964	92.44
265.197	89.44
265.429	84.44
265.661	73.44
265.894	96.44
266.126	73.44
266.358	86.44
266.591	85.44
266.823	100.44
267.055	84.44
267.287	83.44
267.52	86.44
267.752	84.44
267.984	82.44
268.216	87.44
268.448	85.44
268.681	92.44
268.913	97.44
269.145	90.44
269.377	97.44
269.609	95.44
269.841	85.44
270.073	83.44
270.306	91.44
270.538	86.44
270.77	86.44
271.002	90.44
271.234	89.44
271.466	84.44
271.698	82.44
271.93	86.44
272.162	73.44
272.394	92.44
272.626	86.44
272.858	83.44
273.09	93.44
273.322	96.44
273.553	79.44
273.785	90.44
274.017	82.44
274.249	90.44
274.481	89.44
274.713	91.44
274.945	92.44
275.176	96.44
275.408	89.44
275.64	93.44
275.872	89.44
276.104	83.44
276.335	83.44
276.567	73.44
276.799	87.44
277.031	95.44
277.262	92.44
277.494	87.44
277.726	97.44
277.957	82.44
278.189	94.44
278.421	77.44
278.652	85.44
278.884	90.44
279.115	82.44
279.347	89.44
279.579	81.44
279.81	88.44
280.042	91.44
280.273	86.44
280.505	87.44
280.736	83.44
280.968	80.44
281.199	87.44
281.431	79.44
281.662	85.44
281.894	95.44
282.125	91.44
282.356	91.44
282.588	100.44
282.819	81.44
283.051	92.44
283.282	88.44
283.513	99.44
283.745	87.44
283.976	81.44
284.207	89.44
284.439	87.44
284.67	77.44
284.901	77.44
285.132	84.44
285.364	89.44
285.595	90.44
285.826	87.44
286.057	100.44
286.288	81.44
286.52	94.44
286.751	97.44
286.982	96.44
287.213	94.44
287.444	90.44
287.675	86.44
287.906	98.44
288.138	79.44
288.369	77.44
288.6	89.44
288.831	94.44
289.062	93.44
289.293	89.44
289.524	94.44
289.755	87.44
289.986	88.44
290.217	88.44
290.448	90.44
290.679	83.44
290.91	73.44
291.141	83.44
291.371	94.44
291.602	86.44
291.833	84.44
292.064	88.44
292.295	100.44
292.526	78.44
292.757	78.44
292.987	81.44
293.218	75.44
293.449	78.44
293.68	98.44
293.91	89.44
294.141	87.44
294.372	90.44
294.603	78.44
294.833	95.44
295.064	84.44
295.295	82.44
295.525	85.44
295.756	89.44
295.987	92.44
296.217	87.44
296.448	85.44
296.679	86.44
296.909	94.44
297.14	95.44
297.37	90.44
297.601	85.44
297.831	89.44
298.062	100.44
298.292	81.44
298.523	78.44
298.753	85.44
298.984	80.44
299.214	100.44
299.445	92.44
299.675	91.44
299.905	96.44
300.136	89.44
300.366	97.44
300.597	87.44
300.827	84.44
301.057	89.44
301.288	86.44
301.518	84.44
301.748	88.44
301.979	92.44
302.209	86.44
302.439	83.44
302.669	88.44
302.9	89.44
303.13	94.44
303.36	85.44
303.59	83.44
303.82	101.44
304.051	87.44
304.281	90.44
304.511	88.44
304.741	85.44
304.971	86.44
305.201	89.44
305.431	92.44
305.661	98.44
305.891	78.44
306.121	81.44
306.352	93.44
306.582	83.44
306.812	77.44
307.042	103.44
307.272	82.44
307.502	74.44
307.731	75.44
307.961	83.44
308.191	96.44
308.421	93.44
308.651	77.44
308.881	89.44
309.111	91.44
309.341	84.44
309.571	78.44
309.8	76.44
310.03	93.44
310.26	82.44
310.49	87.44
310.72	83.44
310.949	81.44
311.179	76.44
311.409	106.44
311.639	94.44
311.868	101.44
312.098	78.44
312.328	80.44
312.557	109.44
312.787	89.44
313.017	94.44
313.246	85.44
313.476	95.44
313.706	95.44
313.935	82.44
314.165	94.44
314.394	83.44
314.624	92.44
314.853	80.44
315.083	87.44
315.312	89.44
315.542	93.44
315.771	86.44
316.001	78.44
316.23	101.44
316.46	99.44
316.689	85.44
316.919	90.44
317.148	97.44
317.377	85.44
317.607	91.44
317.836	86.44
318.065	93.44
318.295	99.44
318.524	96.44
318.753	86.44
318.983	63.44
319.212	91.44
319.441	92.44
319.67	93.44
319.9	91.44
320.129	99.44
320.358	97.44
320.587	93.44
320.816	105.44
321.046	91.44
321.275	89.44
321.504	98.44
321.733	102.44
321.962	80.44
322.191	84.44
322.42	89.44
322.649	82.44
322.878	95.44
323.108	94.44
323.337	97.44
323.566	90.44
323.795	79.44
324.024	91.44
324.253	94.44
324.482	81.44
324.71	86.44
324.939	89.44
325.168	65.44
325.397	92.44
325.626	101.44
325.855	90.44
326.084	89.44
326.313	103.44
326.542	79.44
326.77	93.44
326.999	85.44
327.228	83.44
327.457	86.44
327.686	89.44
327.914	100.44
328.143	89.44
328.372	90.44
328.6	77.44
328.829	96.44
329.058	78.44
329.287	93.44
329.515	91.44
329.744	87.44
329.972	103.44
330.201	103.44
330.43	89.44
330.658	86.44
330.887	85.44
331.115	107.44
331.344	86.44
331.572	93.44
331.801	85.44
332.03	95.44
332.258	90.44
332.486	86.44
332.715	100.44
332.943	100.44
333.172	77.44
333.4	86.44
333.629	85.44
333.857	84.44
334.085	94.44
334.314	103.44
334.542	94.44
334.771	90.44
334.999	91.44
335.227	95.44
335.455	101.44
335.684	91.44
335.912	95.44
336.14	93.44
336.369	84.44
336.597	74.44
336.825	71.44
337.053	83.44
337.281	96.44
337.51	95.44
337.738	79.44
337.966	90.44
338.194	101.44
338.422	85.44
338.65	82.44
338.878	94.44
339.106	87.44
339.334	86.44
339.562	83.44
339.79	76.44
340.018	102.44
340.246	86.44
340.474	89.44
340.702	88.44
340.93	69.44
341.158	85.44
341.386	94.44
341.614	91.44
341.842	84.44
342.07	84.44
342.298	78.44
342.526	91.44
342.754	91.44
342.981	96.44
343.209	77.44
343.437	91.44
343.665	90.44
343.893	102.44
344.12	90.44
344.348	87.44
344.576	75.44
344.804	85.44
345.031	75.44
345.259	78.44
345.487	91.44
345.714	99.44
345.942	87.44
346.17	79.44
346.397	99.44
346.625	100.44
346.853	94.44
347.08	80.44
347.308	84.44
347.535	76.44
347.763	103.44
347.99	88.44
348.218	100.44
348.445	94.44
348.673	89.44
348.9	93.44
349.128	98.44
349.355	93.44
349.583	107.44
349.81	88.44
350.037	79.44
350.265	79.44
350.492	94.44
350.72	82.44
350.947	92.44
351.174	78.44
351.402	74.44
351.629	83.44
351.856	93.44
352.083	85.44
352.311	84.44
352.538	86.44
352.765	78.44
352.992	94.44
353.22	87.44
353.447	89.44
353.674	82.44
353.901	96.44
354.128	94.44
354.355	84.44
354.583	96.44
354.81	83.44
355.037	84.44
355.264	98.44
355.491	87.44
355.718	81.44
355.945	89.44
356.172	96.44
356.399	83.44
356.626	87.44
356.853	91.44
357.08	95.44
357.307	103.44
357.534	106.44
357.761	95.44
357.988	80.44
358.215	91.44
358.441	93.44
358.668	87.44
358.895	90.44
359.122	95.44
359.349	90.44
359.576	97.44
359.802	80.44
360.029	78.44
360.256	88.44
360.483	91.44
360.709	81.44
360.936	94.44
361.163	94.44
361.39	87.44
361.616	87.44
361.843	79.44
362.07	93.44
362.296	96.44
362.523	80.44
362.749	88.44
362.976	84.44
363.203	90.44
363.429	90.44
363.656	84.44
363.882	85.44
364.109	86.44
364.335	89.44
364.562	90.44
364.788	82.44
365.015	87.44
365.241	70.44
365.468	98.44
365.694	81.44
365.92	81.44
366.147	76.44
366.373	97.44
366.599	80.44
366.826	85.44
367.052	93.44
367.278	95.44
367.505	88.44
367.731	78.44
367.957	86.44
368.184	80.44
368.41	98.44
368.636	84.44
368.862	89.44
369.089	78.44
369.315	78.44
369.541	73.44
369.767	94.44
369.993	85.44
370.219	87.44
370.445	104.44
370.672	75.44
370.898	93.44
371.124	78.44
371.35	88.44
371.576	91.44
371.802	87.44
372.028	89.44
372.254	94.44
372.48	86.44
372.706	85.44
372.932	91.44
373.158	86.44
373.384	100.44
373.61	105.44
373.835	94.44
374.061	94.44
374.287	85.44
374.513	97.44
374.739	87.44
374.965	77.44
375.191	84.44
375.416	105.44
375.642	103.44
375.868	95.44
376.094	92.44
376.319	87.44
376.545	90.44
376.771	85.44
376.997	106.44
377.222	85.44
377.448	86.44
377.674	102.44
377.899	94.44
378.125	82.44
378.35	86.44
378.576	99.44
378.802	94.44
379.027	89.44
379.253	86.44
379.478	85.44
379.704	84.44
379.929	89.44
380.155	86.44
380.38	87.44
380.606	103.44
380.831	83.44
381.057	99.44
381.282	94.44
381.507	83.44
381.733	93.44
381.958	95.44
382.184	90.44
382.409	72.44
382.634	89.44
382.86	93.44
383.085	99.44
383.31	90.44
383.535	95.44
383.761	89.44
383.986	92.44
384.211	93.44
384.436	86.44
384.662	72.44
384.887	85.44
385.112	75.44
385.337	90.44
385.562	83.44
385.787	89.44
386.013	108.44
386.238	77.44
386.463	73.44
386.688	82.44
386.913	93.44
387.138	90.44
387.363	91.44
387.588	78.44
387.813	103.44
388.038	82.44
388.263	77.44
388.488	89.44
388.713	86.44
388.938	90.44
389.163	78.44
389.387	100.44
389.612	102.44
389.837	93.44
390.062	80.44
390.287	74.44
390.512	93.44
390.736	88.44
390.961	91.44
391.186	104.44
391.411	87.44
391.636	76.44
391.86	93.44
392.085	85.44
392.31	99.44
392.534	79.44
392.759	89.44
392.984	101.44
393.208	99.44
393.433	98.44
393.658	100.44
393.882	92.44
394.107	87.44
394.331	84.44
394.556	82.44
394.78	73.44
395.005	73.44
395.229	105.44
395.454	95.44
395.678	80.44
395.903	89.44
396.127	97.44
396.352	105.44
396.576	90.44
396.801	87.44
397.025	79.44
397.249	78.44
397.474	100.44
397.698	95.44
397.922	97.44
398.147	100.44
398.371	90.44
398.595	91.44
398.82	89.44
399.044	89.44
399.268	80.44
399.492	97.44
399.717	80.44
399.941	90.44
400.165	91.44
400.389	99.44
400.613	100.44
400.837	95.44
401.062	87.44
401.286	97.44
401.51	104.44
401.734	99.44
401.958	82.44
402.182	83.44
402.406	86.44
402.63	102.44
402.854	101.44
403.078	87.44
403.302	85.44
403.526	95.44
403.75	89.44
403.974	94.44
404.198	100.44
404.422	95.44
404.645	83.44
404.869	89.44
405.093	100.44
405.317	105.44
405.541	94.44
405.765	86.44
405.988	87.44
406.212	84.44
406.436	90.44
406.66	91.44
406.883	80.44
407.107	84.44
407.331	92.44
407.555	85.44
407.778	90.44
408.002	87.44
408.226	90.44
408.449	90.44
408.673	91.44
408.896	99.44
409.12	87.44
409.344	93.44
409.567	89.44
409.791	85.44
410.014	96.44
410.238	90.44
410.461	103.44
410.685	102.44
410.908	98.44
411.132	98.44
411.355	93.44
411.578	102.44
411.802	104.44
412.025	98.44
412.249	90.44
412.472	94.44
412.695	101.44
412.919	101.44
413.142	97.44
413.365	89.44
413.589	95.44
413.812	94.44
414.035	95.44
414.258	105.44
414.482	94.44
414.705	88.44
414.928	100.44
415.151	80.44
415.374	84.44
415.597	91.44
415.821	98.44
416.044	99.44
416.267	91.44
416.49	82.44
416.713	103.44
416.936	105.44
417.159	104.44
417.382	100.44
417.605	110.44
417.828	107.44
418.051	90.44
418.274	87.44
418.497	98.44
418.72	112.44
418.943	85.44
419.166	105.44
419.389	87.44
419.611	110.44
419.834	99.44
420.057	99.44
420.28	115.44
420.503	97.44
420.726	105.44
420.948	95.44
421.171	81.44
421.394	95.44
421.617	100.44
421.839	102.44
422.062	103.44
422.285	89.44
422.507	93.44
422.73	105.44
422.953	110.44
423.175	117.44
423.398	106.44
423.621	93.44
423.843	106.44
424.066	94.44
424.288	102.44
424.511	119.44
424.733	96.44
424.956	103.44
425.178	95.44
425.401	94.44
425.623	98.44
425.846	98.44
426.068	98.44
426.291	102.44
426.513	93.44
426.735	93.44
426.958	117.44
427.18	99.44
427.402	97.44
427.625	79.44
427.847	87.44
428.069	86.44
428.292	111.44
428.514	88.44
428.736	106.44
428.958	105.44
429.181	118.44
429.403	93.44
429.625	91.44
429.847	86.44
430.069	90.44
430.292	100.44
430.514	92.44
430.736	85.44
430.958	85.44
431.18	113.44
431.402	93.44
431.624	106.44
431.846	95.44
432.068	99.44
432.29	77.44
432.512	82.44
432.734	85.44
432.956	89.44
433.178	96.44
433.4	98.44
433.622	108.44
433.844	99.44
434.066	86.44
434.287	85.44
434.509	75.44
434.731	93.44
434.953	100.44
435.175	100.44
435.397	105.44
435.618	92.44
435.84	86.44
436.062	93.44
436.284	84.44
436.505	92.44
436.727	84.44
436.949	99.44
437.17	113.44
437.392	86.44
437.614	94.44
437.835	77.44
438.057	97.44
438.278	79.44
438.5	82.44
438.721	92.44
438.943	92.44
439.165	102.44
439.386	107.44
439.608	122.44
439.829	97.44
440.05	89.44
440.272	91.44
440.493	100.44
440.715	98.44
440.936	99.44
441.158	95.44
441.379	97.44
441.6	108.44
441.822	106.44
442.043	108.44
442.264	96.44
442.486	102.44
442.707	91.44
442.928	106.44
443.149	103.44
443.371	99.44
443.592	109.44
443.813	107.44
444.034	107.44
444.255	103.44
444.476	109.44
444.698	122.44
444.919	100.44
445.14	235.44
445.361	158.44
445.582	97.44
445.803	93.44
446.024	117.44
446.245	117.44
446.466	95.44
446.687	94.44
446.908	106.44
447.129	96.44
447.35	106.44
447.571	103.44
447.792	103.44
448.013	98.44
448.234	114.44
448.455	101.44
448.675	107.44
448.896	102.44
449.117	99.44
449.338	103.44
449.559	114.44
449.779	100.44
450	94.44
450.221	93.44
450.442	98.44
450.662	101.44
450.883	100.44
451.104	92.44
451.324	103.44
451.545	95.44
451.766	110.44
451.986	80.44
452.207	90.44
452.428	98.44
452.648	96.44
452.869	102.44
453.089	102.44
453.31	100.44
453.53	95.44
453.751	79.44
453.971	100.44
454.192	85.44
454.412	97.44
454.633	101.44
454.853	100.44
455.073	106.44
455.294	109.44
455.514	95.44
455.734	97.44
455.955	92.44
456.175	106.44
456.395	97.44
456.616	77.44
456.836	92.44
457.056	91.44
457.276	95.44
457.497	98.44
457.717	88.44
457.937	94.44
458.157	91.44
458.377	92.44
458.598	94.44
458.818	100.44
459.038	72.44
459.258	85.44
459.478	83.44
459.698	90.44
459.918	91.44
460.138	94.44
460.358	81.44
460.578	100.44
460.798	95.44
461.018	87.44
461.238	93.44
461.458	84.44
461.678	85.44
461.898	110.44
462.118	93.44
462.338	100.44
462.558	101.44
462.777	83.44
462.997	91.44
463.217	91.44
463.437	101.44
463.657	87.44
463.876	89.44
464.096	97.44
464.316	110.44
464.536	95.44
464.755	92.44
464.975	82.44
465.195	104.44
465.414	99.44
465.634	89.44
465.854	106.44
466.073	101.44
466.293	94.44
466.512	95.44
466.732	92.44
466.951	114.44
467.171	90.44
467.391	101.44
467.61	83.44
467.829	99.44
468.049	91.44
468.268	94.44
468.488	117.44
468.707	107.44
468.927	96.44
469.146	108.44
469.365	107.44
469.585	106.44
469.804	96.44
470.023	107.44
470.243	98.44
470.462	98.44
470.681	99.44
470.901	99.44
471.12	104.44
471.339	93.44
471.558	102.44
471.777	96.44
471.997	108.44
472.216	102.44
472.435	91.44
472.654	101.44
472.873	95.44
473.092	98.44
473.311	90.44
473.53	94.44
473.749	110.44
473.968	98.44
474.187	103.44
474.406	92.44
474.625	96.44
474.844	113.44
475.063	99.44
475.282	106.44
475.501	96.44
475.72	78.44
475.939	93.44
476.158	79.44
476.377	93.44
476.596	84.44
476.814	91.44
477.033	105.44
477.252	80.44
477.471	106.44
477.69	99.44
477.908	115.44
478.127	90.44
478.346	85.44
478.564	120.44
478.783	105.44
479.002	84.44
479.22	93.44
479.439	94.44
479.658	101.44
479.876	97.44
480.095	87.44
480.313	103.44
480.532	85.44
480.751	87.44
480.969	94.44
481.188	86.44
481.406	96.44
481.624	95.44
481.843	77.44
482.061	87.44
482.28	96.44
482.498	101.44
482.717	94.44
482.935	101.44
483.153	102.44
483.372	123.44
483.59	109.44
483.808	97.44
484.027	96.44
484.245	109.44
484.463	86.44
484.681	103.44
484.9	99.44
485.118	107.44
485.336	105.44
485.554	106.44
485.772	84.44
485.99	77.44
486.209	99.44
486.427	100.44
486.645	92.44
486.863	94.44
487.081	79.44
487.299	90.44
487.517	106.44
487.735	107.44
487.953	112.44
488.171	113.44
488.389	114.44
488.607	99.44
488.825	95.44
489.043	97.44
489.261	97.44
489.479	99.44
489.696	111.44
489.914	100.44
490.132	124.44
490.35	98.44
490.568	106.44
490.786	109.44
491.003	101.44
491.221	117.44
491.439	124.44
491.657	118.44
491.874	126.44
492.092	117.44
492.31	132.44
492.527	131.44
492.745	129.44
492.963	118.44
493.18	112.44
493.398	118.44
493.615	106.44
493.833	123.44
494.05	99.44
494.268	97.44
494.485	126.44
494.703	118.44
494.92	113.44
495.138	125.44
495.355	118.44
495.573	110.44
495.79	103.44
496.008	130.44
496.225	105.44
496.442	107.44
496.66	126.44
496.877	107.44
497.094	124.44
497.312	116.44
497.529	103.44
497.746	97.44
497.963	101.44
498.181	91.44
498.398	98.44
498.615	91.44
498.832	102.44
499.049	94.44
499.267	93.44
499.484	98.44
499.701	94.44
499.918	102.44
500.135	113.44
500.352	107.44
500.569	102.44
500.786	106.44
501.003	101.44
501.22	111.44
501.437	101.44
501.654	106.44
501.871	90.44
502.088	94.44
502.305	91.44
502.522	101.44
502.739	89.44
502.956	124.44
503.172	101.44
503.389	104.44
503.606	94.44
503.823	102.44
504.04	106.44
504.256	105.44
504.473	72.44
504.69	78.44
504.907	97.44
505.123	98.44
505.34	98.44
505.557	100.44
505.773	98.44
505.99	101.44
506.207	95.44
506.423	91.44
506.64	90.44
506.856	106.44
507.073	79.44
507.289	99.44
507.506	109.44
507.722	89.44
507.939	109.44
508.155	97.44
508.372	108.44
508.588	87.44
508.805	90.44
509.021	99.44
509.238	94.44
509.454	93.44
509.67	90.44
509.887	91.44
510.103	99.44
510.319	87.44
510.536	88.44
510.752	79.44
510.968	88.44
511.184	109.44
511.401	83.44
511.617	82.44
511.833	97.44
512.049	79.44
512.265	89.44
512.481	91.44
512.698	86.44
512.914	88.44
513.13	80.44
513.346	84.44
513.562	82.44
513.778	77.44
513.994	94.44
514.21	91.44
514.426	96.44
514.642	92.44
514.858	94.44
515.074	101.44
515.29	97.44
515.506	97.44
515.721	87.44
