Data from Location3.07152019.Energy5.Lamp.07192019.3%Agarose_HRD10591_15-19-16-269.txt Node
Date: Fri Jul 19 15:19:16 EDT 2019
User: cochatt
Spectrometer: HR+D1059
Trigger mode: 1
Integration Time (sec): 1.000000E-1
Scans to average: 1
Electric dark correction enabled: true
Nonlinearity correction enabled: false
Boxcar width: 0
XAxis mode: Wavelengths
Number of Pixels in Spectrum: 2048
>>>>>Begin Spectral Data<<<<<
223.165	-15.06
223.4	-15.06
223.635	-15.06
223.869	-13.06
224.104	-16.06
224.338	-21.06
224.573	-1.06
224.808	-21.06
225.042	-4.06
225.277	3.94
225.511	-6.06
225.746	11.94
225.98	14.94
226.215	3.94
226.449	14.94
226.683	16.94
226.918	14.94
227.152	15.94
227.387	29.94
227.621	32.94
227.856	39.94
228.09	38.94
228.324	46.94
228.559	50.94
228.793	58.94
229.027	55.94
229.262	58.94
229.496	51.94
229.73	59.94
229.964	55.94
230.199	86.94
230.433	71.94
230.667	90.94
230.901	89.94
231.136	72.94
231.37	75.94
231.604	69.94
231.838	91.94
232.072	84.94
232.306	86.94
232.541	67.94
232.775	84.94
233.009	79.94
233.243	70.94
233.477	78.94
233.711	79.94
233.945	76.94
234.179	73.94
234.413	86.94
234.647	75.94
234.881	91.94
235.115	75.94
235.349	77.94
235.583	73.94
235.817	82.94
236.051	82.94
236.285	65.94
236.519	71.94
236.753	81.94
236.987	84.94
237.221	65.94
237.455	67.94
237.689	66.94
237.922	76.94
238.156	76.94
238.39	73.94
238.624	62.94
238.858	67.94
239.091	71.94
239.325	80.94
239.559	71.94
239.793	76.94
240.027	84.94
240.26	70.94
240.494	72.94
240.728	68.94
240.961	69.94
241.195	74.94
241.429	78.94
241.662	64.94
241.896	60.94
242.13	68.94
242.363	78.94
242.597	75.94
242.83	77.94
243.064	76.94
243.298	75.94
243.531	77.94
243.765	84.94
243.998	78.94
244.232	91.94
244.465	76.94
244.699	72.94
244.932	61.94
245.166	65.94
245.399	77.94
245.633	86.94
245.866	79.94
246.099	77.94
246.333	81.94
246.566	69.94
246.8	81.94
247.033	78.94
247.266	67.94
247.5	72.94
247.733	77.94
247.966	78.94
248.2	76.94
248.433	64.94
248.666	79.94
248.899	71.94
249.133	75.94
249.366	86.94
249.599	70.94
249.832	60.94
250.066	85.94
250.299	82.94
250.532	77.94
250.765	87.94
250.998	84.94
251.231	89.94
251.465	76.94
251.698	79.94
251.931	65.94
252.164	81.94
252.397	79.94
252.63	64.94
252.863	83.94
253.096	72.94
253.329	77.94
253.562	86.94
253.795	86.94
254.028	97.94
254.261	82.94
254.494	67.94
254.727	73.94
254.96	86.94
255.193	73.94
255.426	81.94
255.659	79.94
255.892	82.94
256.124	68.94
256.357	72.94
256.59	63.94
256.823	76.94
257.056	82.94
257.289	92.94
257.521	79.94
257.754	88.94
257.987	73.94
258.22	71.94
258.452	87.94
258.685	97.94
258.918	80.94
259.151	64.94
259.383	72.94
259.616	86.94
259.849	85.94
260.081	86.94
260.314	91.94
260.547	87.94
260.779	87.94
261.012	77.94
261.244	72.94
261.477	74.94
261.71	76.94
261.942	68.94
262.175	75.94
262.407	80.94
262.64	78.94
262.872	88.94
263.105	85.94
263.337	60.94
263.57	67.94
263.802	82.94
264.035	74.94
264.267	78.94
264.499	74.94
264.732	83.94
264.964	73.94
265.197	92.94
265.429	78.94
265.661	68.94
265.894	77.94
266.126	71.94
266.358	74.94
266.591	86.94
266.823	65.94
267.055	91.94
267.287	85.94
267.52	94.94
267.752	81.94
267.984	82.94
268.216	84.94
268.448	79.94
268.681	67.94
268.913	82.94
269.145	76.94
269.377	78.94
269.609	85.94
269.841	76.94
270.073	70.94
270.306	73.94
270.538	70.94
270.77	78.94
271.002	90.94
271.234	94.94
271.466	92.94
271.698	82.94
271.93	69.94
272.162	69.94
272.394	89.94
272.626	78.94
272.858	71.94
273.09	71.94
273.322	77.94
273.553	84.94
273.785	71.94
274.017	77.94
274.249	99.94
274.481	84.94
274.713	83.94
274.945	83.94
275.176	71.94
275.408	83.94
275.64	65.94
275.872	86.94
276.104	71.94
276.335	68.94
276.567	83.94
276.799	87.94
277.031	80.94
277.262	80.94
277.494	83.94
277.726	79.94
277.957	84.94
278.189	84.94
278.421	78.94
278.652	90.94
278.884	80.94
279.115	94.94
279.347	74.94
279.579	82.94
279.81	82.94
280.042	72.94
280.273	84.94
280.505	71.94
280.736	80.94
280.968	92.94
281.199	85.94
281.431	96.94
281.662	83.94
281.894	85.94
282.125	82.94
282.356	79.94
282.588	84.94
282.819	79.94
283.051	78.94
283.282	72.94
283.513	73.94
283.745	76.94
283.976	81.94
284.207	85.94
284.439	85.94
284.67	82.94
284.901	80.94
285.132	81.94
285.364	92.94
285.595	88.94
285.826	88.94
286.057	78.94
286.288	87.94
286.52	72.94
286.751	92.94
286.982	72.94
287.213	85.94
287.444	84.94
287.675	73.94
287.906	70.94
288.138	76.94
288.369	82.94
288.6	70.94
288.831	88.94
289.062	84.94
289.293	95.94
289.524	74.94
289.755	86.94
289.986	60.94
290.217	71.94
290.448	81.94
290.679	92.94
290.91	73.94
291.141	64.94
291.371	98.94
291.602	85.94
291.833	77.94
292.064	76.94
292.295	82.94
292.526	81.94
292.757	87.94
292.987	84.94
293.218	72.94
293.449	79.94
293.68	87.94
293.91	90.94
294.141	80.94
294.372	73.94
294.603	72.94
294.833	80.94
295.064	77.94
295.295	78.94
295.525	76.94
295.756	84.94
295.987	69.94
296.217	93.94
296.448	85.94
296.679	85.94
296.909	91.94
297.14	81.94
297.37	80.94
297.601	92.94
297.831	78.94
298.062	80.94
298.292	104.94
298.523	87.94
298.753	86.94
298.984	78.94
299.214	77.94
299.445	87.94
299.675	71.94
299.905	86.94
300.136	70.94
300.366	85.94
300.597	92.94
300.827	87.94
301.057	85.94
301.288	79.94
301.518	77.94
301.748	77.94
301.979	77.94
302.209	86.94
302.439	68.94
302.669	91.94
302.9	95.94
303.13	84.94
303.36	67.94
303.59	90.94
303.82	96.94
304.051	102.94
304.281	70.94
304.511	77.94
304.741	84.94
304.971	65.94
305.201	82.94
305.431	91.94
305.661	78.94
305.891	83.94
306.121	95.94
306.352	78.94
306.582	77.94
306.812	89.94
307.042	68.94
307.272	80.94
307.502	68.94
307.731	79.94
307.961	93.94
308.191	81.94
308.421	84.94
308.651	98.94
308.881	94.94
309.111	91.94
309.341	79.94
309.571	75.94
309.8	83.94
310.03	84.94
310.26	92.94
310.49	76.94
310.72	87.94
310.949	82.94
311.179	78.94
311.409	70.94
311.639	77.94
311.868	79.94
312.098	74.94
312.328	86.94
312.557	80.94
312.787	84.94
313.017	93.94
313.246	77.94
313.476	84.94
313.706	67.94
313.935	80.94
314.165	74.94
314.394	78.94
314.624	98.94
314.853	85.94
315.083	69.94
315.312	78.94
315.542	83.94
315.771	82.94
316.001	96.94
316.23	91.94
316.46	87.94
316.689	72.94
316.919	89.94
317.148	87.94
317.377	69.94
317.607	94.94
317.836	80.94
318.065	99.94
318.295	81.94
318.524	90.94
318.753	74.94
318.983	88.94
319.212	85.94
319.441	86.94
319.67	87.94
319.9	96.94
320.129	82.94
320.358	79.94
320.587	91.94
320.816	85.94
321.046	82.94
321.275	95.94
321.504	87.94
321.733	77.94
321.962	85.94
322.191	86.94
322.42	85.94
322.649	81.94
322.878	58.94
323.108	79.94
323.337	82.94
323.566	87.94
323.795	63.94
324.024	82.94
324.253	81.94
324.482	83.94
324.71	78.94
324.939	95.94
325.168	85.94
325.397	97.94
325.626	89.94
325.855	90.94
326.084	85.94
326.313	73.94
326.542	75.94
326.77	87.94
326.999	80.94
327.228	90.94
327.457	86.94
327.686	73.94
327.914	85.94
328.143	78.94
328.372	76.94
328.6	87.94
328.829	78.94
329.058	85.94
329.287	88.94
329.515	79.94
329.744	84.94
329.972	86.94
330.201	82.94
330.43	83.94
330.658	76.94
330.887	83.94
331.115	74.94
331.344	90.94
331.572	78.94
331.801	88.94
332.03	82.94
332.258	73.94
332.486	77.94
332.715	87.94
332.943	86.94
333.172	78.94
333.4	73.94
333.629	84.94
333.857	86.94
334.085	75.94
334.314	80.94
334.542	77.94
334.771	76.94
334.999	86.94
335.227	90.94
335.455	81.94
335.684	103.94
335.912	71.94
336.14	86.94
336.369	85.94
336.597	79.94
336.825	85.94
337.053	89.94
337.281	76.94
337.51	77.94
337.738	78.94
337.966	77.94
338.194	75.94
338.422	79.94
338.65	82.94
338.878	68.94
339.106	72.94
339.334	78.94
339.562	98.94
339.79	74.94
340.018	77.94
340.246	82.94
340.474	71.94
340.702	94.94
340.93	82.94
341.158	79.94
341.386	77.94
341.614	86.94
341.842	88.94
342.07	88.94
342.298	86.94
342.526	76.94
342.754	68.94
342.981	84.94
343.209	80.94
343.437	83.94
343.665	91.94
343.893	72.94
344.12	82.94
344.348	77.94
344.576	89.94
344.804	75.94
345.031	75.94
345.259	88.94
345.487	76.94
345.714	72.94
345.942	90.94
346.17	85.94
346.397	93.94
346.625	87.94
346.853	92.94
347.08	76.94
347.308	77.94
347.535	77.94
347.763	85.94
347.99	76.94
348.218	78.94
348.445	82.94
348.673	93.94
348.9	79.94
349.128	76.94
349.355	87.94
349.583	73.94
349.81	64.94
350.037	91.94
350.265	85.94
350.492	87.94
350.72	79.94
350.947	87.94
351.174	93.94
351.402	84.94
351.629	82.94
351.856	73.94
352.083	91.94
352.311	77.94
352.538	80.94
352.765	87.94
352.992	87.94
353.22	91.94
353.447	98.94
353.674	70.94
353.901	71.94
354.128	82.94
354.355	73.94
354.583	77.94
354.81	82.94
355.037	80.94
355.264	72.94
355.491	78.94
355.718	70.94
355.945	86.94
356.172	80.94
356.399	83.94
356.626	88.94
356.853	67.94
357.08	64.94
357.307	86.94
357.534	86.94
357.761	71.94
357.988	89.94
358.215	85.94
358.441	87.94
358.668	78.94
358.895	82.94
359.122	65.94
359.349	74.94
359.576	79.94
359.802	90.94
360.029	76.94
360.256	83.94
360.483	80.94
360.709	77.94
360.936	83.94
361.163	88.94
361.39	83.94
361.616	91.94
361.843	88.94
362.07	70.94
362.296	88.94
362.523	75.94
362.749	96.94
362.976	69.94
363.203	81.94
363.429	68.94
363.656	77.94
363.882	80.94
364.109	86.94
364.335	100.94
364.562	62.94
364.788	82.94
365.015	73.94
365.241	78.94
365.468	78.94
365.694	79.94
365.92	83.94
366.147	75.94
366.373	90.94
366.599	80.94
366.826	92.94
367.052	99.94
367.278	76.94
367.505	90.94
367.731	101.94
367.957	77.94
368.184	60.94
368.41	93.94
368.636	76.94
368.862	96.94
369.089	84.94
369.315	84.94
369.541	72.94
369.767	84.94
369.993	76.94
370.219	87.94
370.445	84.94
370.672	74.94
370.898	73.94
371.124	78.94
371.35	80.94
371.576	80.94
371.802	85.94
372.028	86.94
372.254	77.94
372.48	68.94
372.706	88.94
372.932	68.94
373.158	87.94
373.384	86.94
373.61	78.94
373.835	89.94
374.061	80.94
374.287	81.94
374.513	86.94
374.739	88.94
374.965	79.94
375.191	64.94
375.416	70.94
375.642	91.94
375.868	77.94
376.094	90.94
376.319	78.94
376.545	68.94
376.771	79.94
376.997	74.94
377.222	86.94
377.448	87.94
377.674	86.94
377.899	83.94
378.125	76.94
378.35	80.94
378.576	86.94
378.802	86.94
379.027	75.94
379.253	81.94
379.478	71.94
379.704	72.94
379.929	76.94
380.155	77.94
380.38	78.94
380.606	88.94
380.831	80.94
381.057	90.94
381.282	91.94
381.507	70.94
381.733	96.94
381.958	81.94
382.184	90.94
382.409	72.94
382.634	93.94
382.86	80.94
383.085	76.94
383.31	71.94
383.535	84.94
383.761	76.94
383.986	92.94
384.211	91.94
384.436	86.94
384.662	74.94
384.887	92.94
385.112	84.94
385.337	77.94
385.562	71.94
385.787	78.94
386.013	70.94
386.238	63.94
386.463	65.94
386.688	86.94
386.913	86.94
387.138	83.94
387.363	85.94
387.588	79.94
387.813	82.94
388.038	66.94
388.263	80.94
388.488	83.94
388.713	70.94
388.938	87.94
389.163	85.94
389.387	84.94
389.612	87.94
389.837	78.94
390.062	91.94
390.287	77.94
390.512	69.94
390.736	77.94
390.961	77.94
391.186	84.94
391.411	91.94
391.636	93.94
391.86	80.94
392.085	82.94
392.31	78.94
392.534	99.94
392.759	91.94
392.984	83.94
393.208	81.94
393.433	94.94
393.658	97.94
393.882	84.94
394.107	80.94
394.331	70.94
394.556	64.94
394.78	65.94
395.005	76.94
395.229	80.94
395.454	85.94
395.678	71.94
395.903	75.94
396.127	87.94
396.352	69.94
396.576	70.94
396.801	77.94
397.025	76.94
397.249	78.94
397.474	90.94
397.698	82.94
397.922	78.94
398.147	83.94
398.371	72.94
398.595	82.94
398.82	71.94
399.044	77.94
399.268	88.94
399.492	79.94
399.717	92.94
399.941	90.94
400.165	103.94
400.389	80.94
400.613	74.94
400.837	75.94
401.062	84.94
401.286	86.94
401.51	70.94
401.734	90.94
401.958	80.94
402.182	84.94
402.406	89.94
402.63	76.94
402.854	86.94
403.078	92.94
403.302	82.94
403.526	67.94
403.75	86.94
403.974	80.94
404.198	87.94
404.422	89.94
404.645	79.94
404.869	98.94
405.093	83.94
405.317	78.94
405.541	84.94
405.765	84.94
405.988	87.94
406.212	90.94
406.436	75.94
406.66	78.94
406.883	99.94
407.107	83.94
407.331	82.94
407.555	79.94
407.778	83.94
408.002	76.94
408.226	79.94
408.449	88.94
408.673	91.94
408.896	86.94
409.12	82.94
409.344	94.94
409.567	95.94
409.791	93.94
410.014	76.94
410.238	87.94
410.461	102.94
410.685	99.94
410.908	86.94
411.132	89.94
411.355	94.94
411.578	84.94
411.802	97.94
412.025	85.94
412.249	85.94
412.472	83.94
412.695	103.94
412.919	74.94
413.142	89.94
413.365	92.94
413.589	78.94
413.812	79.94
414.035	92.94
414.258	86.94
414.482	85.94
414.705	83.94
414.928	87.94
415.151	102.94
415.374	103.94
415.597	79.94
415.821	82.94
416.044	90.94
416.267	82.94
416.49	77.94
416.713	100.94
416.936	91.94
417.159	89.94
417.382	93.94
417.605	101.94
417.828	82.94
418.051	77.94
418.274	98.94
418.497	85.94
418.72	99.94
418.943	87.94
419.166	95.94
419.389	91.94
419.611	89.94
419.834	100.94
420.057	82.94
420.28	96.94
420.503	103.94
420.726	100.94
420.948	82.94
421.171	89.94
421.394	76.94
421.617	86.94
421.839	92.94
422.062	86.94
422.285	97.94
422.507	101.94
422.73	93.94
422.953	93.94
423.175	83.94
423.398	104.94
423.621	103.94
423.843	84.94
424.066	95.94
424.288	99.94
424.511	95.94
424.733	85.94
424.956	83.94
425.178	89.94
425.401	109.94
425.623	84.94
425.846	92.94
426.068	113.94
426.291	91.94
426.513	93.94
426.735	93.94
426.958	87.94
427.18	83.94
427.402	87.94
427.625	69.94
427.847	85.94
428.069	78.94
428.292	75.94
428.514	93.94
428.736	80.94
428.958	108.94
429.181	74.94
429.403	88.94
429.625	92.94
429.847	96.94
430.069	98.94
430.292	102.94
430.514	87.94
430.736	89.94
430.958	81.94
431.18	91.94
431.402	99.94
431.624	88.94
431.846	91.94
432.068	83.94
432.29	95.94
432.512	86.94
432.734	87.94
432.956	93.94
433.178	95.94
433.4	85.94
433.622	79.94
433.844	85.94
434.066	95.94
434.287	76.94
434.509	95.94
434.731	86.94
434.953	88.94
435.175	80.94
435.397	95.94
435.618	95.94
435.84	82.94
436.062	98.94
436.284	94.94
436.505	97.94
436.727	75.94
436.949	90.94
437.17	95.94
437.392	99.94
437.614	86.94
437.835	78.94
438.057	91.94
438.278	92.94
438.5	86.94
438.721	89.94
438.943	82.94
439.165	96.94
439.386	108.94
439.608	94.94
439.829	91.94
440.05	96.94
440.272	103.94
440.493	101.94
440.715	92.94
440.936	103.94
441.158	92.94
441.379	78.94
441.6	93.94
441.822	98.94
442.043	117.94
442.264	106.94
442.486	93.94
442.707	86.94
442.928	96.94
443.149	97.94
443.371	99.94
443.592	81.94
443.813	94.94
444.034	88.94
444.255	98.94
444.476	95.94
444.698	85.94
444.919	76.94
445.14	221.94
445.361	150.94
445.582	108.94
445.803	95.94
446.024	111.94
446.245	109.94
446.466	99.94
446.687	106.94
446.908	104.94
447.129	92.94
447.35	99.94
447.571	91.94
447.792	81.94
448.013	87.94
448.234	81.94
448.455	86.94
448.675	96.94
448.896	84.94
449.117	103.94
449.338	82.94
449.559	88.94
449.779	101.94
450	89.94
450.221	91.94
450.442	95.94
450.662	94.94
450.883	88.94
451.104	96.94
451.324	73.94
451.545	97.94
451.766	101.94
451.986	83.94
452.207	92.94
452.428	104.94
452.648	94.94
452.869	86.94
453.089	77.94
453.31	92.94
453.53	78.94
453.751	99.94
453.971	84.94
454.192	79.94
454.412	96.94
454.633	83.94
454.853	95.94
455.073	95.94
455.294	103.94
455.514	87.94
455.734	79.94
455.955	84.94
456.175	72.94
456.395	81.94
456.616	90.94
456.836	86.94
457.056	96.94
457.276	79.94
457.497	88.94
457.717	80.94
457.937	81.94
458.157	79.94
458.377	72.94
458.598	80.94
458.818	77.94
459.038	84.94
459.258	84.94
459.478	80.94
459.698	86.94
459.918	85.94
460.138	85.94
460.358	75.94
460.578	79.94
460.798	78.94
461.018	93.94
461.238	94.94
461.458	88.94
461.678	68.94
461.898	78.94
462.118	74.94
462.338	91.94
462.558	90.94
462.777	82.94
462.997	91.94
463.217	91.94
463.437	87.94
463.657	85.94
463.876	91.94
464.096	85.94
464.316	83.94
464.536	63.94
464.755	65.94
464.975	89.94
465.195	82.94
465.414	72.94
465.634	88.94
465.854	65.94
466.073	95.94
466.293	98.94
466.512	87.94
466.732	93.94
466.951	106.94
467.171	80.94
467.391	99.94
467.61	90.94
467.829	106.94
468.049	91.94
468.268	98.94
468.488	90.94
468.707	109.94
468.927	82.94
469.146	92.94
469.365	92.94
469.585	104.94
469.804	87.94
470.023	86.94
470.243	93.94
470.462	109.94
470.681	84.94
470.901	82.94
471.12	106.94
471.339	91.94
471.558	102.94
471.777	106.94
471.997	100.94
472.216	90.94
472.435	94.94
472.654	84.94
472.873	88.94
473.092	81.94
473.311	89.94
473.53	82.94
473.749	78.94
473.968	93.94
474.187	98.94
474.406	81.94
474.625	90.94
474.844	105.94
475.063	100.94
475.282	87.94
475.501	84.94
475.72	94.94
475.939	80.94
476.158	86.94
476.377	93.94
476.596	80.94
476.814	87.94
477.033	97.94
477.252	95.94
477.471	87.94
477.69	92.94
477.908	94.94
478.127	89.94
478.346	87.94
478.564	96.94
478.783	87.94
479.002	100.94
479.22	82.94
479.439	94.94
479.658	86.94
479.876	90.94
480.095	77.94
480.313	96.94
480.532	98.94
480.751	79.94
480.969	84.94
481.188	86.94
481.406	78.94
481.624	76.94
481.843	75.94
482.061	78.94
482.28	86.94
482.498	93.94
482.717	79.94
482.935	80.94
483.153	101.94
483.372	84.94
483.59	92.94
483.808	103.94
484.027	106.94
484.245	84.94
484.463	90.94
484.681	94.94
484.9	102.94
485.118	86.94
485.336	83.94
485.554	91.94
485.772	76.94
485.99	81.94
486.209	72.94
486.427	83.94
486.645	105.94
486.863	93.94
487.081	81.94
487.299	88.94
487.517	107.94
487.735	114.94
487.953	113.94
488.171	113.94
488.389	99.94
488.607	108.94
488.825	112.94
489.043	103.94
489.261	94.94
489.479	97.94
489.696	98.94
489.914	95.94
490.132	95.94
490.35	93.94
490.568	117.94
490.786	99.94
491.003	102.94
491.221	107.94
491.439	100.94
491.657	130.94
491.874	105.94
492.092	134.94
492.31	141.94
492.527	129.94
492.745	121.94
492.963	123.94
493.18	102.94
493.398	126.94
493.615	105.94
493.833	104.94
494.05	101.94
494.268	95.94
494.485	110.94
494.703	100.94
494.92	94.94
495.138	101.94
495.355	97.94
495.573	95.94
495.79	103.94
496.008	94.94
496.225	104.94
496.442	109.94
496.66	101.94
496.877	110.94
497.094	102.94
497.312	100.94
497.529	96.94
497.746	81.94
497.963	90.94
498.181	85.94
498.398	96.94
498.615	102.94
498.832	82.94
499.049	107.94
499.267	82.94
499.484	91.94
499.701	94.94
499.918	91.94
500.135	88.94
500.352	104.94
500.569	84.94
500.786	99.94
501.003	96.94
501.22	113.94
501.437	116.94
501.654	92.94
501.871	92.94
502.088	97.94
502.305	68.94
502.522	88.94
502.739	103.94
502.956	91.94
503.172	86.94
503.389	80.94
503.606	77.94
503.823	83.94
504.04	87.94
504.256	79.94
504.473	92.94
504.69	102.94
504.907	93.94
505.123	98.94
505.34	87.94
505.557	88.94
505.773	97.94
505.99	96.94
506.207	99.94
506.423	92.94
506.64	81.94
506.856	85.94
507.073	83.94
507.289	90.94
507.506	100.94
507.722	92.94
507.939	89.94
508.155	89.94
508.372	99.94
508.588	89.94
508.805	83.94
509.021	90.94
509.238	93.94
509.454	86.94
509.67	80.94
509.887	71.94
510.103	79.94
510.319	89.94
510.536	85.94
510.752	88.94
510.968	79.94
511.184	86.94
511.401	81.94
511.617	72.94
511.833	89.94
512.049	94.94
512.265	76.94
512.481	85.94
512.698	85.94
512.914	86.94
513.13	98.94
513.346	83.94
513.562	80.94
513.778	82.94
513.994	88.94
514.21	84.94
514.426	82.94
514.642	105.94
514.858	75.94
515.074	83.94
515.29	82.94
515.506	83.94
515.721	84.94
515.937	79.94
516.153	84.94
516.369	93.94
516.585	72.94
516.801	71.94
517.016	72.94
517.232	80.94
517.448	75.94
517.664	86.94
517.879	90.94
518.095	85.94
