Data from Location3.07152019.Energy5.Lamp.07192019.3%Agarose_HRD10591_15-17-18-268.txt Node
Date: Fri Jul 19 15:17:18 EDT 2019
User: cochatt
Spectrometer: HR+D1059
Trigger mode: 1
Integration Time (sec): 1.000000E-1
Scans to average: 1
Electric dark correction enabled: true
Nonlinearity correction enabled: false
Boxcar width: 0
XAxis mode: Wavelengths
Number of Pixels in Spectrum: 2048
>>>>>Begin Spectral Data<<<<<
223.165	-30.5
223.4	-30.5
223.635	-30.5
223.869	-13.5
224.104	-10.5
224.338	-12.5
224.573	-6.5
224.808	-3.5
225.042	-8.5
225.277	3.5
225.511	-12.5
225.746	4.5
225.98	-4.5
226.215	9.5
226.449	-0.5
226.683	25.5
226.918	31.5
227.152	28.5
227.387	24.5
227.621	18.5
227.856	52.5
228.09	60.5
228.324	45.5
228.559	57.5
228.793	62.5
229.027	76.5
229.262	63.5
229.496	64.5
229.73	68.5
229.964	80.5
230.199	80.5
230.433	76.5
230.667	60.5
230.901	71.5
231.136	79.5
231.37	86.5
231.604	90.5
231.838	89.5
232.072	75.5
232.306	88.5
232.541	82.5
232.775	86.5
233.009	74.5
233.243	80.5
233.477	85.5
233.711	95.5
233.945	77.5
234.179	72.5
234.413	80.5
234.647	88.5
234.881	86.5
235.115	84.5
235.349	73.5
235.583	80.5
235.817	64.5
236.051	79.5
236.285	89.5
236.519	82.5
236.753	61.5
236.987	80.5
237.221	74.5
237.455	79.5
237.689	69.5
237.922	75.5
238.156	70.5
238.39	74.5
238.624	74.5
238.858	81.5
239.091	79.5
239.325	82.5
239.559	82.5
239.793	58.5
240.027	75.5
240.26	61.5
240.494	80.5
240.728	71.5
240.961	74.5
241.195	79.5
241.429	85.5
241.662	80.5
241.896	84.5
242.13	66.5
242.363	71.5
242.597	82.5
242.83	73.5
243.064	80.5
243.298	87.5
243.531	60.5
243.765	70.5
243.998	70.5
244.232	67.5
244.465	74.5
244.699	94.5
244.932	86.5
245.166	87.5
245.399	82.5
245.633	69.5
245.866	76.5
246.099	77.5
246.333	76.5
246.566	82.5
246.8	80.5
247.033	81.5
247.266	60.5
247.5	69.5
247.733	67.5
247.966	70.5
248.2	87.5
248.433	85.5
248.666	70.5
248.899	94.5
249.133	65.5
249.366	71.5
249.599	75.5
249.832	61.5
250.066	72.5
250.299	78.5
250.532	71.5
250.765	72.5
250.998	90.5
251.231	75.5
251.465	79.5
251.698	81.5
251.931	75.5
252.164	85.5
252.397	76.5
252.63	82.5
252.863	81.5
253.096	71.5
253.329	76.5
253.562	79.5
253.795	67.5
254.028	85.5
254.261	72.5
254.494	80.5
254.727	84.5
254.96	82.5
255.193	77.5
255.426	87.5
255.659	77.5
255.892	84.5
256.124	82.5
256.357	75.5
256.59	86.5
256.823	90.5
257.056	85.5
257.289	74.5
257.521	94.5
257.754	79.5
257.987	84.5
258.22	88.5
258.452	86.5
258.685	76.5
258.918	79.5
259.151	97.5
259.383	89.5
259.616	79.5
259.849	73.5
260.081	84.5
260.314	87.5
260.547	102.5
260.779	92.5
261.012	77.5
261.244	66.5
261.477	80.5
261.71	86.5
261.942	76.5
262.175	92.5
262.407	75.5
262.64	78.5
262.872	83.5
263.105	91.5
263.337	82.5
263.57	83.5
263.802	74.5
264.035	87.5
264.267	81.5
264.499	72.5
264.732	88.5
264.964	71.5
265.197	69.5
265.429	85.5
265.661	93.5
265.894	84.5
266.126	98.5
266.358	77.5
266.591	77.5
266.823	77.5
267.055	78.5
267.287	79.5
267.52	76.5
267.752	78.5
267.984	82.5
268.216	85.5
268.448	85.5
268.681	72.5
268.913	71.5
269.145	83.5
269.377	88.5
269.609	76.5
269.841	89.5
270.073	77.5
270.306	73.5
270.538	73.5
270.77	85.5
271.002	79.5
271.234	88.5
271.466	72.5
271.698	78.5
271.93	93.5
272.162	86.5
272.394	86.5
272.626	86.5
272.858	83.5
273.09	78.5
273.322	77.5
273.553	95.5
273.785	81.5
274.017	82.5
274.249	77.5
274.481	68.5
274.713	79.5
274.945	83.5
275.176	83.5
275.408	86.5
275.64	97.5
275.872	94.5
276.104	93.5
276.335	77.5
276.567	82.5
276.799	90.5
277.031	81.5
277.262	84.5
277.494	99.5
277.726	78.5
277.957	104.5
278.189	107.5
278.421	88.5
278.652	72.5
278.884	82.5
279.115	100.5
279.347	87.5
279.579	89.5
279.81	88.5
280.042	90.5
280.273	83.5
280.505	90.5
280.736	69.5
280.968	90.5
281.199	75.5
281.431	86.5
281.662	79.5
281.894	95.5
282.125	85.5
282.356	84.5
282.588	82.5
282.819	79.5
283.051	64.5
283.282	76.5
283.513	95.5
283.745	93.5
283.976	84.5
284.207	95.5
284.439	93.5
284.67	96.5
284.901	82.5
285.132	76.5
285.364	77.5
285.595	83.5
285.826	79.5
286.057	86.5
286.288	82.5
286.52	87.5
286.751	88.5
286.982	79.5
287.213	84.5
287.444	91.5
287.675	87.5
287.906	72.5
288.138	86.5
288.369	86.5
288.6	82.5
288.831	75.5
289.062	82.5
289.293	76.5
289.524	79.5
289.755	80.5
289.986	65.5
290.217	82.5
290.448	83.5
290.679	87.5
290.91	76.5
291.141	87.5
291.371	87.5
291.602	89.5
291.833	91.5
292.064	83.5
292.295	80.5
292.526	81.5
292.757	84.5
292.987	91.5
293.218	72.5
293.449	82.5
293.68	74.5
293.91	89.5
294.141	82.5
294.372	96.5
294.603	86.5
294.833	101.5
295.064	96.5
295.295	85.5
295.525	86.5
295.756	94.5
295.987	82.5
296.217	85.5
296.448	97.5
296.679	79.5
296.909	88.5
297.14	84.5
297.37	84.5
297.601	90.5
297.831	87.5
298.062	80.5
298.292	74.5
298.523	91.5
298.753	95.5
298.984	86.5
299.214	76.5
299.445	99.5
299.675	80.5
299.905	70.5
300.136	97.5
300.366	76.5
300.597	89.5
300.827	89.5
301.057	81.5
301.288	88.5
301.518	75.5
301.748	82.5
301.979	86.5
302.209	92.5
302.439	86.5
302.669	74.5
302.9	80.5
303.13	102.5
303.36	82.5
303.59	74.5
303.82	91.5
304.051	95.5
304.281	73.5
304.511	68.5
304.741	77.5
304.971	61.5
305.201	72.5
305.431	82.5
305.661	88.5
305.891	81.5
306.121	88.5
306.352	91.5
306.582	69.5
306.812	84.5
307.042	73.5
307.272	88.5
307.502	70.5
307.731	79.5
307.961	74.5
308.191	84.5
308.421	73.5
308.651	89.5
308.881	106.5
309.111	87.5
309.341	100.5
309.571	87.5
309.8	88.5
310.03	81.5
310.26	78.5
310.49	79.5
310.72	84.5
310.949	72.5
311.179	97.5
311.409	86.5
311.639	88.5
311.868	87.5
312.098	79.5
312.328	66.5
312.557	82.5
312.787	71.5
313.017	83.5
313.246	87.5
313.476	82.5
313.706	82.5
313.935	90.5
314.165	83.5
314.394	80.5
314.624	91.5
314.853	94.5
315.083	83.5
315.312	100.5
315.542	97.5
315.771	87.5
316.001	88.5
316.23	90.5
316.46	93.5
316.689	90.5
316.919	70.5
317.148	86.5
317.377	73.5
317.607	92.5
317.836	82.5
318.065	88.5
318.295	78.5
318.524	88.5
318.753	90.5
318.983	97.5
319.212	93.5
319.441	74.5
319.67	83.5
319.9	86.5
320.129	78.5
320.358	101.5
320.587	88.5
320.816	85.5
321.046	74.5
321.275	87.5
321.504	89.5
321.733	88.5
321.962	92.5
322.191	78.5
322.42	97.5
322.649	95.5
322.878	75.5
323.108	82.5
323.337	78.5
323.566	82.5
323.795	86.5
324.024	79.5
324.253	90.5
324.482	77.5
324.71	72.5
324.939	81.5
325.168	74.5
325.397	77.5
325.626	88.5
325.855	92.5
326.084	100.5
326.313	86.5
326.542	74.5
326.77	76.5
326.999	81.5
327.228	94.5
327.457	84.5
327.686	92.5
327.914	76.5
328.143	83.5
328.372	76.5
328.6	73.5
328.829	84.5
329.058	88.5
329.287	77.5
329.515	88.5
329.744	83.5
329.972	73.5
330.201	91.5
330.43	78.5
330.658	91.5
330.887	78.5
331.115	86.5
331.344	77.5
331.572	79.5
331.801	87.5
332.03	68.5
332.258	84.5
332.486	75.5
332.715	95.5
332.943	66.5
333.172	80.5
333.4	88.5
333.629	85.5
333.857	90.5
334.085	74.5
334.314	95.5
334.542	90.5
334.771	87.5
334.999	81.5
335.227	63.5
335.455	82.5
335.684	70.5
335.912	98.5
336.14	87.5
336.369	77.5
336.597	92.5
336.825	86.5
337.053	98.5
337.281	99.5
337.51	84.5
337.738	91.5
337.966	84.5
338.194	66.5
338.422	82.5
338.65	75.5
338.878	90.5
339.106	81.5
339.334	84.5
339.562	94.5
339.79	84.5
340.018	73.5
340.246	87.5
340.474	64.5
340.702	94.5
340.93	85.5
341.158	104.5
341.386	90.5
341.614	83.5
341.842	81.5
342.07	91.5
342.298	90.5
342.526	71.5
342.754	83.5
342.981	84.5
343.209	84.5
343.437	82.5
343.665	86.5
343.893	86.5
344.12	83.5
344.348	72.5
344.576	85.5
344.804	86.5
345.031	73.5
345.259	82.5
345.487	89.5
345.714	87.5
345.942	78.5
346.17	96.5
346.397	85.5
346.625	72.5
346.853	96.5
347.08	83.5
347.308	71.5
347.535	90.5
347.763	89.5
347.99	86.5
348.218	78.5
348.445	78.5
348.673	92.5
348.9	93.5
349.128	92.5
349.355	81.5
349.583	91.5
349.81	74.5
350.037	96.5
350.265	76.5
350.492	82.5
350.72	74.5
350.947	85.5
351.174	77.5
351.402	82.5
351.629	87.5
351.856	89.5
352.083	81.5
352.311	77.5
352.538	66.5
352.765	86.5
352.992	84.5
353.22	91.5
353.447	97.5
353.674	74.5
353.901	77.5
354.128	82.5
354.355	90.5
354.583	87.5
354.81	83.5
355.037	96.5
355.264	75.5
355.491	74.5
355.718	69.5
355.945	80.5
356.172	90.5
356.399	83.5
356.626	77.5
356.853	88.5
357.08	96.5
357.307	76.5
357.534	81.5
357.761	75.5
357.988	84.5
358.215	83.5
358.441	74.5
358.668	84.5
358.895	83.5
359.122	78.5
359.349	69.5
359.576	78.5
359.802	74.5
360.029	79.5
360.256	87.5
360.483	78.5
360.709	81.5
360.936	86.5
361.163	93.5
361.39	74.5
361.616	75.5
361.843	80.5
362.07	77.5
362.296	98.5
362.523	75.5
362.749	88.5
362.976	76.5
363.203	88.5
363.429	74.5
363.656	91.5
363.882	66.5
364.109	79.5
364.335	80.5
364.562	76.5
364.788	93.5
365.015	86.5
365.241	86.5
365.468	82.5
365.694	92.5
365.92	74.5
366.147	74.5
366.373	79.5
366.599	80.5
366.826	67.5
367.052	81.5
367.278	80.5
367.505	90.5
367.731	90.5
367.957	83.5
368.184	82.5
368.41	76.5
368.636	91.5
368.862	83.5
369.089	94.5
369.315	74.5
369.541	84.5
369.767	73.5
369.993	83.5
370.219	73.5
370.445	80.5
370.672	69.5
370.898	83.5
371.124	80.5
371.35	98.5
371.576	78.5
371.802	85.5
372.028	78.5
372.254	72.5
372.48	83.5
372.706	79.5
372.932	79.5
373.158	81.5
373.384	79.5
373.61	90.5
373.835	86.5
374.061	67.5
374.287	105.5
374.513	95.5
374.739	88.5
374.965	97.5
375.191	65.5
375.416	80.5
375.642	80.5
375.868	96.5
376.094	81.5
376.319	71.5
376.545	86.5
376.771	77.5
376.997	85.5
377.222	76.5
377.448	76.5
377.674	79.5
377.899	76.5
378.125	87.5
378.35	82.5
378.576	84.5
378.802	82.5
379.027	92.5
379.253	88.5
379.478	90.5
379.704	82.5
379.929	88.5
380.155	85.5
380.38	94.5
380.606	92.5
380.831	74.5
381.057	77.5
381.282	88.5
381.507	90.5
381.733	97.5
381.958	86.5
382.184	89.5
382.409	84.5
382.634	74.5
382.86	80.5
383.085	82.5
383.31	85.5
383.535	106.5
383.761	87.5
383.986	85.5
384.211	93.5
384.436	104.5
384.662	79.5
384.887	79.5
385.112	87.5
385.337	77.5
385.562	83.5
385.787	77.5
386.013	90.5
386.238	83.5
386.463	87.5
386.688	91.5
386.913	78.5
387.138	87.5
387.363	80.5
387.588	85.5
387.813	100.5
388.038	80.5
388.263	89.5
388.488	94.5
388.713	81.5
388.938	90.5
389.163	79.5
389.387	91.5
389.612	85.5
389.837	87.5
390.062	84.5
390.287	79.5
390.512	86.5
390.736	80.5
390.961	94.5
391.186	89.5
391.411	78.5
391.636	92.5
391.86	90.5
392.085	95.5
392.31	80.5
392.534	87.5
392.759	95.5
392.984	89.5
393.208	75.5
393.433	91.5
393.658	95.5
393.882	80.5
394.107	74.5
394.331	84.5
394.556	83.5
394.78	85.5
395.005	82.5
395.229	88.5
395.454	94.5
395.678	92.5
395.903	71.5
396.127	90.5
396.352	88.5
396.576	83.5
396.801	99.5
397.025	92.5
397.249	77.5
397.474	95.5
397.698	88.5
397.922	75.5
398.147	95.5
398.371	97.5
398.595	106.5
398.82	97.5
399.044	85.5
399.268	80.5
399.492	70.5
399.717	86.5
399.941	99.5
400.165	98.5
400.389	78.5
400.613	98.5
400.837	92.5
401.062	80.5
401.286	86.5
401.51	99.5
401.734	81.5
401.958	87.5
402.182	82.5
402.406	92.5
402.63	94.5
402.854	88.5
403.078	92.5
403.302	91.5
403.526	82.5
403.75	90.5
403.974	98.5
404.198	91.5
404.422	90.5
404.645	84.5
404.869	99.5
405.093	89.5
405.317	81.5
405.541	74.5
405.765	86.5
405.988	73.5
406.212	100.5
406.436	96.5
406.66	102.5
406.883	73.5
407.107	88.5
407.331	94.5
407.555	65.5
407.778	92.5
408.002	95.5
408.226	83.5
408.449	102.5
408.673	95.5
408.896	96.5
409.12	95.5
409.344	76.5
409.567	79.5
409.791	80.5
410.014	86.5
410.238	80.5
410.461	106.5
410.685	86.5
410.908	82.5
411.132	96.5
411.355	76.5
411.578	101.5
411.802	91.5
412.025	94.5
412.249	87.5
412.472	100.5
412.695	100.5
412.919	99.5
413.142	98.5
413.365	88.5
413.589	83.5
413.812	89.5
414.035	94.5
414.258	81.5
414.482	107.5
414.705	88.5
414.928	94.5
415.151	84.5
415.374	106.5
415.597	86.5
415.821	75.5
416.044	100.5
416.267	93.5
416.49	94.5
416.713	90.5
416.936	90.5
417.159	86.5
417.382	81.5
417.605	86.5
417.828	89.5
418.051	105.5
418.274	84.5
418.497	112.5
418.72	96.5
418.943	100.5
419.166	100.5
419.389	99.5
419.611	106.5
419.834	85.5
420.057	93.5
420.28	96.5
420.503	105.5
420.726	101.5
420.948	96.5
421.171	99.5
421.394	91.5
421.617	96.5
421.839	94.5
422.062	96.5
422.285	92.5
422.507	74.5
422.73	94.5
422.953	94.5
423.175	101.5
423.398	74.5
423.621	74.5
423.843	90.5
424.066	103.5
424.288	98.5
424.511	94.5
424.733	84.5
424.956	89.5
425.178	87.5
425.401	101.5
425.623	83.5
425.846	89.5
426.068	104.5
426.291	94.5
426.513	102.5
426.735	116.5
426.958	98.5
427.18	90.5
427.402	99.5
427.625	86.5
427.847	109.5
428.069	101.5
428.292	101.5
428.514	85.5
428.736	89.5
428.958	99.5
429.181	98.5
429.403	94.5
429.625	86.5
429.847	100.5
430.069	93.5
430.292	90.5
430.514	94.5
430.736	98.5
430.958	92.5
431.18	80.5
431.402	89.5
431.624	102.5
431.846	85.5
432.068	85.5
432.29	70.5
432.512	94.5
432.734	89.5
432.956	97.5
433.178	100.5
433.4	74.5
433.622	91.5
433.844	92.5
434.066	87.5
434.287	91.5
434.509	93.5
434.731	82.5
434.953	79.5
435.175	92.5
435.397	92.5
435.618	91.5
435.84	90.5
436.062	87.5
436.284	95.5
436.505	98.5
436.727	97.5
436.949	103.5
437.17	92.5
437.392	104.5
437.614	87.5
437.835	88.5
438.057	90.5
438.278	87.5
438.5	86.5
438.721	92.5
438.943	81.5
439.165	95.5
439.386	99.5
439.608	115.5
439.829	100.5
440.05	93.5
440.272	103.5
440.493	101.5
440.715	92.5
440.936	103.5
441.158	108.5
441.379	102.5
441.6	94.5
441.822	106.5
442.043	104.5
442.264	97.5
442.486	84.5
442.707	90.5
442.928	100.5
443.149	110.5
443.371	118.5
443.592	106.5
443.813	98.5
444.034	76.5
444.255	95.5
444.476	100.5
444.698	104.5
444.919	98.5
445.14	211.5
445.361	160.5
445.582	108.5
445.803	97.5
446.024	111.5
446.245	90.5
446.466	98.5
446.687	104.5
446.908	95.5
447.129	87.5
447.35	102.5
447.571	114.5
447.792	98.5
448.013	76.5
448.234	86.5
448.455	90.5
448.675	89.5
448.896	83.5
449.117	87.5
449.338	110.5
449.559	107.5
449.779	101.5
450	103.5
450.221	94.5
450.442	95.5
450.662	102.5
450.883	87.5
451.104	94.5
451.324	100.5
451.545	96.5
451.766	91.5
451.986	89.5
452.207	88.5
452.428	99.5
452.648	78.5
452.869	74.5
453.089	74.5
453.31	88.5
453.53	87.5
453.751	89.5
453.971	95.5
454.192	76.5
454.412	98.5
454.633	88.5
454.853	96.5
455.073	93.5
455.294	79.5
455.514	91.5
455.734	91.5
455.955	88.5
456.175	95.5
456.395	80.5
456.616	80.5
456.836	88.5
457.056	74.5
457.276	90.5
457.497	87.5
457.717	89.5
457.937	85.5
458.157	95.5
458.377	83.5
458.598	94.5
458.818	87.5
459.038	79.5
459.258	93.5
459.478	78.5
459.698	80.5
459.918	92.5
460.138	85.5
460.358	84.5
460.578	90.5
460.798	87.5
461.018	98.5
461.238	90.5
461.458	84.5
461.678	81.5
461.898	83.5
462.118	98.5
462.338	81.5
462.558	82.5
462.777	100.5
462.997	83.5
463.217	82.5
463.437	81.5
463.657	78.5
463.876	89.5
464.096	85.5
464.316	71.5
464.536	96.5
464.755	98.5
464.975	82.5
465.195	86.5
465.414	93.5
465.634	89.5
465.854	82.5
466.073	84.5
466.293	87.5
466.512	83.5
466.732	88.5
466.951	113.5
467.171	90.5
467.391	90.5
467.61	105.5
467.829	89.5
468.049	86.5
468.268	106.5
468.488	94.5
468.707	87.5
468.927	100.5
469.146	88.5
469.365	110.5
469.585	105.5
469.804	99.5
470.023	100.5
470.243	93.5
470.462	95.5
470.681	98.5
470.901	92.5
471.12	102.5
471.339	102.5
471.558	102.5
471.777	79.5
471.997	91.5
472.216	73.5
472.435	90.5
472.654	84.5
472.873	101.5
473.092	82.5
473.311	103.5
473.53	87.5
473.749	100.5
473.968	89.5
474.187	88.5
474.406	83.5
474.625	96.5
474.844	106.5
475.063	82.5
475.282	90.5
475.501	91.5
475.72	96.5
475.939	92.5
476.158	97.5
476.377	96.5
476.596	103.5
476.814	86.5
477.033	79.5
477.252	92.5
477.471	100.5
477.69	95.5
477.908	97.5
478.127	91.5
478.346	104.5
478.564	93.5
478.783	92.5
479.002	106.5
479.22	96.5
479.439	91.5
479.658	88.5
479.876	91.5
480.095	87.5
480.313	94.5
480.532	94.5
480.751	97.5
480.969	82.5
481.188	83.5
481.406	78.5
481.624	86.5
481.843	79.5
482.061	98.5
482.28	91.5
482.498	105.5
482.717	86.5
482.935	90.5
483.153	87.5
483.372	106.5
483.59	80.5
483.808	98.5
484.027	82.5
484.245	82.5
484.463	93.5
484.681	100.5
484.9	101.5
485.118	94.5
485.336	109.5
485.554	92.5
485.772	78.5
485.99	86.5
486.209	89.5
486.427	98.5
486.645	101.5
486.863	98.5
487.081	101.5
487.299	97.5
487.517	105.5
487.735	106.5
487.953	106.5
488.171	111.5
488.389	104.5
488.607	95.5
488.825	103.5
489.043	91.5
489.261	104.5
489.479	100.5
489.696	104.5
489.914	102.5
490.132	81.5
490.35	99.5
490.568	95.5
490.786	91.5
491.003	100.5
491.221	102.5
491.439	108.5
491.657	110.5
491.874	126.5
492.092	131.5
492.31	125.5
492.527	115.5
492.745	108.5
492.963	117.5
493.18	128.5
493.398	102.5
493.615	119.5
493.833	109.5
494.05	117.5
494.268	108.5
494.485	110.5
494.703	112.5
494.92	109.5
495.138	126.5
495.355	103.5
495.573	116.5
495.79	103.5
496.008	105.5
496.225	111.5
496.442	97.5
496.66	103.5
496.877	110.5
497.094	104.5
497.312	105.5
497.529	96.5
497.746	94.5
497.963	96.5
498.181	111.5
498.398	88.5
498.615	98.5
498.832	86.5
499.049	84.5
499.267	92.5
499.484	98.5
499.701	85.5
499.918	107.5
500.135	100.5
500.352	100.5
500.569	106.5
500.786	110.5
501.003	101.5
501.22	107.5
501.437	95.5
501.654	112.5
501.871	95.5
502.088	97.5
502.305	113.5
502.522	94.5
502.739	113.5
502.956	94.5
503.172	96.5
503.389	95.5
503.606	82.5
503.823	93.5
504.04	84.5
504.256	93.5
504.473	94.5
504.69	100.5
504.907	88.5
505.123	101.5
505.34	94.5
505.557	90.5
505.773	89.5
505.99	83.5
506.207	86.5
506.423	98.5
506.64	91.5
506.856	99.5
507.073	96.5
507.289	79.5
507.506	86.5
507.722	101.5
507.939	114.5
508.155	96.5
508.372	105.5
508.588	105.5
508.805	86.5
509.021	95.5
509.238	64.5
509.454	82.5
509.67	82.5
509.887	83.5
510.103	91.5
510.319	76.5
510.536	89.5
510.752	73.5
510.968	71.5
511.184	81.5
511.401	93.5
511.617	94.5
511.833	79.5
512.049	92.5
512.265	92.5
512.481	105.5
512.698	79.5
512.914	84.5
513.13	91.5
513.346	94.5
513.562	68.5
513.778	87.5
513.994	85.5
514.21	86.5
514.426	70.5
514.642	85.5
514.858	81.5
515.074	85.5
515.29	80.5
515.506	83.5
515.721	94.5
515.937	89.5
516.153	85.5
516.369	92.5
516.585	76.5
516.801	90.5
517.016	85.5
517.232	92.5
517.448	92.5
517.664	91.5
517.879	77.5
518.095	82.5
518.311	82.5
518.527	84.5
518.742	84.5
518.958	82.5
519.173	88.5
519.389	77.5
519.605	105.5
519.82	83.5
520.036	95.5
520.251	94.5
520.467	93.5
520.682	95.5
520.898	93.5
521.113	91.5
521.329	90.5
521.544	89.5
521.76	83.5
521.975	91.5
522.19	75.5
522.406	86.5
522.621	89.5
522.836	70.5
523.052	88.5
523.267	89.5
523.482	85.5
523.698	95.5
523.913	92.5
524.128	81.5
524.343	95.5
524.559	89.5
524.774	95.5
524.989	84.5
525.204	92.5
525.419	93.5
525.634	77.5
525.849	82.5
526.064	86.5
526.28	88.5
526.495	100.5
526.71	88.5
526.925	76.5
527.14	83.5
527.355	81.5
527.57	74.5
527.785	90.5
527.999	83.5
528.214	91.5
528.429	83.5
528.644	98.5
528.859	104.5
529.074	92.5
529.289	116.5
529.503	117.5
529.718	99.5
529.933	101.5
530.148	86.5
530.363	83.5
530.577	91.5
530.792	77.5
531.007	86.5
531.221	87.5
531.436	82.5
531.651	85.5
531.865	85.5
532.08	80.5
532.295	85.5
532.509	74.5
532.724	84.5
532.938	80.5
533.153	71.5
533.367	105.5
533.582	103.5
533.796	83.5
534.011	98.5
534.225	85.5
534.44	83.5
534.654	86.5
534.868	91.5
535.083	83.5
535.297	78.5
535.511	97.5
535.726	100.5
535.94	86.5
536.154	92.5
536.369	79.5
536.583	85.5
536.797	89.5
537.011	84.5
537.225	83.5
537.44	80.5
