Data from Location3.07152019.Energy5.Lamp.07192019.3%Agarose_HRD10591_15-18-53-269.txt Node
Date: Fri Jul 19 15:18:53 EDT 2019
User: cochatt
Spectrometer: HR+D1059
Trigger mode: 1
Integration Time (sec): 1.000000E-1
Scans to average: 1
Electric dark correction enabled: true
Nonlinearity correction enabled: false
Boxcar width: 0
XAxis mode: Wavelengths
Number of Pixels in Spectrum: 2048
>>>>>Begin Spectral Data<<<<<
223.165	-20.88
223.4	-20.88
223.635	-20.88
223.869	-18.88
224.104	-5.88
224.338	-11.88
224.573	-23.88
224.808	-21.88
225.042	-2.88
225.277	-0.88
225.511	5.12
225.746	2.12
225.98	6.12
226.215	12.12
226.449	15.12
226.683	14.12
226.918	14.12
227.152	38.12
227.387	47.12
227.621	46.12
227.856	52.12
228.09	37.12
228.324	46.12
228.559	54.12
228.793	62.12
229.027	63.12
229.262	57.12
229.496	63.12
229.73	68.12
229.964	80.12
230.199	78.12
230.433	67.12
230.667	70.12
230.901	59.12
231.136	93.12
231.37	82.12
231.604	82.12
231.838	79.12
232.072	86.12
232.306	72.12
232.541	85.12
232.775	96.12
233.009	69.12
233.243	79.12
233.477	89.12
233.711	82.12
233.945	79.12
234.179	83.12
234.413	81.12
234.647	81.12
234.881	63.12
235.115	78.12
235.349	75.12
235.583	87.12
235.817	79.12
236.051	67.12
236.285	70.12
236.519	54.12
236.753	74.12
236.987	78.12
237.221	76.12
237.455	66.12
237.689	77.12
237.922	93.12
238.156	81.12
238.39	73.12
238.624	80.12
238.858	71.12
239.091	84.12
239.325	85.12
239.559	84.12
239.793	78.12
240.027	87.12
240.26	79.12
240.494	89.12
240.728	74.12
240.961	89.12
241.195	85.12
241.429	71.12
241.662	73.12
241.896	68.12
242.13	80.12
242.363	91.12
242.597	82.12
242.83	90.12
243.064	81.12
243.298	68.12
243.531	77.12
243.765	75.12
243.998	74.12
244.232	73.12
244.465	82.12
244.699	61.12
244.932	73.12
245.166	79.12
245.399	85.12
245.633	83.12
245.866	77.12
246.099	80.12
246.333	78.12
246.566	75.12
246.8	79.12
247.033	85.12
247.266	72.12
247.5	80.12
247.733	78.12
247.966	87.12
248.2	78.12
248.433	84.12
248.666	77.12
248.899	88.12
249.133	80.12
249.366	86.12
249.599	76.12
249.832	80.12
250.066	82.12
250.299	73.12
250.532	85.12
250.765	79.12
250.998	74.12
251.231	80.12
251.465	80.12
251.698	67.12
251.931	72.12
252.164	78.12
252.397	70.12
252.63	65.12
252.863	68.12
253.096	80.12
253.329	80.12
253.562	85.12
253.795	81.12
254.028	82.12
254.261	83.12
254.494	70.12
254.727	76.12
254.96	74.12
255.193	82.12
255.426	81.12
255.659	83.12
255.892	87.12
256.124	69.12
256.357	78.12
256.59	89.12
256.823	81.12
257.056	83.12
257.289	76.12
257.521	83.12
257.754	82.12
257.987	85.12
258.22	84.12
258.452	79.12
258.685	88.12
258.918	73.12
259.151	69.12
259.383	80.12
259.616	90.12
259.849	76.12
260.081	75.12
260.314	80.12
260.547	71.12
260.779	79.12
261.012	81.12
261.244	84.12
261.477	77.12
261.71	78.12
261.942	87.12
262.175	83.12
262.407	70.12
262.64	75.12
262.872	69.12
263.105	89.12
263.337	91.12
263.57	74.12
263.802	92.12
264.035	82.12
264.267	82.12
264.499	94.12
264.732	106.12
264.964	90.12
265.197	85.12
265.429	67.12
265.661	73.12
265.894	74.12
266.126	63.12
266.358	90.12
266.591	72.12
266.823	69.12
267.055	80.12
267.287	82.12
267.52	86.12
267.752	78.12
267.984	100.12
268.216	75.12
268.448	78.12
268.681	91.12
268.913	80.12
269.145	81.12
269.377	74.12
269.609	78.12
269.841	82.12
270.073	74.12
270.306	92.12
270.538	70.12
270.77	80.12
271.002	75.12
271.234	82.12
271.466	88.12
271.698	82.12
271.93	86.12
272.162	96.12
272.394	79.12
272.626	84.12
272.858	66.12
273.09	88.12
273.322	97.12
273.553	74.12
273.785	61.12
274.017	72.12
274.249	87.12
274.481	66.12
274.713	95.12
274.945	86.12
275.176	78.12
275.408	98.12
275.64	78.12
275.872	86.12
276.104	82.12
276.335	87.12
276.567	78.12
276.799	79.12
277.031	83.12
277.262	82.12
277.494	81.12
277.726	97.12
277.957	87.12
278.189	76.12
278.421	85.12
278.652	100.12
278.884	91.12
279.115	98.12
279.347	80.12
279.579	92.12
279.81	85.12
280.042	78.12
280.273	88.12
280.505	73.12
280.736	84.12
280.968	80.12
281.199	79.12
281.431	95.12
281.662	92.12
281.894	78.12
282.125	86.12
282.356	82.12
282.588	84.12
282.819	78.12
283.051	81.12
283.282	80.12
283.513	89.12
283.745	94.12
283.976	79.12
284.207	67.12
284.439	87.12
284.67	76.12
284.901	98.12
285.132	78.12
285.364	83.12
285.595	82.12
285.826	78.12
286.057	83.12
286.288	71.12
286.52	86.12
286.751	68.12
286.982	89.12
287.213	93.12
287.444	85.12
287.675	97.12
287.906	78.12
288.138	91.12
288.369	84.12
288.6	80.12
288.831	82.12
289.062	95.12
289.293	79.12
289.524	76.12
289.755	85.12
289.986	87.12
290.217	77.12
290.448	78.12
290.679	77.12
290.91	77.12
291.141	79.12
291.371	89.12
291.602	89.12
291.833	97.12
292.064	102.12
292.295	80.12
292.526	70.12
292.757	83.12
292.987	85.12
293.218	80.12
293.449	73.12
293.68	81.12
293.91	97.12
294.141	93.12
294.372	93.12
294.603	85.12
294.833	84.12
295.064	84.12
295.295	83.12
295.525	92.12
295.756	87.12
295.987	84.12
296.217	88.12
296.448	91.12
296.679	64.12
296.909	88.12
297.14	82.12
297.37	83.12
297.601	82.12
297.831	74.12
298.062	81.12
298.292	89.12
298.523	73.12
298.753	79.12
298.984	82.12
299.214	91.12
299.445	97.12
299.675	91.12
299.905	100.12
300.136	78.12
300.366	81.12
300.597	90.12
300.827	83.12
301.057	89.12
301.288	93.12
301.518	85.12
301.748	91.12
301.979	93.12
302.209	70.12
302.439	93.12
302.669	78.12
302.9	90.12
303.13	85.12
303.36	82.12
303.59	81.12
303.82	74.12
304.051	70.12
304.281	82.12
304.511	82.12
304.741	93.12
304.971	94.12
305.201	86.12
305.431	89.12
305.661	85.12
305.891	70.12
306.121	81.12
306.352	85.12
306.582	82.12
306.812	101.12
307.042	80.12
307.272	76.12
307.502	82.12
307.731	91.12
307.961	88.12
308.191	94.12
308.421	85.12
308.651	83.12
308.881	87.12
309.111	75.12
309.341	74.12
309.571	97.12
309.8	88.12
310.03	85.12
310.26	72.12
310.49	64.12
310.72	76.12
310.949	82.12
311.179	82.12
311.409	74.12
311.639	89.12
311.868	85.12
312.098	71.12
312.328	90.12
312.557	80.12
312.787	78.12
313.017	80.12
313.246	69.12
313.476	81.12
313.706	78.12
313.935	75.12
314.165	88.12
314.394	95.12
314.624	83.12
314.853	94.12
315.083	90.12
315.312	96.12
315.542	86.12
315.771	87.12
316.001	76.12
316.23	85.12
316.46	78.12
316.689	77.12
316.919	89.12
317.148	99.12
317.377	90.12
317.607	95.12
317.836	94.12
318.065	85.12
318.295	79.12
318.524	86.12
318.753	90.12
318.983	75.12
319.212	74.12
319.441	72.12
319.67	88.12
319.9	83.12
320.129	82.12
320.358	80.12
320.587	87.12
320.816	85.12
321.046	89.12
321.275	83.12
321.504	99.12
321.733	85.12
321.962	97.12
322.191	97.12
322.42	89.12
322.649	81.12
322.878	90.12
323.108	85.12
323.337	81.12
323.566	91.12
323.795	73.12
324.024	85.12
324.253	81.12
324.482	78.12
324.71	94.12
324.939	86.12
325.168	83.12
325.397	92.12
325.626	95.12
325.855	85.12
326.084	88.12
326.313	92.12
326.542	92.12
326.77	85.12
326.999	82.12
327.228	80.12
327.457	67.12
327.686	77.12
327.914	83.12
328.143	82.12
328.372	79.12
328.6	79.12
328.829	84.12
329.058	88.12
329.287	82.12
329.515	86.12
329.744	74.12
329.972	72.12
330.201	95.12
330.43	86.12
330.658	85.12
330.887	93.12
331.115	93.12
331.344	74.12
331.572	82.12
331.801	69.12
332.03	76.12
332.258	90.12
332.486	81.12
332.715	85.12
332.943	82.12
333.172	91.12
333.4	82.12
333.629	77.12
333.857	95.12
334.085	84.12
334.314	84.12
334.542	95.12
334.771	90.12
334.999	82.12
335.227	90.12
335.455	84.12
335.684	98.12
335.912	75.12
336.14	83.12
336.369	88.12
336.597	83.12
336.825	95.12
337.053	78.12
337.281	93.12
337.51	82.12
337.738	80.12
337.966	78.12
338.194	89.12
338.422	81.12
338.65	82.12
338.878	87.12
339.106	92.12
339.334	103.12
339.562	84.12
339.79	83.12
340.018	87.12
340.246	86.12
340.474	86.12
340.702	91.12
340.93	72.12
341.158	85.12
341.386	89.12
341.614	91.12
341.842	79.12
342.07	90.12
342.298	86.12
342.526	81.12
342.754	89.12
342.981	96.12
343.209	90.12
343.437	82.12
343.665	78.12
343.893	80.12
344.12	81.12
344.348	101.12
344.576	93.12
344.804	75.12
345.031	90.12
345.259	89.12
345.487	90.12
345.714	85.12
345.942	79.12
346.17	78.12
346.397	92.12
346.625	79.12
346.853	89.12
347.08	91.12
347.308	82.12
347.535	76.12
347.763	80.12
347.99	69.12
348.218	73.12
348.445	85.12
348.673	71.12
348.9	91.12
349.128	89.12
349.355	94.12
349.583	84.12
349.81	92.12
350.037	95.12
350.265	88.12
350.492	90.12
350.72	80.12
350.947	82.12
351.174	83.12
351.402	90.12
351.629	86.12
351.856	87.12
352.083	71.12
352.311	86.12
352.538	75.12
352.765	76.12
352.992	75.12
353.22	75.12
353.447	86.12
353.674	85.12
353.901	89.12
354.128	70.12
354.355	89.12
354.583	83.12
354.81	91.12
355.037	98.12
355.264	94.12
355.491	86.12
355.718	63.12
355.945	77.12
356.172	79.12
356.399	82.12
356.626	74.12
356.853	88.12
357.08	110.12
357.307	89.12
357.534	77.12
357.761	72.12
357.988	85.12
358.215	96.12
358.441	86.12
358.668	73.12
358.895	89.12
359.122	82.12
359.349	85.12
359.576	96.12
359.802	94.12
360.029	83.12
360.256	81.12
360.483	91.12
360.709	90.12
360.936	84.12
361.163	82.12
361.39	63.12
361.616	82.12
361.843	69.12
362.07	87.12
362.296	78.12
362.523	80.12
362.749	83.12
362.976	85.12
363.203	69.12
363.429	82.12
363.656	79.12
363.882	79.12
364.109	89.12
364.335	91.12
364.562	89.12
364.788	81.12
365.015	70.12
365.241	95.12
365.468	90.12
365.694	85.12
365.92	87.12
366.147	82.12
366.373	80.12
366.599	82.12
366.826	84.12
367.052	74.12
367.278	90.12
367.505	80.12
367.731	100.12
367.957	92.12
368.184	93.12
368.41	86.12
368.636	95.12
368.862	89.12
369.089	90.12
369.315	81.12
369.541	84.12
369.767	81.12
369.993	79.12
370.219	94.12
370.445	87.12
370.672	69.12
370.898	86.12
371.124	67.12
371.35	78.12
371.576	86.12
371.802	85.12
372.028	90.12
372.254	88.12
372.48	87.12
372.706	98.12
372.932	89.12
373.158	82.12
373.384	77.12
373.61	94.12
373.835	79.12
374.061	90.12
374.287	89.12
374.513	82.12
374.739	93.12
374.965	82.12
375.191	79.12
375.416	82.12
375.642	98.12
375.868	81.12
376.094	81.12
376.319	68.12
376.545	83.12
376.771	89.12
376.997	80.12
377.222	82.12
377.448	72.12
377.674	81.12
377.899	83.12
378.125	78.12
378.35	85.12
378.576	79.12
378.802	74.12
379.027	82.12
379.253	74.12
379.478	86.12
379.704	88.12
379.929	85.12
380.155	77.12
380.38	83.12
380.606	84.12
380.831	94.12
381.057	88.12
381.282	81.12
381.507	93.12
381.733	92.12
381.958	75.12
382.184	91.12
382.409	83.12
382.634	86.12
382.86	85.12
383.085	86.12
383.31	93.12
383.535	86.12
383.761	78.12
383.986	95.12
384.211	71.12
384.436	91.12
384.662	102.12
384.887	87.12
385.112	73.12
385.337	94.12
385.562	88.12
385.787	89.12
386.013	101.12
386.238	71.12
386.463	82.12
386.688	82.12
386.913	85.12
387.138	92.12
387.363	88.12
387.588	85.12
387.813	88.12
388.038	81.12
388.263	81.12
388.488	86.12
388.713	92.12
388.938	91.12
389.163	78.12
389.387	79.12
389.612	79.12
389.837	91.12
390.062	94.12
390.287	80.12
390.512	90.12
390.736	78.12
390.961	82.12
391.186	97.12
391.411	91.12
391.636	82.12
391.86	81.12
392.085	71.12
392.31	88.12
392.534	80.12
392.759	89.12
392.984	95.12
393.208	81.12
393.433	88.12
393.658	102.12
393.882	91.12
394.107	90.12
394.331	93.12
394.556	77.12
394.78	82.12
395.005	91.12
395.229	88.12
395.454	68.12
395.678	96.12
395.903	95.12
396.127	92.12
396.352	101.12
396.576	88.12
396.801	86.12
397.025	93.12
397.249	88.12
397.474	103.12
397.698	96.12
397.922	92.12
398.147	85.12
398.371	85.12
398.595	69.12
398.82	78.12
399.044	94.12
399.268	100.12
399.492	88.12
399.717	93.12
399.941	75.12
400.165	107.12
400.389	84.12
400.613	90.12
400.837	89.12
401.062	85.12
401.286	78.12
401.51	85.12
401.734	75.12
401.958	97.12
402.182	88.12
402.406	86.12
402.63	92.12
402.854	98.12
403.078	77.12
403.302	86.12
403.526	90.12
403.75	83.12
403.974	97.12
404.198	82.12
404.422	88.12
404.645	83.12
404.869	101.12
405.093	74.12
405.317	105.12
405.541	97.12
405.765	89.12
405.988	89.12
406.212	105.12
406.436	91.12
406.66	96.12
406.883	87.12
407.107	83.12
407.331	102.12
407.555	92.12
407.778	101.12
408.002	94.12
408.226	76.12
408.449	83.12
408.673	98.12
408.896	90.12
409.12	89.12
409.344	100.12
409.567	86.12
409.791	90.12
410.014	88.12
410.238	89.12
410.461	94.12
410.685	99.12
410.908	93.12
411.132	98.12
411.355	92.12
411.578	93.12
411.802	78.12
412.025	95.12
412.249	81.12
412.472	89.12
412.695	92.12
412.919	89.12
413.142	94.12
413.365	93.12
413.589	80.12
413.812	86.12
414.035	91.12
414.258	92.12
414.482	91.12
414.705	82.12
414.928	93.12
415.151	91.12
415.374	85.12
415.597	87.12
415.821	89.12
416.044	90.12
416.267	89.12
416.49	94.12
416.713	88.12
416.936	98.12
417.159	105.12
417.382	74.12
417.605	87.12
417.828	97.12
418.051	81.12
418.274	94.12
418.497	95.12
418.72	84.12
418.943	81.12
419.166	106.12
419.389	104.12
419.611	91.12
419.834	93.12
420.057	98.12
420.28	90.12
420.503	78.12
420.726	102.12
420.948	82.12
421.171	111.12
421.394	93.12
421.617	95.12
421.839	94.12
422.062	94.12
422.285	90.12
422.507	96.12
422.73	94.12
422.953	106.12
423.175	99.12
423.398	104.12
423.621	91.12
423.843	84.12
424.066	84.12
424.288	99.12
424.511	96.12
424.733	86.12
424.956	99.12
425.178	97.12
425.401	82.12
425.623	96.12
425.846	79.12
426.068	96.12
426.291	90.12
426.513	89.12
426.735	105.12
426.958	87.12
427.18	95.12
427.402	97.12
427.625	91.12
427.847	89.12
428.069	81.12
428.292	82.12
428.514	96.12
428.736	90.12
428.958	90.12
429.181	90.12
429.403	105.12
429.625	91.12
429.847	90.12
430.069	98.12
430.292	107.12
430.514	102.12
430.736	94.12
430.958	94.12
431.18	101.12
431.402	103.12
431.624	95.12
431.846	115.12
432.068	82.12
432.29	82.12
432.512	96.12
432.734	94.12
432.956	96.12
433.178	93.12
433.4	76.12
433.622	89.12
433.844	93.12
434.066	100.12
434.287	92.12
434.509	76.12
434.731	87.12
434.953	83.12
435.175	85.12
435.397	111.12
435.618	98.12
435.84	93.12
436.062	93.12
436.284	88.12
436.505	95.12
436.727	95.12
436.949	85.12
437.17	102.12
437.392	91.12
437.614	96.12
437.835	97.12
438.057	70.12
438.278	90.12
438.5	92.12
438.721	92.12
438.943	98.12
439.165	75.12
439.386	103.12
439.608	88.12
439.829	103.12
440.05	105.12
440.272	91.12
440.493	94.12
440.715	100.12
440.936	99.12
441.158	102.12
441.379	101.12
441.6	90.12
441.822	100.12
442.043	100.12
442.264	101.12
442.486	107.12
442.707	95.12
442.928	115.12
443.149	109.12
443.371	87.12
443.592	86.12
443.813	95.12
444.034	90.12
444.255	92.12
444.476	98.12
444.698	104.12
444.919	109.12
445.14	216.12
445.361	160.12
445.582	103.12
445.803	102.12
446.024	89.12
446.245	99.12
446.466	106.12
446.687	99.12
446.908	106.12
447.129	110.12
447.35	94.12
447.571	95.12
447.792	86.12
448.013	106.12
448.234	102.12
448.455	110.12
448.675	105.12
448.896	81.12
449.117	90.12
449.338	85.12
449.559	91.12
449.779	98.12
450	114.12
450.221	109.12
450.442	94.12
450.662	89.12
450.883	87.12
451.104	104.12
451.324	72.12
451.545	92.12
451.766	104.12
451.986	105.12
452.207	105.12
452.428	84.12
452.648	85.12
452.869	95.12
453.089	91.12
453.31	80.12
453.53	80.12
453.751	94.12
453.971	89.12
454.192	87.12
454.412	94.12
454.633	85.12
454.853	93.12
455.073	92.12
455.294	90.12
455.514	85.12
455.734	101.12
455.955	79.12
456.175	92.12
456.395	93.12
456.616	85.12
456.836	82.12
457.056	89.12
457.276	79.12
457.497	81.12
457.717	74.12
457.937	74.12
458.157	86.12
458.377	86.12
458.598	94.12
458.818	70.12
459.038	85.12
459.258	83.12
459.478	86.12
459.698	102.12
459.918	87.12
460.138	93.12
460.358	77.12
460.578	95.12
460.798	106.12
461.018	80.12
461.238	91.12
461.458	86.12
461.678	88.12
461.898	89.12
462.118	75.12
462.338	90.12
462.558	79.12
462.777	93.12
462.997	75.12
463.217	74.12
463.437	84.12
463.657	86.12
463.876	80.12
464.096	85.12
464.316	74.12
464.536	99.12
464.755	90.12
464.975	84.12
465.195	94.12
465.414	100.12
465.634	93.12
465.854	102.12
466.073	83.12
466.293	93.12
466.512	84.12
466.732	91.12
466.951	97.12
467.171	103.12
467.391	98.12
467.61	90.12
467.829	96.12
468.049	85.12
468.268	91.12
468.488	103.12
468.707	98.12
468.927	110.12
469.146	97.12
469.365	95.12
469.585	105.12
469.804	93.12
470.023	92.12
470.243	99.12
470.462	97.12
470.681	98.12
470.901	99.12
471.12	98.12
471.339	103.12
471.558	96.12
471.777	94.12
471.997	93.12
472.216	87.12
472.435	90.12
472.654	91.12
472.873	91.12
473.092	91.12
473.311	105.12
473.53	84.12
473.749	100.12
473.968	113.12
474.187	94.12
474.406	88.12
474.625	96.12
474.844	100.12
475.063	83.12
475.282	97.12
475.501	97.12
475.72	99.12
475.939	93.12
476.158	96.12
476.377	89.12
476.596	109.12
476.814	79.12
477.033	81.12
477.252	73.12
477.471	97.12
477.69	117.12
477.908	94.12
478.127	103.12
478.346	116.12
478.564	90.12
478.783	93.12
479.002	87.12
479.22	89.12
479.439	89.12
479.658	88.12
479.876	87.12
480.095	84.12
480.313	100.12
480.532	89.12
480.751	93.12
480.969	82.12
481.188	83.12
481.406	86.12
481.624	81.12
481.843	80.12
482.061	93.12
482.28	91.12
482.498	84.12
482.717	105.12
482.935	92.12
483.153	90.12
483.372	91.12
483.59	99.12
483.808	90.12
484.027	95.12
484.245	94.12
484.463	99.12
484.681	93.12
484.9	84.12
485.118	93.12
485.336	94.12
485.554	83.12
485.772	80.12
485.99	86.12
486.209	81.12
486.427	85.12
486.645	109.12
486.863	100.12
487.081	98.12
487.299	100.12
487.517	97.12
487.735	113.12
487.953	105.12
488.171	107.12
488.389	111.12
488.607	114.12
488.825	98.12
489.043	102.12
489.261	106.12
489.479	108.12
489.696	93.12
489.914	97.12
490.132	104.12
490.35	103.12
490.568	111.12
490.786	98.12
491.003	108.12
491.221	98.12
491.439	107.12
491.657	120.12
491.874	119.12
492.092	133.12
492.31	137.12
492.527	138.12
492.745	109.12
492.963	123.12
493.18	102.12
493.398	121.12
493.615	103.12
493.833	116.12
494.05	111.12
494.268	107.12
494.485	116.12
494.703	111.12
494.92	108.12
495.138	110.12
495.355	116.12
495.573	125.12
495.79	109.12
496.008	109.12
496.225	100.12
496.442	115.12
496.66	116.12
496.877	98.12
497.094	113.12
497.312	90.12
497.529	99.12
497.746	99.12
497.963	96.12
498.181	111.12
498.398	73.12
498.615	107.12
498.832	72.12
499.049	92.12
499.267	91.12
499.484	89.12
499.701	101.12
499.918	103.12
500.135	88.12
500.352	110.12
500.569	109.12
500.786	94.12
501.003	100.12
501.22	100.12
501.437	103.12
501.654	86.12
501.871	105.12
502.088	83.12
502.305	94.12
502.522	90.12
502.739	104.12
502.956	98.12
503.172	99.12
503.389	102.12
503.606	107.12
503.823	87.12
504.04	98.12
504.256	95.12
504.473	111.12
504.69	93.12
504.907	105.12
505.123	98.12
505.34	93.12
505.557	68.12
505.773	91.12
505.99	89.12
506.207	91.12
506.423	97.12
506.64	89.12
506.856	74.12
507.073	104.12
507.289	100.12
507.506	103.12
507.722	100.12
507.939	83.12
508.155	101.12
508.372	91.12
508.588	77.12
508.805	81.12
509.021	85.12
509.238	94.12
509.454	88.12
509.67	89.12
509.887	76.12
510.103	98.12
510.319	88.12
510.536	85.12
510.752	87.12
510.968	78.12
511.184	71.12
511.401	84.12
511.617	86.12
511.833	68.12
512.049	81.12
512.265	95.12
512.481	114.12
512.698	91.12
512.914	89.12
513.13	84.12
513.346	96.12
513.562	76.12
513.778	82.12
513.994	82.12
514.21	88.12
514.426	91.12
514.642	71.12
514.858	88.12
515.074	88.12
515.29	78.12
515.506	74.12
515.721	74.12
515.937	93.12
516.153	93.12
516.369	88.12
516.585	82.12
516.801	81.12
517.016	90.12
517.232	76.12
517.448	83.12
