Data from Location3.07152019.Energy5.Lamp.07192019.3%Agarose_HRD10591_15-16-51-269.txt Node
Date: Fri Jul 19 15:16:51 EDT 2019
User: cochatt
Spectrometer: HR+D1059
Trigger mode: 1
Integration Time (sec): 1.000000E-1
Scans to average: 1
Electric dark correction enabled: true
Nonlinearity correction enabled: false
Boxcar width: 0
XAxis mode: Wavelengths
Number of Pixels in Spectrum: 2048
>>>>>Begin Spectral Data<<<<<
223.165	-18.12
223.4	-18.12
223.635	-18.12
223.869	-19.12
224.104	-21.12
224.338	-14.12
224.573	-21.12
224.808	-10.12
225.042	-8.12
225.277	-8.12
225.511	3.88
225.746	4.88
225.98	7.88
226.215	3.88
226.449	30.88
226.683	22.88
226.918	17.88
227.152	27.88
227.387	38.88
227.621	40.88
227.856	29.88
228.09	43.88
228.324	60.88
228.559	52.88
228.793	50.88
229.027	64.88
229.262	72.88
229.496	65.88
229.73	73.88
229.964	69.88
230.199	70.88
230.433	66.88
230.667	83.88
230.901	74.88
231.136	80.88
231.37	72.88
231.604	77.88
231.838	78.88
232.072	88.88
232.306	97.88
232.541	97.88
232.775	72.88
233.009	91.88
233.243	88.88
233.477	92.88
233.711	84.88
233.945	82.88
234.179	94.88
234.413	78.88
234.647	77.88
234.881	81.88
235.115	91.88
235.349	86.88
235.583	83.88
235.817	70.88
236.051	84.88
236.285	86.88
236.519	92.88
236.753	62.88
236.987	87.88
237.221	79.88
237.455	73.88
237.689	89.88
237.922	76.88
238.156	65.88
238.39	72.88
238.624	87.88
238.858	84.88
239.091	75.88
239.325	59.88
239.559	62.88
239.793	75.88
240.027	78.88
240.26	73.88
240.494	78.88
240.728	69.88
240.961	88.88
241.195	80.88
241.429	68.88
241.662	78.88
241.896	77.88
242.13	72.88
242.363	82.88
242.597	70.88
242.83	85.88
243.064	76.88
243.298	73.88
243.531	64.88
243.765	77.88
243.998	82.88
244.232	77.88
244.465	99.88
244.699	98.88
244.932	84.88
245.166	80.88
245.399	84.88
245.633	78.88
245.866	90.88
246.099	74.88
246.333	69.88
246.566	83.88
246.8	79.88
247.033	70.88
247.266	78.88
247.5	87.88
247.733	89.88
247.966	68.88
248.2	85.88
248.433	94.88
248.666	81.88
248.899	80.88
249.133	86.88
249.366	82.88
249.599	70.88
249.832	92.88
250.066	88.88
250.299	83.88
250.532	83.88
250.765	89.88
250.998	77.88
251.231	87.88
251.465	65.88
251.698	75.88
251.931	68.88
252.164	89.88
252.397	73.88
252.63	73.88
252.863	75.88
253.096	83.88
253.329	77.88
253.562	87.88
253.795	85.88
254.028	83.88
254.261	85.88
254.494	79.88
254.727	71.88
254.96	87.88
255.193	76.88
255.426	77.88
255.659	87.88
255.892	92.88
256.124	77.88
256.357	93.88
256.59	84.88
256.823	84.88
257.056	92.88
257.289	80.88
257.521	89.88
257.754	92.88
257.987	80.88
258.22	87.88
258.452	78.88
258.685	76.88
258.918	85.88
259.151	83.88
259.383	88.88
259.616	80.88
259.849	83.88
260.081	81.88
260.314	85.88
260.547	75.88
260.779	91.88
261.012	92.88
261.244	76.88
261.477	85.88
261.71	80.88
261.942	85.88
262.175	82.88
262.407	89.88
262.64	80.88
262.872	84.88
263.105	78.88
263.337	85.88
263.57	88.88
263.802	78.88
264.035	77.88
264.267	93.88
264.499	85.88
264.732	79.88
264.964	93.88
265.197	65.88
265.429	77.88
265.661	88.88
265.894	88.88
266.126	79.88
266.358	90.88
266.591	84.88
266.823	72.88
267.055	83.88
267.287	84.88
267.52	84.88
267.752	74.88
267.984	90.88
268.216	84.88
268.448	89.88
268.681	81.88
268.913	77.88
269.145	90.88
269.377	84.88
269.609	94.88
269.841	88.88
270.073	74.88
270.306	89.88
270.538	82.88
270.77	75.88
271.002	84.88
271.234	83.88
271.466	86.88
271.698	88.88
271.93	86.88
272.162	90.88
272.394	81.88
272.626	95.88
272.858	84.88
273.09	79.88
273.322	86.88
273.553	87.88
273.785	90.88
274.017	93.88
274.249	87.88
274.481	93.88
274.713	90.88
274.945	104.88
275.176	90.88
275.408	70.88
275.64	84.88
275.872	78.88
276.104	74.88
276.335	85.88
276.567	83.88
276.799	82.88
277.031	80.88
277.262	92.88
277.494	96.88
277.726	92.88
277.957	101.88
278.189	95.88
278.421	85.88
278.652	87.88
278.884	89.88
279.115	90.88
279.347	85.88
279.579	78.88
279.81	84.88
280.042	89.88
280.273	85.88
280.505	80.88
280.736	97.88
280.968	98.88
281.199	83.88
281.431	87.88
281.662	83.88
281.894	93.88
282.125	99.88
282.356	75.88
282.588	85.88
282.819	73.88
283.051	90.88
283.282	89.88
283.513	78.88
283.745	82.88
283.976	84.88
284.207	79.88
284.439	94.88
284.67	100.88
284.901	92.88
285.132	95.88
285.364	90.88
285.595	89.88
285.826	73.88
286.057	99.88
286.288	84.88
286.52	81.88
286.751	70.88
286.982	86.88
287.213	86.88
287.444	84.88
287.675	85.88
287.906	94.88
288.138	102.88
288.369	86.88
288.6	74.88
288.831	92.88
289.062	97.88
289.293	95.88
289.524	87.88
289.755	83.88
289.986	81.88
290.217	86.88
290.448	90.88
290.679	80.88
290.91	94.88
291.141	96.88
291.371	85.88
291.602	107.88
291.833	89.88
292.064	84.88
292.295	95.88
292.526	83.88
292.757	97.88
292.987	83.88
293.218	84.88
293.449	89.88
293.68	92.88
293.91	75.88
294.141	86.88
294.372	93.88
294.603	91.88
294.833	90.88
295.064	75.88
295.295	90.88
295.525	95.88
295.756	80.88
295.987	86.88
296.217	99.88
296.448	89.88
296.679	88.88
296.909	77.88
297.14	105.88
297.37	83.88
297.601	93.88
297.831	84.88
298.062	77.88
298.292	89.88
298.523	85.88
298.753	99.88
298.984	83.88
299.214	76.88
299.445	78.88
299.675	90.88
299.905	92.88
300.136	82.88
300.366	85.88
300.597	86.88
300.827	96.88
301.057	82.88
301.288	91.88
301.518	99.88
301.748	87.88
301.979	94.88
302.209	74.88
302.439	85.88
302.669	72.88
302.9	78.88
303.13	85.88
303.36	84.88
303.59	80.88
303.82	93.88
304.051	89.88
304.281	103.88
304.511	98.88
304.741	77.88
304.971	84.88
305.201	85.88
305.431	109.88
305.661	98.88
305.891	84.88
306.121	94.88
306.352	92.88
306.582	80.88
306.812	77.88
307.042	101.88
307.272	89.88
307.502	84.88
307.731	83.88
307.961	97.88
308.191	60.88
308.421	97.88
308.651	82.88
308.881	93.88
309.111	93.88
309.341	74.88
309.571	85.88
309.8	88.88
310.03	87.88
310.26	95.88
310.49	84.88
310.72	84.88
310.949	85.88
311.179	85.88
311.409	83.88
311.639	107.88
311.868	72.88
312.098	101.88
312.328	106.88
312.557	103.88
312.787	96.88
313.017	98.88
313.246	84.88
313.476	89.88
313.706	92.88
313.935	76.88
314.165	83.88
314.394	78.88
314.624	82.88
314.853	95.88
315.083	84.88
315.312	78.88
315.542	94.88
315.771	92.88
316.001	96.88
316.23	86.88
316.46	100.88
316.689	81.88
316.919	78.88
317.148	93.88
317.377	84.88
317.607	85.88
317.836	91.88
318.065	80.88
318.295	87.88
318.524	85.88
318.753	88.88
318.983	93.88
319.212	93.88
319.441	86.88
319.67	86.88
319.9	84.88
320.129	78.88
320.358	93.88
320.587	96.88
320.816	77.88
321.046	89.88
321.275	101.88
321.504	89.88
321.733	95.88
321.962	86.88
322.191	92.88
322.42	83.88
322.649	84.88
322.878	91.88
323.108	81.88
323.337	89.88
323.566	86.88
323.795	88.88
324.024	77.88
324.253	86.88
324.482	86.88
324.71	86.88
324.939	93.88
325.168	101.88
325.397	90.88
325.626	85.88
325.855	87.88
326.084	73.88
326.313	78.88
326.542	88.88
326.77	92.88
326.999	86.88
327.228	85.88
327.457	83.88
327.686	77.88
327.914	79.88
328.143	100.88
328.372	83.88
328.6	101.88
328.829	96.88
329.058	91.88
329.287	77.88
329.515	84.88
329.744	76.88
329.972	86.88
330.201	93.88
330.43	83.88
330.658	93.88
330.887	96.88
331.115	84.88
331.344	82.88
331.572	90.88
331.801	85.88
332.03	93.88
332.258	89.88
332.486	96.88
332.715	86.88
332.943	86.88
333.172	90.88
333.4	84.88
333.629	82.88
333.857	91.88
334.085	83.88
334.314	90.88
334.542	89.88
334.771	82.88
334.999	86.88
335.227	107.88
335.455	97.88
335.684	93.88
335.912	102.88
336.14	87.88
336.369	98.88
336.597	87.88
336.825	85.88
337.053	86.88
337.281	75.88
337.51	74.88
337.738	79.88
337.966	82.88
338.194	88.88
338.422	94.88
338.65	87.88
338.878	94.88
339.106	75.88
339.334	100.88
339.562	83.88
339.79	91.88
340.018	86.88
340.246	73.88
340.474	83.88
340.702	75.88
340.93	84.88
341.158	81.88
341.386	66.88
341.614	89.88
341.842	100.88
342.07	80.88
342.298	84.88
342.526	86.88
342.754	82.88
342.981	81.88
343.209	78.88
343.437	87.88
343.665	93.88
343.893	97.88
344.12	93.88
344.348	87.88
344.576	88.88
344.804	83.88
345.031	101.88
345.259	89.88
345.487	88.88
345.714	76.88
345.942	82.88
346.17	87.88
346.397	87.88
346.625	80.88
346.853	79.88
347.08	101.88
347.308	77.88
347.535	83.88
347.763	84.88
347.99	76.88
348.218	95.88
348.445	84.88
348.673	83.88
348.9	91.88
349.128	79.88
349.355	75.88
349.583	89.88
349.81	78.88
350.037	85.88
350.265	94.88
350.492	88.88
350.72	91.88
350.947	90.88
351.174	69.88
351.402	80.88
351.629	94.88
351.856	88.88
352.083	88.88
352.311	89.88
352.538	96.88
352.765	88.88
352.992	83.88
353.22	90.88
353.447	98.88
353.674	76.88
353.901	95.88
354.128	101.88
354.355	85.88
354.583	78.88
354.81	88.88
355.037	87.88
355.264	78.88
355.491	88.88
355.718	93.88
355.945	74.88
356.172	83.88
356.399	89.88
356.626	78.88
356.853	96.88
357.08	79.88
357.307	80.88
357.534	89.88
357.761	83.88
357.988	98.88
358.215	85.88
358.441	86.88
358.668	90.88
358.895	100.88
359.122	86.88
359.349	91.88
359.576	77.88
359.802	88.88
360.029	83.88
360.256	88.88
360.483	85.88
360.709	82.88
360.936	77.88
361.163	88.88
361.39	86.88
361.616	85.88
361.843	84.88
362.07	101.88
362.296	107.88
362.523	85.88
362.749	84.88
362.976	84.88
363.203	77.88
363.429	90.88
363.656	61.88
363.882	85.88
364.109	89.88
364.335	87.88
364.562	85.88
364.788	80.88
365.015	88.88
365.241	81.88
365.468	89.88
365.694	96.88
365.92	88.88
366.147	84.88
366.373	91.88
366.599	92.88
366.826	88.88
367.052	81.88
367.278	76.88
367.505	100.88
367.731	89.88
367.957	70.88
368.184	79.88
368.41	81.88
368.636	97.88
368.862	94.88
369.089	86.88
369.315	84.88
369.541	90.88
369.767	92.88
369.993	83.88
370.219	81.88
370.445	80.88
370.672	77.88
370.898	86.88
371.124	99.88
371.35	77.88
371.576	84.88
371.802	87.88
372.028	80.88
372.254	85.88
372.48	78.88
372.706	84.88
372.932	70.88
373.158	84.88
373.384	87.88
373.61	99.88
373.835	103.88
374.061	88.88
374.287	80.88
374.513	87.88
374.739	78.88
374.965	101.88
375.191	91.88
375.416	81.88
375.642	89.88
375.868	88.88
376.094	79.88
376.319	91.88
376.545	81.88
376.771	77.88
376.997	77.88
377.222	73.88
377.448	101.88
377.674	88.88
377.899	76.88
378.125	81.88
378.35	92.88
378.576	85.88
378.802	77.88
379.027	95.88
379.253	87.88
379.478	85.88
379.704	94.88
379.929	84.88
380.155	78.88
380.38	99.88
380.606	92.88
380.831	93.88
381.057	109.88
381.282	98.88
381.507	87.88
381.733	88.88
381.958	93.88
382.184	92.88
382.409	83.88
382.634	76.88
382.86	86.88
383.085	97.88
383.31	100.88
383.535	75.88
383.761	84.88
383.986	85.88
384.211	99.88
384.436	107.88
384.662	90.88
384.887	100.88
385.112	89.88
385.337	96.88
385.562	83.88
385.787	81.88
386.013	107.88
386.238	83.88
386.463	85.88
386.688	89.88
386.913	93.88
387.138	87.88
387.363	83.88
387.588	99.88
387.813	88.88
388.038	106.88
388.263	82.88
388.488	69.88
388.713	97.88
388.938	93.88
389.163	88.88
389.387	90.88
389.612	87.88
389.837	104.88
390.062	86.88
390.287	84.88
390.512	98.88
390.736	85.88
390.961	90.88
391.186	85.88
391.411	91.88
391.636	105.88
391.86	84.88
392.085	91.88
392.31	92.88
392.534	97.88
392.759	78.88
392.984	89.88
393.208	78.88
393.433	82.88
393.658	91.88
393.882	74.88
394.107	84.88
394.331	101.88
394.556	77.88
394.78	86.88
395.005	87.88
395.229	88.88
395.454	104.88
395.678	99.88
395.903	85.88
396.127	95.88
396.352	88.88
396.576	84.88
396.801	98.88
397.025	90.88
397.249	84.88
397.474	106.88
397.698	87.88
397.922	90.88
398.147	95.88
398.371	92.88
398.595	96.88
398.82	85.88
399.044	86.88
399.268	90.88
399.492	86.88
399.717	89.88
399.941	78.88
400.165	89.88
400.389	92.88
400.613	95.88
400.837	110.88
401.062	96.88
401.286	92.88
401.51	96.88
401.734	91.88
401.958	93.88
402.182	96.88
402.406	84.88
402.63	77.88
402.854	98.88
403.078	101.88
403.302	88.88
403.526	98.88
403.75	84.88
403.974	91.88
404.198	105.88
404.422	78.88
404.645	108.88
404.869	77.88
405.093	88.88
405.317	88.88
405.541	82.88
405.765	92.88
405.988	102.88
406.212	91.88
406.436	85.88
406.66	88.88
406.883	88.88
407.107	97.88
407.331	93.88
407.555	85.88
407.778	95.88
408.002	93.88
408.226	93.88
408.449	99.88
408.673	76.88
408.896	94.88
409.12	97.88
409.344	97.88
409.567	97.88
409.791	115.88
410.014	96.88
410.238	86.88
410.461	84.88
410.685	90.88
410.908	77.88
411.132	89.88
411.355	94.88
411.578	88.88
411.802	76.88
412.025	97.88
412.249	88.88
412.472	95.88
412.695	80.88
412.919	102.88
413.142	96.88
413.365	78.88
413.589	82.88
413.812	94.88
414.035	97.88
414.258	93.88
414.482	93.88
414.705	87.88
414.928	95.88
415.151	78.88
415.374	92.88
415.597	90.88
415.821	106.88
416.044	93.88
416.267	97.88
416.49	85.88
416.713	97.88
416.936	79.88
417.159	101.88
417.382	92.88
417.605	82.88
417.828	89.88
418.051	84.88
418.274	103.88
418.497	80.88
418.72	98.88
418.943	104.88
419.166	61.88
419.389	78.88
419.611	82.88
419.834	98.88
420.057	108.88
420.28	85.88
420.503	98.88
420.726	94.88
420.948	106.88
421.171	102.88
421.394	93.88
421.617	100.88
421.839	94.88
422.062	96.88
422.285	102.88
422.507	96.88
422.73	92.88
422.953	91.88
423.175	90.88
423.398	94.88
423.621	80.88
423.843	91.88
424.066	89.88
424.288	87.88
424.511	92.88
424.733	108.88
424.956	105.88
425.178	94.88
425.401	94.88
425.623	108.88
425.846	94.88
426.068	95.88
426.291	110.88
426.513	96.88
426.735	97.88
426.958	93.88
427.18	104.88
427.402	95.88
427.625	90.88
427.847	89.88
428.069	85.88
428.292	91.88
428.514	99.88
428.736	96.88
428.958	90.88
429.181	102.88
429.403	93.88
429.625	106.88
429.847	97.88
430.069	86.88
430.292	100.88
430.514	92.88
430.736	108.88
430.958	88.88
431.18	90.88
431.402	99.88
431.624	96.88
431.846	78.88
432.068	79.88
432.29	82.88
432.512	89.88
432.734	103.88
432.956	95.88
433.178	89.88
433.4	94.88
433.622	109.88
433.844	97.88
434.066	86.88
434.287	78.88
434.509	76.88
434.731	67.88
434.953	78.88
435.175	92.88
435.397	84.88
435.618	99.88
435.84	86.88
436.062	89.88
436.284	109.88
436.505	99.88
436.727	92.88
436.949	109.88
437.17	98.88
437.392	97.88
437.614	85.88
437.835	95.88
438.057	101.88
438.278	104.88
438.5	88.88
438.721	101.88
438.943	86.88
439.165	94.88
439.386	99.88
439.608	106.88
439.829	119.88
440.05	101.88
440.272	91.88
440.493	104.88
440.715	91.88
440.936	85.88
441.158	90.88
441.379	116.88
441.6	88.88
441.822	99.88
442.043	89.88
442.264	88.88
442.486	101.88
442.707	102.88
442.928	106.88
443.149	92.88
443.371	95.88
443.592	99.88
443.813	87.88
444.034	91.88
444.255	103.88
444.476	104.88
444.698	118.88
444.919	106.88
445.14	226.88
445.361	162.88
445.582	108.88
445.803	99.88
446.024	92.88
446.245	98.88
446.466	99.88
446.687	100.88
446.908	107.88
447.129	105.88
447.35	101.88
447.571	107.88
447.792	98.88
448.013	113.88
448.234	109.88
448.455	109.88
448.675	100.88
448.896	96.88
449.117	88.88
449.338	101.88
449.559	105.88
449.779	104.88
450	103.88
450.221	87.88
450.442	97.88
450.662	107.88
450.883	111.88
451.104	98.88
451.324	96.88
451.545	99.88
451.766	89.88
451.986	96.88
452.207	93.88
452.428	98.88
452.648	89.88
452.869	89.88
453.089	101.88
453.31	85.88
453.53	104.88
453.751	99.88
453.971	87.88
454.192	92.88
454.412	98.88
454.633	82.88
454.853	103.88
455.073	101.88
455.294	107.88
455.514	99.88
455.734	100.88
455.955	88.88
456.175	98.88
456.395	90.88
456.616	84.88
456.836	88.88
457.056	93.88
457.276	94.88
457.497	86.88
457.717	105.88
457.937	108.88
458.157	96.88
458.377	86.88
458.598	71.88
458.818	88.88
459.038	79.88
459.258	89.88
459.478	94.88
459.698	91.88
459.918	77.88
460.138	89.88
460.358	77.88
460.578	96.88
460.798	96.88
461.018	89.88
461.238	92.88
461.458	88.88
461.678	89.88
461.898	86.88
462.118	97.88
462.338	85.88
462.558	104.88
462.777	84.88
462.997	93.88
463.217	100.88
463.437	96.88
463.657	79.88
463.876	82.88
464.096	100.88
464.316	87.88
464.536	93.88
464.755	86.88
464.975	94.88
465.195	81.88
465.414	92.88
465.634	94.88
465.854	71.88
466.073	104.88
466.293	87.88
466.512	94.88
466.732	103.88
466.951	90.88
467.171	99.88
467.391	103.88
467.61	96.88
467.829	102.88
468.049	91.88
468.268	108.88
468.488	114.88
468.707	100.88
468.927	92.88
469.146	102.88
469.365	99.88
469.585	92.88
469.804	115.88
470.023	98.88
470.243	101.88
470.462	100.88
470.681	107.88
470.901	113.88
471.12	90.88
471.339	103.88
471.558	99.88
471.777	99.88
471.997	83.88
472.216	98.88
472.435	108.88
472.654	84.88
472.873	109.88
473.092	97.88
473.311	94.88
473.53	101.88
473.749	99.88
473.968	112.88
474.187	101.88
474.406	84.88
474.625	82.88
474.844	98.88
475.063	89.88
475.282	96.88
475.501	87.88
475.72	105.88
475.939	88.88
476.158	93.88
476.377	105.88
476.596	88.88
476.814	82.88
477.033	87.88
477.252	95.88
477.471	93.88
477.69	112.88
477.908	99.88
478.127	98.88
478.346	99.88
478.564	97.88
478.783	91.88
479.002	89.88
479.22	98.88
479.439	101.88
479.658	86.88
479.876	110.88
480.095	90.88
480.313	85.88
480.532	91.88
480.751	95.88
480.969	87.88
481.188	80.88
481.406	87.88
481.624	83.88
481.843	78.88
482.061	93.88
482.28	91.88
482.498	80.88
482.717	81.88
482.935	93.88
483.153	94.88
483.372	103.88
483.59	109.88
483.808	95.88
484.027	99.88
484.245	83.88
484.463	95.88
484.681	116.88
484.9	107.88
485.118	98.88
485.336	94.88
485.554	102.88
485.772	84.88
485.99	86.88
486.209	84.88
486.427	87.88
486.645	97.88
486.863	93.88
487.081	112.88
487.299	101.88
487.517	101.88
487.735	90.88
487.953	99.88
488.171	110.88
488.389	117.88
488.607	113.88
488.825	92.88
489.043	108.88
489.261	98.88
489.479	115.88
489.696	106.88
489.914	106.88
490.132	102.88
490.35	117.88
490.568	113.88
490.786	109.88
491.003	123.88
491.221	97.88
491.439	109.88
491.657	121.88
491.874	120.88
492.092	119.88
492.31	142.88
492.527	133.88
492.745	113.88
492.963	130.88
493.18	108.88
493.398	120.88
493.615	120.88
493.833	101.88
494.05	109.88
494.268	99.88
494.485	107.88
494.703	114.88
494.92	108.88
495.138	115.88
495.355	104.88
495.573	126.88
495.79	114.88
496.008	105.88
496.225	109.88
496.442	101.88
496.66	122.88
496.877	101.88
497.094	104.88
497.312	102.88
497.529	103.88
497.746	98.88
497.963	112.88
498.181	112.88
498.398	99.88
498.615	90.88
498.832	84.88
499.049	93.88
499.267	96.88
499.484	101.88
499.701	100.88
499.918	91.88
500.135	100.88
500.352	100.88
500.569	99.88
500.786	116.88
501.003	91.88
501.22	97.88
501.437	109.88
501.654	100.88
501.871	76.88
502.088	102.88
502.305	91.88
502.522	96.88
502.739	105.88
502.956	100.88
503.172	86.88
503.389	106.88
503.606	103.88
503.823	88.88
504.04	111.88
504.256	95.88
504.473	100.88
504.69	101.88
504.907	94.88
505.123	83.88
505.34	84.88
505.557	93.88
505.773	104.88
505.99	82.88
506.207	92.88
506.423	93.88
506.64	113.88
506.856	97.88
507.073	101.88
507.289	108.88
507.506	87.88
507.722	106.88
507.939	104.88
508.155	98.88
508.372	91.88
508.588	95.88
508.805	99.88
509.021	91.88
509.238	100.88
509.454	85.88
509.67	91.88
509.887	94.88
510.103	97.88
510.319	99.88
510.536	98.88
510.752	82.88
510.968	84.88
511.184	81.88
511.401	74.88
511.617	81.88
511.833	88.88
512.049	88.88
512.265	81.88
512.481	81.88
512.698	93.88
512.914	91.88
513.13	90.88
513.346	81.88
513.562	85.88
513.778	80.88
513.994	84.88
514.21	97.88
514.426	85.88
514.642	91.88
514.858	84.88
515.074	89.88
515.29	93.88
515.506	93.88
515.721	83.88
515.937	97.88
516.153	97.88
516.369	90.88
516.585	80.88
