Data from Location3.07152019.Energy5.Lamp.07192019.3%Agarose_HRD10591_15-16-50-269.txt Node
Date: Fri Jul 19 15:16:50 EDT 2019
User: cochatt
Spectrometer: HR+D1059
Trigger mode: 1
Integration Time (sec): 1.000000E-1
Scans to average: 1
Electric dark correction enabled: true
Nonlinearity correction enabled: false
Boxcar width: 0
XAxis mode: Wavelengths
Number of Pixels in Spectrum: 2048
>>>>>Begin Spectral Data<<<<<
223.165	-9.19
223.4	-9.19
223.635	-9.19
223.869	-18.19
224.104	-24.19
224.338	-21.19
224.573	-16.19
224.808	-0.19
225.042	-0.19
225.277	-3.19
225.511	7.81
225.746	-10.19
225.98	10.81
226.215	12.81
226.449	24.81
226.683	4.81
226.918	17.81
227.152	23.81
227.387	34.81
227.621	43.81
227.856	36.81
228.09	33.81
228.324	51.81
228.559	51.81
228.793	55.81
229.027	38.81
229.262	57.81
229.496	57.81
229.73	78.81
229.964	59.81
230.199	63.81
230.433	74.81
230.667	72.81
230.901	76.81
231.136	78.81
231.37	72.81
231.604	91.81
231.838	81.81
232.072	75.81
232.306	85.81
232.541	72.81
232.775	81.81
233.009	80.81
233.243	76.81
233.477	88.81
233.711	71.81
233.945	78.81
234.179	81.81
234.413	75.81
234.647	80.81
234.881	79.81
235.115	70.81
235.349	77.81
235.583	81.81
235.817	76.81
236.051	85.81
236.285	81.81
236.519	77.81
236.753	67.81
236.987	85.81
237.221	67.81
237.455	74.81
237.689	69.81
237.922	70.81
238.156	73.81
238.39	69.81
238.624	73.81
238.858	83.81
239.091	69.81
239.325	75.81
239.559	76.81
239.793	79.81
240.027	77.81
240.26	66.81
240.494	59.81
240.728	72.81
240.961	79.81
241.195	59.81
241.429	74.81
241.662	82.81
241.896	65.81
242.13	69.81
242.363	76.81
242.597	77.81
242.83	82.81
243.064	84.81
243.298	83.81
243.531	80.81
243.765	94.81
243.998	83.81
244.232	69.81
244.465	65.81
244.699	72.81
244.932	73.81
245.166	76.81
245.399	71.81
245.633	78.81
245.866	80.81
246.099	72.81
246.333	76.81
246.566	60.81
246.8	76.81
247.033	70.81
247.266	74.81
247.5	65.81
247.733	86.81
247.966	71.81
248.2	67.81
248.433	82.81
248.666	73.81
248.899	73.81
249.133	64.81
249.366	85.81
249.599	73.81
249.832	77.81
250.066	84.81
250.299	81.81
250.532	82.81
250.765	74.81
250.998	68.81
251.231	84.81
251.465	69.81
251.698	79.81
251.931	91.81
252.164	86.81
252.397	83.81
252.63	92.81
252.863	70.81
253.096	83.81
253.329	81.81
253.562	71.81
253.795	77.81
254.028	93.81
254.261	86.81
254.494	75.81
254.727	93.81
254.96	75.81
255.193	67.81
255.426	76.81
255.659	87.81
255.892	76.81
256.124	88.81
256.357	79.81
256.59	85.81
256.823	73.81
257.056	69.81
257.289	89.81
257.521	77.81
257.754	72.81
257.987	72.81
258.22	77.81
258.452	75.81
258.685	69.81
258.918	71.81
259.151	80.81
259.383	68.81
259.616	75.81
259.849	81.81
260.081	76.81
260.314	87.81
260.547	55.81
260.779	93.81
261.012	95.81
261.244	86.81
261.477	75.81
261.71	70.81
261.942	94.81
262.175	94.81
262.407	84.81
262.64	83.81
262.872	87.81
263.105	89.81
263.337	84.81
263.57	71.81
263.802	65.81
264.035	92.81
264.267	78.81
264.499	85.81
264.732	73.81
264.964	88.81
265.197	86.81
265.429	82.81
265.661	72.81
265.894	79.81
266.126	69.81
266.358	91.81
266.591	72.81
266.823	82.81
267.055	77.81
267.287	71.81
267.52	84.81
267.752	73.81
267.984	73.81
268.216	75.81
268.448	75.81
268.681	84.81
268.913	72.81
269.145	61.81
269.377	58.81
269.609	82.81
269.841	67.81
270.073	88.81
270.306	78.81
270.538	72.81
270.77	92.81
271.002	78.81
271.234	84.81
271.466	86.81
271.698	74.81
271.93	80.81
272.162	77.81
272.394	86.81
272.626	87.81
272.858	77.81
273.09	83.81
273.322	71.81
273.553	79.81
273.785	73.81
274.017	93.81
274.249	81.81
274.481	73.81
274.713	90.81
274.945	78.81
275.176	90.81
275.408	85.81
275.64	86.81
275.872	84.81
276.104	77.81
276.335	82.81
276.567	67.81
276.799	88.81
277.031	97.81
277.262	79.81
277.494	73.81
277.726	75.81
277.957	88.81
278.189	73.81
278.421	89.81
278.652	76.81
278.884	66.81
279.115	80.81
279.347	96.81
279.579	90.81
279.81	76.81
280.042	73.81
280.273	91.81
280.505	90.81
280.736	81.81
280.968	79.81
281.199	80.81
281.431	84.81
281.662	94.81
281.894	87.81
282.125	73.81
282.356	84.81
282.588	77.81
282.819	85.81
283.051	73.81
283.282	72.81
283.513	87.81
283.745	88.81
283.976	81.81
284.207	83.81
284.439	69.81
284.67	74.81
284.901	77.81
285.132	79.81
285.364	86.81
285.595	97.81
285.826	96.81
286.057	83.81
286.288	87.81
286.52	72.81
286.751	73.81
286.982	79.81
287.213	87.81
287.444	80.81
287.675	81.81
287.906	81.81
288.138	87.81
288.369	81.81
288.6	74.81
288.831	81.81
289.062	86.81
289.293	81.81
289.524	92.81
289.755	90.81
289.986	78.81
290.217	78.81
290.448	89.81
290.679	63.81
290.91	84.81
291.141	77.81
291.371	89.81
291.602	78.81
291.833	83.81
292.064	82.81
292.295	96.81
292.526	84.81
292.757	81.81
292.987	63.81
293.218	81.81
293.449	79.81
293.68	87.81
293.91	88.81
294.141	82.81
294.372	84.81
294.603	79.81
294.833	91.81
295.064	97.81
295.295	91.81
295.525	81.81
295.756	75.81
295.987	71.81
296.217	76.81
296.448	75.81
296.679	79.81
296.909	85.81
297.14	82.81
297.37	80.81
297.601	89.81
297.831	83.81
298.062	88.81
298.292	84.81
298.523	88.81
298.753	84.81
298.984	85.81
299.214	93.81
299.445	75.81
299.675	85.81
299.905	85.81
300.136	75.81
300.366	76.81
300.597	81.81
300.827	81.81
301.057	77.81
301.288	80.81
301.518	89.81
301.748	87.81
301.979	86.81
302.209	85.81
302.439	83.81
302.669	72.81
302.9	101.81
303.13	95.81
303.36	81.81
303.59	82.81
303.82	78.81
304.051	79.81
304.281	81.81
304.511	84.81
304.741	86.81
304.971	81.81
305.201	81.81
305.431	92.81
305.661	81.81
305.891	76.81
306.121	84.81
306.352	73.81
306.582	81.81
306.812	95.81
307.042	75.81
307.272	87.81
307.502	77.81
307.731	80.81
307.961	80.81
308.191	84.81
308.421	82.81
308.651	87.81
308.881	85.81
309.111	87.81
309.341	80.81
309.571	79.81
309.8	91.81
310.03	89.81
310.26	88.81
310.49	78.81
310.72	87.81
310.949	81.81
311.179	82.81
311.409	69.81
311.639	80.81
311.868	71.81
312.098	82.81
312.328	78.81
312.557	97.81
312.787	83.81
313.017	87.81
313.246	79.81
313.476	81.81
313.706	85.81
313.935	82.81
314.165	86.81
314.394	73.81
314.624	86.81
314.853	85.81
315.083	68.81
315.312	73.81
315.542	75.81
315.771	75.81
316.001	102.81
316.23	92.81
316.46	63.81
316.689	71.81
316.919	76.81
317.148	89.81
317.377	102.81
317.607	71.81
317.836	64.81
318.065	78.81
318.295	86.81
318.524	88.81
318.753	69.81
318.983	78.81
319.212	73.81
319.441	90.81
319.67	77.81
319.9	92.81
320.129	84.81
320.358	75.81
320.587	96.81
320.816	88.81
321.046	85.81
321.275	91.81
321.504	85.81
321.733	79.81
321.962	81.81
322.191	85.81
322.42	68.81
322.649	82.81
322.878	79.81
323.108	81.81
323.337	86.81
323.566	74.81
323.795	85.81
324.024	74.81
324.253	85.81
324.482	92.81
324.71	77.81
324.939	83.81
325.168	81.81
325.397	87.81
325.626	102.81
325.855	77.81
326.084	79.81
326.313	82.81
326.542	98.81
326.77	77.81
326.999	80.81
327.228	83.81
327.457	81.81
327.686	88.81
327.914	82.81
328.143	77.81
328.372	77.81
328.6	78.81
328.829	79.81
329.058	84.81
329.287	83.81
329.515	80.81
329.744	85.81
329.972	83.81
330.201	76.81
330.43	81.81
330.658	79.81
330.887	65.81
331.115	64.81
331.344	77.81
331.572	80.81
331.801	88.81
332.03	89.81
332.258	77.81
332.486	66.81
332.715	72.81
332.943	84.81
333.172	84.81
333.4	77.81
333.629	87.81
333.857	87.81
334.085	79.81
334.314	79.81
334.542	81.81
334.771	88.81
334.999	86.81
335.227	73.81
335.455	76.81
335.684	77.81
335.912	77.81
336.14	71.81
336.369	79.81
336.597	81.81
336.825	88.81
337.053	94.81
337.281	86.81
337.51	76.81
337.738	90.81
337.966	72.81
338.194	94.81
338.422	79.81
338.65	81.81
338.878	89.81
339.106	82.81
339.334	65.81
339.562	78.81
339.79	87.81
340.018	83.81
340.246	81.81
340.474	75.81
340.702	81.81
340.93	82.81
341.158	77.81
341.386	61.81
341.614	84.81
341.842	79.81
342.07	77.81
342.298	89.81
342.526	79.81
342.754	83.81
342.981	84.81
343.209	83.81
343.437	84.81
343.665	75.81
343.893	79.81
344.12	90.81
344.348	89.81
344.576	73.81
344.804	76.81
345.031	96.81
345.259	81.81
345.487	84.81
345.714	79.81
345.942	74.81
346.17	88.81
346.397	69.81
346.625	73.81
346.853	84.81
347.08	83.81
347.308	76.81
347.535	79.81
347.763	79.81
347.99	89.81
348.218	81.81
348.445	91.81
348.673	72.81
348.9	88.81
349.128	75.81
349.355	78.81
349.583	96.81
349.81	89.81
350.037	80.81
350.265	95.81
350.492	92.81
350.72	96.81
350.947	83.81
351.174	86.81
351.402	79.81
351.629	71.81
351.856	79.81
352.083	75.81
352.311	90.81
352.538	80.81
352.765	86.81
352.992	85.81
353.22	83.81
353.447	87.81
353.674	83.81
353.901	81.81
354.128	75.81
354.355	72.81
354.583	76.81
354.81	106.81
355.037	55.81
355.264	90.81
355.491	80.81
355.718	68.81
355.945	81.81
356.172	79.81
356.399	84.81
356.626	79.81
356.853	82.81
357.08	90.81
357.307	89.81
357.534	84.81
357.761	76.81
357.988	90.81
358.215	85.81
358.441	67.81
358.668	92.81
358.895	71.81
359.122	77.81
359.349	88.81
359.576	83.81
359.802	80.81
360.029	79.81
360.256	77.81
360.483	76.81
360.709	67.81
360.936	75.81
361.163	70.81
361.39	79.81
361.616	68.81
361.843	73.81
362.07	72.81
362.296	77.81
362.523	78.81
362.749	72.81
362.976	85.81
363.203	86.81
363.429	83.81
363.656	84.81
363.882	93.81
364.109	78.81
364.335	84.81
364.562	83.81
364.788	78.81
365.015	83.81
365.241	75.81
365.468	81.81
365.694	88.81
365.92	89.81
366.147	78.81
366.373	83.81
366.599	75.81
366.826	83.81
367.052	77.81
367.278	78.81
367.505	96.81
367.731	90.81
367.957	72.81
368.184	78.81
368.41	89.81
368.636	91.81
368.862	74.81
369.089	73.81
369.315	75.81
369.541	80.81
369.767	62.81
369.993	87.81
370.219	89.81
370.445	79.81
370.672	81.81
370.898	84.81
371.124	86.81
371.35	73.81
371.576	85.81
371.802	76.81
372.028	88.81
372.254	96.81
372.48	81.81
372.706	75.81
372.932	82.81
373.158	74.81
373.384	80.81
373.61	86.81
373.835	94.81
374.061	84.81
374.287	78.81
374.513	92.81
374.739	73.81
374.965	77.81
375.191	78.81
375.416	77.81
375.642	93.81
375.868	78.81
376.094	77.81
376.319	86.81
376.545	61.81
376.771	75.81
376.997	87.81
377.222	78.81
377.448	81.81
377.674	72.81
377.899	91.81
378.125	85.81
378.35	73.81
378.576	84.81
378.802	67.81
379.027	71.81
379.253	88.81
379.478	83.81
379.704	75.81
379.929	80.81
380.155	95.81
380.38	76.81
380.606	91.81
380.831	75.81
381.057	79.81
381.282	91.81
381.507	76.81
381.733	82.81
381.958	88.81
382.184	77.81
382.409	88.81
382.634	72.81
382.86	76.81
383.085	81.81
383.31	78.81
383.535	73.81
383.761	81.81
383.986	72.81
384.211	87.81
384.436	83.81
384.662	81.81
384.887	59.81
385.112	91.81
385.337	73.81
385.562	88.81
385.787	81.81
386.013	81.81
386.238	91.81
386.463	79.81
386.688	87.81
386.913	87.81
387.138	78.81
387.363	96.81
387.588	72.81
387.813	78.81
388.038	100.81
388.263	88.81
388.488	96.81
388.713	96.81
388.938	85.81
389.163	96.81
389.387	82.81
389.612	71.81
389.837	76.81
390.062	80.81
390.287	79.81
390.512	86.81
390.736	77.81
390.961	83.81
391.186	86.81
391.411	68.81
391.636	76.81
391.86	87.81
392.085	83.81
392.31	88.81
392.534	83.81
392.759	79.81
392.984	97.81
393.208	83.81
393.433	93.81
393.658	68.81
393.882	88.81
394.107	89.81
394.331	80.81
394.556	100.81
394.78	81.81
395.005	84.81
395.229	71.81
395.454	84.81
395.678	91.81
395.903	87.81
396.127	84.81
396.352	87.81
396.576	80.81
396.801	75.81
397.025	67.81
397.249	103.81
397.474	90.81
397.698	87.81
397.922	83.81
398.147	84.81
398.371	88.81
398.595	80.81
398.82	86.81
399.044	90.81
399.268	94.81
399.492	73.81
399.717	93.81
399.941	86.81
400.165	84.81
400.389	65.81
400.613	91.81
400.837	94.81
401.062	79.81
401.286	86.81
401.51	81.81
401.734	90.81
401.958	95.81
402.182	85.81
402.406	72.81
402.63	89.81
402.854	77.81
403.078	80.81
403.302	83.81
403.526	90.81
403.75	96.81
403.974	95.81
404.198	92.81
404.422	79.81
404.645	71.81
404.869	93.81
405.093	87.81
405.317	96.81
405.541	89.81
405.765	76.81
405.988	91.81
406.212	87.81
406.436	90.81
406.66	91.81
406.883	93.81
407.107	83.81
407.331	83.81
407.555	88.81
407.778	89.81
408.002	98.81
408.226	76.81
408.449	87.81
408.673	95.81
408.896	87.81
409.12	96.81
409.344	87.81
409.567	92.81
409.791	80.81
410.014	91.81
410.238	82.81
410.461	87.81
410.685	70.81
410.908	89.81
411.132	89.81
411.355	82.81
411.578	79.81
411.802	84.81
412.025	80.81
412.249	79.81
412.472	94.81
412.695	99.81
412.919	84.81
413.142	83.81
413.365	76.81
413.589	74.81
413.812	88.81
414.035	89.81
414.258	103.81
414.482	93.81
414.705	81.81
414.928	95.81
415.151	97.81
415.374	89.81
415.597	89.81
415.821	72.81
416.044	78.81
416.267	97.81
416.49	96.81
416.713	84.81
416.936	81.81
417.159	87.81
417.382	89.81
417.605	78.81
417.828	82.81
418.051	88.81
418.274	98.81
418.497	85.81
418.72	88.81
418.943	84.81
419.166	84.81
419.389	99.81
419.611	83.81
419.834	92.81
420.057	97.81
420.28	89.81
420.503	96.81
420.726	95.81
420.948	96.81
421.171	76.81
421.394	95.81
421.617	94.81
421.839	84.81
422.062	93.81
422.285	79.81
422.507	85.81
422.73	90.81
422.953	87.81
423.175	99.81
423.398	91.81
423.621	96.81
423.843	73.81
424.066	87.81
424.288	95.81
424.511	100.81
424.733	77.81
424.956	108.81
425.178	90.81
425.401	97.81
425.623	91.81
425.846	96.81
426.068	99.81
426.291	86.81
426.513	81.81
426.735	102.81
426.958	85.81
427.18	76.81
427.402	101.81
427.625	89.81
427.847	91.81
428.069	88.81
428.292	97.81
428.514	85.81
428.736	100.81
428.958	88.81
429.181	84.81
429.403	88.81
429.625	93.81
429.847	83.81
430.069	82.81
430.292	95.81
430.514	92.81
430.736	84.81
430.958	96.81
431.18	101.81
431.402	93.81
431.624	83.81
431.846	83.81
432.068	77.81
432.29	83.81
432.512	99.81
432.734	93.81
432.956	110.81
433.178	95.81
433.4	95.81
433.622	91.81
433.844	79.81
434.066	88.81
434.287	82.81
434.509	85.81
434.731	84.81
434.953	70.81
435.175	100.81
435.397	77.81
435.618	87.81
435.84	91.81
436.062	82.81
436.284	75.81
436.505	93.81
436.727	85.81
436.949	79.81
437.17	96.81
437.392	78.81
437.614	93.81
437.835	92.81
438.057	86.81
438.278	66.81
438.5	88.81
438.721	101.81
438.943	78.81
439.165	98.81
439.386	84.81
439.608	85.81
439.829	86.81
440.05	89.81
440.272	100.81
440.493	89.81
440.715	96.81
440.936	96.81
441.158	108.81
441.379	96.81
441.6	93.81
441.822	97.81
442.043	97.81
442.264	104.81
442.486	84.81
442.707	93.81
442.928	89.81
443.149	99.81
443.371	87.81
443.592	94.81
443.813	92.81
444.034	80.81
444.255	92.81
444.476	97.81
444.698	101.81
444.919	101.81
445.14	160.81
445.361	137.81
445.582	117.81
445.803	91.81
446.024	101.81
446.245	98.81
446.466	99.81
446.687	107.81
446.908	101.81
447.129	94.81
447.35	110.81
447.571	91.81
447.792	90.81
448.013	98.81
448.234	93.81
448.455	86.81
448.675	93.81
448.896	96.81
449.117	107.81
449.338	108.81
449.559	107.81
449.779	102.81
450	101.81
450.221	79.81
450.442	93.81
450.662	101.81
450.883	92.81
451.104	95.81
451.324	89.81
451.545	89.81
451.766	92.81
451.986	93.81
452.207	82.81
452.428	80.81
452.648	81.81
452.869	87.81
453.089	83.81
453.31	79.81
453.53	91.81
453.751	85.81
453.971	78.81
454.192	79.81
454.412	86.81
454.633	94.81
454.853	93.81
455.073	88.81
455.294	73.81
455.514	93.81
455.734	91.81
455.955	96.81
456.175	89.81
456.395	87.81
456.616	93.81
456.836	93.81
457.056	87.81
457.276	92.81
457.497	80.81
457.717	75.81
457.937	75.81
458.157	88.81
458.377	71.81
458.598	83.81
458.818	70.81
459.038	71.81
459.258	70.81
459.478	72.81
459.698	79.81
459.918	93.81
460.138	86.81
460.358	76.81
460.578	96.81
460.798	82.81
461.018	74.81
461.238	83.81
461.458	88.81
461.678	79.81
461.898	80.81
462.118	97.81
462.338	77.81
462.558	94.81
462.777	89.81
462.997	78.81
463.217	99.81
463.437	70.81
463.657	79.81
463.876	89.81
464.096	64.81
464.316	73.81
464.536	68.81
464.755	80.81
464.975	74.81
465.195	88.81
465.414	75.81
465.634	87.81
465.854	81.81
466.073	93.81
466.293	103.81
466.512	90.81
466.732	93.81
466.951	88.81
467.171	95.81
467.391	89.81
467.61	88.81
467.829	99.81
468.049	86.81
468.268	88.81
468.488	89.81
468.707	95.81
468.927	93.81
469.146	89.81
469.365	101.81
469.585	81.81
469.804	103.81
470.023	82.81
470.243	100.81
470.462	91.81
470.681	105.81
470.901	98.81
471.12	85.81
471.339	101.81
471.558	96.81
471.777	101.81
471.997	94.81
472.216	101.81
472.435	84.81
472.654	84.81
472.873	89.81
473.092	84.81
473.311	78.81
473.53	92.81
473.749	78.81
473.968	79.81
474.187	99.81
474.406	88.81
474.625	100.81
474.844	90.81
475.063	88.81
475.282	75.81
475.501	96.81
475.72	94.81
475.939	82.81
476.158	91.81
476.377	95.81
476.596	97.81
476.814	85.81
477.033	86.81
477.252	72.81
477.471	99.81
477.69	89.81
477.908	98.81
478.127	94.81
478.346	100.81
478.564	109.81
478.783	79.81
479.002	99.81
479.22	90.81
479.439	83.81
479.658	87.81
479.876	84.81
480.095	90.81
480.313	90.81
480.532	87.81
480.751	100.81
480.969	77.81
481.188	84.81
481.406	91.81
481.624	85.81
481.843	75.81
482.061	86.81
482.28	77.81
482.498	96.81
482.717	94.81
482.935	82.81
483.153	94.81
483.372	101.81
483.59	104.81
483.808	100.81
484.027	91.81
484.245	89.81
484.463	102.81
484.681	109.81
484.9	93.81
485.118	98.81
485.336	80.81
485.554	88.81
485.772	91.81
485.99	76.81
486.209	85.81
486.427	97.81
486.645	108.81
486.863	96.81
487.081	92.81
487.299	101.81
487.517	90.81
487.735	93.81
487.953	103.81
488.171	103.81
488.389	102.81
488.607	103.81
488.825	104.81
489.043	112.81
489.261	92.81
489.479	100.81
489.696	101.81
489.914	109.81
490.132	112.81
490.35	103.81
490.568	113.81
490.786	114.81
491.003	120.81
491.221	105.81
491.439	109.81
491.657	105.81
491.874	119.81
492.092	115.81
492.31	131.81
492.527	131.81
492.745	125.81
492.963	108.81
493.18	129.81
493.398	110.81
493.615	111.81
493.833	115.81
494.05	109.81
494.268	96.81
494.485	104.81
494.703	111.81
494.92	116.81
495.138	108.81
495.355	102.81
495.573	95.81
495.79	97.81
496.008	98.81
496.225	97.81
496.442	111.81
496.66	99.81
496.877	104.81
497.094	103.81
497.312	102.81
497.529	108.81
497.746	102.81
497.963	90.81
498.181	96.81
498.398	82.81
498.615	87.81
498.832	80.81
499.049	91.81
499.267	88.81
499.484	109.81
499.701	111.81
499.918	97.81
500.135	96.81
500.352	103.81
500.569	82.81
500.786	107.81
501.003	107.81
501.22	96.81
501.437	107.81
501.654	98.81
501.871	94.81
502.088	84.81
502.305	95.81
502.522	83.81
502.739	101.81
502.956	89.81
503.172	90.81
503.389	99.81
503.606	117.81
503.823	103.81
504.04	87.81
504.256	95.81
504.473	88.81
504.69	85.81
504.907	98.81
505.123	101.81
505.34	91.81
505.557	107.81
505.773	101.81
505.99	87.81
506.207	97.81
506.423	96.81
506.64	81.81
506.856	79.81
507.073	81.81
507.289	95.81
507.506	91.81
507.722	93.81
507.939	95.81
508.155	101.81
508.372	91.81
508.588	85.81
508.805	88.81
509.021	95.81
509.238	92.81
509.454	87.81
509.67	89.81
509.887	86.81
510.103	85.81
510.319	96.81
510.536	102.81
510.752	75.81
510.968	73.81
511.184	81.81
511.401	87.81
511.617	91.81
511.833	79.81
512.049	74.81
512.265	83.81
512.481	85.81
512.698	79.81
512.914	86.81
513.13	80.81
513.346	80.81
513.562	89.81
513.778	90.81
513.994	73.81
514.21	85.81
514.426	93.81
514.642	91.81
514.858	78.81
515.074	94.81
515.29	76.81
515.506	91.81
515.721	77.81
515.937	76.81
516.153	71.81
516.369	76.81
516.585	79.81
516.801	69.81
517.016	91.81
517.232	93.81
517.448	88.81
517.664	80.81
517.879	91.81
518.095	87.81
