Data from Location3.07152019.Energy5.Lamp.07192019.3%Agarose_HRD10591_15-18-09-270.txt Node
Date: Fri Jul 19 15:18:09 EDT 2019
User: cochatt
Spectrometer: HR+D1059
Trigger mode: 1
Integration Time (sec): 1.000000E-1
Scans to average: 1
Electric dark correction enabled: true
Nonlinearity correction enabled: false
Boxcar width: 0
XAxis mode: Wavelengths
Number of Pixels in Spectrum: 2048
>>>>>Begin Spectral Data<<<<<
223.165	-19.06
223.4	-19.06
223.635	-19.06
223.869	-13.06
224.104	-9.06
224.338	-27.06
224.573	-7.06
224.808	-0.06
225.042	2.94
225.277	-10.06
225.511	-10.06
225.746	6.94
225.98	3.94
226.215	2.94
226.449	9.94
226.683	12.94
226.918	18.94
227.152	36.94
227.387	27.94
227.621	33.94
227.856	35.94
228.09	49.94
228.324	37.94
228.559	54.94
228.793	38.94
229.027	63.94
229.262	59.94
229.496	58.94
229.73	69.94
229.964	76.94
230.199	72.94
230.433	84.94
230.667	65.94
230.901	61.94
231.136	72.94
231.37	86.94
231.604	73.94
231.838	73.94
232.072	78.94
232.306	86.94
232.541	72.94
232.775	78.94
233.009	90.94
233.243	88.94
233.477	97.94
233.711	80.94
233.945	91.94
234.179	70.94
234.413	69.94
234.647	77.94
234.881	90.94
235.115	66.94
235.349	87.94
235.583	78.94
235.817	79.94
236.051	84.94
236.285	72.94
236.519	69.94
236.753	82.94
236.987	77.94
237.221	77.94
237.455	79.94
237.689	57.94
237.922	90.94
238.156	74.94
238.39	77.94
238.624	69.94
238.858	76.94
239.091	69.94
239.325	65.94
239.559	66.94
239.793	73.94
240.027	84.94
240.26	68.94
240.494	60.94
240.728	68.94
240.961	77.94
241.195	84.94
241.429	69.94
241.662	76.94
241.896	71.94
242.13	74.94
242.363	74.94
242.597	72.94
242.83	77.94
243.064	67.94
243.298	75.94
243.531	59.94
243.765	62.94
243.998	89.94
244.232	87.94
244.465	70.94
244.699	74.94
244.932	71.94
245.166	97.94
245.399	76.94
245.633	56.94
245.866	66.94
246.099	81.94
246.333	83.94
246.566	76.94
246.8	74.94
247.033	69.94
247.266	69.94
247.5	80.94
247.733	75.94
247.966	69.94
248.2	71.94
248.433	74.94
248.666	79.94
248.899	62.94
249.133	71.94
249.366	80.94
249.599	75.94
249.832	80.94
250.066	67.94
250.299	76.94
250.532	78.94
250.765	78.94
250.998	74.94
251.231	86.94
251.465	85.94
251.698	76.94
251.931	83.94
252.164	80.94
252.397	79.94
252.63	81.94
252.863	81.94
253.096	81.94
253.329	73.94
253.562	78.94
253.795	86.94
254.028	66.94
254.261	65.94
254.494	75.94
254.727	68.94
254.96	71.94
255.193	60.94
255.426	70.94
255.659	81.94
255.892	78.94
256.124	76.94
256.357	76.94
256.59	83.94
256.823	73.94
257.056	71.94
257.289	80.94
257.521	67.94
257.754	75.94
257.987	81.94
258.22	67.94
258.452	77.94
258.685	77.94
258.918	79.94
259.151	49.94
259.383	76.94
259.616	68.94
259.849	67.94
260.081	74.94
260.314	89.94
260.547	77.94
260.779	80.94
261.012	81.94
261.244	82.94
261.477	84.94
261.71	75.94
261.942	89.94
262.175	74.94
262.407	83.94
262.64	77.94
262.872	89.94
263.105	75.94
263.337	70.94
263.57	65.94
263.802	73.94
264.035	83.94
264.267	70.94
264.499	75.94
264.732	84.94
264.964	86.94
265.197	84.94
265.429	69.94
265.661	71.94
265.894	84.94
266.126	93.94
266.358	87.94
266.591	90.94
266.823	67.94
267.055	67.94
267.287	86.94
267.52	85.94
267.752	83.94
267.984	79.94
268.216	77.94
268.448	71.94
268.681	87.94
268.913	82.94
269.145	83.94
269.377	77.94
269.609	76.94
269.841	77.94
270.073	76.94
270.306	91.94
270.538	68.94
270.77	70.94
271.002	91.94
271.234	86.94
271.466	84.94
271.698	74.94
271.93	77.94
272.162	87.94
272.394	84.94
272.626	88.94
272.858	91.94
273.09	93.94
273.322	78.94
273.553	80.94
273.785	75.94
274.017	76.94
274.249	87.94
274.481	87.94
274.713	86.94
274.945	77.94
275.176	77.94
275.408	78.94
275.64	73.94
275.872	83.94
276.104	74.94
276.335	73.94
276.567	81.94
276.799	68.94
277.031	71.94
277.262	78.94
277.494	86.94
277.726	80.94
277.957	85.94
278.189	74.94
278.421	65.94
278.652	86.94
278.884	91.94
279.115	79.94
279.347	76.94
279.579	89.94
279.81	75.94
280.042	78.94
280.273	73.94
280.505	82.94
280.736	84.94
280.968	74.94
281.199	93.94
281.431	78.94
281.662	76.94
281.894	70.94
282.125	73.94
282.356	81.94
282.588	76.94
282.819	81.94
283.051	72.94
283.282	78.94
283.513	83.94
283.745	66.94
283.976	75.94
284.207	83.94
284.439	76.94
284.67	91.94
284.901	87.94
285.132	85.94
285.364	86.94
285.595	96.94
285.826	76.94
286.057	74.94
286.288	72.94
286.52	76.94
286.751	82.94
286.982	90.94
287.213	86.94
287.444	86.94
287.675	86.94
287.906	87.94
288.138	68.94
288.369	63.94
288.6	89.94
288.831	74.94
289.062	77.94
289.293	92.94
289.524	72.94
289.755	85.94
289.986	74.94
290.217	83.94
290.448	72.94
290.679	86.94
290.91	80.94
291.141	65.94
291.371	89.94
291.602	63.94
291.833	85.94
292.064	82.94
292.295	77.94
292.526	83.94
292.757	79.94
292.987	71.94
293.218	90.94
293.449	82.94
293.68	79.94
293.91	71.94
294.141	81.94
294.372	83.94
294.603	83.94
294.833	86.94
295.064	81.94
295.295	86.94
295.525	67.94
295.756	82.94
295.987	72.94
296.217	67.94
296.448	92.94
296.679	100.94
296.909	78.94
297.14	87.94
297.37	73.94
297.601	75.94
297.831	77.94
298.062	100.94
298.292	83.94
298.523	78.94
298.753	92.94
298.984	88.94
299.214	75.94
299.445	84.94
299.675	75.94
299.905	73.94
300.136	81.94
300.366	81.94
300.597	81.94
300.827	98.94
301.057	81.94
301.288	86.94
301.518	81.94
301.748	85.94
301.979	80.94
302.209	75.94
302.439	76.94
302.669	71.94
302.9	71.94
303.13	87.94
303.36	79.94
303.59	82.94
303.82	80.94
304.051	82.94
304.281	95.94
304.511	84.94
304.741	71.94
304.971	90.94
305.201	85.94
305.431	75.94
305.661	85.94
305.891	88.94
306.121	66.94
306.352	72.94
306.582	92.94
306.812	83.94
307.042	80.94
307.272	84.94
307.502	96.94
307.731	91.94
307.961	98.94
308.191	79.94
308.421	73.94
308.651	73.94
308.881	89.94
309.111	67.94
309.341	87.94
309.571	85.94
309.8	78.94
310.03	89.94
310.26	81.94
310.49	77.94
310.72	75.94
310.949	81.94
311.179	80.94
311.409	83.94
311.639	87.94
311.868	80.94
312.098	71.94
312.328	87.94
312.557	84.94
312.787	78.94
313.017	86.94
313.246	86.94
313.476	85.94
313.706	84.94
313.935	86.94
314.165	84.94
314.394	96.94
314.624	73.94
314.853	67.94
315.083	77.94
315.312	65.94
315.542	72.94
315.771	93.94
316.001	78.94
316.23	89.94
316.46	74.94
316.689	88.94
316.919	87.94
317.148	83.94
317.377	70.94
317.607	90.94
317.836	72.94
318.065	90.94
318.295	93.94
318.524	77.94
318.753	74.94
318.983	71.94
319.212	81.94
319.441	85.94
319.67	90.94
319.9	67.94
320.129	67.94
320.358	74.94
320.587	79.94
320.816	84.94
321.046	94.94
321.275	97.94
321.504	90.94
321.733	76.94
321.962	79.94
322.191	85.94
322.42	91.94
322.649	97.94
322.878	80.94
323.108	88.94
323.337	57.94
323.566	78.94
323.795	69.94
324.024	72.94
324.253	85.94
324.482	70.94
324.71	83.94
324.939	75.94
325.168	77.94
325.397	62.94
325.626	77.94
325.855	85.94
326.084	85.94
326.313	89.94
326.542	78.94
326.77	90.94
326.999	85.94
327.228	82.94
327.457	77.94
327.686	91.94
327.914	75.94
328.143	79.94
328.372	76.94
328.6	87.94
328.829	84.94
329.058	76.94
329.287	84.94
329.515	83.94
329.744	74.94
329.972	77.94
330.201	86.94
330.43	82.94
330.658	77.94
330.887	65.94
331.115	76.94
331.344	78.94
331.572	83.94
331.801	98.94
332.03	80.94
332.258	78.94
332.486	87.94
332.715	86.94
332.943	96.94
333.172	79.94
333.4	72.94
333.629	85.94
333.857	90.94
334.085	79.94
334.314	86.94
334.542	75.94
334.771	82.94
334.999	95.94
335.227	84.94
335.455	81.94
335.684	84.94
335.912	76.94
336.14	70.94
336.369	84.94
336.597	89.94
336.825	83.94
337.053	78.94
337.281	81.94
337.51	84.94
337.738	74.94
337.966	75.94
338.194	75.94
338.422	62.94
338.65	88.94
338.878	81.94
339.106	85.94
339.334	97.94
339.562	68.94
339.79	69.94
340.018	75.94
340.246	80.94
340.474	90.94
340.702	74.94
340.93	87.94
341.158	81.94
341.386	95.94
341.614	77.94
341.842	76.94
342.07	77.94
342.298	81.94
342.526	61.94
342.754	76.94
342.981	85.94
343.209	85.94
343.437	84.94
343.665	71.94
343.893	90.94
344.12	86.94
344.348	83.94
344.576	88.94
344.804	67.94
345.031	89.94
345.259	75.94
345.487	75.94
345.714	84.94
345.942	92.94
346.17	81.94
346.397	70.94
346.625	75.94
346.853	77.94
347.08	81.94
347.308	88.94
347.535	101.94
347.763	78.94
347.99	90.94
348.218	73.94
348.445	85.94
348.673	70.94
348.9	87.94
349.128	82.94
349.355	86.94
349.583	80.94
349.81	95.94
350.037	95.94
350.265	82.94
350.492	66.94
350.72	71.94
350.947	85.94
351.174	77.94
351.402	82.94
351.629	72.94
351.856	66.94
352.083	80.94
352.311	76.94
352.538	78.94
352.765	75.94
352.992	80.94
353.22	97.94
353.447	70.94
353.674	82.94
353.901	85.94
354.128	85.94
354.355	81.94
354.583	86.94
354.81	77.94
355.037	69.94
355.264	85.94
355.491	88.94
355.718	86.94
355.945	81.94
356.172	77.94
356.399	81.94
356.626	81.94
356.853	70.94
357.08	72.94
357.307	75.94
357.534	77.94
357.761	91.94
357.988	78.94
358.215	80.94
358.441	70.94
358.668	81.94
358.895	79.94
359.122	98.94
359.349	87.94
359.576	76.94
359.802	71.94
360.029	92.94
360.256	80.94
360.483	84.94
360.709	77.94
360.936	85.94
361.163	74.94
361.39	75.94
361.616	90.94
361.843	79.94
362.07	97.94
362.296	75.94
362.523	81.94
362.749	70.94
362.976	87.94
363.203	101.94
363.429	91.94
363.656	85.94
363.882	77.94
364.109	99.94
364.335	82.94
364.562	90.94
364.788	73.94
365.015	75.94
365.241	80.94
365.468	83.94
365.694	81.94
365.92	83.94
366.147	64.94
366.373	85.94
366.599	86.94
366.826	82.94
367.052	82.94
367.278	73.94
367.505	78.94
367.731	86.94
367.957	89.94
368.184	86.94
368.41	83.94
368.636	94.94
368.862	85.94
369.089	78.94
369.315	87.94
369.541	66.94
369.767	75.94
369.993	92.94
370.219	70.94
370.445	73.94
370.672	91.94
370.898	70.94
371.124	75.94
371.35	67.94
371.576	77.94
371.802	87.94
372.028	87.94
372.254	69.94
372.48	74.94
372.706	76.94
372.932	79.94
373.158	75.94
373.384	76.94
373.61	77.94
373.835	92.94
374.061	82.94
374.287	87.94
374.513	79.94
374.739	75.94
374.965	82.94
375.191	78.94
375.416	75.94
375.642	84.94
375.868	86.94
376.094	76.94
376.319	83.94
376.545	71.94
376.771	71.94
376.997	84.94
377.222	90.94
377.448	71.94
377.674	78.94
377.899	81.94
378.125	64.94
378.35	82.94
378.576	70.94
378.802	81.94
379.027	93.94
379.253	75.94
379.478	78.94
379.704	83.94
379.929	79.94
380.155	89.94
380.38	79.94
380.606	75.94
380.831	74.94
381.057	75.94
381.282	81.94
381.507	76.94
381.733	66.94
381.958	75.94
382.184	75.94
382.409	75.94
382.634	79.94
382.86	84.94
383.085	81.94
383.31	71.94
383.535	92.94
383.761	83.94
383.986	69.94
384.211	81.94
384.436	82.94
384.662	71.94
384.887	86.94
385.112	67.94
385.337	82.94
385.562	85.94
385.787	75.94
386.013	83.94
386.238	81.94
386.463	81.94
386.688	81.94
386.913	78.94
387.138	60.94
387.363	77.94
387.588	82.94
387.813	82.94
388.038	85.94
388.263	96.94
388.488	71.94
388.713	90.94
388.938	80.94
389.163	85.94
389.387	87.94
389.612	77.94
389.837	80.94
390.062	89.94
390.287	88.94
390.512	82.94
390.736	68.94
390.961	86.94
391.186	86.94
391.411	77.94
391.636	77.94
391.86	68.94
392.085	76.94
392.31	106.94
392.534	83.94
392.759	93.94
392.984	94.94
393.208	85.94
393.433	70.94
393.658	77.94
393.882	89.94
394.107	73.94
394.331	80.94
394.556	85.94
394.78	89.94
395.005	80.94
395.229	80.94
395.454	95.94
395.678	89.94
395.903	88.94
396.127	106.94
396.352	84.94
396.576	84.94
396.801	71.94
397.025	76.94
397.249	83.94
397.474	90.94
397.698	72.94
397.922	84.94
398.147	77.94
398.371	90.94
398.595	91.94
398.82	67.94
399.044	91.94
399.268	82.94
399.492	89.94
399.717	89.94
399.941	70.94
400.165	80.94
400.389	81.94
400.613	85.94
400.837	75.94
401.062	87.94
401.286	88.94
401.51	91.94
401.734	88.94
401.958	86.94
402.182	99.94
402.406	90.94
402.63	77.94
402.854	85.94
403.078	86.94
403.302	85.94
403.526	94.94
403.75	78.94
403.974	70.94
404.198	89.94
404.422	87.94
404.645	94.94
404.869	81.94
405.093	82.94
405.317	85.94
405.541	85.94
405.765	82.94
405.988	82.94
406.212	74.94
406.436	93.94
406.66	83.94
406.883	73.94
407.107	57.94
407.331	95.94
407.555	87.94
407.778	99.94
408.002	85.94
408.226	91.94
408.449	85.94
408.673	86.94
408.896	84.94
409.12	94.94
409.344	86.94
409.567	87.94
409.791	86.94
410.014	86.94
410.238	93.94
410.461	86.94
410.685	100.94
410.908	78.94
411.132	85.94
411.355	77.94
411.578	97.94
411.802	84.94
412.025	77.94
412.249	93.94
412.472	80.94
412.695	90.94
412.919	80.94
413.142	90.94
413.365	84.94
413.589	90.94
413.812	81.94
414.035	94.94
414.258	77.94
414.482	97.94
414.705	92.94
414.928	92.94
415.151	77.94
415.374	87.94
415.597	94.94
415.821	89.94
416.044	92.94
416.267	92.94
416.49	86.94
416.713	94.94
416.936	83.94
417.159	88.94
417.382	79.94
417.605	98.94
417.828	97.94
418.051	81.94
418.274	87.94
418.497	78.94
418.72	89.94
418.943	91.94
419.166	80.94
419.389	74.94
419.611	105.94
419.834	85.94
420.057	91.94
420.28	95.94
420.503	91.94
420.726	96.94
420.948	99.94
421.171	87.94
421.394	87.94
421.617	83.94
421.839	85.94
422.062	86.94
422.285	92.94
422.507	89.94
422.73	78.94
422.953	93.94
423.175	90.94
423.398	105.94
423.621	95.94
423.843	82.94
424.066	97.94
424.288	103.94
424.511	98.94
424.733	97.94
424.956	82.94
425.178	83.94
425.401	92.94
425.623	94.94
425.846	92.94
426.068	82.94
426.291	90.94
426.513	90.94
426.735	81.94
426.958	97.94
427.18	82.94
427.402	104.94
427.625	95.94
427.847	96.94
428.069	97.94
428.292	99.94
428.514	92.94
428.736	80.94
428.958	86.94
429.181	101.94
429.403	93.94
429.625	86.94
429.847	89.94
430.069	81.94
430.292	94.94
430.514	91.94
430.736	93.94
430.958	90.94
431.18	82.94
431.402	90.94
431.624	90.94
431.846	86.94
432.068	90.94
432.29	82.94
432.512	97.94
432.734	87.94
432.956	106.94
433.178	85.94
433.4	95.94
433.622	102.94
433.844	98.94
434.066	78.94
434.287	85.94
434.509	79.94
434.731	68.94
434.953	79.94
435.175	77.94
435.397	81.94
435.618	89.94
435.84	83.94
436.062	91.94
436.284	98.94
436.505	84.94
436.727	94.94
436.949	89.94
437.17	100.94
437.392	91.94
437.614	98.94
437.835	88.94
438.057	83.94
438.278	82.94
438.5	94.94
438.721	97.94
438.943	101.94
439.165	81.94
439.386	97.94
439.608	87.94
439.829	85.94
440.05	103.94
440.272	84.94
440.493	100.94
440.715	105.94
440.936	99.94
441.158	102.94
441.379	101.94
441.6	85.94
441.822	115.94
442.043	97.94
442.264	81.94
442.486	91.94
442.707	96.94
442.928	105.94
443.149	89.94
443.371	101.94
443.592	100.94
443.813	90.94
444.034	91.94
444.255	93.94
444.476	80.94
444.698	84.94
444.919	83.94
445.14	161.94
445.361	117.94
445.582	88.94
445.803	117.94
446.024	99.94
446.245	106.94
446.466	91.94
446.687	81.94
446.908	93.94
447.129	112.94
447.35	84.94
447.571	97.94
447.792	108.94
448.013	95.94
448.234	100.94
448.455	96.94
448.675	95.94
448.896	96.94
449.117	101.94
449.338	84.94
449.559	84.94
449.779	95.94
450	100.94
450.221	92.94
450.442	86.94
450.662	86.94
450.883	95.94
451.104	97.94
451.324	90.94
451.545	102.94
451.766	96.94
451.986	93.94
452.207	97.94
452.428	96.94
452.648	93.94
452.869	98.94
453.089	84.94
453.31	82.94
453.53	81.94
453.751	83.94
453.971	83.94
454.192	76.94
454.412	95.94
454.633	89.94
454.853	92.94
455.073	84.94
455.294	86.94
455.514	89.94
455.734	91.94
455.955	103.94
456.175	85.94
456.395	87.94
456.616	91.94
456.836	84.94
457.056	93.94
457.276	86.94
457.497	90.94
457.717	70.94
457.937	84.94
458.157	84.94
458.377	93.94
458.598	77.94
458.818	86.94
459.038	86.94
459.258	77.94
459.478	82.94
459.698	100.94
459.918	83.94
460.138	85.94
460.358	83.94
460.578	86.94
460.798	111.94
461.018	93.94
461.238	91.94
461.458	89.94
461.678	79.94
461.898	81.94
462.118	91.94
462.338	79.94
462.558	86.94
462.777	82.94
462.997	87.94
463.217	78.94
463.437	73.94
463.657	80.94
463.876	83.94
464.096	87.94
464.316	92.94
464.536	103.94
464.755	94.94
464.975	88.94
465.195	92.94
465.414	94.94
465.634	103.94
465.854	92.94
466.073	84.94
466.293	89.94
466.512	96.94
466.732	107.94
466.951	85.94
467.171	91.94
467.391	89.94
467.61	98.94
467.829	91.94
468.049	94.94
468.268	92.94
468.488	84.94
468.707	84.94
468.927	88.94
469.146	85.94
469.365	87.94
469.585	96.94
469.804	76.94
470.023	95.94
470.243	96.94
470.462	95.94
470.681	96.94
470.901	98.94
471.12	101.94
471.339	110.94
471.558	115.94
471.777	103.94
471.997	95.94
472.216	88.94
472.435	85.94
472.654	105.94
472.873	88.94
473.092	85.94
473.311	85.94
473.53	85.94
473.749	98.94
473.968	90.94
474.187	112.94
474.406	87.94
474.625	86.94
474.844	106.94
475.063	84.94
475.282	96.94
475.501	100.94
475.72	82.94
475.939	105.94
476.158	88.94
476.377	84.94
476.596	85.94
476.814	77.94
477.033	85.94
477.252	85.94
477.471	85.94
477.69	93.94
477.908	92.94
478.127	100.94
478.346	92.94
478.564	95.94
478.783	94.94
479.002	84.94
479.22	93.94
479.439	95.94
479.658	106.94
479.876	91.94
480.095	86.94
480.313	75.94
480.532	76.94
480.751	96.94
480.969	92.94
481.188	83.94
481.406	69.94
481.624	92.94
481.843	90.94
482.061	84.94
482.28	78.94
482.498	86.94
482.717	86.94
482.935	83.94
483.153	90.94
483.372	109.94
483.59	102.94
483.808	89.94
484.027	89.94
484.245	100.94
484.463	108.94
484.681	97.94
484.9	112.94
485.118	99.94
485.336	90.94
485.554	82.94
485.772	72.94
485.99	84.94
486.209	101.94
486.427	100.94
486.645	89.94
486.863	86.94
487.081	109.94
487.299	101.94
487.517	92.94
487.735	98.94
487.953	97.94
488.171	104.94
488.389	101.94
488.607	100.94
488.825	98.94
489.043	97.94
489.261	107.94
489.479	90.94
489.696	96.94
489.914	86.94
490.132	99.94
490.35	94.94
490.568	100.94
490.786	107.94
491.003	113.94
491.221	109.94
491.439	108.94
491.657	99.94
491.874	118.94
492.092	113.94
492.31	125.94
492.527	111.94
492.745	113.94
492.963	108.94
493.18	86.94
493.398	93.94
493.615	107.94
493.833	96.94
494.05	118.94
494.268	110.94
494.485	108.94
494.703	96.94
494.92	109.94
495.138	105.94
495.355	103.94
495.573	105.94
495.79	109.94
496.008	106.94
496.225	110.94
496.442	105.94
496.66	108.94
496.877	99.94
497.094	101.94
497.312	109.94
497.529	113.94
497.746	102.94
497.963	94.94
498.181	92.94
498.398	96.94
498.615	98.94
498.832	90.94
499.049	93.94
499.267	93.94
499.484	93.94
499.701	110.94
499.918	89.94
500.135	96.94
500.352	82.94
500.569	93.94
500.786	97.94
501.003	102.94
501.22	80.94
501.437	79.94
501.654	98.94
501.871	72.94
502.088	87.94
502.305	108.94
502.522	109.94
502.739	90.94
502.956	97.94
503.172	84.94
503.389	86.94
503.606	86.94
503.823	89.94
504.04	110.94
504.256	75.94
504.473	77.94
504.69	92.94
504.907	100.94
505.123	102.94
505.34	98.94
505.557	76.94
505.773	89.94
505.99	93.94
506.207	96.94
506.423	86.94
506.64	84.94
506.856	81.94
507.073	102.94
507.289	88.94
507.506	74.94
507.722	77.94
507.939	94.94
508.155	93.94
508.372	78.94
508.588	85.94
508.805	83.94
509.021	77.94
509.238	78.94
509.454	92.94
509.67	77.94
509.887	78.94
510.103	79.94
510.319	80.94
510.536	84.94
510.752	87.94
510.968	79.94
511.184	74.94
511.401	71.94
511.617	91.94
511.833	82.94
512.049	75.94
512.265	96.94
512.481	99.94
512.698	80.94
512.914	97.94
513.13	89.94
513.346	75.94
513.562	93.94
513.778	107.94
513.994	85.94
514.21	81.94
514.426	69.94
514.642	93.94
514.858	98.94
515.074	87.94
515.29	93.94
515.506	76.94
515.721	82.94
515.937	83.94
516.153	91.94
516.369	75.94
516.585	81.94
516.801	86.94
517.016	88.94
517.232	75.94
517.448	80.94
517.664	91.94
517.879	86.94
518.095	67.94
