Data from Location3.07152019.Energy5.Lamp.07192019.3%Agarose_HRD10591_15-17-20-269.txt Node
Date: Fri Jul 19 15:17:20 EDT 2019
User: cochatt
Spectrometer: HR+D1059
Trigger mode: 1
Integration Time (sec): 1.000000E-1
Scans to average: 1
Electric dark correction enabled: true
Nonlinearity correction enabled: false
Boxcar width: 0
XAxis mode: Wavelengths
Number of Pixels in Spectrum: 2048
>>>>>Begin Spectral Data<<<<<
223.165	-15.25
223.4	-15.25
223.635	-15.25
223.869	-22.25
224.104	-16.25
224.338	-3.25
224.573	-24.25
224.808	-13.25
225.042	-14.25
225.277	-2.25
225.511	-10.25
225.746	8.75
225.98	11.75
226.215	8.75
226.449	27.75
226.683	33.75
226.918	5.75
227.152	24.75
227.387	33.75
227.621	29.75
227.856	49.75
228.09	33.75
228.324	53.75
228.559	49.75
228.793	38.75
229.027	64.75
229.262	69.75
229.496	63.75
229.73	61.75
229.964	69.75
230.199	71.75
230.433	76.75
230.667	76.75
230.901	86.75
231.136	74.75
231.37	75.75
231.604	75.75
231.838	88.75
232.072	62.75
232.306	73.75
232.541	82.75
232.775	84.75
233.009	84.75
233.243	85.75
233.477	72.75
233.711	85.75
233.945	88.75
234.179	79.75
234.413	72.75
234.647	81.75
234.881	92.75
235.115	84.75
235.349	83.75
235.583	72.75
235.817	74.75
236.051	64.75
236.285	95.75
236.519	74.75
236.753	77.75
236.987	65.75
237.221	97.75
237.455	77.75
237.689	93.75
237.922	72.75
238.156	88.75
238.39	74.75
238.624	81.75
238.858	66.75
239.091	73.75
239.325	76.75
239.559	69.75
239.793	75.75
240.027	78.75
240.26	80.75
240.494	86.75
240.728	67.75
240.961	89.75
241.195	78.75
241.429	93.75
241.662	81.75
241.896	75.75
242.13	78.75
242.363	79.75
242.597	75.75
242.83	67.75
243.064	83.75
243.298	75.75
243.531	76.75
243.765	91.75
243.998	78.75
244.232	72.75
244.465	75.75
244.699	68.75
244.932	87.75
245.166	83.75
245.399	67.75
245.633	89.75
245.866	79.75
246.099	85.75
246.333	75.75
246.566	79.75
246.8	71.75
247.033	76.75
247.266	85.75
247.5	64.75
247.733	71.75
247.966	80.75
248.2	65.75
248.433	103.75
248.666	81.75
248.899	88.75
249.133	84.75
249.366	87.75
249.599	66.75
249.832	82.75
250.066	70.75
250.299	59.75
250.532	82.75
250.765	75.75
250.998	75.75
251.231	76.75
251.465	77.75
251.698	73.75
251.931	78.75
252.164	87.75
252.397	77.75
252.63	78.75
252.863	90.75
253.096	85.75
253.329	76.75
253.562	75.75
253.795	88.75
254.028	83.75
254.261	75.75
254.494	85.75
254.727	79.75
254.96	85.75
255.193	80.75
255.426	67.75
255.659	85.75
255.892	68.75
256.124	79.75
256.357	82.75
256.59	70.75
256.823	73.75
257.056	76.75
257.289	72.75
257.521	83.75
257.754	83.75
257.987	83.75
258.22	74.75
258.452	77.75
258.685	72.75
258.918	74.75
259.151	72.75
259.383	73.75
259.616	79.75
259.849	90.75
260.081	63.75
260.314	80.75
260.547	82.75
260.779	77.75
261.012	86.75
261.244	77.75
261.477	81.75
261.71	81.75
261.942	70.75
262.175	78.75
262.407	85.75
262.64	78.75
262.872	71.75
263.105	65.75
263.337	79.75
263.57	95.75
263.802	66.75
264.035	77.75
264.267	89.75
264.499	86.75
264.732	85.75
264.964	82.75
265.197	82.75
265.429	82.75
265.661	75.75
265.894	81.75
266.126	76.75
266.358	81.75
266.591	74.75
266.823	72.75
267.055	79.75
267.287	87.75
267.52	80.75
267.752	95.75
267.984	76.75
268.216	86.75
268.448	84.75
268.681	82.75
268.913	83.75
269.145	77.75
269.377	86.75
269.609	85.75
269.841	73.75
270.073	68.75
270.306	72.75
270.538	91.75
270.77	85.75
271.002	89.75
271.234	83.75
271.466	95.75
271.698	85.75
271.93	79.75
272.162	78.75
272.394	75.75
272.626	73.75
272.858	68.75
273.09	86.75
273.322	95.75
273.553	71.75
273.785	92.75
274.017	91.75
274.249	86.75
274.481	69.75
274.713	87.75
274.945	81.75
275.176	86.75
275.408	74.75
275.64	74.75
275.872	90.75
276.104	77.75
276.335	71.75
276.567	89.75
276.799	81.75
277.031	76.75
277.262	87.75
277.494	95.75
277.726	72.75
277.957	79.75
278.189	85.75
278.421	75.75
278.652	85.75
278.884	69.75
279.115	82.75
279.347	75.75
279.579	81.75
279.81	79.75
280.042	94.75
280.273	88.75
280.505	78.75
280.736	94.75
280.968	87.75
281.199	91.75
281.431	78.75
281.662	84.75
281.894	80.75
282.125	90.75
282.356	94.75
282.588	76.75
282.819	85.75
283.051	79.75
283.282	84.75
283.513	70.75
283.745	79.75
283.976	79.75
284.207	81.75
284.439	85.75
284.67	85.75
284.901	94.75
285.132	88.75
285.364	79.75
285.595	83.75
285.826	80.75
286.057	95.75
286.288	78.75
286.52	83.75
286.751	90.75
286.982	89.75
287.213	73.75
287.444	100.75
287.675	78.75
287.906	81.75
288.138	73.75
288.369	89.75
288.6	89.75
288.831	87.75
289.062	89.75
289.293	83.75
289.524	78.75
289.755	86.75
289.986	86.75
290.217	70.75
290.448	81.75
290.679	83.75
290.91	87.75
291.141	97.75
291.371	90.75
291.602	86.75
291.833	91.75
292.064	79.75
292.295	74.75
292.526	88.75
292.757	86.75
292.987	85.75
293.218	88.75
293.449	96.75
293.68	92.75
293.91	84.75
294.141	91.75
294.372	87.75
294.603	90.75
294.833	74.75
295.064	86.75
295.295	87.75
295.525	77.75
295.756	79.75
295.987	85.75
296.217	87.75
296.448	78.75
296.679	86.75
296.909	82.75
297.14	89.75
297.37	78.75
297.601	87.75
297.831	73.75
298.062	84.75
298.292	91.75
298.523	101.75
298.753	89.75
298.984	93.75
299.214	93.75
299.445	88.75
299.675	85.75
299.905	81.75
300.136	78.75
300.366	68.75
300.597	77.75
300.827	93.75
301.057	104.75
301.288	76.75
301.518	73.75
301.748	92.75
301.979	80.75
302.209	77.75
302.439	73.75
302.669	88.75
302.9	88.75
303.13	88.75
303.36	89.75
303.59	82.75
303.82	88.75
304.051	74.75
304.281	87.75
304.511	85.75
304.741	88.75
304.971	83.75
305.201	83.75
305.431	99.75
305.661	94.75
305.891	78.75
306.121	88.75
306.352	87.75
306.582	84.75
306.812	75.75
307.042	99.75
307.272	85.75
307.502	88.75
307.731	86.75
307.961	74.75
308.191	82.75
308.421	85.75
308.651	76.75
308.881	87.75
309.111	88.75
309.341	94.75
309.571	91.75
309.8	89.75
310.03	74.75
310.26	85.75
310.49	83.75
310.72	78.75
310.949	70.75
311.179	67.75
311.409	79.75
311.639	79.75
311.868	87.75
312.098	75.75
312.328	87.75
312.557	99.75
312.787	87.75
313.017	86.75
313.246	76.75
313.476	72.75
313.706	76.75
313.935	95.75
314.165	90.75
314.394	78.75
314.624	83.75
314.853	73.75
315.083	98.75
315.312	84.75
315.542	94.75
315.771	86.75
316.001	80.75
316.23	77.75
316.46	81.75
316.689	92.75
316.919	100.75
317.148	82.75
317.377	70.75
317.607	77.75
317.836	78.75
318.065	71.75
318.295	75.75
318.524	72.75
318.753	89.75
318.983	102.75
319.212	91.75
319.441	85.75
319.67	80.75
319.9	78.75
320.129	80.75
320.358	85.75
320.587	80.75
320.816	72.75
321.046	94.75
321.275	87.75
321.504	104.75
321.733	85.75
321.962	77.75
322.191	71.75
322.42	87.75
322.649	86.75
322.878	88.75
323.108	90.75
323.337	82.75
323.566	85.75
323.795	71.75
324.024	79.75
324.253	78.75
324.482	78.75
324.71	95.75
324.939	80.75
325.168	91.75
325.397	88.75
325.626	84.75
325.855	94.75
326.084	93.75
326.313	100.75
326.542	66.75
326.77	96.75
326.999	98.75
327.228	93.75
327.457	80.75
327.686	84.75
327.914	79.75
328.143	85.75
328.372	79.75
328.6	84.75
328.829	91.75
329.058	84.75
329.287	90.75
329.515	95.75
329.744	81.75
329.972	94.75
330.201	91.75
330.43	90.75
330.658	88.75
330.887	89.75
331.115	75.75
331.344	73.75
331.572	78.75
331.801	90.75
332.03	85.75
332.258	75.75
332.486	81.75
332.715	81.75
332.943	93.75
333.172	70.75
333.4	76.75
333.629	93.75
333.857	75.75
334.085	87.75
334.314	92.75
334.542	87.75
334.771	82.75
334.999	87.75
335.227	84.75
335.455	93.75
335.684	78.75
335.912	90.75
336.14	90.75
336.369	90.75
336.597	88.75
336.825	87.75
337.053	82.75
337.281	79.75
337.51	82.75
337.738	91.75
337.966	83.75
338.194	71.75
338.422	91.75
338.65	87.75
338.878	94.75
339.106	89.75
339.334	96.75
339.562	80.75
339.79	80.75
340.018	83.75
340.246	80.75
340.474	75.75
340.702	75.75
340.93	68.75
341.158	89.75
341.386	85.75
341.614	93.75
341.842	89.75
342.07	82.75
342.298	82.75
342.526	94.75
342.754	75.75
342.981	82.75
343.209	62.75
343.437	92.75
343.665	89.75
343.893	88.75
344.12	84.75
344.348	85.75
344.576	77.75
344.804	86.75
345.031	82.75
345.259	75.75
345.487	87.75
345.714	98.75
345.942	89.75
346.17	85.75
346.397	84.75
346.625	83.75
346.853	78.75
347.08	100.75
347.308	99.75
347.535	91.75
347.763	90.75
347.99	90.75
348.218	89.75
348.445	88.75
348.673	76.75
348.9	82.75
349.128	70.75
349.355	79.75
349.583	78.75
349.81	76.75
350.037	80.75
350.265	82.75
350.492	97.75
350.72	87.75
350.947	98.75
351.174	86.75
351.402	77.75
351.629	89.75
351.856	69.75
352.083	80.75
352.311	94.75
352.538	89.75
352.765	84.75
352.992	96.75
353.22	80.75
353.447	88.75
353.674	94.75
353.901	80.75
354.128	75.75
354.355	81.75
354.583	88.75
354.81	97.75
355.037	86.75
355.264	82.75
355.491	94.75
355.718	85.75
355.945	76.75
356.172	89.75
356.399	75.75
356.626	73.75
356.853	72.75
357.08	82.75
357.307	68.75
357.534	86.75
357.761	80.75
357.988	63.75
358.215	93.75
358.441	103.75
358.668	92.75
358.895	86.75
359.122	79.75
359.349	79.75
359.576	85.75
359.802	74.75
360.029	77.75
360.256	76.75
360.483	88.75
360.709	69.75
360.936	72.75
361.163	95.75
361.39	86.75
361.616	86.75
361.843	89.75
362.07	90.75
362.296	86.75
362.523	82.75
362.749	72.75
362.976	84.75
363.203	93.75
363.429	63.75
363.656	81.75
363.882	82.75
364.109	76.75
364.335	79.75
364.562	73.75
364.788	76.75
365.015	87.75
365.241	76.75
365.468	78.75
365.694	82.75
365.92	72.75
366.147	82.75
366.373	73.75
366.599	89.75
366.826	89.75
367.052	58.75
367.278	70.75
367.505	90.75
367.731	87.75
367.957	92.75
368.184	98.75
368.41	91.75
368.636	78.75
368.862	83.75
369.089	73.75
369.315	63.75
369.541	68.75
369.767	73.75
369.993	72.75
370.219	82.75
370.445	78.75
370.672	76.75
370.898	79.75
371.124	79.75
371.35	84.75
371.576	88.75
371.802	69.75
372.028	90.75
372.254	89.75
372.48	91.75
372.706	95.75
372.932	81.75
373.158	89.75
373.384	75.75
373.61	87.75
373.835	83.75
374.061	84.75
374.287	85.75
374.513	95.75
374.739	73.75
374.965	79.75
375.191	78.75
375.416	75.75
375.642	92.75
375.868	79.75
376.094	82.75
376.319	74.75
376.545	77.75
376.771	81.75
376.997	96.75
377.222	74.75
377.448	78.75
377.674	79.75
377.899	81.75
378.125	89.75
378.35	87.75
378.576	75.75
378.802	90.75
379.027	93.75
379.253	89.75
379.478	81.75
379.704	95.75
379.929	81.75
380.155	89.75
380.38	87.75
380.606	97.75
380.831	84.75
381.057	94.75
381.282	84.75
381.507	78.75
381.733	85.75
381.958	88.75
382.184	78.75
382.409	72.75
382.634	69.75
382.86	78.75
383.085	98.75
383.31	86.75
383.535	94.75
383.761	97.75
383.986	83.75
384.211	84.75
384.436	71.75
384.662	76.75
384.887	88.75
385.112	82.75
385.337	77.75
385.562	85.75
385.787	83.75
386.013	94.75
386.238	90.75
386.463	89.75
386.688	89.75
386.913	82.75
387.138	84.75
387.363	83.75
387.588	82.75
387.813	81.75
388.038	77.75
388.263	78.75
388.488	94.75
388.713	59.75
388.938	77.75
389.163	69.75
389.387	97.75
389.612	85.75
389.837	75.75
390.062	80.75
390.287	91.75
390.512	74.75
390.736	82.75
390.961	86.75
391.186	74.75
391.411	91.75
391.636	80.75
391.86	91.75
392.085	96.75
392.31	89.75
392.534	86.75
392.759	87.75
392.984	86.75
393.208	82.75
393.433	87.75
393.658	86.75
393.882	85.75
394.107	74.75
394.331	96.75
394.556	84.75
394.78	91.75
395.005	93.75
395.229	90.75
395.454	88.75
395.678	102.75
395.903	82.75
396.127	88.75
396.352	93.75
396.576	87.75
396.801	84.75
397.025	70.75
397.249	88.75
397.474	85.75
397.698	96.75
397.922	95.75
398.147	79.75
398.371	89.75
398.595	83.75
398.82	78.75
399.044	77.75
399.268	90.75
399.492	78.75
399.717	75.75
399.941	85.75
400.165	87.75
400.389	102.75
400.613	86.75
400.837	82.75
401.062	87.75
401.286	90.75
401.51	90.75
401.734	110.75
401.958	90.75
402.182	85.75
402.406	111.75
402.63	91.75
402.854	89.75
403.078	77.75
403.302	93.75
403.526	89.75
403.75	79.75
403.974	96.75
404.198	102.75
404.422	91.75
404.645	82.75
404.869	85.75
405.093	79.75
405.317	86.75
405.541	93.75
405.765	83.75
405.988	93.75
406.212	83.75
406.436	91.75
406.66	94.75
406.883	93.75
407.107	86.75
407.331	88.75
407.555	83.75
407.778	85.75
408.002	81.75
408.226	84.75
408.449	73.75
408.673	103.75
408.896	80.75
409.12	95.75
409.344	93.75
409.567	74.75
409.791	73.75
410.014	99.75
410.238	87.75
410.461	83.75
410.685	91.75
410.908	80.75
411.132	89.75
411.355	86.75
411.578	87.75
411.802	79.75
412.025	91.75
412.249	90.75
412.472	83.75
412.695	95.75
412.919	85.75
413.142	90.75
413.365	89.75
413.589	99.75
413.812	94.75
414.035	93.75
414.258	87.75
414.482	94.75
414.705	96.75
414.928	88.75
415.151	104.75
415.374	93.75
415.597	83.75
415.821	75.75
416.044	81.75
416.267	91.75
416.49	89.75
416.713	97.75
416.936	86.75
417.159	84.75
417.382	86.75
417.605	94.75
417.828	87.75
418.051	96.75
418.274	95.75
418.497	90.75
418.72	86.75
418.943	90.75
419.166	94.75
419.389	91.75
419.611	91.75
419.834	89.75
420.057	85.75
420.28	91.75
420.503	96.75
420.726	95.75
420.948	96.75
421.171	74.75
421.394	84.75
421.617	100.75
421.839	94.75
422.062	93.75
422.285	89.75
422.507	95.75
422.73	90.75
422.953	102.75
423.175	93.75
423.398	89.75
423.621	89.75
423.843	88.75
424.066	98.75
424.288	94.75
424.511	90.75
424.733	94.75
424.956	105.75
425.178	89.75
425.401	98.75
425.623	98.75
425.846	87.75
426.068	96.75
426.291	83.75
426.513	95.75
426.735	105.75
426.958	94.75
427.18	93.75
427.402	94.75
427.625	84.75
427.847	86.75
428.069	90.75
428.292	93.75
428.514	98.75
428.736	85.75
428.958	75.75
429.181	93.75
429.403	98.75
429.625	93.75
429.847	99.75
430.069	88.75
430.292	85.75
430.514	97.75
430.736	91.75
430.958	98.75
431.18	93.75
431.402	94.75
431.624	88.75
431.846	86.75
432.068	85.75
432.29	89.75
432.512	97.75
432.734	90.75
432.956	75.75
433.178	109.75
433.4	85.75
433.622	88.75
433.844	100.75
434.066	94.75
434.287	90.75
434.509	78.75
434.731	91.75
434.953	93.75
435.175	80.75
435.397	70.75
435.618	94.75
435.84	85.75
436.062	93.75
436.284	99.75
436.505	81.75
436.727	87.75
436.949	89.75
437.17	105.75
437.392	92.75
437.614	87.75
437.835	78.75
438.057	70.75
438.278	85.75
438.5	96.75
438.721	93.75
438.943	112.75
439.165	89.75
439.386	115.75
439.608	98.75
439.829	99.75
440.05	94.75
440.272	89.75
440.493	97.75
440.715	104.75
440.936	91.75
441.158	107.75
441.379	105.75
441.6	103.75
441.822	98.75
442.043	101.75
442.264	83.75
442.486	111.75
442.707	98.75
442.928	94.75
443.149	78.75
443.371	86.75
443.592	86.75
443.813	85.75
444.034	101.75
444.255	78.75
444.476	85.75
444.698	104.75
444.919	100.75
445.14	212.75
445.361	174.75
445.582	121.75
445.803	92.75
446.024	106.75
446.245	85.75
446.466	97.75
446.687	101.75
446.908	85.75
447.129	87.75
447.35	110.75
447.571	83.75
447.792	103.75
448.013	115.75
448.234	94.75
448.455	101.75
448.675	102.75
448.896	102.75
449.117	87.75
449.338	77.75
449.559	112.75
449.779	106.75
450	102.75
450.221	88.75
450.442	75.75
450.662	91.75
450.883	88.75
451.104	93.75
451.324	85.75
451.545	99.75
451.766	97.75
451.986	97.75
452.207	97.75
452.428	86.75
452.648	85.75
452.869	98.75
453.089	80.75
453.31	80.75
453.53	94.75
453.751	93.75
453.971	93.75
454.192	73.75
454.412	77.75
454.633	72.75
454.853	94.75
455.073	86.75
455.294	90.75
455.514	82.75
455.734	85.75
455.955	98.75
456.175	79.75
456.395	90.75
456.616	93.75
456.836	74.75
457.056	90.75
457.276	88.75
457.497	81.75
457.717	86.75
457.937	87.75
458.157	80.75
458.377	91.75
458.598	89.75
458.818	104.75
459.038	77.75
459.258	85.75
459.478	72.75
459.698	73.75
459.918	85.75
460.138	74.75
460.358	73.75
460.578	77.75
460.798	90.75
461.018	90.75
461.238	81.75
461.458	79.75
461.678	83.75
461.898	80.75
462.118	96.75
462.338	90.75
462.558	86.75
462.777	86.75
462.997	91.75
463.217	98.75
463.437	91.75
463.657	104.75
463.876	82.75
464.096	88.75
464.316	90.75
464.536	85.75
464.755	101.75
464.975	87.75
465.195	74.75
465.414	97.75
465.634	100.75
465.854	90.75
466.073	102.75
466.293	93.75
466.512	91.75
466.732	103.75
466.951	106.75
467.171	99.75
467.391	80.75
467.61	96.75
467.829	105.75
468.049	103.75
468.268	100.75
468.488	92.75
468.707	104.75
468.927	96.75
469.146	107.75
469.365	94.75
469.585	88.75
469.804	86.75
470.023	97.75
470.243	86.75
470.462	102.75
470.681	96.75
470.901	95.75
471.12	99.75
471.339	97.75
471.558	99.75
471.777	106.75
471.997	105.75
472.216	87.75
472.435	97.75
472.654	80.75
472.873	98.75
473.092	99.75
473.311	87.75
473.53	85.75
473.749	82.75
473.968	93.75
474.187	91.75
474.406	85.75
474.625	109.75
474.844	103.75
475.063	93.75
475.282	84.75
475.501	85.75
475.72	97.75
475.939	89.75
476.158	82.75
476.377	87.75
476.596	82.75
476.814	90.75
477.033	85.75
477.252	76.75
477.471	100.75
477.69	82.75
477.908	99.75
478.127	91.75
478.346	87.75
478.564	88.75
478.783	94.75
479.002	117.75
479.22	91.75
479.439	112.75
479.658	94.75
479.876	83.75
480.095	79.75
480.313	91.75
480.532	79.75
480.751	96.75
480.969	84.75
481.188	73.75
481.406	94.75
481.624	83.75
481.843	84.75
482.061	86.75
482.28	89.75
482.498	91.75
482.717	76.75
482.935	108.75
483.153	83.75
483.372	86.75
483.59	94.75
483.808	100.75
484.027	117.75
484.245	106.75
484.463	83.75
484.681	102.75
484.9	102.75
485.118	111.75
485.336	103.75
485.554	81.75
485.772	99.75
485.99	88.75
486.209	91.75
486.427	85.75
486.645	96.75
486.863	99.75
487.081	95.75
487.299	99.75
487.517	103.75
487.735	120.75
487.953	121.75
488.171	103.75
488.389	107.75
488.607	91.75
488.825	116.75
489.043	102.75
489.261	83.75
489.479	91.75
489.696	110.75
489.914	93.75
490.132	88.75
490.35	95.75
490.568	95.75
490.786	122.75
491.003	93.75
491.221	123.75
491.439	119.75
491.657	119.75
491.874	128.75
492.092	116.75
492.31	140.75
492.527	118.75
492.745	113.75
492.963	114.75
493.18	110.75
493.398	115.75
493.615	104.75
493.833	117.75
494.05	108.75
494.268	106.75
494.485	104.75
494.703	111.75
494.92	113.75
495.138	117.75
495.355	106.75
495.573	119.75
495.79	95.75
496.008	102.75
496.225	104.75
496.442	111.75
496.66	112.75
496.877	109.75
497.094	95.75
497.312	104.75
497.529	116.75
497.746	112.75
497.963	96.75
498.181	86.75
498.398	79.75
498.615	88.75
498.832	96.75
499.049	82.75
499.267	98.75
499.484	94.75
499.701	111.75
499.918	104.75
500.135	96.75
500.352	94.75
500.569	113.75
500.786	103.75
501.003	109.75
501.22	104.75
501.437	96.75
501.654	99.75
501.871	103.75
502.088	93.75
502.305	94.75
502.522	105.75
502.739	103.75
502.956	96.75
503.172	102.75
503.389	102.75
503.606	99.75
503.823	104.75
504.04	85.75
504.256	90.75
504.473	93.75
504.69	101.75
504.907	86.75
505.123	82.75
505.34	96.75
505.557	84.75
505.773	89.75
505.99	85.75
506.207	97.75
506.423	94.75
506.64	95.75
506.856	84.75
507.073	93.75
507.289	88.75
507.506	97.75
507.722	88.75
507.939	95.75
508.155	98.75
508.372	92.75
508.588	84.75
508.805	87.75
509.021	96.75
509.238	85.75
509.454	101.75
509.67	77.75
509.887	90.75
510.103	79.75
510.319	84.75
510.536	83.75
510.752	85.75
510.968	83.75
511.184	74.75
511.401	84.75
511.617	82.75
511.833	94.75
512.049	84.75
512.265	78.75
512.481	80.75
512.698	98.75
512.914	78.75
513.13	95.75
513.346	83.75
513.562	83.75
513.778	92.75
513.994	80.75
514.21	86.75
514.426	93.75
514.642	81.75
514.858	90.75
515.074	87.75
515.29	83.75
515.506	73.75
515.721	67.75
515.937	78.75
516.153	95.75
516.369	81.75
516.585	78.75
516.801	83.75
517.016	89.75
517.232	71.75
517.448	77.75
517.664	90.75
