Data from Location3.07152019.Energy5.Lamp.07192019.3%Agarose_HRD10591_15-16-56-269.txt Node
Date: Fri Jul 19 15:16:56 EDT 2019
User: cochatt
Spectrometer: HR+D1059
Trigger mode: 1
Integration Time (sec): 1.000000E-1
Scans to average: 1
Electric dark correction enabled: true
Nonlinearity correction enabled: false
Boxcar width: 0
XAxis mode: Wavelengths
Number of Pixels in Spectrum: 2048
>>>>>Begin Spectral Data<<<<<
223.165	-10.69
223.4	-10.69
223.635	-10.69
223.869	-3.69
224.104	-15.69
224.338	-14.69
224.573	-8.69
224.808	-14.69
225.042	-23.69
225.277	-3.69
225.511	3.31
225.746	3.31
225.98	3.31
226.215	8.31
226.449	25.31
226.683	11.31
226.918	17.31
227.152	23.31
227.387	46.31
227.621	43.31
227.856	46.31
228.09	38.31
228.324	55.31
228.559	57.31
228.793	51.31
229.027	61.31
229.262	66.31
229.496	61.31
229.73	70.31
229.964	69.31
230.199	77.31
230.433	84.31
230.667	69.31
230.901	78.31
231.136	81.31
231.37	78.31
231.604	76.31
231.838	95.31
232.072	81.31
232.306	83.31
232.541	79.31
232.775	91.31
233.009	73.31
233.243	74.31
233.477	72.31
233.711	70.31
233.945	81.31
234.179	86.31
234.413	75.31
234.647	74.31
234.881	86.31
235.115	74.31
235.349	79.31
235.583	89.31
235.817	92.31
236.051	84.31
236.285	83.31
236.519	82.31
236.753	75.31
236.987	71.31
237.221	83.31
237.455	62.31
237.689	80.31
237.922	77.31
238.156	66.31
238.39	80.31
238.624	80.31
238.858	71.31
239.091	64.31
239.325	69.31
239.559	58.31
239.793	78.31
240.027	73.31
240.26	69.31
240.494	78.31
240.728	74.31
240.961	88.31
241.195	73.31
241.429	73.31
241.662	72.31
241.896	75.31
242.13	82.31
242.363	74.31
242.597	75.31
242.83	70.31
243.064	70.31
243.298	78.31
243.531	72.31
243.765	67.31
243.998	88.31
244.232	78.31
244.465	76.31
244.699	83.31
244.932	58.31
245.166	73.31
245.399	67.31
245.633	83.31
245.866	79.31
246.099	82.31
246.333	52.31
246.566	88.31
246.8	77.31
247.033	76.31
247.266	85.31
247.5	77.31
247.733	67.31
247.966	76.31
248.2	63.31
248.433	66.31
248.666	82.31
248.899	81.31
249.133	74.31
249.366	76.31
249.599	80.31
249.832	71.31
250.066	86.31
250.299	80.31
250.532	74.31
250.765	77.31
250.998	83.31
251.231	80.31
251.465	86.31
251.698	88.31
251.931	98.31
252.164	72.31
252.397	81.31
252.63	81.31
252.863	85.31
253.096	65.31
253.329	83.31
253.562	81.31
253.795	77.31
254.028	69.31
254.261	83.31
254.494	78.31
254.727	71.31
254.96	87.31
255.193	81.31
255.426	63.31
255.659	67.31
255.892	66.31
256.124	77.31
256.357	85.31
256.59	86.31
256.823	86.31
257.056	76.31
257.289	79.31
257.521	88.31
257.754	84.31
257.987	94.31
258.22	95.31
258.452	86.31
258.685	81.31
258.918	87.31
259.151	83.31
259.383	77.31
259.616	72.31
259.849	87.31
260.081	87.31
260.314	75.31
260.547	76.31
260.779	89.31
261.012	82.31
261.244	79.31
261.477	79.31
261.71	86.31
261.942	85.31
262.175	78.31
262.407	86.31
262.64	81.31
262.872	82.31
263.105	90.31
263.337	82.31
263.57	77.31
263.802	80.31
264.035	66.31
264.267	79.31
264.499	83.31
264.732	73.31
264.964	61.31
265.197	90.31
265.429	81.31
265.661	84.31
265.894	80.31
266.126	85.31
266.358	88.31
266.591	72.31
266.823	93.31
267.055	84.31
267.287	93.31
267.52	80.31
267.752	85.31
267.984	80.31
268.216	95.31
268.448	87.31
268.681	75.31
268.913	73.31
269.145	74.31
269.377	83.31
269.609	73.31
269.841	72.31
270.073	79.31
270.306	85.31
270.538	90.31
270.77	85.31
271.002	67.31
271.234	75.31
271.466	77.31
271.698	79.31
271.93	86.31
272.162	85.31
272.394	91.31
272.626	83.31
272.858	86.31
273.09	79.31
273.322	87.31
273.553	77.31
273.785	81.31
274.017	68.31
274.249	77.31
274.481	74.31
274.713	64.31
274.945	79.31
275.176	72.31
275.408	97.31
275.64	80.31
275.872	81.31
276.104	91.31
276.335	75.31
276.567	78.31
276.799	83.31
277.031	80.31
277.262	89.31
277.494	74.31
277.726	78.31
277.957	99.31
278.189	81.31
278.421	77.31
278.652	78.31
278.884	77.31
279.115	81.31
279.347	82.31
279.579	84.31
279.81	69.31
280.042	87.31
280.273	83.31
280.505	75.31
280.736	81.31
280.968	75.31
281.199	86.31
281.431	91.31
281.662	85.31
281.894	80.31
282.125	80.31
282.356	89.31
282.588	83.31
282.819	71.31
283.051	67.31
283.282	73.31
283.513	78.31
283.745	74.31
283.976	85.31
284.207	94.31
284.439	87.31
284.67	79.31
284.901	86.31
285.132	88.31
285.364	71.31
285.595	75.31
285.826	78.31
286.057	94.31
286.288	85.31
286.52	67.31
286.751	79.31
286.982	80.31
287.213	89.31
287.444	82.31
287.675	86.31
287.906	66.31
288.138	77.31
288.369	82.31
288.6	88.31
288.831	85.31
289.062	73.31
289.293	80.31
289.524	88.31
289.755	82.31
289.986	84.31
290.217	90.31
290.448	93.31
290.679	78.31
290.91	69.31
291.141	89.31
291.371	88.31
291.602	86.31
291.833	84.31
292.064	74.31
292.295	83.31
292.526	87.31
292.757	83.31
292.987	83.31
293.218	79.31
293.449	85.31
293.68	84.31
293.91	73.31
294.141	102.31
294.372	89.31
294.603	67.31
294.833	89.31
295.064	94.31
295.295	93.31
295.525	103.31
295.756	78.31
295.987	75.31
296.217	77.31
296.448	77.31
296.679	75.31
296.909	72.31
297.14	76.31
297.37	80.31
297.601	99.31
297.831	71.31
298.062	84.31
298.292	81.31
298.523	100.31
298.753	79.31
298.984	71.31
299.214	83.31
299.445	73.31
299.675	82.31
299.905	81.31
300.136	85.31
300.366	89.31
300.597	75.31
300.827	93.31
301.057	87.31
301.288	80.31
301.518	75.31
301.748	80.31
301.979	74.31
302.209	82.31
302.439	87.31
302.669	75.31
302.9	72.31
303.13	85.31
303.36	74.31
303.59	75.31
303.82	82.31
304.051	89.31
304.281	83.31
304.511	97.31
304.741	77.31
304.971	72.31
305.201	92.31
305.431	79.31
305.661	87.31
305.891	79.31
306.121	68.31
306.352	77.31
306.582	77.31
306.812	81.31
307.042	80.31
307.272	86.31
307.502	74.31
307.731	99.31
307.961	85.31
308.191	91.31
308.421	80.31
308.651	91.31
308.881	72.31
309.111	81.31
309.341	83.31
309.571	78.31
309.8	77.31
310.03	77.31
310.26	76.31
310.49	76.31
310.72	94.31
310.949	89.31
311.179	81.31
311.409	72.31
311.639	89.31
311.868	96.31
312.098	89.31
312.328	87.31
312.557	98.31
312.787	94.31
313.017	69.31
313.246	87.31
313.476	83.31
313.706	83.31
313.935	74.31
314.165	78.31
314.394	86.31
314.624	72.31
314.853	92.31
315.083	86.31
315.312	81.31
315.542	78.31
315.771	92.31
316.001	78.31
316.23	78.31
316.46	86.31
316.689	93.31
316.919	87.31
317.148	87.31
317.377	82.31
317.607	56.31
317.836	88.31
318.065	82.31
318.295	91.31
318.524	89.31
318.753	77.31
318.983	87.31
319.212	91.31
319.441	81.31
319.67	85.31
319.9	80.31
320.129	81.31
320.358	87.31
320.587	80.31
320.816	88.31
321.046	82.31
321.275	96.31
321.504	89.31
321.733	91.31
321.962	63.31
322.191	95.31
322.42	81.31
322.649	87.31
322.878	72.31
323.108	69.31
323.337	83.31
323.566	86.31
323.795	76.31
324.024	73.31
324.253	90.31
324.482	81.31
324.71	93.31
324.939	108.31
325.168	87.31
325.397	79.31
325.626	95.31
325.855	81.31
326.084	81.31
326.313	76.31
326.542	71.31
326.77	88.31
326.999	78.31
327.228	78.31
327.457	72.31
327.686	77.31
327.914	83.31
328.143	83.31
328.372	72.31
328.6	71.31
328.829	72.31
329.058	88.31
329.287	79.31
329.515	68.31
329.744	86.31
329.972	86.31
330.201	74.31
330.43	91.31
330.658	60.31
330.887	80.31
331.115	88.31
331.344	79.31
331.572	90.31
331.801	83.31
332.03	89.31
332.258	90.31
332.486	71.31
332.715	90.31
332.943	85.31
333.172	84.31
333.4	77.31
333.629	102.31
333.857	83.31
334.085	93.31
334.314	91.31
334.542	76.31
334.771	69.31
334.999	80.31
335.227	80.31
335.455	98.31
335.684	92.31
335.912	76.31
336.14	86.31
336.369	88.31
336.597	87.31
336.825	88.31
337.053	82.31
337.281	80.31
337.51	85.31
337.738	76.31
337.966	88.31
338.194	80.31
338.422	95.31
338.65	87.31
338.878	83.31
339.106	86.31
339.334	90.31
339.562	94.31
339.79	78.31
340.018	75.31
340.246	74.31
340.474	82.31
340.702	93.31
340.93	92.31
341.158	76.31
341.386	94.31
341.614	73.31
341.842	77.31
342.07	92.31
342.298	87.31
342.526	85.31
342.754	96.31
342.981	97.31
343.209	91.31
343.437	97.31
343.665	73.31
343.893	79.31
344.12	74.31
344.348	76.31
344.576	77.31
344.804	88.31
345.031	83.31
345.259	77.31
345.487	87.31
345.714	80.31
345.942	88.31
346.17	81.31
346.397	82.31
346.625	76.31
346.853	92.31
347.08	79.31
347.308	86.31
347.535	77.31
347.763	89.31
347.99	90.31
348.218	70.31
348.445	79.31
348.673	69.31
348.9	77.31
349.128	83.31
349.355	82.31
349.583	81.31
349.81	73.31
350.037	83.31
350.265	81.31
350.492	68.31
350.72	74.31
350.947	91.31
351.174	84.31
351.402	82.31
351.629	72.31
351.856	74.31
352.083	85.31
352.311	85.31
352.538	73.31
352.765	84.31
352.992	72.31
353.22	72.31
353.447	71.31
353.674	94.31
353.901	83.31
354.128	86.31
354.355	88.31
354.583	83.31
354.81	74.31
355.037	79.31
355.264	81.31
355.491	77.31
355.718	79.31
355.945	85.31
356.172	76.31
356.399	85.31
356.626	105.31
356.853	82.31
357.08	94.31
357.307	81.31
357.534	86.31
357.761	79.31
357.988	80.31
358.215	77.31
358.441	81.31
358.668	90.31
358.895	99.31
359.122	74.31
359.349	85.31
359.576	77.31
359.802	81.31
360.029	86.31
360.256	76.31
360.483	96.31
360.709	81.31
360.936	83.31
361.163	88.31
361.39	79.31
361.616	77.31
361.843	66.31
362.07	80.31
362.296	90.31
362.523	85.31
362.749	73.31
362.976	82.31
363.203	83.31
363.429	70.31
363.656	82.31
363.882	84.31
364.109	75.31
364.335	78.31
364.562	69.31
364.788	90.31
365.015	91.31
365.241	85.31
365.468	92.31
365.694	95.31
365.92	85.31
366.147	77.31
366.373	87.31
366.599	88.31
366.826	89.31
367.052	77.31
367.278	80.31
367.505	80.31
367.731	87.31
367.957	68.31
368.184	78.31
368.41	83.31
368.636	72.31
368.862	86.31
369.089	70.31
369.315	76.31
369.541	97.31
369.767	94.31
369.993	94.31
370.219	85.31
370.445	71.31
370.672	76.31
370.898	79.31
371.124	76.31
371.35	82.31
371.576	92.31
371.802	84.31
372.028	71.31
372.254	78.31
372.48	81.31
372.706	77.31
372.932	80.31
373.158	90.31
373.384	77.31
373.61	75.31
373.835	85.31
374.061	75.31
374.287	77.31
374.513	63.31
374.739	90.31
374.965	83.31
375.191	78.31
375.416	82.31
375.642	83.31
375.868	87.31
376.094	79.31
376.319	84.31
376.545	77.31
376.771	91.31
376.997	75.31
377.222	69.31
377.448	80.31
377.674	99.31
377.899	84.31
378.125	91.31
378.35	91.31
378.576	71.31
378.802	94.31
379.027	73.31
379.253	81.31
379.478	99.31
379.704	77.31
379.929	77.31
380.155	73.31
380.38	77.31
380.606	77.31
380.831	81.31
381.057	93.31
381.282	94.31
381.507	81.31
381.733	69.31
381.958	80.31
382.184	78.31
382.409	85.31
382.634	80.31
382.86	82.31
383.085	80.31
383.31	83.31
383.535	80.31
383.761	77.31
383.986	93.31
384.211	84.31
384.436	85.31
384.662	76.31
384.887	76.31
385.112	79.31
385.337	86.31
385.562	75.31
385.787	80.31
386.013	85.31
386.238	89.31
386.463	85.31
386.688	73.31
386.913	95.31
387.138	80.31
387.363	82.31
387.588	80.31
387.813	81.31
388.038	87.31
388.263	75.31
388.488	82.31
388.713	75.31
388.938	89.31
389.163	84.31
389.387	79.31
389.612	88.31
389.837	95.31
390.062	101.31
390.287	90.31
390.512	89.31
390.736	79.31
390.961	89.31
391.186	84.31
391.411	82.31
391.636	87.31
391.86	90.31
392.085	93.31
392.31	77.31
392.534	85.31
392.759	89.31
392.984	96.31
393.208	84.31
393.433	94.31
393.658	70.31
393.882	79.31
394.107	88.31
394.331	77.31
394.556	75.31
394.78	82.31
395.005	90.31
395.229	78.31
395.454	79.31
395.678	95.31
395.903	87.31
396.127	78.31
396.352	86.31
396.576	96.31
396.801	90.31
397.025	73.31
397.249	78.31
397.474	109.31
397.698	81.31
397.922	81.31
398.147	91.31
398.371	82.31
398.595	82.31
398.82	78.31
399.044	70.31
399.268	79.31
399.492	87.31
399.717	77.31
399.941	80.31
400.165	80.31
400.389	89.31
400.613	82.31
400.837	84.31
401.062	82.31
401.286	89.31
401.51	89.31
401.734	88.31
401.958	102.31
402.182	77.31
402.406	88.31
402.63	81.31
402.854	91.31
403.078	82.31
403.302	72.31
403.526	96.31
403.75	79.31
403.974	85.31
404.198	91.31
404.422	94.31
404.645	97.31
404.869	84.31
405.093	82.31
405.317	85.31
405.541	90.31
405.765	99.31
405.988	86.31
406.212	86.31
406.436	86.31
406.66	74.31
406.883	91.31
407.107	87.31
407.331	73.31
407.555	77.31
407.778	82.31
408.002	83.31
408.226	95.31
408.449	91.31
408.673	85.31
408.896	93.31
409.12	100.31
409.344	102.31
409.567	76.31
409.791	91.31
410.014	97.31
410.238	88.31
410.461	83.31
410.685	96.31
410.908	84.31
411.132	94.31
411.355	83.31
411.578	86.31
411.802	78.31
412.025	87.31
412.249	74.31
412.472	87.31
412.695	85.31
412.919	84.31
413.142	93.31
413.365	97.31
413.589	89.31
413.812	88.31
414.035	73.31
414.258	92.31
414.482	104.31
414.705	88.31
414.928	96.31
415.151	87.31
415.374	84.31
415.597	87.31
415.821	83.31
416.044	93.31
416.267	93.31
416.49	90.31
416.713	80.31
416.936	90.31
417.159	93.31
417.382	94.31
417.605	94.31
417.828	84.31
418.051	84.31
418.274	86.31
418.497	98.31
418.72	98.31
418.943	91.31
419.166	76.31
419.389	95.31
419.611	87.31
419.834	87.31
420.057	85.31
420.28	94.31
420.503	96.31
420.726	92.31
420.948	95.31
421.171	100.31
421.394	93.31
421.617	105.31
421.839	95.31
422.062	89.31
422.285	102.31
422.507	98.31
422.73	102.31
422.953	88.31
423.175	83.31
423.398	88.31
423.621	93.31
423.843	96.31
424.066	99.31
424.288	97.31
424.511	77.31
424.733	102.31
424.956	93.31
425.178	99.31
425.401	103.31
425.623	89.31
425.846	81.31
426.068	90.31
426.291	81.31
426.513	88.31
426.735	108.31
426.958	99.31
427.18	97.31
427.402	101.31
427.625	90.31
427.847	90.31
428.069	99.31
428.292	86.31
428.514	92.31
428.736	75.31
428.958	79.31
429.181	98.31
429.403	100.31
429.625	85.31
429.847	93.31
430.069	95.31
430.292	94.31
430.514	104.31
430.736	93.31
430.958	94.31
431.18	99.31
431.402	94.31
431.624	85.31
431.846	81.31
432.068	79.31
432.29	89.31
432.512	85.31
432.734	79.31
432.956	87.31
433.178	102.31
433.4	94.31
433.622	98.31
433.844	90.31
434.066	99.31
434.287	94.31
434.509	87.31
434.731	89.31
434.953	97.31
435.175	103.31
435.397	95.31
435.618	93.31
435.84	100.31
436.062	88.31
436.284	92.31
436.505	92.31
436.727	84.31
436.949	99.31
437.17	91.31
437.392	89.31
437.614	96.31
437.835	79.31
438.057	94.31
438.278	74.31
438.5	91.31
438.721	97.31
438.943	82.31
439.165	93.31
439.386	93.31
439.608	116.31
439.829	92.31
440.05	98.31
440.272	95.31
440.493	102.31
440.715	103.31
440.936	89.31
441.158	95.31
441.379	106.31
441.6	102.31
441.822	94.31
442.043	100.31
442.264	87.31
442.486	96.31
442.707	77.31
442.928	116.31
443.149	101.31
443.371	103.31
443.592	98.31
443.813	104.31
444.034	86.31
444.255	96.31
444.476	110.31
444.698	102.31
444.919	109.31
445.14	239.31
445.361	158.31
445.582	102.31
445.803	94.31
446.024	98.31
446.245	102.31
446.466	103.31
446.687	89.31
446.908	104.31
447.129	97.31
447.35	101.31
447.571	113.31
447.792	90.31
448.013	103.31
448.234	93.31
448.455	99.31
448.675	93.31
448.896	104.31
449.117	98.31
449.338	80.31
449.559	84.31
449.779	102.31
450	82.31
450.221	104.31
450.442	93.31
450.662	81.31
450.883	98.31
451.104	82.31
451.324	94.31
451.545	94.31
451.766	89.31
451.986	97.31
452.207	95.31
452.428	93.31
452.648	91.31
452.869	91.31
453.089	87.31
453.31	90.31
453.53	83.31
453.751	66.31
453.971	91.31
454.192	89.31
454.412	89.31
454.633	97.31
454.853	82.31
455.073	101.31
455.294	100.31
455.514	90.31
455.734	91.31
455.955	84.31
456.175	82.31
456.395	92.31
456.616	90.31
456.836	89.31
457.056	93.31
457.276	85.31
457.497	86.31
457.717	76.31
457.937	78.31
458.157	84.31
458.377	97.31
458.598	98.31
458.818	82.31
459.038	92.31
459.258	79.31
459.478	82.31
459.698	69.31
459.918	88.31
460.138	71.31
460.358	74.31
460.578	91.31
460.798	81.31
461.018	83.31
461.238	96.31
461.458	94.31
461.678	80.31
461.898	86.31
462.118	90.31
462.338	86.31
462.558	96.31
462.777	77.31
462.997	81.31
463.217	83.31
463.437	88.31
463.657	94.31
463.876	77.31
464.096	94.31
464.316	76.31
464.536	83.31
464.755	96.31
464.975	76.31
465.195	92.31
465.414	89.31
465.634	97.31
465.854	95.31
466.073	81.31
466.293	106.31
466.512	79.31
466.732	100.31
466.951	86.31
467.171	91.31
467.391	85.31
467.61	91.31
467.829	100.31
468.049	97.31
468.268	103.31
468.488	96.31
468.707	72.31
468.927	89.31
469.146	113.31
469.365	103.31
469.585	98.31
469.804	113.31
470.023	94.31
470.243	87.31
470.462	101.31
470.681	97.31
470.901	106.31
471.12	93.31
471.339	92.31
471.558	99.31
471.777	111.31
471.997	87.31
472.216	102.31
472.435	97.31
472.654	68.31
472.873	101.31
473.092	77.31
473.311	64.31
473.53	98.31
473.749	92.31
473.968	97.31
474.187	86.31
474.406	76.31
474.625	100.31
474.844	84.31
475.063	103.31
475.282	92.31
475.501	93.31
475.72	96.31
475.939	98.31
476.158	99.31
476.377	97.31
476.596	102.31
476.814	104.31
477.033	100.31
477.252	107.31
477.471	107.31
477.69	99.31
477.908	104.31
478.127	111.31
478.346	86.31
478.564	93.31
478.783	101.31
479.002	89.31
479.22	110.31
479.439	96.31
479.658	97.31
479.876	97.31
480.095	82.31
480.313	91.31
480.532	93.31
480.751	81.31
480.969	81.31
481.188	85.31
481.406	74.31
481.624	78.31
481.843	89.31
482.061	86.31
482.28	91.31
482.498	82.31
482.717	81.31
482.935	90.31
483.153	96.31
483.372	108.31
483.59	106.31
483.808	89.31
484.027	88.31
484.245	96.31
484.463	97.31
484.681	96.31
484.9	95.31
485.118	91.31
485.336	99.31
485.554	96.31
485.772	83.31
485.99	89.31
486.209	90.31
486.427	80.31
486.645	95.31
486.863	120.31
487.081	104.31
487.299	86.31
487.517	99.31
487.735	109.31
487.953	96.31
488.171	117.31
488.389	106.31
488.607	116.31
488.825	95.31
489.043	89.31
489.261	109.31
489.479	100.31
489.696	96.31
489.914	94.31
490.132	106.31
490.35	101.31
490.568	112.31
490.786	103.31
491.003	123.31
491.221	119.31
491.439	130.31
491.657	104.31
491.874	117.31
492.092	113.31
492.31	120.31
492.527	117.31
492.745	110.31
492.963	127.31
493.18	105.31
493.398	107.31
493.615	101.31
493.833	110.31
494.05	95.31
494.268	113.31
494.485	104.31
494.703	102.31
494.92	109.31
495.138	105.31
495.355	111.31
495.573	111.31
495.79	107.31
496.008	104.31
496.225	106.31
496.442	104.31
496.66	104.31
496.877	108.31
497.094	116.31
497.312	107.31
497.529	110.31
497.746	86.31
497.963	115.31
498.181	107.31
498.398	95.31
498.615	90.31
498.832	102.31
499.049	82.31
499.267	93.31
499.484	104.31
499.701	99.31
499.918	100.31
500.135	111.31
500.352	96.31
500.569	97.31
500.786	95.31
501.003	107.31
501.22	102.31
501.437	106.31
501.654	100.31
501.871	103.31
502.088	97.31
502.305	105.31
502.522	86.31
502.739	82.31
502.956	91.31
503.172	95.31
503.389	96.31
503.606	93.31
503.823	94.31
504.04	98.31
504.256	96.31
504.473	96.31
504.69	103.31
504.907	105.31
505.123	111.31
505.34	103.31
505.557	97.31
505.773	102.31
505.99	110.31
506.207	89.31
506.423	86.31
506.64	97.31
506.856	98.31
507.073	98.31
507.289	98.31
507.506	91.31
507.722	95.31
507.939	94.31
508.155	100.31
508.372	90.31
508.588	90.31
508.805	106.31
509.021	78.31
509.238	89.31
509.454	85.31
509.67	88.31
509.887	100.31
510.103	104.31
510.319	83.31
510.536	83.31
510.752	82.31
510.968	75.31
511.184	74.31
511.401	78.31
511.617	92.31
511.833	89.31
512.049	85.31
512.265	103.31
512.481	83.31
512.698	74.31
512.914	96.31
513.13	77.31
513.346	79.31
513.562	82.31
513.778	82.31
513.994	78.31
514.21	83.31
514.426	77.31
514.642	90.31
514.858	77.31
515.074	76.31
515.29	91.31
515.506	80.31
515.721	82.31
515.937	90.31
516.153	79.31
516.369	79.31
516.585	86.31
516.801	98.31
517.016	75.31
517.232	75.31
517.448	82.31
