Data from Location3.07152019.Energy5.Lamp.07192019.3%Agarose_HRD10591_15-17-15-269.txt Node
Date: Fri Jul 19 15:17:15 EDT 2019
User: cochatt
Spectrometer: HR+D1059
Trigger mode: 1
Integration Time (sec): 1.000000E-1
Scans to average: 1
Electric dark correction enabled: true
Nonlinearity correction enabled: false
Boxcar width: 0
XAxis mode: Wavelengths
Number of Pixels in Spectrum: 2048
>>>>>Begin Spectral Data<<<<<
223.165	-13.44
223.4	-13.44
223.635	-13.44
223.869	0.56
224.104	-16.44
224.338	-8.44
224.573	-0.44
224.808	-11.44
225.042	-10.44
225.277	3.56
225.511	0.56
225.746	-3.44
225.98	2.56
226.215	-2.44
226.449	12.56
226.683	16.56
226.918	12.56
227.152	17.56
227.387	29.56
227.621	25.56
227.856	39.56
228.09	40.56
228.324	42.56
228.559	60.56
228.793	73.56
229.027	75.56
229.262	63.56
229.496	72.56
229.73	73.56
229.964	74.56
230.199	52.56
230.433	83.56
230.667	81.56
230.901	72.56
231.136	87.56
231.37	83.56
231.604	84.56
231.838	77.56
232.072	86.56
232.306	78.56
232.541	89.56
232.775	99.56
233.009	90.56
233.243	86.56
233.477	96.56
233.711	87.56
233.945	72.56
234.179	91.56
234.413	81.56
234.647	89.56
234.881	90.56
235.115	82.56
235.349	84.56
235.583	73.56
235.817	69.56
236.051	76.56
236.285	73.56
236.519	83.56
236.753	81.56
236.987	75.56
237.221	66.56
237.455	63.56
237.689	79.56
237.922	93.56
238.156	72.56
238.39	56.56
238.624	87.56
238.858	87.56
239.091	90.56
239.325	91.56
239.559	73.56
239.793	87.56
240.027	72.56
240.26	84.56
240.494	74.56
240.728	81.56
240.961	66.56
241.195	80.56
241.429	79.56
241.662	89.56
241.896	84.56
242.13	68.56
242.363	85.56
242.597	63.56
242.83	90.56
243.064	90.56
243.298	86.56
243.531	71.56
243.765	72.56
243.998	83.56
244.232	84.56
244.465	82.56
244.699	84.56
244.932	81.56
245.166	77.56
245.399	67.56
245.633	76.56
245.866	87.56
246.099	66.56
246.333	71.56
246.566	72.56
246.8	82.56
247.033	79.56
247.266	66.56
247.5	67.56
247.733	82.56
247.966	76.56
248.2	89.56
248.433	92.56
248.666	81.56
248.899	69.56
249.133	91.56
249.366	95.56
249.599	81.56
249.832	88.56
250.066	82.56
250.299	86.56
250.532	81.56
250.765	84.56
250.998	85.56
251.231	71.56
251.465	65.56
251.698	84.56
251.931	83.56
252.164	77.56
252.397	90.56
252.63	92.56
252.863	80.56
253.096	81.56
253.329	74.56
253.562	83.56
253.795	76.56
254.028	84.56
254.261	82.56
254.494	75.56
254.727	71.56
254.96	76.56
255.193	84.56
255.426	83.56
255.659	83.56
255.892	74.56
256.124	79.56
256.357	82.56
256.59	66.56
256.823	66.56
257.056	81.56
257.289	88.56
257.521	73.56
257.754	84.56
257.987	80.56
258.22	75.56
258.452	87.56
258.685	80.56
258.918	68.56
259.151	83.56
259.383	83.56
259.616	69.56
259.849	76.56
260.081	84.56
260.314	76.56
260.547	78.56
260.779	82.56
261.012	87.56
261.244	80.56
261.477	80.56
261.71	82.56
261.942	81.56
262.175	91.56
262.407	81.56
262.64	82.56
262.872	99.56
263.105	97.56
263.337	83.56
263.57	89.56
263.802	75.56
264.035	81.56
264.267	90.56
264.499	80.56
264.732	88.56
264.964	89.56
265.197	92.56
265.429	84.56
265.661	74.56
265.894	74.56
266.126	91.56
266.358	98.56
266.591	82.56
266.823	81.56
267.055	83.56
267.287	89.56
267.52	102.56
267.752	86.56
267.984	95.56
268.216	92.56
268.448	83.56
268.681	92.56
268.913	85.56
269.145	83.56
269.377	81.56
269.609	92.56
269.841	80.56
270.073	77.56
270.306	77.56
270.538	75.56
270.77	78.56
271.002	92.56
271.234	89.56
271.466	80.56
271.698	82.56
271.93	73.56
272.162	101.56
272.394	88.56
272.626	95.56
272.858	87.56
273.09	86.56
273.322	80.56
273.553	92.56
273.785	99.56
274.017	85.56
274.249	77.56
274.481	88.56
274.713	81.56
274.945	80.56
275.176	93.56
275.408	80.56
275.64	81.56
275.872	98.56
276.104	91.56
276.335	100.56
276.567	86.56
276.799	87.56
277.031	72.56
277.262	76.56
277.494	99.56
277.726	78.56
277.957	86.56
278.189	91.56
278.421	91.56
278.652	86.56
278.884	85.56
279.115	88.56
279.347	87.56
279.579	79.56
279.81	85.56
280.042	78.56
280.273	97.56
280.505	88.56
280.736	89.56
280.968	85.56
281.199	85.56
281.431	82.56
281.662	79.56
281.894	81.56
282.125	85.56
282.356	88.56
282.588	113.56
282.819	91.56
283.051	81.56
283.282	86.56
283.513	92.56
283.745	75.56
283.976	79.56
284.207	82.56
284.439	72.56
284.67	87.56
284.901	90.56
285.132	82.56
285.364	89.56
285.595	105.56
285.826	88.56
286.057	72.56
286.288	87.56
286.52	86.56
286.751	85.56
286.982	80.56
287.213	86.56
287.444	87.56
287.675	89.56
287.906	78.56
288.138	87.56
288.369	90.56
288.6	82.56
288.831	84.56
289.062	88.56
289.293	86.56
289.524	84.56
289.755	76.56
289.986	91.56
290.217	81.56
290.448	81.56
290.679	83.56
290.91	75.56
291.141	81.56
291.371	84.56
291.602	83.56
291.833	102.56
292.064	88.56
292.295	88.56
292.526	96.56
292.757	73.56
292.987	78.56
293.218	84.56
293.449	91.56
293.68	74.56
293.91	77.56
294.141	91.56
294.372	76.56
294.603	80.56
294.833	66.56
295.064	74.56
295.295	77.56
295.525	70.56
295.756	94.56
295.987	85.56
296.217	95.56
296.448	80.56
296.679	87.56
296.909	82.56
297.14	98.56
297.37	89.56
297.601	90.56
297.831	82.56
298.062	70.56
298.292	76.56
298.523	85.56
298.753	100.56
298.984	87.56
299.214	95.56
299.445	73.56
299.675	82.56
299.905	78.56
300.136	76.56
300.366	93.56
300.597	103.56
300.827	91.56
301.057	71.56
301.288	84.56
301.518	74.56
301.748	93.56
301.979	84.56
302.209	77.56
302.439	87.56
302.669	86.56
302.9	91.56
303.13	100.56
303.36	78.56
303.59	67.56
303.82	95.56
304.051	82.56
304.281	84.56
304.511	93.56
304.741	87.56
304.971	84.56
305.201	83.56
305.431	99.56
305.661	71.56
305.891	79.56
306.121	89.56
306.352	68.56
306.582	83.56
306.812	93.56
307.042	80.56
307.272	79.56
307.502	89.56
307.731	80.56
307.961	84.56
308.191	83.56
308.421	77.56
308.651	92.56
308.881	96.56
309.111	91.56
309.341	91.56
309.571	99.56
309.8	97.56
310.03	86.56
310.26	82.56
310.49	74.56
310.72	87.56
310.949	75.56
311.179	78.56
311.409	70.56
311.639	84.56
311.868	82.56
312.098	80.56
312.328	92.56
312.557	92.56
312.787	76.56
313.017	87.56
313.246	93.56
313.476	83.56
313.706	76.56
313.935	81.56
314.165	85.56
314.394	68.56
314.624	82.56
314.853	86.56
315.083	93.56
315.312	84.56
315.542	97.56
315.771	79.56
316.001	88.56
316.23	89.56
316.46	83.56
316.689	82.56
316.919	86.56
317.148	89.56
317.377	85.56
317.607	93.56
317.836	87.56
318.065	100.56
318.295	82.56
318.524	82.56
318.753	87.56
318.983	99.56
319.212	91.56
319.441	77.56
319.67	91.56
319.9	80.56
320.129	81.56
320.358	92.56
320.587	86.56
320.816	91.56
321.046	96.56
321.275	84.56
321.504	74.56
321.733	90.56
321.962	86.56
322.191	89.56
322.42	82.56
322.649	88.56
322.878	86.56
323.108	84.56
323.337	88.56
323.566	97.56
323.795	93.56
324.024	95.56
324.253	87.56
324.482	92.56
324.71	82.56
324.939	92.56
325.168	71.56
325.397	95.56
325.626	83.56
325.855	81.56
326.084	75.56
326.313	99.56
326.542	98.56
326.77	102.56
326.999	99.56
327.228	73.56
327.457	88.56
327.686	94.56
327.914	82.56
328.143	96.56
328.372	83.56
328.6	76.56
328.829	103.56
329.058	84.56
329.287	77.56
329.515	67.56
329.744	76.56
329.972	69.56
330.201	93.56
330.43	93.56
330.658	100.56
330.887	82.56
331.115	84.56
331.344	87.56
331.572	87.56
331.801	90.56
332.03	81.56
332.258	79.56
332.486	79.56
332.715	73.56
332.943	82.56
333.172	84.56
333.4	80.56
333.629	81.56
333.857	83.56
334.085	90.56
334.314	88.56
334.542	87.56
334.771	77.56
334.999	85.56
335.227	76.56
335.455	93.56
335.684	92.56
335.912	81.56
336.14	69.56
336.369	76.56
336.597	102.56
336.825	83.56
337.053	72.56
337.281	88.56
337.51	93.56
337.738	89.56
337.966	80.56
338.194	83.56
338.422	91.56
338.65	95.56
338.878	69.56
339.106	69.56
339.334	90.56
339.562	87.56
339.79	92.56
340.018	90.56
340.246	89.56
340.474	91.56
340.702	78.56
340.93	80.56
341.158	88.56
341.386	75.56
341.614	97.56
341.842	78.56
342.07	81.56
342.298	73.56
342.526	81.56
342.754	83.56
342.981	70.56
343.209	84.56
343.437	77.56
343.665	97.56
343.893	73.56
344.12	90.56
344.348	83.56
344.576	85.56
344.804	77.56
345.031	87.56
345.259	99.56
345.487	91.56
345.714	96.56
345.942	98.56
346.17	76.56
346.397	95.56
346.625	93.56
346.853	75.56
347.08	92.56
347.308	92.56
347.535	87.56
347.763	83.56
347.99	91.56
348.218	78.56
348.445	84.56
348.673	85.56
348.9	89.56
349.128	93.56
349.355	88.56
349.583	92.56
349.81	80.56
350.037	87.56
350.265	90.56
350.492	83.56
350.72	76.56
350.947	74.56
351.174	92.56
351.402	84.56
351.629	83.56
351.856	82.56
352.083	90.56
352.311	72.56
352.538	91.56
352.765	79.56
352.992	78.56
353.22	85.56
353.447	90.56
353.674	83.56
353.901	86.56
354.128	75.56
354.355	93.56
354.583	92.56
354.81	103.56
355.037	88.56
355.264	76.56
355.491	68.56
355.718	81.56
355.945	71.56
356.172	83.56
356.399	83.56
356.626	85.56
356.853	70.56
357.08	81.56
357.307	87.56
357.534	88.56
357.761	90.56
357.988	93.56
358.215	84.56
358.441	88.56
358.668	85.56
358.895	87.56
359.122	81.56
359.349	74.56
359.576	97.56
359.802	87.56
360.029	100.56
360.256	100.56
360.483	93.56
360.709	101.56
360.936	84.56
361.163	85.56
361.39	83.56
361.616	80.56
361.843	87.56
362.07	79.56
362.296	91.56
362.523	83.56
362.749	74.56
362.976	68.56
363.203	93.56
363.429	88.56
363.656	82.56
363.882	83.56
364.109	78.56
364.335	90.56
364.562	73.56
364.788	97.56
365.015	89.56
365.241	84.56
365.468	99.56
365.694	74.56
365.92	93.56
366.147	81.56
366.373	89.56
366.599	84.56
366.826	89.56
367.052	92.56
367.278	92.56
367.505	88.56
367.731	81.56
367.957	81.56
368.184	76.56
368.41	93.56
368.636	91.56
368.862	99.56
369.089	81.56
369.315	85.56
369.541	87.56
369.767	91.56
369.993	75.56
370.219	100.56
370.445	95.56
370.672	91.56
370.898	92.56
371.124	84.56
371.35	88.56
371.576	84.56
371.802	87.56
372.028	78.56
372.254	73.56
372.48	89.56
372.706	79.56
372.932	85.56
373.158	80.56
373.384	67.56
373.61	85.56
373.835	89.56
374.061	89.56
374.287	98.56
374.513	72.56
374.739	78.56
374.965	100.56
375.191	89.56
375.416	104.56
375.642	87.56
375.868	93.56
376.094	89.56
376.319	68.56
376.545	71.56
376.771	80.56
376.997	71.56
377.222	81.56
377.448	104.56
377.674	79.56
377.899	89.56
378.125	86.56
378.35	80.56
378.576	84.56
378.802	94.56
379.027	90.56
379.253	77.56
379.478	76.56
379.704	85.56
379.929	89.56
380.155	95.56
380.38	101.56
380.606	90.56
380.831	84.56
381.057	93.56
381.282	96.56
381.507	91.56
381.733	89.56
381.958	89.56
382.184	85.56
382.409	82.56
382.634	79.56
382.86	80.56
383.085	90.56
383.31	71.56
383.535	76.56
383.761	83.56
383.986	96.56
384.211	91.56
384.436	96.56
384.662	92.56
384.887	91.56
385.112	85.56
385.337	87.56
385.562	91.56
385.787	77.56
386.013	98.56
386.238	98.56
386.463	93.56
386.688	89.56
386.913	91.56
387.138	89.56
387.363	94.56
387.588	89.56
387.813	83.56
388.038	86.56
388.263	82.56
388.488	87.56
388.713	88.56
388.938	84.56
389.163	85.56
389.387	90.56
389.612	90.56
389.837	93.56
390.062	93.56
390.287	92.56
390.512	97.56
390.736	104.56
390.961	91.56
391.186	78.56
391.411	84.56
391.636	94.56
391.86	100.56
392.085	83.56
392.31	69.56
392.534	86.56
392.759	86.56
392.984	87.56
393.208	92.56
393.433	85.56
393.658	102.56
393.882	93.56
394.107	75.56
394.331	75.56
394.556	86.56
394.78	88.56
395.005	88.56
395.229	80.56
395.454	84.56
395.678	82.56
395.903	102.56
396.127	81.56
396.352	97.56
396.576	82.56
396.801	93.56
397.025	88.56
397.249	83.56
397.474	93.56
397.698	102.56
397.922	92.56
398.147	85.56
398.371	90.56
398.595	93.56
398.82	81.56
399.044	94.56
399.268	93.56
399.492	85.56
399.717	74.56
399.941	76.56
400.165	82.56
400.389	94.56
400.613	92.56
400.837	97.56
401.062	108.56
401.286	71.56
401.51	86.56
401.734	100.56
401.958	90.56
402.182	101.56
402.406	103.56
402.63	87.56
402.854	99.56
403.078	98.56
403.302	97.56
403.526	97.56
403.75	80.56
403.974	89.56
404.198	97.56
404.422	87.56
404.645	92.56
404.869	107.56
405.093	88.56
405.317	91.56
405.541	80.56
405.765	90.56
405.988	96.56
406.212	91.56
406.436	104.56
406.66	80.56
406.883	89.56
407.107	89.56
407.331	92.56
407.555	88.56
407.778	57.56
408.002	75.56
408.226	95.56
408.449	97.56
408.673	96.56
408.896	105.56
409.12	88.56
409.344	87.56
409.567	84.56
409.791	93.56
410.014	88.56
410.238	95.56
410.461	96.56
410.685	81.56
410.908	81.56
411.132	102.56
411.355	104.56
411.578	99.56
411.802	92.56
412.025	92.56
412.249	100.56
412.472	92.56
412.695	96.56
412.919	96.56
413.142	108.56
413.365	87.56
413.589	91.56
413.812	86.56
414.035	95.56
414.258	84.56
414.482	94.56
414.705	96.56
414.928	108.56
415.151	91.56
415.374	99.56
415.597	65.56
415.821	86.56
416.044	86.56
416.267	100.56
416.49	88.56
416.713	90.56
416.936	109.56
417.159	102.56
417.382	101.56
417.605	100.56
417.828	87.56
418.051	85.56
418.274	94.56
418.497	83.56
418.72	92.56
418.943	90.56
419.166	89.56
419.389	97.56
419.611	105.56
419.834	90.56
420.057	99.56
420.28	92.56
420.503	98.56
420.726	88.56
420.948	110.56
421.171	107.56
421.394	100.56
421.617	94.56
421.839	110.56
422.062	108.56
422.285	99.56
422.507	113.56
422.73	103.56
422.953	113.56
423.175	81.56
423.398	89.56
423.621	85.56
423.843	87.56
424.066	102.56
424.288	95.56
424.511	116.56
424.733	96.56
424.956	92.56
425.178	101.56
425.401	109.56
425.623	102.56
425.846	97.56
426.068	91.56
426.291	88.56
426.513	90.56
426.735	101.56
426.958	84.56
427.18	99.56
427.402	89.56
427.625	97.56
427.847	104.56
428.069	93.56
428.292	89.56
428.514	99.56
428.736	97.56
428.958	96.56
429.181	85.56
429.403	98.56
429.625	95.56
429.847	98.56
430.069	113.56
430.292	107.56
430.514	92.56
430.736	96.56
430.958	88.56
431.18	104.56
431.402	96.56
431.624	93.56
431.846	90.56
432.068	67.56
432.29	83.56
432.512	82.56
432.734	92.56
432.956	87.56
433.178	84.56
433.4	104.56
433.622	98.56
433.844	99.56
434.066	93.56
434.287	83.56
434.509	93.56
434.731	83.56
434.953	93.56
435.175	91.56
435.397	90.56
435.618	91.56
435.84	92.56
436.062	101.56
436.284	95.56
436.505	97.56
436.727	88.56
436.949	86.56
437.17	82.56
437.392	77.56
437.614	93.56
437.835	88.56
438.057	75.56
438.278	84.56
438.5	83.56
438.721	88.56
438.943	96.56
439.165	104.56
439.386	104.56
439.608	109.56
439.829	98.56
440.05	93.56
440.272	100.56
440.493	115.56
440.715	93.56
440.936	91.56
441.158	91.56
441.379	106.56
441.6	92.56
441.822	77.56
442.043	84.56
442.264	92.56
442.486	104.56
442.707	92.56
442.928	90.56
443.149	88.56
443.371	102.56
443.592	87.56
443.813	98.56
444.034	101.56
444.255	77.56
444.476	103.56
444.698	101.56
444.919	98.56
445.14	194.56
445.361	147.56
445.582	119.56
445.803	89.56
446.024	97.56
446.245	86.56
446.466	104.56
446.687	107.56
446.908	109.56
447.129	112.56
447.35	96.56
447.571	98.56
447.792	106.56
448.013	105.56
448.234	102.56
448.455	92.56
448.675	87.56
448.896	96.56
449.117	96.56
449.338	103.56
449.559	99.56
449.779	97.56
450	91.56
450.221	96.56
450.442	103.56
450.662	93.56
450.883	84.56
451.104	113.56
451.324	112.56
451.545	90.56
451.766	99.56
451.986	96.56
452.207	88.56
452.428	106.56
452.648	96.56
452.869	99.56
453.089	106.56
453.31	90.56
453.53	101.56
453.751	91.56
453.971	94.56
454.192	88.56
454.412	90.56
454.633	93.56
454.853	95.56
455.073	99.56
455.294	91.56
455.514	90.56
455.734	85.56
455.955	94.56
456.175	91.56
456.395	91.56
456.616	83.56
456.836	88.56
457.056	95.56
457.276	84.56
457.497	68.56
457.717	88.56
457.937	85.56
458.157	94.56
458.377	91.56
458.598	85.56
458.818	81.56
459.038	82.56
459.258	80.56
459.478	89.56
459.698	86.56
459.918	83.56
460.138	94.56
460.358	88.56
460.578	101.56
460.798	95.56
461.018	98.56
461.238	95.56
461.458	90.56
461.678	89.56
461.898	95.56
462.118	84.56
462.338	89.56
462.558	88.56
462.777	93.56
462.997	90.56
463.217	79.56
463.437	83.56
463.657	91.56
463.876	73.56
464.096	88.56
464.316	88.56
464.536	92.56
464.755	87.56
464.975	88.56
465.195	96.56
465.414	89.56
465.634	96.56
465.854	91.56
466.073	97.56
466.293	92.56
466.512	90.56
466.732	92.56
466.951	82.56
467.171	108.56
467.391	103.56
467.61	102.56
467.829	96.56
468.049	94.56
468.268	87.56
468.488	114.56
468.707	102.56
468.927	91.56
469.146	99.56
469.365	105.56
469.585	86.56
469.804	105.56
470.023	106.56
470.243	108.56
470.462	105.56
470.681	103.56
470.901	97.56
471.12	101.56
471.339	99.56
471.558	100.56
471.777	89.56
471.997	99.56
472.216	95.56
472.435	82.56
472.654	90.56
472.873	99.56
473.092	108.56
473.311	103.56
473.53	95.56
473.749	101.56
473.968	93.56
474.187	93.56
474.406	93.56
474.625	84.56
474.844	100.56
475.063	90.56
475.282	88.56
475.501	76.56
475.72	101.56
475.939	91.56
476.158	94.56
476.377	108.56
476.596	97.56
476.814	100.56
477.033	89.56
477.252	97.56
477.471	93.56
477.69	97.56
477.908	88.56
478.127	91.56
478.346	87.56
478.564	105.56
478.783	79.56
479.002	89.56
479.22	98.56
479.439	107.56
479.658	94.56
479.876	84.56
480.095	86.56
480.313	103.56
480.532	105.56
480.751	97.56
480.969	97.56
481.188	88.56
481.406	75.56
481.624	86.56
481.843	93.56
482.061	88.56
482.28	101.56
482.498	88.56
482.717	95.56
482.935	99.56
483.153	97.56
483.372	97.56
483.59	104.56
483.808	95.56
484.027	84.56
484.245	108.56
484.463	104.56
484.681	105.56
484.9	95.56
485.118	93.56
485.336	98.56
485.554	96.56
485.772	86.56
485.99	99.56
486.209	82.56
486.427	73.56
486.645	86.56
486.863	105.56
487.081	97.56
487.299	108.56
487.517	99.56
487.735	105.56
487.953	120.56
488.171	101.56
488.389	115.56
488.607	115.56
488.825	91.56
489.043	104.56
489.261	101.56
489.479	105.56
489.696	109.56
489.914	92.56
490.132	100.56
490.35	112.56
490.568	103.56
490.786	115.56
491.003	116.56
491.221	106.56
491.439	120.56
491.657	120.56
491.874	127.56
492.092	121.56
492.31	138.56
492.527	134.56
492.745	121.56
492.963	124.56
493.18	116.56
493.398	123.56
493.615	115.56
493.833	122.56
494.05	105.56
494.268	102.56
494.485	111.56
494.703	103.56
494.92	116.56
495.138	108.56
495.355	106.56
495.573	103.56
495.79	114.56
496.008	105.56
496.225	111.56
496.442	102.56
496.66	112.56
496.877	108.56
497.094	109.56
497.312	113.56
497.529	109.56
497.746	113.56
497.963	115.56
498.181	96.56
498.398	91.56
498.615	103.56
498.832	89.56
499.049	97.56
499.267	100.56
499.484	91.56
499.701	110.56
499.918	99.56
500.135	93.56
500.352	107.56
500.569	105.56
500.786	101.56
501.003	96.56
501.22	100.56
501.437	99.56
501.654	103.56
501.871	106.56
502.088	105.56
502.305	111.56
502.522	102.56
502.739	95.56
502.956	105.56
503.172	103.56
503.389	101.56
503.606	97.56
503.823	92.56
504.04	95.56
504.256	102.56
504.473	100.56
504.69	95.56
504.907	87.56
505.123	92.56
505.34	84.56
505.557	96.56
505.773	95.56
505.99	89.56
506.207	85.56
506.423	95.56
506.64	80.56
506.856	95.56
507.073	87.56
507.289	89.56
507.506	97.56
507.722	92.56
507.939	87.56
508.155	86.56
508.372	81.56
508.588	95.56
508.805	89.56
509.021	89.56
509.238	83.56
509.454	77.56
509.67	78.56
509.887	103.56
510.103	77.56
510.319	91.56
510.536	90.56
510.752	88.56
510.968	75.56
511.184	93.56
511.401	83.56
511.617	85.56
511.833	83.56
512.049	84.56
512.265	85.56
512.481	73.56
512.698	72.56
512.914	83.56
513.13	95.56
513.346	83.56
513.562	78.56
513.778	99.56
513.994	96.56
514.21	92.56
514.426	94.56
514.642	92.56
514.858	84.56
515.074	91.56
515.29	82.56
515.506	89.56
515.721	94.56
515.937	90.56
516.153	87.56
516.369	97.56
516.585	77.56
516.801	86.56
