Data from Location3.07152019.Energy5.Lamp.07192019.3%Agarose_HRD10591_15-17-28-269.txt Node
Date: Fri Jul 19 15:17:28 EDT 2019
User: cochatt
Spectrometer: HR+D1059
Trigger mode: 1
Integration Time (sec): 1.000000E-1
Scans to average: 1
Electric dark correction enabled: true
Nonlinearity correction enabled: false
Boxcar width: 0
XAxis mode: Wavelengths
Number of Pixels in Spectrum: 2048
>>>>>Begin Spectral Data<<<<<
223.165	-9.69
223.4	-9.69
223.635	-9.69
223.869	-24.69
224.104	-16.69
224.338	-12.69
224.573	-8.69
224.808	-5.69
225.042	3.31
225.277	-4.69
225.511	-8.69
225.746	13.31
225.98	3.31
226.215	6.31
226.449	15.31
226.683	18.31
226.918	10.31
227.152	21.31
227.387	31.31
227.621	32.31
227.856	34.31
228.09	40.31
228.324	52.31
228.559	39.31
228.793	57.31
229.027	73.31
229.262	63.31
229.496	69.31
229.73	79.31
229.964	83.31
230.199	70.31
230.433	71.31
230.667	61.31
230.901	73.31
231.136	82.31
231.37	83.31
231.604	78.31
231.838	71.31
232.072	71.31
232.306	66.31
232.541	83.31
232.775	76.31
233.009	62.31
233.243	91.31
233.477	84.31
233.711	91.31
233.945	85.31
234.179	71.31
234.413	93.31
234.647	84.31
234.881	76.31
235.115	80.31
235.349	78.31
235.583	72.31
235.817	75.31
236.051	74.31
236.285	72.31
236.519	80.31
236.753	71.31
236.987	54.31
237.221	78.31
237.455	69.31
237.689	82.31
237.922	71.31
238.156	70.31
238.39	81.31
238.624	85.31
238.858	66.31
239.091	80.31
239.325	68.31
239.559	73.31
239.793	54.31
240.027	81.31
240.26	85.31
240.494	64.31
240.728	83.31
240.961	78.31
241.195	97.31
241.429	68.31
241.662	72.31
241.896	72.31
242.13	79.31
242.363	73.31
242.597	70.31
242.83	69.31
243.064	80.31
243.298	85.31
243.531	74.31
243.765	68.31
243.998	75.31
244.232	70.31
244.465	72.31
244.699	83.31
244.932	62.31
245.166	77.31
245.399	85.31
245.633	78.31
245.866	90.31
246.099	78.31
246.333	80.31
246.566	88.31
246.8	70.31
247.033	69.31
247.266	83.31
247.5	80.31
247.733	83.31
247.966	82.31
248.2	72.31
248.433	81.31
248.666	76.31
248.899	80.31
249.133	84.31
249.366	88.31
249.599	71.31
249.832	78.31
250.066	80.31
250.299	86.31
250.532	84.31
250.765	67.31
250.998	73.31
251.231	75.31
251.465	86.31
251.698	71.31
251.931	78.31
252.164	69.31
252.397	74.31
252.63	80.31
252.863	81.31
253.096	80.31
253.329	68.31
253.562	69.31
253.795	77.31
254.028	77.31
254.261	85.31
254.494	81.31
254.727	84.31
254.96	81.31
255.193	99.31
255.426	75.31
255.659	73.31
255.892	80.31
256.124	66.31
256.357	71.31
256.59	72.31
256.823	84.31
257.056	83.31
257.289	72.31
257.521	82.31
257.754	82.31
257.987	78.31
258.22	56.31
258.452	77.31
258.685	77.31
258.918	63.31
259.151	96.31
259.383	67.31
259.616	73.31
259.849	79.31
260.081	86.31
260.314	72.31
260.547	75.31
260.779	62.31
261.012	82.31
261.244	93.31
261.477	80.31
261.71	80.31
261.942	83.31
262.175	77.31
262.407	76.31
262.64	84.31
262.872	73.31
263.105	72.31
263.337	79.31
263.57	87.31
263.802	70.31
264.035	77.31
264.267	96.31
264.499	83.31
264.732	80.31
264.964	83.31
265.197	66.31
265.429	76.31
265.661	79.31
265.894	91.31
266.126	76.31
266.358	92.31
266.591	87.31
266.823	70.31
267.055	80.31
267.287	65.31
267.52	69.31
267.752	73.31
267.984	73.31
268.216	78.31
268.448	58.31
268.681	87.31
268.913	87.31
269.145	88.31
269.377	72.31
269.609	83.31
269.841	76.31
270.073	70.31
270.306	76.31
270.538	90.31
270.77	77.31
271.002	82.31
271.234	85.31
271.466	84.31
271.698	75.31
271.93	80.31
272.162	73.31
272.394	78.31
272.626	84.31
272.858	74.31
273.09	68.31
273.322	79.31
273.553	91.31
273.785	70.31
274.017	91.31
274.249	78.31
274.481	76.31
274.713	84.31
274.945	67.31
275.176	75.31
275.408	90.31
275.64	90.31
275.872	77.31
276.104	81.31
276.335	77.31
276.567	84.31
276.799	74.31
277.031	90.31
277.262	95.31
277.494	87.31
277.726	85.31
277.957	76.31
278.189	79.31
278.421	74.31
278.652	83.31
278.884	67.31
279.115	78.31
279.347	86.31
279.579	80.31
279.81	83.31
280.042	86.31
280.273	72.31
280.505	89.31
280.736	87.31
280.968	71.31
281.199	85.31
281.431	89.31
281.662	88.31
281.894	92.31
282.125	86.31
282.356	70.31
282.588	75.31
282.819	83.31
283.051	96.31
283.282	80.31
283.513	76.31
283.745	78.31
283.976	89.31
284.207	78.31
284.439	87.31
284.67	84.31
284.901	94.31
285.132	79.31
285.364	74.31
285.595	68.31
285.826	77.31
286.057	83.31
286.288	75.31
286.52	82.31
286.751	69.31
286.982	89.31
287.213	72.31
287.444	76.31
287.675	83.31
287.906	75.31
288.138	68.31
288.369	64.31
288.6	85.31
288.831	82.31
289.062	86.31
289.293	82.31
289.524	86.31
289.755	69.31
289.986	76.31
290.217	86.31
290.448	93.31
290.679	79.31
290.91	89.31
291.141	80.31
291.371	81.31
291.602	88.31
291.833	90.31
292.064	85.31
292.295	85.31
292.526	74.31
292.757	81.31
292.987	78.31
293.218	75.31
293.449	69.31
293.68	82.31
293.91	93.31
294.141	83.31
294.372	82.31
294.603	83.31
294.833	68.31
295.064	82.31
295.295	79.31
295.525	68.31
295.756	80.31
295.987	104.31
296.217	84.31
296.448	86.31
296.679	91.31
296.909	91.31
297.14	74.31
297.37	83.31
297.601	86.31
297.831	86.31
298.062	69.31
298.292	74.31
298.523	74.31
298.753	74.31
298.984	71.31
299.214	76.31
299.445	76.31
299.675	88.31
299.905	82.31
300.136	82.31
300.366	75.31
300.597	95.31
300.827	79.31
301.057	69.31
301.288	91.31
301.518	86.31
301.748	90.31
301.979	99.31
302.209	97.31
302.439	77.31
302.669	79.31
302.9	84.31
303.13	86.31
303.36	92.31
303.59	82.31
303.82	78.31
304.051	80.31
304.281	91.31
304.511	95.31
304.741	94.31
304.971	82.31
305.201	89.31
305.431	77.31
305.661	83.31
305.891	86.31
306.121	83.31
306.352	82.31
306.582	90.31
306.812	79.31
307.042	86.31
307.272	94.31
307.502	74.31
307.731	86.31
307.961	86.31
308.191	67.31
308.421	70.31
308.651	80.31
308.881	78.31
309.111	91.31
309.341	78.31
309.571	77.31
309.8	75.31
310.03	93.31
310.26	90.31
310.49	99.31
310.72	69.31
310.949	92.31
311.179	83.31
311.409	84.31
311.639	87.31
311.868	71.31
312.098	86.31
312.328	83.31
312.557	81.31
312.787	78.31
313.017	79.31
313.246	66.31
313.476	84.31
313.706	81.31
313.935	77.31
314.165	104.31
314.394	89.31
314.624	97.31
314.853	71.31
315.083	70.31
315.312	63.31
315.542	70.31
315.771	79.31
316.001	79.31
316.23	82.31
316.46	84.31
316.689	81.31
316.919	81.31
317.148	91.31
317.377	85.31
317.607	83.31
317.836	72.31
318.065	87.31
318.295	78.31
318.524	82.31
318.753	82.31
318.983	91.31
319.212	86.31
319.441	77.31
319.67	85.31
319.9	87.31
320.129	76.31
320.358	82.31
320.587	84.31
320.816	84.31
321.046	76.31
321.275	81.31
321.504	92.31
321.733	82.31
321.962	75.31
322.191	99.31
322.42	103.31
322.649	76.31
322.878	79.31
323.108	77.31
323.337	80.31
323.566	100.31
323.795	71.31
324.024	71.31
324.253	93.31
324.482	73.31
324.71	90.31
324.939	78.31
325.168	91.31
325.397	83.31
325.626	98.31
325.855	89.31
326.084	90.31
326.313	87.31
326.542	71.31
326.77	88.31
326.999	75.31
327.228	72.31
327.457	78.31
327.686	84.31
327.914	81.31
328.143	84.31
328.372	88.31
328.6	81.31
328.829	80.31
329.058	90.31
329.287	84.31
329.515	93.31
329.744	100.31
329.972	71.31
330.201	96.31
330.43	82.31
330.658	80.31
330.887	68.31
331.115	83.31
331.344	76.31
331.572	81.31
331.801	80.31
332.03	76.31
332.258	81.31
332.486	71.31
332.715	80.31
332.943	73.31
333.172	71.31
333.4	80.31
333.629	82.31
333.857	73.31
334.085	94.31
334.314	69.31
334.542	68.31
334.771	90.31
334.999	61.31
335.227	65.31
335.455	88.31
335.684	88.31
335.912	83.31
336.14	82.31
336.369	74.31
336.597	95.31
336.825	79.31
337.053	78.31
337.281	76.31
337.51	73.31
337.738	88.31
337.966	87.31
338.194	70.31
338.422	74.31
338.65	86.31
338.878	91.31
339.106	82.31
339.334	78.31
339.562	78.31
339.79	80.31
340.018	77.31
340.246	73.31
340.474	75.31
340.702	79.31
340.93	84.31
341.158	79.31
341.386	85.31
341.614	82.31
341.842	72.31
342.07	77.31
342.298	78.31
342.526	78.31
342.754	73.31
342.981	80.31
343.209	88.31
343.437	84.31
343.665	56.31
343.893	89.31
344.12	77.31
344.348	91.31
344.576	84.31
344.804	83.31
345.031	84.31
345.259	85.31
345.487	80.31
345.714	90.31
345.942	65.31
346.17	78.31
346.397	77.31
346.625	88.31
346.853	75.31
347.08	80.31
347.308	83.31
347.535	98.31
347.763	85.31
347.99	87.31
348.218	89.31
348.445	72.31
348.673	71.31
348.9	82.31
349.128	76.31
349.355	71.31
349.583	86.31
349.81	80.31
350.037	84.31
350.265	78.31
350.492	68.31
350.72	83.31
350.947	76.31
351.174	91.31
351.402	69.31
351.629	79.31
351.856	79.31
352.083	75.31
352.311	88.31
352.538	85.31
352.765	79.31
352.992	69.31
353.22	83.31
353.447	78.31
353.674	87.31
353.901	84.31
354.128	94.31
354.355	81.31
354.583	83.31
354.81	84.31
355.037	79.31
355.264	88.31
355.491	76.31
355.718	75.31
355.945	82.31
356.172	78.31
356.399	88.31
356.626	84.31
356.853	79.31
357.08	75.31
357.307	90.31
357.534	72.31
357.761	104.31
357.988	78.31
358.215	72.31
358.441	81.31
358.668	91.31
358.895	84.31
359.122	77.31
359.349	97.31
359.576	79.31
359.802	81.31
360.029	78.31
360.256	90.31
360.483	79.31
360.709	69.31
360.936	89.31
361.163	74.31
361.39	81.31
361.616	80.31
361.843	72.31
362.07	80.31
362.296	75.31
362.523	78.31
362.749	69.31
362.976	82.31
363.203	91.31
363.429	103.31
363.656	64.31
363.882	90.31
364.109	80.31
364.335	82.31
364.562	67.31
364.788	62.31
365.015	79.31
365.241	86.31
365.468	70.31
365.694	77.31
365.92	66.31
366.147	88.31
366.373	66.31
366.599	85.31
366.826	85.31
367.052	79.31
367.278	71.31
367.505	83.31
367.731	87.31
367.957	85.31
368.184	92.31
368.41	75.31
368.636	92.31
368.862	92.31
369.089	89.31
369.315	87.31
369.541	71.31
369.767	84.31
369.993	86.31
370.219	78.31
370.445	77.31
370.672	76.31
370.898	73.31
371.124	78.31
371.35	78.31
371.576	85.31
371.802	85.31
372.028	79.31
372.254	63.31
372.48	77.31
372.706	84.31
372.932	87.31
373.158	78.31
373.384	75.31
373.61	66.31
373.835	80.31
374.061	76.31
374.287	87.31
374.513	81.31
374.739	79.31
374.965	67.31
375.191	91.31
375.416	85.31
375.642	87.31
375.868	92.31
376.094	83.31
376.319	93.31
376.545	87.31
376.771	72.31
376.997	73.31
377.222	84.31
377.448	81.31
377.674	81.31
377.899	79.31
378.125	70.31
378.35	87.31
378.576	82.31
378.802	70.31
379.027	89.31
379.253	67.31
379.478	88.31
379.704	91.31
379.929	72.31
380.155	76.31
380.38	103.31
380.606	89.31
380.831	98.31
381.057	70.31
381.282	81.31
381.507	82.31
381.733	83.31
381.958	82.31
382.184	74.31
382.409	77.31
382.634	72.31
382.86	76.31
383.085	88.31
383.31	92.31
383.535	78.31
383.761	71.31
383.986	77.31
384.211	71.31
384.436	79.31
384.662	83.31
384.887	72.31
385.112	81.31
385.337	77.31
385.562	91.31
385.787	86.31
386.013	84.31
386.238	89.31
386.463	93.31
386.688	75.31
386.913	70.31
387.138	81.31
387.363	88.31
387.588	85.31
387.813	68.31
388.038	72.31
388.263	86.31
388.488	98.31
388.713	78.31
388.938	80.31
389.163	82.31
389.387	73.31
389.612	71.31
389.837	85.31
390.062	79.31
390.287	83.31
390.512	94.31
390.736	84.31
390.961	78.31
391.186	86.31
391.411	75.31
391.636	76.31
391.86	96.31
392.085	76.31
392.31	83.31
392.534	73.31
392.759	79.31
392.984	88.31
393.208	79.31
393.433	83.31
393.658	73.31
393.882	77.31
394.107	83.31
394.331	74.31
394.556	85.31
394.78	90.31
395.005	98.31
395.229	94.31
395.454	86.31
395.678	83.31
395.903	83.31
396.127	83.31
396.352	83.31
396.576	85.31
396.801	78.31
397.025	72.31
397.249	78.31
397.474	92.31
397.698	79.31
397.922	80.31
398.147	76.31
398.371	85.31
398.595	84.31
398.82	79.31
399.044	88.31
399.268	76.31
399.492	77.31
399.717	75.31
399.941	92.31
400.165	82.31
400.389	89.31
400.613	95.31
400.837	89.31
401.062	81.31
401.286	77.31
401.51	78.31
401.734	96.31
401.958	87.31
402.182	90.31
402.406	69.31
402.63	77.31
402.854	80.31
403.078	93.31
403.302	113.31
403.526	86.31
403.75	77.31
403.974	95.31
404.198	77.31
404.422	90.31
404.645	79.31
404.869	93.31
405.093	87.31
405.317	99.31
405.541	88.31
405.765	76.31
405.988	81.31
406.212	89.31
406.436	82.31
406.66	79.31
406.883	90.31
407.107	68.31
407.331	82.31
407.555	78.31
407.778	87.31
408.002	86.31
408.226	78.31
408.449	78.31
408.673	89.31
408.896	85.31
409.12	91.31
409.344	85.31
409.567	73.31
409.791	90.31
410.014	91.31
410.238	84.31
410.461	76.31
410.685	83.31
410.908	90.31
411.132	83.31
411.355	90.31
411.578	95.31
411.802	99.31
412.025	103.31
412.249	97.31
412.472	79.31
412.695	83.31
412.919	90.31
413.142	77.31
413.365	82.31
413.589	85.31
413.812	87.31
414.035	90.31
414.258	88.31
414.482	82.31
414.705	94.31
414.928	82.31
415.151	101.31
415.374	90.31
415.597	81.31
415.821	83.31
416.044	96.31
416.267	75.31
416.49	84.31
416.713	71.31
416.936	95.31
417.159	82.31
417.382	77.31
417.605	95.31
417.828	102.31
418.051	100.31
418.274	87.31
418.497	102.31
418.72	86.31
418.943	90.31
419.166	93.31
419.389	86.31
419.611	95.31
419.834	95.31
420.057	87.31
420.28	94.31
420.503	93.31
420.726	85.31
420.948	102.31
421.171	77.31
421.394	84.31
421.617	91.31
421.839	108.31
422.062	94.31
422.285	90.31
422.507	89.31
422.73	88.31
422.953	93.31
423.175	104.31
423.398	96.31
423.621	115.31
423.843	74.31
424.066	100.31
424.288	85.31
424.511	94.31
424.733	91.31
424.956	94.31
425.178	90.31
425.401	94.31
425.623	77.31
425.846	105.31
426.068	87.31
426.291	83.31
426.513	80.31
426.735	86.31
426.958	103.31
427.18	96.31
427.402	96.31
427.625	75.31
427.847	104.31
428.069	86.31
428.292	80.31
428.514	85.31
428.736	89.31
428.958	84.31
429.181	85.31
429.403	99.31
429.625	91.31
429.847	91.31
430.069	82.31
430.292	90.31
430.514	106.31
430.736	92.31
430.958	86.31
431.18	77.31
431.402	90.31
431.624	80.31
431.846	78.31
432.068	78.31
432.29	83.31
432.512	85.31
432.734	87.31
432.956	80.31
433.178	88.31
433.4	90.31
433.622	92.31
433.844	105.31
434.066	80.31
434.287	84.31
434.509	86.31
434.731	108.31
434.953	92.31
435.175	84.31
435.397	92.31
435.618	87.31
435.84	86.31
436.062	81.31
436.284	97.31
436.505	97.31
436.727	91.31
436.949	90.31
437.17	79.31
437.392	100.31
437.614	81.31
437.835	80.31
438.057	84.31
438.278	77.31
438.5	97.31
438.721	89.31
438.943	93.31
439.165	77.31
439.386	106.31
439.608	115.31
439.829	99.31
440.05	95.31
440.272	103.31
440.493	89.31
440.715	97.31
440.936	102.31
441.158	101.31
441.379	100.31
441.6	88.31
441.822	95.31
442.043	102.31
442.264	91.31
442.486	94.31
442.707	93.31
442.928	80.31
443.149	96.31
443.371	102.31
443.592	101.31
443.813	97.31
444.034	85.31
444.255	90.31
444.476	84.31
444.698	95.31
444.919	91.31
445.14	204.31
445.361	144.31
445.582	102.31
445.803	106.31
446.024	100.31
446.245	101.31
446.466	108.31
446.687	88.31
446.908	96.31
447.129	84.31
447.35	93.31
447.571	93.31
447.792	96.31
448.013	88.31
448.234	98.31
448.455	97.31
448.675	103.31
448.896	94.31
449.117	87.31
449.338	91.31
449.559	96.31
449.779	84.31
450	101.31
450.221	107.31
450.442	92.31
450.662	81.31
450.883	86.31
451.104	82.31
451.324	73.31
451.545	80.31
451.766	88.31
451.986	87.31
452.207	93.31
452.428	89.31
452.648	102.31
452.869	92.31
453.089	77.31
453.31	90.31
453.53	79.31
453.751	107.31
453.971	82.31
454.192	90.31
454.412	82.31
454.633	84.31
454.853	88.31
455.073	86.31
455.294	96.31
455.514	76.31
455.734	93.31
455.955	94.31
456.175	82.31
456.395	88.31
456.616	87.31
456.836	79.31
457.056	86.31
457.276	90.31
457.497	69.31
457.717	83.31
457.937	82.31
458.157	81.31
458.377	89.31
458.598	80.31
458.818	85.31
459.038	71.31
459.258	82.31
459.478	71.31
459.698	72.31
459.918	76.31
460.138	78.31
460.358	82.31
460.578	71.31
460.798	72.31
461.018	100.31
461.238	91.31
461.458	77.31
461.678	86.31
461.898	87.31
462.118	93.31
462.338	83.31
462.558	76.31
462.777	85.31
462.997	89.31
463.217	73.31
463.437	101.31
463.657	88.31
463.876	101.31
464.096	93.31
464.316	83.31
464.536	70.31
464.755	96.31
464.975	89.31
465.195	87.31
465.414	91.31
465.634	76.31
465.854	86.31
466.073	83.31
466.293	81.31
466.512	100.31
466.732	95.31
466.951	91.31
467.171	91.31
467.391	108.31
467.61	88.31
467.829	92.31
468.049	84.31
468.268	89.31
468.488	86.31
468.707	98.31
468.927	84.31
469.146	99.31
469.365	103.31
469.585	93.31
469.804	85.31
470.023	88.31
470.243	106.31
470.462	103.31
470.681	78.31
470.901	99.31
471.12	98.31
471.339	102.31
471.558	113.31
471.777	108.31
471.997	102.31
472.216	96.31
472.435	82.31
472.654	70.31
472.873	84.31
473.092	95.31
473.311	88.31
473.53	98.31
473.749	94.31
473.968	96.31
474.187	86.31
474.406	76.31
474.625	75.31
474.844	85.31
475.063	72.31
475.282	88.31
475.501	87.31
475.72	83.31
475.939	92.31
476.158	103.31
476.377	106.31
476.596	88.31
476.814	86.31
477.033	77.31
477.252	76.31
477.471	89.31
477.69	89.31
477.908	98.31
478.127	101.31
478.346	108.31
478.564	94.31
478.783	92.31
479.002	97.31
479.22	100.31
479.439	89.31
479.658	103.31
479.876	94.31
480.095	86.31
480.313	90.31
480.532	91.31
480.751	86.31
480.969	86.31
481.188	83.31
481.406	70.31
481.624	83.31
481.843	76.31
482.061	85.31
482.28	85.31
482.498	89.31
482.717	87.31
482.935	92.31
483.153	97.31
483.372	101.31
483.59	87.31
483.808	95.31
484.027	99.31
484.245	92.31
484.463	102.31
484.681	117.31
484.9	101.31
485.118	104.31
485.336	102.31
485.554	102.31
485.772	74.31
485.99	80.31
486.209	78.31
486.427	78.31
486.645	91.31
486.863	90.31
487.081	83.31
487.299	79.31
487.517	95.31
487.735	99.31
487.953	101.31
488.171	95.31
488.389	93.31
488.607	103.31
488.825	85.31
489.043	97.31
489.261	90.31
489.479	86.31
489.696	93.31
489.914	101.31
490.132	92.31
490.35	93.31
490.568	98.31
490.786	114.31
491.003	112.31
491.221	109.31
491.439	120.31
491.657	103.31
491.874	120.31
492.092	110.31
492.31	132.31
492.527	123.31
492.745	123.31
492.963	116.31
493.18	110.31
493.398	110.31
493.615	111.31
493.833	111.31
494.05	104.31
494.268	94.31
494.485	97.31
494.703	109.31
494.92	112.31
495.138	110.31
495.355	96.31
495.573	107.31
495.79	109.31
496.008	97.31
496.225	106.31
496.442	101.31
496.66	110.31
496.877	105.31
497.094	103.31
497.312	110.31
497.529	107.31
497.746	112.31
497.963	97.31
498.181	86.31
498.398	99.31
498.615	93.31
498.832	89.31
499.049	94.31
499.267	89.31
499.484	89.31
499.701	83.31
499.918	97.31
500.135	103.31
500.352	91.31
500.569	104.31
500.786	93.31
501.003	96.31
501.22	101.31
501.437	110.31
501.654	97.31
501.871	101.31
502.088	106.31
502.305	113.31
502.522	90.31
502.739	90.31
502.956	98.31
503.172	99.31
503.389	91.31
503.606	96.31
503.823	100.31
504.04	85.31
504.256	96.31
504.473	85.31
504.69	83.31
504.907	93.31
505.123	88.31
505.34	86.31
505.557	93.31
505.773	94.31
505.99	103.31
506.207	88.31
506.423	85.31
506.64	84.31
506.856	78.31
507.073	89.31
507.289	89.31
507.506	100.31
507.722	92.31
507.939	88.31
508.155	85.31
508.372	80.31
508.588	94.31
508.805	92.31
509.021	77.31
509.238	91.31
509.454	90.31
509.67	80.31
509.887	93.31
510.103	94.31
510.319	78.31
510.536	79.31
510.752	75.31
510.968	89.31
511.184	77.31
511.401	79.31
511.617	79.31
511.833	72.31
512.049	89.31
512.265	72.31
512.481	95.31
512.698	78.31
512.914	83.31
513.13	76.31
513.346	83.31
513.562	90.31
513.778	80.31
513.994	77.31
514.21	85.31
514.426	89.31
514.642	87.31
514.858	83.31
515.074	82.31
515.29	77.31
515.506	84.31
515.721	67.31
515.937	91.31
516.153	69.31
516.369	71.31
516.585	79.31
516.801	90.31
517.016	89.31
517.232	87.31
517.448	79.31
517.664	83.31
517.879	97.31
