Data from Location3.07152019.Energy5.Lamp.07192019.3%Agarose_HRD10591_15-17-05-269.txt Node
Date: Fri Jul 19 15:17:05 EDT 2019
User: cochatt
Spectrometer: HR+D1059
Trigger mode: 1
Integration Time (sec): 1.000000E-1
Scans to average: 1
Electric dark correction enabled: true
Nonlinearity correction enabled: false
Boxcar width: 0
XAxis mode: Wavelengths
Number of Pixels in Spectrum: 2048
>>>>>Begin Spectral Data<<<<<
223.165	-5.88
223.4	-5.88
223.635	-5.88
223.869	-17.88
224.104	-26.88
224.338	-3.88
224.573	-16.88
224.808	-7.88
225.042	-9.88
225.277	1.12
225.511	-3.88
225.746	4.12
225.98	12.12
226.215	4.12
226.449	-1.88
226.683	29.12
226.918	22.12
227.152	22.12
227.387	50.12
227.621	29.12
227.856	37.12
228.09	36.12
228.324	47.12
228.559	55.12
228.793	58.12
229.027	48.12
229.262	70.12
229.496	60.12
229.73	81.12
229.964	66.12
230.199	62.12
230.433	78.12
230.667	68.12
230.901	82.12
231.136	85.12
231.37	84.12
231.604	88.12
231.838	84.12
232.072	83.12
232.306	94.12
232.541	62.12
232.775	72.12
233.009	76.12
233.243	78.12
233.477	77.12
233.711	86.12
233.945	77.12
234.179	77.12
234.413	86.12
234.647	83.12
234.881	86.12
235.115	68.12
235.349	77.12
235.583	71.12
235.817	72.12
236.051	74.12
236.285	76.12
236.519	73.12
236.753	79.12
236.987	71.12
237.221	75.12
237.455	79.12
237.689	65.12
237.922	70.12
238.156	75.12
238.39	76.12
238.624	76.12
238.858	72.12
239.091	85.12
239.325	82.12
239.559	68.12
239.793	87.12
240.027	79.12
240.26	66.12
240.494	77.12
240.728	70.12
240.961	51.12
241.195	82.12
241.429	70.12
241.662	67.12
241.896	72.12
242.13	69.12
242.363	84.12
242.597	79.12
242.83	79.12
243.064	86.12
243.298	72.12
243.531	83.12
243.765	72.12
243.998	78.12
244.232	68.12
244.465	77.12
244.699	65.12
244.932	72.12
245.166	79.12
245.399	73.12
245.633	78.12
245.866	75.12
246.099	73.12
246.333	67.12
246.566	70.12
246.8	79.12
247.033	63.12
247.266	78.12
247.5	75.12
247.733	81.12
247.966	72.12
248.2	102.12
248.433	74.12
248.666	78.12
248.899	61.12
249.133	70.12
249.366	75.12
249.599	71.12
249.832	77.12
250.066	71.12
250.299	82.12
250.532	77.12
250.765	64.12
250.998	86.12
251.231	84.12
251.465	70.12
251.698	71.12
251.931	71.12
252.164	69.12
252.397	73.12
252.63	63.12
252.863	68.12
253.096	62.12
253.329	76.12
253.562	70.12
253.795	96.12
254.028	79.12
254.261	81.12
254.494	64.12
254.727	83.12
254.96	87.12
255.193	84.12
255.426	89.12
255.659	69.12
255.892	76.12
256.124	69.12
256.357	80.12
256.59	79.12
256.823	80.12
257.056	88.12
257.289	79.12
257.521	79.12
257.754	84.12
257.987	76.12
258.22	79.12
258.452	78.12
258.685	75.12
258.918	70.12
259.151	71.12
259.383	68.12
259.616	86.12
259.849	72.12
260.081	61.12
260.314	72.12
260.547	75.12
260.779	72.12
261.012	62.12
261.244	90.12
261.477	80.12
261.71	68.12
261.942	73.12
262.175	77.12
262.407	72.12
262.64	65.12
262.872	80.12
263.105	69.12
263.337	77.12
263.57	71.12
263.802	74.12
264.035	86.12
264.267	80.12
264.499	82.12
264.732	76.12
264.964	71.12
265.197	83.12
265.429	79.12
265.661	77.12
265.894	81.12
266.126	76.12
266.358	81.12
266.591	89.12
266.823	91.12
267.055	86.12
267.287	81.12
267.52	69.12
267.752	66.12
267.984	89.12
268.216	77.12
268.448	70.12
268.681	80.12
268.913	82.12
269.145	74.12
269.377	88.12
269.609	78.12
269.841	59.12
270.073	68.12
270.306	82.12
270.538	76.12
270.77	88.12
271.002	78.12
271.234	75.12
271.466	69.12
271.698	86.12
271.93	85.12
272.162	77.12
272.394	82.12
272.626	69.12
272.858	81.12
273.09	78.12
273.322	83.12
273.553	84.12
273.785	76.12
274.017	86.12
274.249	82.12
274.481	74.12
274.713	80.12
274.945	84.12
275.176	72.12
275.408	91.12
275.64	76.12
275.872	78.12
276.104	69.12
276.335	76.12
276.567	80.12
276.799	77.12
277.031	66.12
277.262	76.12
277.494	73.12
277.726	68.12
277.957	92.12
278.189	91.12
278.421	76.12
278.652	71.12
278.884	71.12
279.115	76.12
279.347	81.12
279.579	91.12
279.81	83.12
280.042	94.12
280.273	92.12
280.505	72.12
280.736	81.12
280.968	80.12
281.199	70.12
281.431	88.12
281.662	76.12
281.894	75.12
282.125	75.12
282.356	83.12
282.588	91.12
282.819	95.12
283.051	72.12
283.282	70.12
283.513	71.12
283.745	84.12
283.976	81.12
284.207	77.12
284.439	72.12
284.67	74.12
284.901	66.12
285.132	83.12
285.364	90.12
285.595	79.12
285.826	88.12
286.057	85.12
286.288	85.12
286.52	90.12
286.751	106.12
286.982	82.12
287.213	84.12
287.444	91.12
287.675	90.12
287.906	91.12
288.138	68.12
288.369	81.12
288.6	79.12
288.831	79.12
289.062	89.12
289.293	86.12
289.524	82.12
289.755	83.12
289.986	94.12
290.217	72.12
290.448	80.12
290.679	74.12
290.91	70.12
291.141	75.12
291.371	100.12
291.602	77.12
291.833	72.12
292.064	78.12
292.295	88.12
292.526	83.12
292.757	92.12
292.987	75.12
293.218	77.12
293.449	82.12
293.68	91.12
293.91	94.12
294.141	82.12
294.372	83.12
294.603	91.12
294.833	79.12
295.064	71.12
295.295	86.12
295.525	85.12
295.756	76.12
295.987	85.12
296.217	82.12
296.448	76.12
296.679	88.12
296.909	72.12
297.14	83.12
297.37	80.12
297.601	76.12
297.831	83.12
298.062	78.12
298.292	77.12
298.523	78.12
298.753	80.12
298.984	85.12
299.214	78.12
299.445	87.12
299.675	65.12
299.905	87.12
300.136	87.12
300.366	73.12
300.597	83.12
300.827	82.12
301.057	93.12
301.288	81.12
301.518	83.12
301.748	92.12
301.979	89.12
302.209	69.12
302.439	66.12
302.669	75.12
302.9	79.12
303.13	91.12
303.36	90.12
303.59	78.12
303.82	76.12
304.051	86.12
304.281	81.12
304.511	90.12
304.741	88.12
304.971	81.12
305.201	91.12
305.431	89.12
305.661	67.12
305.891	84.12
306.121	80.12
306.352	79.12
306.582	84.12
306.812	67.12
307.042	93.12
307.272	81.12
307.502	69.12
307.731	76.12
307.961	74.12
308.191	80.12
308.421	94.12
308.651	80.12
308.881	79.12
309.111	79.12
309.341	71.12
309.571	80.12
309.8	65.12
310.03	80.12
310.26	77.12
310.49	81.12
310.72	90.12
310.949	83.12
311.179	98.12
311.409	83.12
311.639	66.12
311.868	92.12
312.098	74.12
312.328	64.12
312.557	73.12
312.787	80.12
313.017	78.12
313.246	86.12
313.476	77.12
313.706	81.12
313.935	60.12
314.165	95.12
314.394	84.12
314.624	93.12
314.853	81.12
315.083	87.12
315.312	82.12
315.542	77.12
315.771	74.12
316.001	74.12
316.23	81.12
316.46	85.12
316.689	76.12
316.919	74.12
317.148	84.12
317.377	77.12
317.607	98.12
317.836	84.12
318.065	83.12
318.295	96.12
318.524	82.12
318.753	91.12
318.983	81.12
319.212	80.12
319.441	85.12
319.67	84.12
319.9	77.12
320.129	80.12
320.358	84.12
320.587	84.12
320.816	86.12
321.046	80.12
321.275	91.12
321.504	80.12
321.733	89.12
321.962	95.12
322.191	84.12
322.42	76.12
322.649	74.12
322.878	86.12
323.108	85.12
323.337	77.12
323.566	87.12
323.795	80.12
324.024	81.12
324.253	92.12
324.482	95.12
324.71	90.12
324.939	90.12
325.168	89.12
325.397	84.12
325.626	95.12
325.855	91.12
326.084	64.12
326.313	90.12
326.542	91.12
326.77	81.12
326.999	90.12
327.228	82.12
327.457	71.12
327.686	76.12
327.914	82.12
328.143	87.12
328.372	79.12
328.6	61.12
328.829	77.12
329.058	67.12
329.287	81.12
329.515	88.12
329.744	87.12
329.972	82.12
330.201	96.12
330.43	86.12
330.658	76.12
330.887	84.12
331.115	82.12
331.344	83.12
331.572	83.12
331.801	82.12
332.03	78.12
332.258	88.12
332.486	83.12
332.715	84.12
332.943	77.12
333.172	67.12
333.4	82.12
333.629	81.12
333.857	71.12
334.085	89.12
334.314	83.12
334.542	95.12
334.771	83.12
334.999	79.12
335.227	75.12
335.455	79.12
335.684	106.12
335.912	72.12
336.14	80.12
336.369	92.12
336.597	69.12
336.825	94.12
337.053	99.12
337.281	76.12
337.51	76.12
337.738	85.12
337.966	59.12
338.194	78.12
338.422	99.12
338.65	95.12
338.878	93.12
339.106	88.12
339.334	95.12
339.562	92.12
339.79	74.12
340.018	68.12
340.246	84.12
340.474	82.12
340.702	60.12
340.93	72.12
341.158	86.12
341.386	80.12
341.614	95.12
341.842	81.12
342.07	82.12
342.298	83.12
342.526	69.12
342.754	72.12
342.981	87.12
343.209	64.12
343.437	85.12
343.665	91.12
343.893	84.12
344.12	107.12
344.348	78.12
344.576	70.12
344.804	71.12
345.031	91.12
345.259	82.12
345.487	86.12
345.714	86.12
345.942	105.12
346.17	86.12
346.397	82.12
346.625	87.12
346.853	85.12
347.08	76.12
347.308	92.12
347.535	86.12
347.763	87.12
347.99	72.12
348.218	75.12
348.445	68.12
348.673	109.12
348.9	82.12
349.128	82.12
349.355	78.12
349.583	64.12
349.81	86.12
350.037	87.12
350.265	83.12
350.492	85.12
350.72	75.12
350.947	87.12
351.174	92.12
351.402	72.12
351.629	71.12
351.856	70.12
352.083	81.12
352.311	79.12
352.538	76.12
352.765	90.12
352.992	82.12
353.22	84.12
353.447	83.12
353.674	68.12
353.901	94.12
354.128	79.12
354.355	79.12
354.583	74.12
354.81	73.12
355.037	65.12
355.264	83.12
355.491	82.12
355.718	72.12
355.945	73.12
356.172	92.12
356.399	78.12
356.626	86.12
356.853	72.12
357.08	90.12
357.307	69.12
357.534	84.12
357.761	77.12
357.988	79.12
358.215	87.12
358.441	63.12
358.668	75.12
358.895	91.12
359.122	82.12
359.349	91.12
359.576	84.12
359.802	85.12
360.029	89.12
360.256	87.12
360.483	84.12
360.709	79.12
360.936	86.12
361.163	77.12
361.39	71.12
361.616	91.12
361.843	78.12
362.07	78.12
362.296	93.12
362.523	89.12
362.749	86.12
362.976	84.12
363.203	79.12
363.429	85.12
363.656	77.12
363.882	84.12
364.109	78.12
364.335	85.12
364.562	70.12
364.788	79.12
365.015	73.12
365.241	86.12
365.468	77.12
365.694	78.12
365.92	90.12
366.147	104.12
366.373	79.12
366.599	93.12
366.826	83.12
367.052	78.12
367.278	81.12
367.505	85.12
367.731	85.12
367.957	88.12
368.184	84.12
368.41	87.12
368.636	85.12
368.862	74.12
369.089	76.12
369.315	77.12
369.541	76.12
369.767	83.12
369.993	78.12
370.219	93.12
370.445	82.12
370.672	76.12
370.898	86.12
371.124	74.12
371.35	65.12
371.576	67.12
371.802	79.12
372.028	76.12
372.254	83.12
372.48	75.12
372.706	88.12
372.932	82.12
373.158	91.12
373.384	90.12
373.61	90.12
373.835	92.12
374.061	68.12
374.287	78.12
374.513	93.12
374.739	79.12
374.965	84.12
375.191	75.12
375.416	75.12
375.642	65.12
375.868	85.12
376.094	83.12
376.319	76.12
376.545	92.12
376.771	81.12
376.997	76.12
377.222	71.12
377.448	71.12
377.674	93.12
377.899	91.12
378.125	74.12
378.35	85.12
378.576	91.12
378.802	55.12
379.027	76.12
379.253	82.12
379.478	93.12
379.704	71.12
379.929	95.12
380.155	82.12
380.38	91.12
380.606	82.12
380.831	82.12
381.057	99.12
381.282	70.12
381.507	80.12
381.733	83.12
381.958	83.12
382.184	84.12
382.409	91.12
382.634	78.12
382.86	79.12
383.085	90.12
383.31	81.12
383.535	92.12
383.761	74.12
383.986	82.12
384.211	83.12
384.436	76.12
384.662	77.12
384.887	80.12
385.112	87.12
385.337	81.12
385.562	66.12
385.787	79.12
386.013	82.12
386.238	78.12
386.463	84.12
386.688	80.12
386.913	76.12
387.138	78.12
387.363	76.12
387.588	95.12
387.813	82.12
388.038	71.12
388.263	88.12
388.488	88.12
388.713	91.12
388.938	77.12
389.163	74.12
389.387	84.12
389.612	88.12
389.837	67.12
390.062	84.12
390.287	75.12
390.512	85.12
390.736	96.12
390.961	92.12
391.186	79.12
391.411	81.12
391.636	82.12
391.86	70.12
392.085	85.12
392.31	71.12
392.534	76.12
392.759	85.12
392.984	87.12
393.208	83.12
393.433	88.12
393.658	85.12
393.882	76.12
394.107	79.12
394.331	90.12
394.556	79.12
394.78	81.12
395.005	92.12
395.229	71.12
395.454	84.12
395.678	84.12
395.903	79.12
396.127	72.12
396.352	92.12
396.576	86.12
396.801	87.12
397.025	69.12
397.249	83.12
397.474	87.12
397.698	84.12
397.922	93.12
398.147	71.12
398.371	82.12
398.595	83.12
398.82	83.12
399.044	85.12
399.268	75.12
399.492	84.12
399.717	86.12
399.941	74.12
400.165	94.12
400.389	90.12
400.613	84.12
400.837	84.12
401.062	91.12
401.286	78.12
401.51	88.12
401.734	77.12
401.958	90.12
402.182	91.12
402.406	86.12
402.63	82.12
402.854	104.12
403.078	86.12
403.302	78.12
403.526	95.12
403.75	99.12
403.974	91.12
404.198	90.12
404.422	76.12
404.645	79.12
404.869	95.12
405.093	96.12
405.317	74.12
405.541	94.12
405.765	87.12
405.988	88.12
406.212	83.12
406.436	91.12
406.66	78.12
406.883	91.12
407.107	86.12
407.331	86.12
407.555	99.12
407.778	82.12
408.002	90.12
408.226	99.12
408.449	79.12
408.673	86.12
408.896	92.12
409.12	85.12
409.344	86.12
409.567	91.12
409.791	87.12
410.014	91.12
410.238	97.12
410.461	97.12
410.685	106.12
410.908	96.12
411.132	95.12
411.355	85.12
411.578	90.12
411.802	81.12
412.025	87.12
412.249	80.12
412.472	85.12
412.695	92.12
412.919	84.12
413.142	78.12
413.365	87.12
413.589	95.12
413.812	79.12
414.035	91.12
414.258	80.12
414.482	93.12
414.705	84.12
414.928	93.12
415.151	93.12
415.374	101.12
415.597	76.12
415.821	85.12
416.044	90.12
416.267	85.12
416.49	99.12
416.713	78.12
416.936	95.12
417.159	82.12
417.382	97.12
417.605	91.12
417.828	90.12
418.051	75.12
418.274	87.12
418.497	85.12
418.72	91.12
418.943	108.12
419.166	79.12
419.389	98.12
419.611	94.12
419.834	73.12
420.057	96.12
420.28	111.12
420.503	80.12
420.726	91.12
420.948	76.12
421.171	94.12
421.394	94.12
421.617	105.12
421.839	89.12
422.062	99.12
422.285	108.12
422.507	85.12
422.73	81.12
422.953	84.12
423.175	99.12
423.398	85.12
423.621	86.12
423.843	88.12
424.066	98.12
424.288	92.12
424.511	93.12
424.733	102.12
424.956	100.12
425.178	76.12
425.401	88.12
425.623	89.12
425.846	92.12
426.068	96.12
426.291	90.12
426.513	95.12
426.735	95.12
426.958	94.12
427.18	89.12
427.402	103.12
427.625	106.12
427.847	93.12
428.069	92.12
428.292	90.12
428.514	85.12
428.736	87.12
428.958	91.12
429.181	98.12
429.403	87.12
429.625	89.12
429.847	95.12
430.069	86.12
430.292	95.12
430.514	97.12
430.736	84.12
430.958	98.12
431.18	105.12
431.402	103.12
431.624	94.12
431.846	94.12
432.068	78.12
432.29	68.12
432.512	73.12
432.734	90.12
432.956	89.12
433.178	95.12
433.4	76.12
433.622	100.12
433.844	88.12
434.066	87.12
434.287	82.12
434.509	77.12
434.731	84.12
434.953	82.12
435.175	90.12
435.397	88.12
435.618	89.12
435.84	88.12
436.062	91.12
436.284	93.12
436.505	92.12
436.727	89.12
436.949	97.12
437.17	91.12
437.392	84.12
437.614	95.12
437.835	95.12
438.057	78.12
438.278	87.12
438.5	83.12
438.721	94.12
438.943	88.12
439.165	92.12
439.386	107.12
439.608	102.12
439.829	88.12
440.05	86.12
440.272	88.12
440.493	92.12
440.715	93.12
440.936	88.12
441.158	88.12
441.379	95.12
441.6	91.12
441.822	94.12
442.043	86.12
442.264	104.12
442.486	94.12
442.707	88.12
442.928	101.12
443.149	88.12
443.371	102.12
443.592	98.12
443.813	96.12
444.034	86.12
444.255	100.12
444.476	78.12
444.698	80.12
444.919	72.12
445.14	226.12
445.361	159.12
445.582	112.12
445.803	101.12
446.024	91.12
446.245	103.12
446.466	102.12
446.687	102.12
446.908	81.12
447.129	115.12
447.35	96.12
447.571	93.12
447.792	82.12
448.013	103.12
448.234	89.12
448.455	103.12
448.675	82.12
448.896	91.12
449.117	81.12
449.338	89.12
449.559	106.12
449.779	101.12
450	92.12
450.221	94.12
450.442	88.12
450.662	105.12
450.883	104.12
451.104	88.12
451.324	92.12
451.545	101.12
451.766	85.12
451.986	96.12
452.207	87.12
452.428	87.12
452.648	96.12
452.869	94.12
453.089	95.12
453.31	87.12
453.53	81.12
453.751	82.12
453.971	85.12
454.192	85.12
454.412	96.12
454.633	91.12
454.853	89.12
455.073	90.12
455.294	81.12
455.514	74.12
455.734	87.12
455.955	88.12
456.175	95.12
456.395	79.12
456.616	91.12
456.836	89.12
457.056	86.12
457.276	97.12
457.497	94.12
457.717	78.12
457.937	78.12
458.157	92.12
458.377	75.12
458.598	79.12
458.818	83.12
459.038	91.12
459.258	66.12
459.478	62.12
459.698	85.12
459.918	78.12
460.138	82.12
460.358	82.12
460.578	82.12
460.798	86.12
461.018	71.12
461.238	97.12
461.458	83.12
461.678	75.12
461.898	92.12
462.118	91.12
462.338	91.12
462.558	87.12
462.777	92.12
462.997	79.12
463.217	88.12
463.437	82.12
463.657	76.12
463.876	92.12
464.096	83.12
464.316	87.12
464.536	74.12
464.755	69.12
464.975	79.12
465.195	85.12
465.414	102.12
465.634	92.12
465.854	85.12
466.073	80.12
466.293	81.12
466.512	94.12
466.732	89.12
466.951	98.12
467.171	92.12
467.391	86.12
467.61	91.12
467.829	92.12
468.049	84.12
468.268	92.12
468.488	86.12
468.707	98.12
468.927	80.12
469.146	96.12
469.365	88.12
469.585	87.12
469.804	90.12
470.023	94.12
470.243	95.12
470.462	96.12
470.681	95.12
470.901	99.12
471.12	104.12
471.339	79.12
471.558	103.12
471.777	100.12
471.997	95.12
472.216	96.12
472.435	86.12
472.654	85.12
472.873	94.12
473.092	76.12
473.311	85.12
473.53	87.12
473.749	93.12
473.968	88.12
474.187	102.12
474.406	93.12
474.625	88.12
474.844	78.12
475.063	86.12
475.282	93.12
475.501	87.12
475.72	85.12
475.939	88.12
476.158	82.12
476.377	99.12
476.596	76.12
476.814	89.12
477.033	93.12
477.252	86.12
477.471	87.12
477.69	70.12
477.908	91.12
478.127	105.12
478.346	101.12
478.564	97.12
478.783	100.12
479.002	93.12
479.22	95.12
479.439	86.12
479.658	89.12
479.876	92.12
480.095	97.12
480.313	80.12
480.532	95.12
480.751	84.12
480.969	79.12
481.188	82.12
481.406	90.12
481.624	84.12
481.843	84.12
482.061	92.12
482.28	88.12
482.498	91.12
482.717	87.12
482.935	73.12
483.153	89.12
483.372	91.12
483.59	103.12
483.808	101.12
484.027	87.12
484.245	87.12
484.463	88.12
484.681	102.12
484.9	102.12
485.118	96.12
485.336	101.12
485.554	88.12
485.772	91.12
485.99	96.12
486.209	86.12
486.427	85.12
486.645	67.12
486.863	83.12
487.081	88.12
487.299	96.12
487.517	94.12
487.735	107.12
487.953	106.12
488.171	117.12
488.389	103.12
488.607	94.12
488.825	99.12
489.043	103.12
489.261	94.12
489.479	78.12
489.696	86.12
489.914	96.12
490.132	90.12
490.35	90.12
490.568	95.12
490.786	106.12
491.003	106.12
491.221	106.12
491.439	94.12
491.657	108.12
491.874	104.12
492.092	120.12
492.31	119.12
492.527	115.12
492.745	120.12
492.963	114.12
493.18	100.12
493.398	94.12
493.615	114.12
493.833	103.12
494.05	99.12
494.268	114.12
494.485	119.12
494.703	107.12
494.92	113.12
495.138	98.12
495.355	101.12
495.573	103.12
495.79	108.12
496.008	112.12
496.225	117.12
496.442	102.12
496.66	104.12
496.877	102.12
497.094	110.12
497.312	90.12
497.529	108.12
497.746	94.12
497.963	106.12
498.181	110.12
498.398	102.12
498.615	82.12
498.832	94.12
499.049	90.12
499.267	93.12
499.484	106.12
499.701	98.12
499.918	94.12
500.135	98.12
500.352	101.12
500.569	93.12
500.786	108.12
501.003	97.12
501.22	101.12
501.437	78.12
501.654	96.12
501.871	87.12
502.088	96.12
502.305	96.12
502.522	96.12
502.739	87.12
502.956	90.12
503.172	97.12
503.389	101.12
503.606	78.12
503.823	94.12
504.04	88.12
504.256	101.12
504.473	88.12
504.69	87.12
504.907	83.12
505.123	82.12
505.34	87.12
505.557	80.12
505.773	84.12
505.99	91.12
506.207	85.12
506.423	91.12
506.64	95.12
506.856	94.12
507.073	93.12
507.289	79.12
507.506	78.12
507.722	85.12
507.939	83.12
508.155	85.12
508.372	81.12
508.588	90.12
508.805	79.12
509.021	94.12
509.238	91.12
509.454	92.12
509.67	79.12
509.887	68.12
510.103	87.12
510.319	88.12
510.536	84.12
510.752	66.12
510.968	82.12
511.184	76.12
511.401	86.12
511.617	76.12
511.833	72.12
512.049	79.12
512.265	78.12
512.481	82.12
512.698	90.12
512.914	89.12
513.13	78.12
513.346	68.12
513.562	87.12
513.778	81.12
513.994	68.12
514.21	71.12
514.426	86.12
514.642	79.12
514.858	83.12
515.074	91.12
515.29	80.12
515.506	89.12
515.721	85.12
515.937	82.12
516.153	66.12
516.369	77.12
516.585	80.12
516.801	85.12
517.016	82.12
517.232	79.12
517.448	94.12
517.664	88.12
517.879	72.12
518.095	80.12
518.311	78.12
