Data from Location3.07152019.Energy5.Lamp.07192019.3%Agarose_HRD10591_15-18-31-269.txt Node
Date: Fri Jul 19 15:18:31 EDT 2019
User: cochatt
Spectrometer: HR+D1059
Trigger mode: 1
Integration Time (sec): 1.000000E-1
Scans to average: 1
Electric dark correction enabled: true
Nonlinearity correction enabled: false
Boxcar width: 0
XAxis mode: Wavelengths
Number of Pixels in Spectrum: 2048
>>>>>Begin Spectral Data<<<<<
223.165	-24.94
223.4	-24.94
223.635	-24.94
223.869	-11.94
224.104	-17.94
224.338	-22.94
224.573	-8.94
224.808	-8.94
225.042	1.06
225.277	-7.94
225.511	7.06
225.746	-4.94
225.98	7.06
226.215	17.06
226.449	32.06
226.683	4.06
226.918	15.06
227.152	25.06
227.387	38.06
227.621	44.06
227.856	39.06
228.09	56.06
228.324	56.06
228.559	66.06
228.793	64.06
229.027	71.06
229.262	62.06
229.496	58.06
229.73	77.06
229.964	66.06
230.199	76.06
230.433	83.06
230.667	64.06
230.901	82.06
231.136	82.06
231.37	84.06
231.604	84.06
231.838	78.06
232.072	79.06
232.306	88.06
232.541	80.06
232.775	77.06
233.009	90.06
233.243	90.06
233.477	83.06
233.711	84.06
233.945	76.06
234.179	99.06
234.413	84.06
234.647	69.06
234.881	96.06
235.115	83.06
235.349	94.06
235.583	103.06
235.817	74.06
236.051	73.06
236.285	51.06
236.519	77.06
236.753	91.06
236.987	80.06
237.221	83.06
237.455	86.06
237.689	76.06
237.922	71.06
238.156	86.06
238.39	77.06
238.624	73.06
238.858	85.06
239.091	76.06
239.325	77.06
239.559	86.06
239.793	76.06
240.027	68.06
240.26	82.06
240.494	84.06
240.728	70.06
240.961	74.06
241.195	80.06
241.429	85.06
241.662	63.06
241.896	65.06
242.13	77.06
242.363	81.06
242.597	83.06
242.83	88.06
243.064	70.06
243.298	77.06
243.531	76.06
243.765	73.06
243.998	78.06
244.232	72.06
244.465	75.06
244.699	81.06
244.932	76.06
245.166	78.06
245.399	82.06
245.633	77.06
245.866	88.06
246.099	80.06
246.333	89.06
246.566	90.06
246.8	90.06
247.033	69.06
247.266	76.06
247.5	80.06
247.733	74.06
247.966	79.06
248.2	84.06
248.433	71.06
248.666	91.06
248.899	83.06
249.133	88.06
249.366	84.06
249.599	80.06
249.832	87.06
250.066	77.06
250.299	66.06
250.532	82.06
250.765	77.06
250.998	88.06
251.231	85.06
251.465	82.06
251.698	81.06
251.931	75.06
252.164	74.06
252.397	72.06
252.63	79.06
252.863	80.06
253.096	78.06
253.329	83.06
253.562	85.06
253.795	77.06
254.028	77.06
254.261	85.06
254.494	89.06
254.727	89.06
254.96	89.06
255.193	83.06
255.426	91.06
255.659	77.06
255.892	91.06
256.124	87.06
256.357	85.06
256.59	82.06
256.823	83.06
257.056	82.06
257.289	81.06
257.521	74.06
257.754	84.06
257.987	91.06
258.22	85.06
258.452	96.06
258.685	77.06
258.918	85.06
259.151	72.06
259.383	91.06
259.616	75.06
259.849	99.06
260.081	90.06
260.314	74.06
260.547	84.06
260.779	77.06
261.012	80.06
261.244	92.06
261.477	84.06
261.71	80.06
261.942	74.06
262.175	83.06
262.407	70.06
262.64	91.06
262.872	90.06
263.105	86.06
263.337	93.06
263.57	93.06
263.802	97.06
264.035	78.06
264.267	78.06
264.499	88.06
264.732	99.06
264.964	93.06
265.197	76.06
265.429	92.06
265.661	87.06
265.894	71.06
266.126	81.06
266.358	85.06
266.591	75.06
266.823	106.06
267.055	83.06
267.287	105.06
267.52	86.06
267.752	84.06
267.984	96.06
268.216	86.06
268.448	79.06
268.681	71.06
268.913	77.06
269.145	78.06
269.377	83.06
269.609	80.06
269.841	75.06
270.073	86.06
270.306	82.06
270.538	88.06
270.77	92.06
271.002	88.06
271.234	102.06
271.466	85.06
271.698	68.06
271.93	82.06
272.162	77.06
272.394	84.06
272.626	86.06
272.858	88.06
273.09	77.06
273.322	86.06
273.553	90.06
273.785	92.06
274.017	81.06
274.249	84.06
274.481	83.06
274.713	80.06
274.945	94.06
275.176	73.06
275.408	74.06
275.64	81.06
275.872	88.06
276.104	82.06
276.335	78.06
276.567	93.06
276.799	81.06
277.031	93.06
277.262	92.06
277.494	86.06
277.726	77.06
277.957	91.06
278.189	85.06
278.421	77.06
278.652	88.06
278.884	72.06
279.115	71.06
279.347	78.06
279.579	93.06
279.81	84.06
280.042	88.06
280.273	70.06
280.505	73.06
280.736	83.06
280.968	74.06
281.199	90.06
281.431	87.06
281.662	90.06
281.894	78.06
282.125	75.06
282.356	92.06
282.588	85.06
282.819	97.06
283.051	92.06
283.282	94.06
283.513	102.06
283.745	98.06
283.976	86.06
284.207	93.06
284.439	87.06
284.67	78.06
284.901	71.06
285.132	74.06
285.364	90.06
285.595	84.06
285.826	88.06
286.057	101.06
286.288	95.06
286.52	83.06
286.751	82.06
286.982	82.06
287.213	85.06
287.444	81.06
287.675	84.06
287.906	92.06
288.138	87.06
288.369	91.06
288.6	79.06
288.831	101.06
289.062	83.06
289.293	83.06
289.524	84.06
289.755	89.06
289.986	91.06
290.217	84.06
290.448	87.06
290.679	93.06
290.91	76.06
291.141	59.06
291.371	85.06
291.602	89.06
291.833	84.06
292.064	85.06
292.295	83.06
292.526	95.06
292.757	83.06
292.987	91.06
293.218	100.06
293.449	88.06
293.68	72.06
293.91	80.06
294.141	82.06
294.372	100.06
294.603	95.06
294.833	96.06
295.064	78.06
295.295	80.06
295.525	84.06
295.756	67.06
295.987	67.06
296.217	84.06
296.448	87.06
296.679	74.06
296.909	92.06
297.14	91.06
297.37	103.06
297.601	84.06
297.831	96.06
298.062	90.06
298.292	79.06
298.523	81.06
298.753	86.06
298.984	86.06
299.214	90.06
299.445	82.06
299.675	84.06
299.905	90.06
300.136	103.06
300.366	70.06
300.597	84.06
300.827	78.06
301.057	76.06
301.288	74.06
301.518	83.06
301.748	88.06
301.979	79.06
302.209	90.06
302.439	81.06
302.669	81.06
302.9	75.06
303.13	74.06
303.36	75.06
303.59	85.06
303.82	90.06
304.051	94.06
304.281	87.06
304.511	88.06
304.741	88.06
304.971	78.06
305.201	85.06
305.431	68.06
305.661	84.06
305.891	88.06
306.121	92.06
306.352	78.06
306.582	82.06
306.812	81.06
307.042	86.06
307.272	76.06
307.502	80.06
307.731	88.06
307.961	90.06
308.191	85.06
308.421	69.06
308.651	103.06
308.881	98.06
309.111	84.06
309.341	91.06
309.571	81.06
309.8	101.06
310.03	78.06
310.26	85.06
310.49	90.06
310.72	81.06
310.949	84.06
311.179	83.06
311.409	89.06
311.639	90.06
311.868	88.06
312.098	84.06
312.328	95.06
312.557	88.06
312.787	81.06
313.017	75.06
313.246	80.06
313.476	94.06
313.706	82.06
313.935	88.06
314.165	74.06
314.394	86.06
314.624	90.06
314.853	88.06
315.083	84.06
315.312	80.06
315.542	80.06
315.771	101.06
316.001	80.06
316.23	87.06
316.46	85.06
316.689	86.06
316.919	86.06
317.148	82.06
317.377	81.06
317.607	98.06
317.836	92.06
318.065	83.06
318.295	81.06
318.524	76.06
318.753	86.06
318.983	88.06
319.212	85.06
319.441	70.06
319.67	94.06
319.9	94.06
320.129	82.06
320.358	86.06
320.587	88.06
320.816	84.06
321.046	69.06
321.275	89.06
321.504	92.06
321.733	95.06
321.962	80.06
322.191	72.06
322.42	91.06
322.649	75.06
322.878	90.06
323.108	74.06
323.337	81.06
323.566	90.06
323.795	71.06
324.024	75.06
324.253	87.06
324.482	94.06
324.71	88.06
324.939	81.06
325.168	75.06
325.397	87.06
325.626	87.06
325.855	62.06
326.084	86.06
326.313	93.06
326.542	69.06
326.77	90.06
326.999	80.06
327.228	85.06
327.457	99.06
327.686	89.06
327.914	91.06
328.143	94.06
328.372	80.06
328.6	82.06
328.829	84.06
329.058	92.06
329.287	94.06
329.515	91.06
329.744	91.06
329.972	97.06
330.201	90.06
330.43	86.06
330.658	77.06
330.887	93.06
331.115	90.06
331.344	86.06
331.572	85.06
331.801	84.06
332.03	80.06
332.258	93.06
332.486	106.06
332.715	82.06
332.943	85.06
333.172	92.06
333.4	82.06
333.629	86.06
333.857	86.06
334.085	85.06
334.314	81.06
334.542	76.06
334.771	90.06
334.999	87.06
335.227	96.06
335.455	77.06
335.684	77.06
335.912	90.06
336.14	86.06
336.369	88.06
336.597	83.06
336.825	85.06
337.053	88.06
337.281	91.06
337.51	88.06
337.738	101.06
337.966	85.06
338.194	83.06
338.422	92.06
338.65	75.06
338.878	85.06
339.106	80.06
339.334	82.06
339.562	86.06
339.79	80.06
340.018	93.06
340.246	78.06
340.474	97.06
340.702	90.06
340.93	91.06
341.158	92.06
341.386	85.06
341.614	88.06
341.842	103.06
342.07	87.06
342.298	92.06
342.526	87.06
342.754	88.06
342.981	79.06
343.209	92.06
343.437	81.06
343.665	78.06
343.893	88.06
344.12	86.06
344.348	91.06
344.576	80.06
344.804	96.06
345.031	84.06
345.259	95.06
345.487	87.06
345.714	69.06
345.942	93.06
346.17	76.06
346.397	97.06
346.625	80.06
346.853	88.06
347.08	89.06
347.308	94.06
347.535	71.06
347.763	92.06
347.99	77.06
348.218	75.06
348.445	101.06
348.673	84.06
348.9	89.06
349.128	92.06
349.355	91.06
349.583	88.06
349.81	82.06
350.037	84.06
350.265	79.06
350.492	73.06
350.72	73.06
350.947	80.06
351.174	88.06
351.402	77.06
351.629	89.06
351.856	91.06
352.083	93.06
352.311	82.06
352.538	79.06
352.765	89.06
352.992	80.06
353.22	94.06
353.447	81.06
353.674	89.06
353.901	91.06
354.128	108.06
354.355	93.06
354.583	84.06
354.81	97.06
355.037	96.06
355.264	86.06
355.491	88.06
355.718	87.06
355.945	87.06
356.172	83.06
356.399	83.06
356.626	86.06
356.853	88.06
357.08	82.06
357.307	78.06
357.534	81.06
357.761	77.06
357.988	79.06
358.215	85.06
358.441	102.06
358.668	99.06
358.895	88.06
359.122	84.06
359.349	70.06
359.576	84.06
359.802	86.06
360.029	97.06
360.256	84.06
360.483	88.06
360.709	82.06
360.936	98.06
361.163	83.06
361.39	84.06
361.616	86.06
361.843	99.06
362.07	77.06
362.296	97.06
362.523	99.06
362.749	88.06
362.976	85.06
363.203	87.06
363.429	82.06
363.656	82.06
363.882	78.06
364.109	90.06
364.335	86.06
364.562	79.06
364.788	97.06
365.015	89.06
365.241	81.06
365.468	86.06
365.694	87.06
365.92	85.06
366.147	77.06
366.373	87.06
366.599	93.06
366.826	91.06
367.052	86.06
367.278	93.06
367.505	81.06
367.731	84.06
367.957	86.06
368.184	96.06
368.41	77.06
368.636	76.06
368.862	85.06
369.089	81.06
369.315	72.06
369.541	73.06
369.767	86.06
369.993	86.06
370.219	75.06
370.445	88.06
370.672	87.06
370.898	81.06
371.124	82.06
371.35	88.06
371.576	91.06
371.802	75.06
372.028	88.06
372.254	96.06
372.48	98.06
372.706	90.06
372.932	85.06
373.158	84.06
373.384	99.06
373.61	94.06
373.835	91.06
374.061	86.06
374.287	90.06
374.513	95.06
374.739	96.06
374.965	87.06
375.191	76.06
375.416	82.06
375.642	85.06
375.868	88.06
376.094	86.06
376.319	77.06
376.545	97.06
376.771	92.06
376.997	76.06
377.222	89.06
377.448	86.06
377.674	86.06
377.899	78.06
378.125	86.06
378.35	100.06
378.576	90.06
378.802	84.06
379.027	77.06
379.253	77.06
379.478	84.06
379.704	94.06
379.929	96.06
380.155	74.06
380.38	95.06
380.606	91.06
380.831	88.06
381.057	97.06
381.282	81.06
381.507	96.06
381.733	81.06
381.958	89.06
382.184	81.06
382.409	80.06
382.634	82.06
382.86	91.06
383.085	99.06
383.31	84.06
383.535	81.06
383.761	90.06
383.986	84.06
384.211	91.06
384.436	89.06
384.662	85.06
384.887	81.06
385.112	92.06
385.337	76.06
385.562	95.06
385.787	81.06
386.013	101.06
386.238	90.06
386.463	97.06
386.688	100.06
386.913	75.06
387.138	76.06
387.363	84.06
387.588	91.06
387.813	87.06
388.038	85.06
388.263	96.06
388.488	90.06
388.713	82.06
388.938	92.06
389.163	78.06
389.387	77.06
389.612	78.06
389.837	88.06
390.062	107.06
390.287	93.06
390.512	93.06
390.736	84.06
390.961	85.06
391.186	100.06
391.411	93.06
391.636	82.06
391.86	95.06
392.085	97.06
392.31	96.06
392.534	89.06
392.759	90.06
392.984	91.06
393.208	90.06
393.433	93.06
393.658	95.06
393.882	79.06
394.107	92.06
394.331	91.06
394.556	88.06
394.78	104.06
395.005	88.06
395.229	85.06
395.454	100.06
395.678	87.06
395.903	100.06
396.127	88.06
396.352	92.06
396.576	101.06
396.801	88.06
397.025	86.06
397.249	93.06
397.474	87.06
397.698	98.06
397.922	92.06
398.147	89.06
398.371	83.06
398.595	92.06
398.82	79.06
399.044	85.06
399.268	86.06
399.492	85.06
399.717	101.06
399.941	80.06
400.165	85.06
400.389	99.06
400.613	90.06
400.837	85.06
401.062	98.06
401.286	78.06
401.51	92.06
401.734	93.06
401.958	79.06
402.182	99.06
402.406	90.06
402.63	88.06
402.854	94.06
403.078	100.06
403.302	90.06
403.526	96.06
403.75	92.06
403.974	90.06
404.198	88.06
404.422	93.06
404.645	100.06
404.869	79.06
405.093	86.06
405.317	99.06
405.541	111.06
405.765	106.06
405.988	88.06
406.212	100.06
406.436	90.06
406.66	105.06
406.883	97.06
407.107	86.06
407.331	93.06
407.555	89.06
407.778	96.06
408.002	108.06
408.226	104.06
408.449	78.06
408.673	97.06
408.896	92.06
409.12	84.06
409.344	88.06
409.567	88.06
409.791	96.06
410.014	97.06
410.238	85.06
410.461	99.06
410.685	100.06
410.908	87.06
411.132	85.06
411.355	96.06
411.578	98.06
411.802	90.06
412.025	103.06
412.249	81.06
412.472	94.06
412.695	80.06
412.919	93.06
413.142	97.06
413.365	87.06
413.589	91.06
413.812	97.06
414.035	98.06
414.258	92.06
414.482	100.06
414.705	99.06
414.928	92.06
415.151	106.06
415.374	97.06
415.597	89.06
415.821	96.06
416.044	78.06
416.267	93.06
416.49	110.06
416.713	87.06
416.936	90.06
417.159	106.06
417.382	89.06
417.605	87.06
417.828	92.06
418.051	92.06
418.274	77.06
418.497	99.06
418.72	83.06
418.943	94.06
419.166	86.06
419.389	88.06
419.611	89.06
419.834	99.06
420.057	86.06
420.28	100.06
420.503	94.06
420.726	99.06
420.948	98.06
421.171	106.06
421.394	110.06
421.617	102.06
421.839	85.06
422.062	108.06
422.285	80.06
422.507	96.06
422.73	87.06
422.953	107.06
423.175	101.06
423.398	93.06
423.621	76.06
423.843	80.06
424.066	82.06
424.288	102.06
424.511	93.06
424.733	94.06
424.956	101.06
425.178	113.06
425.401	120.06
425.623	98.06
425.846	86.06
426.068	97.06
426.291	82.06
426.513	99.06
426.735	89.06
426.958	85.06
427.18	93.06
427.402	96.06
427.625	98.06
427.847	92.06
428.069	87.06
428.292	89.06
428.514	89.06
428.736	101.06
428.958	87.06
429.181	93.06
429.403	96.06
429.625	92.06
429.847	116.06
430.069	97.06
430.292	86.06
430.514	106.06
430.736	97.06
430.958	104.06
431.18	100.06
431.402	89.06
431.624	93.06
431.846	97.06
432.068	102.06
432.29	88.06
432.512	79.06
432.734	117.06
432.956	92.06
433.178	107.06
433.4	102.06
433.622	91.06
433.844	95.06
434.066	82.06
434.287	89.06
434.509	85.06
434.731	87.06
434.953	83.06
435.175	90.06
435.397	97.06
435.618	85.06
435.84	97.06
436.062	88.06
436.284	102.06
436.505	79.06
436.727	87.06
436.949	104.06
437.17	102.06
437.392	98.06
437.614	96.06
437.835	86.06
438.057	94.06
438.278	81.06
438.5	87.06
438.721	93.06
438.943	100.06
439.165	70.06
439.386	87.06
439.608	88.06
439.829	89.06
440.05	98.06
440.272	101.06
440.493	105.06
440.715	104.06
440.936	97.06
441.158	84.06
441.379	110.06
441.6	94.06
441.822	99.06
442.043	104.06
442.264	97.06
442.486	85.06
442.707	106.06
442.928	101.06
443.149	103.06
443.371	92.06
443.592	105.06
443.813	91.06
444.034	89.06
444.255	97.06
444.476	113.06
444.698	113.06
444.919	110.06
445.14	233.06
445.361	153.06
445.582	96.06
445.803	92.06
446.024	99.06
446.245	114.06
446.466	107.06
446.687	91.06
446.908	106.06
447.129	115.06
447.35	114.06
447.571	98.06
447.792	113.06
448.013	86.06
448.234	100.06
448.455	97.06
448.675	112.06
448.896	102.06
449.117	87.06
449.338	112.06
449.559	109.06
449.779	97.06
450	96.06
450.221	91.06
450.442	95.06
450.662	98.06
450.883	105.06
451.104	102.06
451.324	104.06
451.545	104.06
451.766	97.06
451.986	92.06
452.207	89.06
452.428	99.06
452.648	91.06
452.869	93.06
453.089	91.06
453.31	90.06
453.53	87.06
453.751	87.06
453.971	83.06
454.192	95.06
454.412	72.06
454.633	101.06
454.853	88.06
455.073	90.06
455.294	99.06
455.514	94.06
455.734	85.06
455.955	99.06
456.175	81.06
456.395	98.06
456.616	87.06
456.836	76.06
457.056	109.06
457.276	107.06
457.497	85.06
457.717	80.06
457.937	93.06
458.157	97.06
458.377	82.06
458.598	84.06
458.818	85.06
459.038	85.06
459.258	92.06
459.478	83.06
459.698	92.06
459.918	88.06
460.138	90.06
460.358	99.06
460.578	83.06
460.798	83.06
461.018	87.06
461.238	98.06
461.458	99.06
461.678	95.06
461.898	76.06
462.118	87.06
462.338	82.06
462.558	98.06
462.777	86.06
462.997	96.06
463.217	90.06
463.437	106.06
463.657	83.06
463.876	89.06
464.096	75.06
464.316	92.06
464.536	95.06
464.755	92.06
464.975	103.06
465.195	85.06
465.414	83.06
465.634	92.06
465.854	95.06
466.073	107.06
466.293	85.06
466.512	85.06
466.732	97.06
466.951	93.06
467.171	99.06
467.391	104.06
467.61	106.06
467.829	99.06
468.049	120.06
468.268	100.06
468.488	88.06
468.707	105.06
468.927	112.06
469.146	101.06
469.365	96.06
469.585	89.06
469.804	97.06
470.023	92.06
470.243	95.06
470.462	93.06
470.681	94.06
470.901	105.06
471.12	105.06
471.339	109.06
471.558	90.06
471.777	94.06
471.997	94.06
472.216	94.06
472.435	101.06
472.654	100.06
472.873	86.06
473.092	91.06
473.311	94.06
473.53	102.06
473.749	88.06
473.968	102.06
474.187	96.06
474.406	98.06
474.625	101.06
474.844	101.06
475.063	87.06
475.282	112.06
475.501	85.06
475.72	98.06
475.939	109.06
476.158	97.06
476.377	94.06
476.596	100.06
476.814	103.06
477.033	104.06
477.252	98.06
477.471	106.06
477.69	107.06
477.908	100.06
478.127	95.06
478.346	87.06
478.564	98.06
478.783	95.06
479.002	84.06
479.22	92.06
479.439	89.06
479.658	98.06
479.876	90.06
480.095	80.06
480.313	86.06
480.532	96.06
480.751	82.06
480.969	87.06
481.188	84.06
481.406	99.06
481.624	92.06
481.843	91.06
482.061	88.06
482.28	97.06
482.498	103.06
482.717	97.06
482.935	98.06
483.153	97.06
483.372	91.06
483.59	104.06
483.808	108.06
484.027	101.06
484.245	96.06
484.463	91.06
484.681	113.06
484.9	92.06
485.118	85.06
485.336	86.06
485.554	115.06
485.772	85.06
485.99	89.06
486.209	77.06
486.427	91.06
486.645	93.06
486.863	96.06
487.081	88.06
487.299	85.06
487.517	117.06
487.735	114.06
487.953	102.06
488.171	113.06
488.389	106.06
488.607	107.06
488.825	98.06
489.043	89.06
489.261	99.06
489.479	90.06
489.696	99.06
489.914	100.06
490.132	101.06
490.35	111.06
490.568	114.06
490.786	105.06
491.003	116.06
491.221	112.06
491.439	118.06
491.657	109.06
491.874	121.06
492.092	123.06
492.31	136.06
492.527	127.06
492.745	124.06
492.963	127.06
493.18	103.06
493.398	102.06
493.615	121.06
493.833	101.06
494.05	123.06
494.268	107.06
494.485	122.06
494.703	102.06
494.92	116.06
495.138	115.06
495.355	94.06
495.573	117.06
495.79	114.06
496.008	110.06
496.225	116.06
496.442	103.06
496.66	122.06
496.877	111.06
497.094	115.06
497.312	117.06
497.529	105.06
497.746	97.06
497.963	112.06
498.181	100.06
498.398	115.06
498.615	96.06
498.832	110.06
499.049	102.06
499.267	96.06
499.484	100.06
499.701	101.06
499.918	99.06
500.135	88.06
500.352	94.06
500.569	91.06
500.786	87.06
501.003	94.06
501.22	97.06
501.437	83.06
501.654	105.06
501.871	104.06
502.088	92.06
502.305	94.06
502.522	92.06
502.739	101.06
502.956	98.06
503.172	104.06
503.389	87.06
503.606	85.06
503.823	103.06
504.04	98.06
504.256	91.06
504.473	85.06
504.69	92.06
504.907	99.06
505.123	98.06
505.34	97.06
505.557	100.06
505.773	102.06
505.99	107.06
506.207	82.06
506.423	102.06
506.64	96.06
506.856	89.06
507.073	89.06
507.289	108.06
507.506	105.06
507.722	102.06
507.939	98.06
508.155	92.06
508.372	106.06
508.588	96.06
508.805	89.06
509.021	95.06
509.238	92.06
509.454	90.06
509.67	88.06
509.887	89.06
510.103	78.06
510.319	88.06
510.536	100.06
510.752	98.06
510.968	101.06
511.184	76.06
511.401	83.06
511.617	84.06
511.833	91.06
512.049	78.06
512.265	84.06
512.481	98.06
512.698	86.06
512.914	85.06
513.13	88.06
513.346	93.06
513.562	93.06
513.778	85.06
513.994	93.06
514.21	97.06
514.426	77.06
514.642	85.06
514.858	90.06
515.074	83.06
515.29	97.06
515.506	92.06
515.721	90.06
515.937	93.06
516.153	80.06
516.369	76.06
516.585	77.06
516.801	85.06
