Data from Location3.07152019.Energy5.Lamp.07192019.3%Agarose_HRD10591_15-17-11-269.txt Node
Date: Fri Jul 19 15:17:11 EDT 2019
User: cochatt
Spectrometer: HR+D1059
Trigger mode: 1
Integration Time (sec): 1.000000E-1
Scans to average: 1
Electric dark correction enabled: true
Nonlinearity correction enabled: false
Boxcar width: 0
XAxis mode: Wavelengths
Number of Pixels in Spectrum: 2048
>>>>>Begin Spectral Data<<<<<
223.165	-23.81
223.4	-23.81
223.635	-23.81
223.869	-9.81
224.104	-8.81
224.338	-4.81
224.573	-22.81
224.808	-2.81
225.042	-6.81
225.277	-13.81
225.511	-11.81
225.746	1.19
225.98	1.19
226.215	13.19
226.449	14.19
226.683	17.19
226.918	27.19
227.152	31.19
227.387	27.19
227.621	41.19
227.856	49.19
228.09	37.19
228.324	51.19
228.559	51.19
228.793	61.19
229.027	54.19
229.262	65.19
229.496	40.19
229.73	82.19
229.964	74.19
230.199	81.19
230.433	78.19
230.667	73.19
230.901	73.19
231.136	79.19
231.37	77.19
231.604	63.19
231.838	73.19
232.072	71.19
232.306	70.19
232.541	87.19
232.775	78.19
233.009	85.19
233.243	78.19
233.477	79.19
233.711	91.19
233.945	81.19
234.179	63.19
234.413	64.19
234.647	82.19
234.881	89.19
235.115	72.19
235.349	70.19
235.583	77.19
235.817	96.19
236.051	80.19
236.285	74.19
236.519	73.19
236.753	88.19
236.987	75.19
237.221	80.19
237.455	66.19
237.689	77.19
237.922	74.19
238.156	71.19
238.39	80.19
238.624	75.19
238.858	78.19
239.091	79.19
239.325	72.19
239.559	89.19
239.793	77.19
240.027	81.19
240.26	74.19
240.494	77.19
240.728	70.19
240.961	78.19
241.195	71.19
241.429	83.19
241.662	68.19
241.896	63.19
242.13	57.19
242.363	79.19
242.597	79.19
242.83	78.19
243.064	72.19
243.298	81.19
243.531	78.19
243.765	63.19
243.998	68.19
244.232	73.19
244.465	96.19
244.699	80.19
244.932	72.19
245.166	70.19
245.399	89.19
245.633	87.19
245.866	70.19
246.099	82.19
246.333	71.19
246.566	79.19
246.8	79.19
247.033	85.19
247.266	68.19
247.5	69.19
247.733	79.19
247.966	81.19
248.2	78.19
248.433	90.19
248.666	68.19
248.899	70.19
249.133	69.19
249.366	85.19
249.599	73.19
249.832	81.19
250.066	84.19
250.299	75.19
250.532	84.19
250.765	72.19
250.998	72.19
251.231	75.19
251.465	79.19
251.698	74.19
251.931	91.19
252.164	79.19
252.397	77.19
252.63	81.19
252.863	85.19
253.096	77.19
253.329	98.19
253.562	67.19
253.795	75.19
254.028	75.19
254.261	67.19
254.494	86.19
254.727	77.19
254.96	73.19
255.193	71.19
255.426	78.19
255.659	88.19
255.892	79.19
256.124	77.19
256.357	65.19
256.59	72.19
256.823	80.19
257.056	78.19
257.289	86.19
257.521	75.19
257.754	77.19
257.987	83.19
258.22	81.19
258.452	86.19
258.685	85.19
258.918	88.19
259.151	83.19
259.383	80.19
259.616	81.19
259.849	96.19
260.081	82.19
260.314	84.19
260.547	75.19
260.779	75.19
261.012	76.19
261.244	83.19
261.477	75.19
261.71	75.19
261.942	78.19
262.175	71.19
262.407	71.19
262.64	64.19
262.872	81.19
263.105	94.19
263.337	84.19
263.57	78.19
263.802	80.19
264.035	79.19
264.267	82.19
264.499	70.19
264.732	89.19
264.964	79.19
265.197	70.19
265.429	77.19
265.661	75.19
265.894	88.19
266.126	75.19
266.358	89.19
266.591	91.19
266.823	76.19
267.055	89.19
267.287	75.19
267.52	68.19
267.752	83.19
267.984	91.19
268.216	80.19
268.448	72.19
268.681	85.19
268.913	86.19
269.145	82.19
269.377	82.19
269.609	97.19
269.841	83.19
270.073	82.19
270.306	73.19
270.538	64.19
270.77	95.19
271.002	89.19
271.234	98.19
271.466	84.19
271.698	79.19
271.93	75.19
272.162	88.19
272.394	84.19
272.626	71.19
272.858	83.19
273.09	82.19
273.322	85.19
273.553	88.19
273.785	92.19
274.017	77.19
274.249	82.19
274.481	84.19
274.713	86.19
274.945	80.19
275.176	81.19
275.408	83.19
275.64	67.19
275.872	65.19
276.104	68.19
276.335	67.19
276.567	83.19
276.799	73.19
277.031	81.19
277.262	71.19
277.494	73.19
277.726	79.19
277.957	85.19
278.189	81.19
278.421	78.19
278.652	78.19
278.884	71.19
279.115	74.19
279.347	81.19
279.579	83.19
279.81	93.19
280.042	81.19
280.273	94.19
280.505	86.19
280.736	94.19
280.968	81.19
281.199	73.19
281.431	70.19
281.662	70.19
281.894	93.19
282.125	90.19
282.356	72.19
282.588	71.19
282.819	102.19
283.051	96.19
283.282	78.19
283.513	84.19
283.745	91.19
283.976	86.19
284.207	81.19
284.439	85.19
284.67	81.19
284.901	83.19
285.132	89.19
285.364	67.19
285.595	79.19
285.826	76.19
286.057	84.19
286.288	73.19
286.52	85.19
286.751	78.19
286.982	84.19
287.213	100.19
287.444	87.19
287.675	83.19
287.906	85.19
288.138	77.19
288.369	80.19
288.6	82.19
288.831	83.19
289.062	86.19
289.293	88.19
289.524	96.19
289.755	94.19
289.986	71.19
290.217	75.19
290.448	86.19
290.679	86.19
290.91	90.19
291.141	98.19
291.371	98.19
291.602	80.19
291.833	78.19
292.064	82.19
292.295	79.19
292.526	90.19
292.757	65.19
292.987	90.19
293.218	85.19
293.449	75.19
293.68	86.19
293.91	75.19
294.141	80.19
294.372	78.19
294.603	78.19
294.833	74.19
295.064	84.19
295.295	73.19
295.525	81.19
295.756	71.19
295.987	82.19
296.217	74.19
296.448	79.19
296.679	83.19
296.909	80.19
297.14	86.19
297.37	63.19
297.601	85.19
297.831	74.19
298.062	89.19
298.292	93.19
298.523	75.19
298.753	91.19
298.984	70.19
299.214	84.19
299.445	76.19
299.675	81.19
299.905	79.19
300.136	89.19
300.366	77.19
300.597	84.19
300.827	85.19
301.057	91.19
301.288	82.19
301.518	70.19
301.748	88.19
301.979	79.19
302.209	82.19
302.439	81.19
302.669	80.19
302.9	79.19
303.13	93.19
303.36	80.19
303.59	78.19
303.82	78.19
304.051	92.19
304.281	87.19
304.511	96.19
304.741	95.19
304.971	99.19
305.201	90.19
305.431	79.19
305.661	101.19
305.891	83.19
306.121	88.19
306.352	95.19
306.582	93.19
306.812	71.19
307.042	79.19
307.272	74.19
307.502	88.19
307.731	89.19
307.961	81.19
308.191	80.19
308.421	85.19
308.651	88.19
308.881	72.19
309.111	81.19
309.341	83.19
309.571	66.19
309.8	111.19
310.03	91.19
310.26	96.19
310.49	102.19
310.72	78.19
310.949	91.19
311.179	85.19
311.409	85.19
311.639	74.19
311.868	86.19
312.098	67.19
312.328	85.19
312.557	87.19
312.787	83.19
313.017	81.19
313.246	78.19
313.476	86.19
313.706	93.19
313.935	88.19
314.165	85.19
314.394	87.19
314.624	96.19
314.853	89.19
315.083	82.19
315.312	77.19
315.542	87.19
315.771	94.19
316.001	75.19
316.23	80.19
316.46	81.19
316.689	78.19
316.919	92.19
317.148	80.19
317.377	63.19
317.607	77.19
317.836	83.19
318.065	78.19
318.295	81.19
318.524	92.19
318.753	101.19
318.983	77.19
319.212	75.19
319.441	79.19
319.67	87.19
319.9	85.19
320.129	90.19
320.358	90.19
320.587	99.19
320.816	96.19
321.046	82.19
321.275	92.19
321.504	93.19
321.733	72.19
321.962	89.19
322.191	85.19
322.42	87.19
322.649	90.19
322.878	98.19
323.108	99.19
323.337	85.19
323.566	71.19
323.795	95.19
324.024	86.19
324.253	97.19
324.482	67.19
324.71	73.19
324.939	61.19
325.168	97.19
325.397	97.19
325.626	76.19
325.855	73.19
326.084	89.19
326.313	97.19
326.542	93.19
326.77	84.19
326.999	66.19
327.228	89.19
327.457	63.19
327.686	78.19
327.914	90.19
328.143	103.19
328.372	88.19
328.6	81.19
328.829	89.19
329.058	91.19
329.287	82.19
329.515	90.19
329.744	90.19
329.972	78.19
330.201	88.19
330.43	67.19
330.658	86.19
330.887	104.19
331.115	86.19
331.344	80.19
331.572	78.19
331.801	92.19
332.03	89.19
332.258	79.19
332.486	93.19
332.715	88.19
332.943	97.19
333.172	88.19
333.4	77.19
333.629	83.19
333.857	77.19
334.085	79.19
334.314	79.19
334.542	91.19
334.771	79.19
334.999	85.19
335.227	96.19
335.455	93.19
335.684	88.19
335.912	78.19
336.14	74.19
336.369	67.19
336.597	77.19
336.825	86.19
337.053	87.19
337.281	71.19
337.51	74.19
337.738	83.19
337.966	85.19
338.194	90.19
338.422	91.19
338.65	91.19
338.878	69.19
339.106	84.19
339.334	90.19
339.562	84.19
339.79	86.19
340.018	85.19
340.246	96.19
340.474	87.19
340.702	83.19
340.93	95.19
341.158	85.19
341.386	77.19
341.614	67.19
341.842	78.19
342.07	75.19
342.298	89.19
342.526	82.19
342.754	88.19
342.981	75.19
343.209	76.19
343.437	81.19
343.665	90.19
343.893	77.19
344.12	84.19
344.348	77.19
344.576	76.19
344.804	98.19
345.031	88.19
345.259	90.19
345.487	73.19
345.714	87.19
345.942	94.19
346.17	94.19
346.397	82.19
346.625	84.19
346.853	74.19
347.08	83.19
347.308	89.19
347.535	79.19
347.763	83.19
347.99	89.19
348.218	75.19
348.445	80.19
348.673	93.19
348.9	83.19
349.128	79.19
349.355	74.19
349.583	86.19
349.81	87.19
350.037	96.19
350.265	79.19
350.492	87.19
350.72	89.19
350.947	94.19
351.174	88.19
351.402	84.19
351.629	85.19
351.856	75.19
352.083	66.19
352.311	83.19
352.538	90.19
352.765	85.19
352.992	82.19
353.22	72.19
353.447	86.19
353.674	86.19
353.901	83.19
354.128	82.19
354.355	78.19
354.583	76.19
354.81	99.19
355.037	83.19
355.264	88.19
355.491	87.19
355.718	87.19
355.945	80.19
356.172	82.19
356.399	83.19
356.626	98.19
356.853	75.19
357.08	75.19
357.307	80.19
357.534	75.19
357.761	81.19
357.988	91.19
358.215	93.19
358.441	79.19
358.668	89.19
358.895	84.19
359.122	91.19
359.349	80.19
359.576	87.19
359.802	81.19
360.029	92.19
360.256	70.19
360.483	75.19
360.709	86.19
360.936	87.19
361.163	89.19
361.39	78.19
361.616	85.19
361.843	78.19
362.07	88.19
362.296	85.19
362.523	95.19
362.749	93.19
362.976	77.19
363.203	91.19
363.429	82.19
363.656	75.19
363.882	85.19
364.109	76.19
364.335	66.19
364.562	85.19
364.788	76.19
365.015	74.19
365.241	85.19
365.468	86.19
365.694	75.19
365.92	87.19
366.147	85.19
366.373	81.19
366.599	87.19
366.826	82.19
367.052	76.19
367.278	89.19
367.505	83.19
367.731	95.19
367.957	80.19
368.184	81.19
368.41	84.19
368.636	87.19
368.862	88.19
369.089	82.19
369.315	87.19
369.541	79.19
369.767	86.19
369.993	76.19
370.219	77.19
370.445	88.19
370.672	83.19
370.898	82.19
371.124	82.19
371.35	94.19
371.576	90.19
371.802	85.19
372.028	85.19
372.254	87.19
372.48	83.19
372.706	79.19
372.932	79.19
373.158	91.19
373.384	97.19
373.61	88.19
373.835	88.19
374.061	79.19
374.287	87.19
374.513	74.19
374.739	87.19
374.965	78.19
375.191	81.19
375.416	79.19
375.642	93.19
375.868	89.19
376.094	87.19
376.319	87.19
376.545	80.19
376.771	80.19
376.997	86.19
377.222	72.19
377.448	77.19
377.674	93.19
377.899	89.19
378.125	78.19
378.35	86.19
378.576	90.19
378.802	84.19
379.027	85.19
379.253	85.19
379.478	79.19
379.704	81.19
379.929	83.19
380.155	94.19
380.38	81.19
380.606	78.19
380.831	90.19
381.057	89.19
381.282	77.19
381.507	81.19
381.733	95.19
381.958	77.19
382.184	73.19
382.409	83.19
382.634	80.19
382.86	90.19
383.085	64.19
383.31	79.19
383.535	82.19
383.761	85.19
383.986	93.19
384.211	87.19
384.436	84.19
384.662	83.19
384.887	89.19
385.112	82.19
385.337	89.19
385.562	88.19
385.787	84.19
386.013	85.19
386.238	100.19
386.463	85.19
386.688	98.19
386.913	88.19
387.138	79.19
387.363	83.19
387.588	82.19
387.813	80.19
388.038	80.19
388.263	85.19
388.488	101.19
388.713	82.19
388.938	73.19
389.163	88.19
389.387	85.19
389.612	83.19
389.837	80.19
390.062	80.19
390.287	80.19
390.512	94.19
390.736	91.19
390.961	87.19
391.186	83.19
391.411	76.19
391.636	83.19
391.86	98.19
392.085	85.19
392.31	96.19
392.534	89.19
392.759	75.19
392.984	77.19
393.208	87.19
393.433	87.19
393.658	88.19
393.882	86.19
394.107	85.19
394.331	87.19
394.556	95.19
394.78	80.19
395.005	84.19
395.229	85.19
395.454	87.19
395.678	88.19
395.903	92.19
396.127	90.19
396.352	87.19
396.576	101.19
396.801	90.19
397.025	90.19
397.249	100.19
397.474	88.19
397.698	76.19
397.922	89.19
398.147	84.19
398.371	81.19
398.595	78.19
398.82	82.19
399.044	88.19
399.268	93.19
399.492	91.19
399.717	83.19
399.941	95.19
400.165	93.19
400.389	66.19
400.613	75.19
400.837	86.19
401.062	83.19
401.286	95.19
401.51	100.19
401.734	94.19
401.958	75.19
402.182	86.19
402.406	91.19
402.63	100.19
402.854	90.19
403.078	88.19
403.302	86.19
403.526	90.19
403.75	94.19
403.974	87.19
404.198	90.19
404.422	87.19
404.645	87.19
404.869	84.19
405.093	87.19
405.317	84.19
405.541	90.19
405.765	100.19
405.988	92.19
406.212	85.19
406.436	109.19
406.66	90.19
406.883	98.19
407.107	90.19
407.331	93.19
407.555	87.19
407.778	82.19
408.002	80.19
408.226	96.19
408.449	93.19
408.673	69.19
408.896	91.19
409.12	84.19
409.344	91.19
409.567	86.19
409.791	103.19
410.014	94.19
410.238	71.19
410.461	98.19
410.685	95.19
410.908	96.19
411.132	79.19
411.355	94.19
411.578	97.19
411.802	98.19
412.025	82.19
412.249	83.19
412.472	87.19
412.695	92.19
412.919	84.19
413.142	76.19
413.365	89.19
413.589	105.19
413.812	102.19
414.035	89.19
414.258	91.19
414.482	102.19
414.705	93.19
414.928	96.19
415.151	96.19
415.374	90.19
415.597	93.19
415.821	112.19
416.044	99.19
416.267	89.19
416.49	85.19
416.713	90.19
416.936	92.19
417.159	105.19
417.382	86.19
417.605	91.19
417.828	94.19
418.051	84.19
418.274	94.19
418.497	90.19
418.72	106.19
418.943	88.19
419.166	82.19
419.389	102.19
419.611	94.19
419.834	101.19
420.057	100.19
420.28	97.19
420.503	93.19
420.726	98.19
420.948	101.19
421.171	89.19
421.394	103.19
421.617	87.19
421.839	104.19
422.062	97.19
422.285	97.19
422.507	86.19
422.73	89.19
422.953	76.19
423.175	89.19
423.398	100.19
423.621	95.19
423.843	99.19
424.066	91.19
424.288	88.19
424.511	92.19
424.733	95.19
424.956	84.19
425.178	98.19
425.401	81.19
425.623	105.19
425.846	77.19
426.068	82.19
426.291	110.19
426.513	100.19
426.735	73.19
426.958	87.19
427.18	93.19
427.402	81.19
427.625	90.19
427.847	91.19
428.069	100.19
428.292	88.19
428.514	101.19
428.736	80.19
428.958	93.19
429.181	99.19
429.403	81.19
429.625	88.19
429.847	86.19
430.069	95.19
430.292	96.19
430.514	97.19
430.736	94.19
430.958	98.19
431.18	99.19
431.402	91.19
431.624	80.19
431.846	97.19
432.068	84.19
432.29	81.19
432.512	101.19
432.734	86.19
432.956	96.19
433.178	76.19
433.4	101.19
433.622	98.19
433.844	103.19
434.066	97.19
434.287	103.19
434.509	65.19
434.731	93.19
434.953	92.19
435.175	90.19
435.397	98.19
435.618	85.19
435.84	90.19
436.062	96.19
436.284	103.19
436.505	87.19
436.727	82.19
436.949	103.19
437.17	82.19
437.392	110.19
437.614	94.19
437.835	91.19
438.057	98.19
438.278	63.19
438.5	101.19
438.721	96.19
438.943	92.19
439.165	100.19
439.386	100.19
439.608	97.19
439.829	98.19
440.05	101.19
440.272	101.19
440.493	102.19
440.715	97.19
440.936	103.19
441.158	100.19
441.379	97.19
441.6	101.19
441.822	103.19
442.043	102.19
442.264	95.19
442.486	102.19
442.707	95.19
442.928	80.19
443.149	109.19
443.371	93.19
443.592	93.19
443.813	100.19
444.034	95.19
444.255	94.19
444.476	89.19
444.698	82.19
444.919	102.19
445.14	231.19
445.361	156.19
445.582	102.19
445.803	97.19
446.024	88.19
446.245	114.19
446.466	101.19
446.687	85.19
446.908	90.19
447.129	111.19
447.35	104.19
447.571	113.19
447.792	93.19
448.013	97.19
448.234	109.19
448.455	93.19
448.675	91.19
448.896	103.19
449.117	109.19
449.338	79.19
449.559	97.19
449.779	100.19
450	96.19
450.221	95.19
450.442	98.19
450.662	99.19
450.883	100.19
451.104	96.19
451.324	115.19
451.545	95.19
451.766	91.19
451.986	103.19
452.207	92.19
452.428	100.19
452.648	113.19
452.869	98.19
453.089	97.19
453.31	86.19
453.53	81.19
453.751	101.19
453.971	93.19
454.192	80.19
454.412	82.19
454.633	82.19
454.853	85.19
455.073	86.19
455.294	99.19
455.514	94.19
455.734	91.19
455.955	87.19
456.175	88.19
456.395	89.19
456.616	86.19
456.836	86.19
457.056	94.19
457.276	91.19
457.497	87.19
457.717	97.19
457.937	87.19
458.157	79.19
458.377	89.19
458.598	80.19
458.818	80.19
459.038	89.19
459.258	76.19
459.478	86.19
459.698	77.19
459.918	75.19
460.138	94.19
460.358	97.19
460.578	90.19
460.798	93.19
461.018	92.19
461.238	86.19
461.458	90.19
461.678	82.19
461.898	97.19
462.118	103.19
462.338	102.19
462.558	85.19
462.777	110.19
462.997	85.19
463.217	97.19
463.437	83.19
463.657	85.19
463.876	86.19
464.096	87.19
464.316	96.19
464.536	85.19
464.755	95.19
464.975	101.19
465.195	89.19
465.414	102.19
465.634	101.19
465.854	95.19
466.073	81.19
466.293	83.19
466.512	83.19
466.732	78.19
466.951	93.19
467.171	73.19
467.391	101.19
467.61	90.19
467.829	96.19
468.049	96.19
468.268	120.19
468.488	81.19
468.707	95.19
468.927	88.19
469.146	97.19
469.365	98.19
469.585	97.19
469.804	102.19
470.023	92.19
470.243	97.19
470.462	94.19
470.681	98.19
470.901	99.19
471.12	99.19
471.339	97.19
471.558	90.19
471.777	97.19
471.997	103.19
472.216	110.19
472.435	92.19
472.654	79.19
472.873	79.19
473.092	74.19
473.311	87.19
473.53	94.19
473.749	104.19
473.968	97.19
474.187	91.19
474.406	87.19
474.625	90.19
474.844	90.19
475.063	101.19
475.282	103.19
475.501	93.19
475.72	98.19
475.939	67.19
476.158	81.19
476.377	85.19
476.596	74.19
476.814	104.19
477.033	87.19
477.252	84.19
477.471	78.19
477.69	95.19
477.908	86.19
478.127	105.19
478.346	94.19
478.564	93.19
478.783	104.19
479.002	103.19
479.22	87.19
479.439	90.19
479.658	94.19
479.876	90.19
480.095	85.19
480.313	100.19
480.532	75.19
480.751	110.19
480.969	81.19
481.188	79.19
481.406	94.19
481.624	91.19
481.843	81.19
482.061	89.19
482.28	87.19
482.498	88.19
482.717	93.19
482.935	96.19
483.153	100.19
483.372	92.19
483.59	111.19
483.808	88.19
484.027	97.19
484.245	99.19
484.463	93.19
484.681	113.19
484.9	98.19
485.118	114.19
485.336	108.19
485.554	89.19
485.772	96.19
485.99	101.19
486.209	88.19
486.427	79.19
486.645	97.19
486.863	104.19
487.081	96.19
487.299	85.19
487.517	109.19
487.735	103.19
487.953	107.19
488.171	121.19
488.389	112.19
488.607	105.19
488.825	103.19
489.043	87.19
489.261	102.19
489.479	97.19
489.696	107.19
489.914	95.19
490.132	99.19
490.35	99.19
490.568	113.19
490.786	106.19
491.003	115.19
491.221	98.19
491.439	131.19
491.657	115.19
491.874	131.19
492.092	125.19
492.31	137.19
492.527	118.19
492.745	111.19
492.963	95.19
493.18	117.19
493.398	115.19
493.615	123.19
493.833	90.19
494.05	116.19
494.268	107.19
494.485	113.19
494.703	117.19
494.92	107.19
495.138	106.19
495.355	104.19
495.573	116.19
495.79	111.19
496.008	105.19
496.225	94.19
496.442	102.19
496.66	112.19
496.877	95.19
497.094	107.19
497.312	105.19
497.529	100.19
497.746	107.19
497.963	98.19
498.181	103.19
498.398	99.19
498.615	96.19
498.832	93.19
499.049	90.19
499.267	89.19
499.484	96.19
499.701	100.19
499.918	101.19
500.135	89.19
500.352	104.19
500.569	109.19
500.786	109.19
501.003	104.19
501.22	75.19
501.437	88.19
501.654	94.19
501.871	99.19
502.088	76.19
502.305	97.19
502.522	83.19
502.739	102.19
502.956	93.19
503.172	93.19
503.389	91.19
503.606	93.19
503.823	101.19
504.04	87.19
504.256	93.19
504.473	85.19
504.69	98.19
504.907	89.19
505.123	89.19
505.34	83.19
505.557	102.19
505.773	91.19
505.99	95.19
506.207	91.19
506.423	103.19
506.64	103.19
506.856	99.19
507.073	108.19
507.289	83.19
507.506	84.19
507.722	109.19
507.939	95.19
508.155	99.19
508.372	96.19
508.588	87.19
508.805	78.19
509.021	91.19
509.238	91.19
509.454	84.19
509.67	92.19
509.887	67.19
510.103	88.19
510.319	86.19
510.536	81.19
510.752	82.19
510.968	91.19
511.184	95.19
511.401	84.19
511.617	94.19
511.833	80.19
512.049	81.19
512.265	104.19
512.481	97.19
512.698	97.19
512.914	79.19
513.13	84.19
513.346	79.19
513.562	94.19
513.778	90.19
513.994	93.19
514.21	79.19
514.426	93.19
514.642	87.19
514.858	88.19
515.074	88.19
515.29	100.19
515.506	92.19
515.721	82.19
515.937	75.19
516.153	78.19
516.369	93.19
516.585	92.19
516.801	86.19
517.016	87.19
517.232	78.19
