Data from Location3.07152019.Energy5.Lamp.07192019.3%Agarose_HRD10591_15-16-29-835.txt Node
Date: Fri Jul 19 15:16:29 EDT 2019
User: cochatt
Spectrometer: HR+D1059
Trigger mode: 1
Integration Time (sec): 1.000000E-1
Scans to average: 1
Electric dark correction enabled: true
Nonlinearity correction enabled: false
Boxcar width: 0
XAxis mode: Wavelengths
Number of Pixels in Spectrum: 2048
>>>>>Begin Spectral Data<<<<<
223.165	-24.5
223.4	-24.5
223.635	-24.5
223.869	-15.5
224.104	-18.5
224.338	-20.5
224.573	-17.5
224.808	3.5
225.042	-2.5
225.277	-4.5
225.511	0.5
225.746	-13.5
225.98	-4.5
226.215	12.5
226.449	15.5
226.683	40.5
226.918	17.5
227.152	31.5
227.387	27.5
227.621	5.5
227.856	28.5
228.09	47.5
228.324	52.5
228.559	52.5
228.793	65.5
229.027	70.5
229.262	66.5
229.496	63.5
229.73	64.5
229.964	61.5
230.199	63.5
230.433	76.5
230.667	73.5
230.901	69.5
231.136	75.5
231.37	60.5
231.604	81.5
231.838	79.5
232.072	81.5
232.306	85.5
232.541	75.5
232.775	74.5
233.009	87.5
233.243	74.5
233.477	82.5
233.711	79.5
233.945	78.5
234.179	84.5
234.413	81.5
234.647	68.5
234.881	78.5
235.115	77.5
235.349	81.5
235.583	69.5
235.817	74.5
236.051	78.5
236.285	80.5
236.519	85.5
236.753	75.5
236.987	69.5
237.221	77.5
237.455	75.5
237.689	82.5
237.922	71.5
238.156	78.5
238.39	89.5
238.624	57.5
238.858	79.5
239.091	81.5
239.325	71.5
239.559	77.5
239.793	71.5
240.027	65.5
240.26	71.5
240.494	74.5
240.728	75.5
240.961	79.5
241.195	67.5
241.429	63.5
241.662	65.5
241.896	89.5
242.13	67.5
242.363	66.5
242.597	64.5
242.83	64.5
243.064	88.5
243.298	67.5
243.531	77.5
243.765	75.5
243.998	76.5
244.232	77.5
244.465	82.5
244.699	83.5
244.932	95.5
245.166	72.5
245.399	78.5
245.633	87.5
245.866	79.5
246.099	80.5
246.333	72.5
246.566	78.5
246.8	76.5
247.033	79.5
247.266	76.5
247.5	68.5
247.733	79.5
247.966	72.5
248.2	74.5
248.433	80.5
248.666	70.5
248.899	64.5
249.133	85.5
249.366	78.5
249.599	73.5
249.832	77.5
250.066	72.5
250.299	83.5
250.532	76.5
250.765	77.5
250.998	73.5
251.231	77.5
251.465	78.5
251.698	85.5
251.931	75.5
252.164	87.5
252.397	85.5
252.63	79.5
252.863	75.5
253.096	88.5
253.329	75.5
253.562	81.5
253.795	67.5
254.028	70.5
254.261	67.5
254.494	83.5
254.727	81.5
254.96	78.5
255.193	64.5
255.426	82.5
255.659	68.5
255.892	84.5
256.124	75.5
256.357	79.5
256.59	90.5
256.823	86.5
257.056	83.5
257.289	68.5
257.521	72.5
257.754	92.5
257.987	76.5
258.22	79.5
258.452	70.5
258.685	70.5
258.918	77.5
259.151	84.5
259.383	80.5
259.616	83.5
259.849	72.5
260.081	79.5
260.314	85.5
260.547	83.5
260.779	67.5
261.012	84.5
261.244	79.5
261.477	86.5
261.71	84.5
261.942	87.5
262.175	76.5
262.407	71.5
262.64	79.5
262.872	73.5
263.105	71.5
263.337	85.5
263.57	85.5
263.802	76.5
264.035	81.5
264.267	72.5
264.499	66.5
264.732	82.5
264.964	81.5
265.197	91.5
265.429	83.5
265.661	66.5
265.894	80.5
266.126	82.5
266.358	73.5
266.591	78.5
266.823	83.5
267.055	72.5
267.287	82.5
267.52	93.5
267.752	89.5
267.984	70.5
268.216	64.5
268.448	80.5
268.681	80.5
268.913	80.5
269.145	80.5
269.377	78.5
269.609	80.5
269.841	88.5
270.073	81.5
270.306	88.5
270.538	83.5
270.77	69.5
271.002	87.5
271.234	78.5
271.466	81.5
271.698	79.5
271.93	83.5
272.162	72.5
272.394	77.5
272.626	82.5
272.858	75.5
273.09	74.5
273.322	70.5
273.553	71.5
273.785	84.5
274.017	86.5
274.249	81.5
274.481	71.5
274.713	93.5
274.945	89.5
275.176	78.5
275.408	78.5
275.64	77.5
275.872	76.5
276.104	78.5
276.335	79.5
276.567	80.5
276.799	96.5
277.031	90.5
277.262	90.5
277.494	78.5
277.726	87.5
277.957	81.5
278.189	71.5
278.421	77.5
278.652	76.5
278.884	84.5
279.115	88.5
279.347	79.5
279.579	86.5
279.81	86.5
280.042	73.5
280.273	80.5
280.505	84.5
280.736	96.5
280.968	83.5
281.199	77.5
281.431	82.5
281.662	89.5
281.894	97.5
282.125	73.5
282.356	81.5
282.588	78.5
282.819	79.5
283.051	75.5
283.282	95.5
283.513	88.5
283.745	84.5
283.976	81.5
284.207	92.5
284.439	77.5
284.67	93.5
284.901	82.5
285.132	78.5
285.364	89.5
285.595	84.5
285.826	84.5
286.057	88.5
286.288	80.5
286.52	72.5
286.751	77.5
286.982	74.5
287.213	69.5
287.444	83.5
287.675	88.5
287.906	88.5
288.138	73.5
288.369	87.5
288.6	80.5
288.831	78.5
289.062	85.5
289.293	64.5
289.524	81.5
289.755	73.5
289.986	80.5
290.217	76.5
290.448	84.5
290.679	82.5
290.91	98.5
291.141	76.5
291.371	69.5
291.602	72.5
291.833	76.5
292.064	69.5
292.295	83.5
292.526	86.5
292.757	81.5
292.987	78.5
293.218	77.5
293.449	84.5
293.68	91.5
293.91	80.5
294.141	81.5
294.372	75.5
294.603	73.5
294.833	70.5
295.064	84.5
295.295	88.5
295.525	78.5
295.756	71.5
295.987	66.5
296.217	76.5
296.448	72.5
296.679	78.5
296.909	97.5
297.14	87.5
297.37	83.5
297.601	79.5
297.831	87.5
298.062	95.5
298.292	86.5
298.523	91.5
298.753	88.5
298.984	93.5
299.214	92.5
299.445	92.5
299.675	84.5
299.905	68.5
300.136	88.5
300.366	72.5
300.597	58.5
300.827	71.5
301.057	85.5
301.288	85.5
301.518	93.5
301.748	82.5
301.979	90.5
302.209	75.5
302.439	99.5
302.669	76.5
302.9	83.5
303.13	77.5
303.36	88.5
303.59	72.5
303.82	85.5
304.051	88.5
304.281	63.5
304.511	83.5
304.741	80.5
304.971	83.5
305.201	82.5
305.431	84.5
305.661	83.5
305.891	90.5
306.121	85.5
306.352	98.5
306.582	99.5
306.812	94.5
307.042	85.5
307.272	69.5
307.502	76.5
307.731	88.5
307.961	77.5
308.191	73.5
308.421	81.5
308.651	81.5
308.881	88.5
309.111	70.5
309.341	73.5
309.571	87.5
309.8	75.5
310.03	84.5
310.26	101.5
310.49	82.5
310.72	87.5
310.949	71.5
311.179	86.5
311.409	78.5
311.639	82.5
311.868	77.5
312.098	76.5
312.328	82.5
312.557	66.5
312.787	75.5
313.017	88.5
313.246	71.5
313.476	76.5
313.706	84.5
313.935	72.5
314.165	73.5
314.394	78.5
314.624	80.5
314.853	81.5
315.083	76.5
315.312	98.5
315.542	65.5
315.771	80.5
316.001	86.5
316.23	78.5
316.46	77.5
316.689	79.5
316.919	84.5
317.148	85.5
317.377	94.5
317.607	88.5
317.836	82.5
318.065	86.5
318.295	78.5
318.524	80.5
318.753	72.5
318.983	78.5
319.212	89.5
319.441	84.5
319.67	75.5
319.9	71.5
320.129	86.5
320.358	88.5
320.587	80.5
320.816	82.5
321.046	84.5
321.275	87.5
321.504	79.5
321.733	83.5
321.962	93.5
322.191	72.5
322.42	80.5
322.649	85.5
322.878	79.5
323.108	81.5
323.337	91.5
323.566	85.5
323.795	84.5
324.024	77.5
324.253	73.5
324.482	70.5
324.71	78.5
324.939	76.5
325.168	99.5
325.397	87.5
325.626	77.5
325.855	76.5
326.084	78.5
326.313	95.5
326.542	83.5
326.77	82.5
326.999	80.5
327.228	78.5
327.457	87.5
327.686	92.5
327.914	96.5
328.143	85.5
328.372	88.5
328.6	82.5
328.829	76.5
329.058	92.5
329.287	69.5
329.515	92.5
329.744	94.5
329.972	80.5
330.201	69.5
330.43	88.5
330.658	75.5
330.887	84.5
331.115	72.5
331.344	79.5
331.572	69.5
331.801	72.5
332.03	91.5
332.258	85.5
332.486	78.5
332.715	77.5
332.943	83.5
333.172	84.5
333.4	90.5
333.629	75.5
333.857	79.5
334.085	93.5
334.314	84.5
334.542	69.5
334.771	74.5
334.999	84.5
335.227	78.5
335.455	68.5
335.684	77.5
335.912	81.5
336.14	79.5
336.369	92.5
336.597	82.5
336.825	79.5
337.053	71.5
337.281	94.5
337.51	85.5
337.738	87.5
337.966	85.5
338.194	86.5
338.422	78.5
338.65	85.5
338.878	78.5
339.106	85.5
339.334	78.5
339.562	98.5
339.79	82.5
340.018	89.5
340.246	77.5
340.474	70.5
340.702	69.5
340.93	84.5
341.158	74.5
341.386	78.5
341.614	89.5
341.842	91.5
342.07	68.5
342.298	84.5
342.526	82.5
342.754	94.5
342.981	87.5
343.209	73.5
343.437	80.5
343.665	83.5
343.893	87.5
344.12	86.5
344.348	87.5
344.576	93.5
344.804	79.5
345.031	85.5
345.259	77.5
345.487	78.5
345.714	75.5
345.942	78.5
346.17	70.5
346.397	81.5
346.625	82.5
346.853	87.5
347.08	72.5
347.308	94.5
347.535	83.5
347.763	81.5
347.99	77.5
348.218	96.5
348.445	82.5
348.673	75.5
348.9	88.5
349.128	88.5
349.355	72.5
349.583	90.5
349.81	92.5
350.037	88.5
350.265	87.5
350.492	92.5
350.72	77.5
350.947	76.5
351.174	74.5
351.402	85.5
351.629	84.5
351.856	87.5
352.083	80.5
352.311	72.5
352.538	81.5
352.765	77.5
352.992	80.5
353.22	79.5
353.447	80.5
353.674	74.5
353.901	77.5
354.128	78.5
354.355	70.5
354.583	83.5
354.81	68.5
355.037	57.5
355.264	82.5
355.491	77.5
355.718	80.5
355.945	79.5
356.172	83.5
356.399	85.5
356.626	84.5
356.853	91.5
357.08	82.5
357.307	87.5
357.534	98.5
357.761	79.5
357.988	86.5
358.215	88.5
358.441	80.5
358.668	86.5
358.895	82.5
359.122	80.5
359.349	79.5
359.576	81.5
359.802	77.5
360.029	82.5
360.256	88.5
360.483	81.5
360.709	78.5
360.936	81.5
361.163	80.5
361.39	94.5
361.616	79.5
361.843	91.5
362.07	80.5
362.296	82.5
362.523	79.5
362.749	78.5
362.976	77.5
363.203	88.5
363.429	73.5
363.656	72.5
363.882	90.5
364.109	60.5
364.335	72.5
364.562	71.5
364.788	91.5
365.015	71.5
365.241	78.5
365.468	68.5
365.694	77.5
365.92	79.5
366.147	80.5
366.373	89.5
366.599	100.5
366.826	87.5
367.052	97.5
367.278	84.5
367.505	84.5
367.731	84.5
367.957	71.5
368.184	79.5
368.41	81.5
368.636	81.5
368.862	74.5
369.089	78.5
369.315	87.5
369.541	78.5
369.767	77.5
369.993	92.5
370.219	88.5
370.445	77.5
370.672	69.5
370.898	92.5
371.124	83.5
371.35	94.5
371.576	86.5
371.802	78.5
372.028	72.5
372.254	89.5
372.48	79.5
372.706	72.5
372.932	83.5
373.158	89.5
373.384	68.5
373.61	80.5
373.835	80.5
374.061	85.5
374.287	81.5
374.513	79.5
374.739	78.5
374.965	79.5
375.191	69.5
375.416	95.5
375.642	87.5
375.868	82.5
376.094	89.5
376.319	92.5
376.545	91.5
376.771	96.5
376.997	92.5
377.222	100.5
377.448	88.5
377.674	92.5
377.899	80.5
378.125	76.5
378.35	82.5
378.576	86.5
378.802	79.5
379.027	83.5
379.253	91.5
379.478	86.5
379.704	91.5
379.929	86.5
380.155	86.5
380.38	75.5
380.606	79.5
380.831	81.5
381.057	72.5
381.282	83.5
381.507	83.5
381.733	91.5
381.958	78.5
382.184	74.5
382.409	70.5
382.634	92.5
382.86	71.5
383.085	79.5
383.31	95.5
383.535	86.5
383.761	67.5
383.986	92.5
384.211	75.5
384.436	90.5
384.662	92.5
384.887	72.5
385.112	80.5
385.337	72.5
385.562	85.5
385.787	71.5
386.013	85.5
386.238	85.5
386.463	99.5
386.688	76.5
386.913	65.5
387.138	77.5
387.363	84.5
387.588	89.5
387.813	86.5
388.038	86.5
388.263	88.5
388.488	90.5
388.713	77.5
388.938	67.5
389.163	81.5
389.387	91.5
389.612	87.5
389.837	90.5
390.062	85.5
390.287	88.5
390.512	80.5
390.736	87.5
390.961	88.5
391.186	91.5
391.411	78.5
391.636	76.5
391.86	82.5
392.085	78.5
392.31	81.5
392.534	82.5
392.759	92.5
392.984	87.5
393.208	91.5
393.433	81.5
393.658	86.5
393.882	70.5
394.107	80.5
394.331	74.5
394.556	86.5
394.78	79.5
395.005	89.5
395.229	87.5
395.454	85.5
395.678	84.5
395.903	88.5
396.127	95.5
396.352	80.5
396.576	87.5
396.801	92.5
397.025	99.5
397.249	78.5
397.474	88.5
397.698	96.5
397.922	87.5
398.147	92.5
398.371	91.5
398.595	89.5
398.82	96.5
399.044	84.5
399.268	95.5
399.492	91.5
399.717	83.5
399.941	81.5
400.165	78.5
400.389	70.5
400.613	81.5
400.837	83.5
401.062	86.5
401.286	96.5
401.51	76.5
401.734	71.5
401.958	92.5
402.182	76.5
402.406	91.5
402.63	92.5
402.854	78.5
403.078	88.5
403.302	89.5
403.526	84.5
403.75	78.5
403.974	89.5
404.198	95.5
404.422	78.5
404.645	75.5
404.869	86.5
405.093	82.5
405.317	90.5
405.541	85.5
405.765	85.5
405.988	95.5
406.212	96.5
406.436	94.5
406.66	85.5
406.883	68.5
407.107	93.5
407.331	89.5
407.555	83.5
407.778	91.5
408.002	94.5
408.226	77.5
408.449	100.5
408.673	72.5
408.896	82.5
409.12	86.5
409.344	98.5
409.567	80.5
409.791	82.5
410.014	94.5
410.238	98.5
410.461	89.5
410.685	87.5
410.908	89.5
411.132	93.5
411.355	78.5
411.578	78.5
411.802	86.5
412.025	84.5
412.249	96.5
412.472	76.5
412.695	84.5
412.919	83.5
413.142	91.5
413.365	96.5
413.589	101.5
413.812	92.5
414.035	83.5
414.258	79.5
414.482	96.5
414.705	74.5
414.928	91.5
415.151	80.5
415.374	93.5
415.597	108.5
415.821	99.5
416.044	93.5
416.267	104.5
416.49	83.5
416.713	98.5
416.936	76.5
417.159	84.5
417.382	81.5
417.605	83.5
417.828	93.5
418.051	80.5
418.274	95.5
418.497	95.5
418.72	84.5
418.943	95.5
419.166	97.5
419.389	97.5
419.611	94.5
419.834	90.5
420.057	99.5
420.28	97.5
420.503	98.5
420.726	102.5
420.948	87.5
421.171	101.5
421.394	93.5
421.617	96.5
421.839	81.5
422.062	101.5
422.285	91.5
422.507	94.5
422.73	91.5
422.953	89.5
423.175	91.5
423.398	81.5
423.621	88.5
423.843	93.5
424.066	92.5
424.288	100.5
424.511	95.5
424.733	99.5
424.956	105.5
425.178	90.5
425.401	103.5
425.623	112.5
425.846	85.5
426.068	64.5
426.291	80.5
426.513	87.5
426.735	93.5
426.958	98.5
427.18	101.5
427.402	83.5
427.625	96.5
427.847	91.5
428.069	80.5
428.292	101.5
428.514	90.5
428.736	85.5
428.958	93.5
429.181	86.5
429.403	86.5
429.625	96.5
429.847	93.5
430.069	84.5
430.292	99.5
430.514	76.5
430.736	83.5
430.958	99.5
431.18	74.5
431.402	93.5
431.624	86.5
431.846	88.5
432.068	81.5
432.29	83.5
432.512	91.5
432.734	90.5
432.956	89.5
433.178	97.5
433.4	92.5
433.622	90.5
433.844	85.5
434.066	96.5
434.287	96.5
434.509	75.5
434.731	98.5
434.953	84.5
435.175	83.5
435.397	93.5
435.618	78.5
435.84	85.5
436.062	89.5
436.284	108.5
436.505	93.5
436.727	89.5
436.949	86.5
437.17	85.5
437.392	86.5
437.614	86.5
437.835	79.5
438.057	92.5
438.278	84.5
438.5	102.5
438.721	96.5
438.943	92.5
439.165	87.5
439.386	94.5
439.608	95.5
439.829	88.5
440.05	97.5
440.272	105.5
440.493	97.5
440.715	96.5
440.936	83.5
441.158	95.5
441.379	82.5
441.6	94.5
441.822	93.5
442.043	108.5
442.264	85.5
442.486	106.5
442.707	99.5
442.928	102.5
443.149	89.5
443.371	90.5
443.592	99.5
443.813	98.5
444.034	88.5
444.255	92.5
444.476	95.5
444.698	111.5
444.919	110.5
445.14	167.5
445.361	130.5
445.582	94.5
445.803	108.5
446.024	111.5
446.245	100.5
446.466	95.5
446.687	87.5
446.908	87.5
447.129	102.5
447.35	93.5
447.571	99.5
447.792	90.5
448.013	86.5
448.234	84.5
448.455	85.5
448.675	99.5
448.896	85.5
449.117	86.5
449.338	104.5
449.559	115.5
449.779	96.5
450	101.5
450.221	102.5
450.442	98.5
450.662	76.5
450.883	91.5
451.104	100.5
451.324	102.5
451.545	91.5
451.766	99.5
451.986	88.5
452.207	88.5
452.428	95.5
452.648	85.5
452.869	88.5
453.089	91.5
453.31	95.5
453.53	83.5
453.751	81.5
453.971	84.5
454.192	77.5
454.412	95.5
454.633	95.5
454.853	84.5
455.073	85.5
455.294	91.5
455.514	92.5
455.734	87.5
455.955	94.5
456.175	95.5
456.395	89.5
456.616	76.5
456.836	88.5
457.056	76.5
457.276	88.5
457.497	88.5
457.717	78.5
457.937	66.5
458.157	88.5
458.377	85.5
458.598	80.5
458.818	82.5
459.038	78.5
459.258	79.5
459.478	78.5
459.698	74.5
459.918	78.5
460.138	85.5
460.358	92.5
460.578	91.5
460.798	68.5
461.018	96.5
461.238	96.5
461.458	81.5
461.678	88.5
461.898	84.5
462.118	68.5
462.338	85.5
462.558	92.5
462.777	84.5
462.997	85.5
463.217	85.5
463.437	88.5
463.657	81.5
463.876	96.5
464.096	83.5
464.316	89.5
464.536	98.5
464.755	89.5
464.975	95.5
465.195	89.5
465.414	76.5
465.634	86.5
465.854	99.5
466.073	89.5
466.293	81.5
466.512	73.5
466.732	94.5
466.951	94.5
467.171	88.5
467.391	97.5
467.61	91.5
467.829	86.5
468.049	110.5
468.268	101.5
468.488	85.5
468.707	94.5
468.927	100.5
469.146	102.5
469.365	99.5
469.585	86.5
469.804	93.5
470.023	89.5
470.243	102.5
470.462	98.5
470.681	94.5
470.901	101.5
471.12	88.5
471.339	93.5
471.558	103.5
471.777	82.5
471.997	75.5
472.216	83.5
472.435	77.5
472.654	89.5
472.873	95.5
473.092	85.5
473.311	92.5
473.53	95.5
473.749	88.5
473.968	93.5
474.187	99.5
474.406	95.5
474.625	93.5
474.844	83.5
475.063	101.5
475.282	87.5
475.501	81.5
475.72	95.5
475.939	79.5
476.158	97.5
476.377	78.5
476.596	99.5
476.814	91.5
477.033	80.5
477.252	73.5
477.471	86.5
477.69	88.5
477.908	94.5
478.127	107.5
478.346	91.5
478.564	87.5
478.783	112.5
479.002	91.5
479.22	97.5
479.439	111.5
479.658	87.5
479.876	93.5
480.095	73.5
480.313	90.5
480.532	75.5
480.751	89.5
480.969	83.5
481.188	88.5
481.406	75.5
481.624	89.5
481.843	68.5
482.061	84.5
482.28	73.5
482.498	104.5
482.717	92.5
482.935	82.5
483.153	90.5
483.372	91.5
483.59	107.5
483.808	107.5
484.027	107.5
484.245	98.5
484.463	102.5
484.681	105.5
484.9	96.5
485.118	97.5
485.336	90.5
485.554	88.5
485.772	88.5
485.99	86.5
486.209	94.5
486.427	98.5
486.645	87.5
486.863	84.5
487.081	101.5
487.299	81.5
487.517	92.5
487.735	113.5
487.953	102.5
488.171	122.5
488.389	105.5
488.607	100.5
488.825	88.5
489.043	106.5
489.261	72.5
489.479	86.5
489.696	101.5
489.914	91.5
490.132	99.5
490.35	102.5
490.568	95.5
490.786	93.5
491.003	104.5
491.221	97.5
491.439	104.5
491.657	115.5
491.874	116.5
492.092	122.5
492.31	127.5
492.527	126.5
492.745	119.5
492.963	105.5
493.18	117.5
493.398	129.5
493.615	117.5
493.833	113.5
494.05	92.5
494.268	98.5
494.485	96.5
494.703	101.5
494.92	112.5
495.138	110.5
495.355	111.5
495.573	106.5
495.79	98.5
496.008	94.5
496.225	104.5
496.442	91.5
496.66	97.5
496.877	121.5
497.094	110.5
497.312	101.5
497.529	100.5
497.746	108.5
497.963	89.5
498.181	82.5
498.398	68.5
498.615	97.5
498.832	77.5
499.049	85.5
499.267	86.5
499.484	87.5
499.701	89.5
499.918	115.5
500.135	101.5
500.352	109.5
500.569	98.5
500.786	97.5
501.003	115.5
501.22	104.5
501.437	109.5
501.654	95.5
501.871	89.5
502.088	103.5
502.305	77.5
502.522	78.5
502.739	101.5
502.956	98.5
503.172	95.5
503.389	87.5
503.606	83.5
503.823	101.5
504.04	95.5
504.256	87.5
504.473	95.5
504.69	85.5
504.907	95.5
505.123	99.5
505.34	78.5
505.557	85.5
505.773	79.5
505.99	93.5
506.207	73.5
506.423	93.5
506.64	104.5
506.856	90.5
507.073	85.5
507.289	88.5
507.506	108.5
507.722	110.5
507.939	77.5
508.155	89.5
508.372	91.5
508.588	86.5
508.805	89.5
509.021	101.5
509.238	88.5
509.454	76.5
509.67	87.5
509.887	85.5
510.103	90.5
510.319	92.5
510.536	85.5
510.752	78.5
510.968	80.5
511.184	89.5
511.401	88.5
511.617	84.5
511.833	73.5
512.049	81.5
512.265	82.5
512.481	72.5
512.698	97.5
512.914	85.5
513.13	69.5
513.346	80.5
513.562	85.5
513.778	83.5
513.994	78.5
514.21	81.5
514.426	74.5
514.642	83.5
514.858	90.5
515.074	90.5
515.29	57.5
515.506	71.5
515.721	79.5
515.937	83.5
516.153	73.5
516.369	78.5
516.585	80.5
516.801	79.5
517.016	83.5
517.232	74.5
517.448	94.5
517.664	72.5
517.879	85.5
518.095	81.5
518.311	74.5
518.527	73.5
518.742	93.5
518.958	89.5
519.173	89.5
519.389	85.5
519.605	93.5
519.82	81.5
520.036	83.5
520.251	92.5
520.467	83.5
520.682	85.5
520.898	80.5
521.113	82.5
521.329	81.5
521.544	87.5
521.76	81.5
521.975	73.5
522.19	90.5
522.406	82.5
522.621	76.5
522.836	68.5
523.052	81.5
523.267	87.5
523.482	83.5
523.698	89.5
523.913	84.5
524.128	77.5
524.343	90.5
524.559	93.5
524.774	99.5
524.989	92.5
525.204	85.5
525.419	92.5
525.634	82.5
525.849	86.5
526.064	82.5
526.28	84.5
526.495	86.5
526.71	83.5
526.925	91.5
527.14	93.5
527.355	81.5
527.57	88.5
527.785	82.5
527.999	74.5
528.214	99.5
528.429	89.5
528.644	89.5
528.859	100.5
529.074	108.5
529.289	119.5
529.503	104.5
529.718	93.5
529.933	94.5
530.148	87.5
530.363	82.5
530.577	78.5
530.792	93.5
531.007	89.5
531.221	76.5
531.436	76.5
531.651	91.5
531.865	94.5
532.08	87.5
532.295	77.5
532.509	80.5
532.724	74.5
532.938	71.5
533.153	91.5
533.367	97.5
533.582	97.5
533.796	83.5
534.011	90.5
534.225	87.5
534.44	87.5
534.654	83.5
534.868	80.5
535.083	85.5
535.297	102.5
535.511	96.5
535.726	92.5
535.94	94.5
536.154	93.5
536.369	86.5
536.583	79.5
536.797	80.5
537.011	93.5
537.225	94.5
537.44	106.5
537.654	81.5
537.868	79.5
538.082	85.5
538.296	87.5
