Data from Location3.07152019.Energy5.Lamp.07192019.3%Agarose_HRD10591_15-16-32-268.txt Node
Date: Fri Jul 19 15:16:32 EDT 2019
User: cochatt
Spectrometer: HR+D1059
Trigger mode: 1
Integration Time (sec): 1.000000E-1
Scans to average: 1
Electric dark correction enabled: true
Nonlinearity correction enabled: false
Boxcar width: 0
XAxis mode: Wavelengths
Number of Pixels in Spectrum: 2048
>>>>>Begin Spectral Data<<<<<
223.165	1.88
223.4	1.88
223.635	1.88
223.869	-27.12
224.104	-27.12
224.338	-17.12
224.573	-13.12
224.808	-5.12
225.042	-6.12
225.277	-2.12
225.511	-2.12
225.746	0.88
225.98	2.88
226.215	3.88
226.449	6.88
226.683	18.88
226.918	32.88
227.152	31.88
227.387	37.88
227.621	47.88
227.856	36.88
228.09	52.88
228.324	47.88
228.559	47.88
228.793	42.88
229.027	72.88
229.262	59.88
229.496	59.88
229.73	80.88
229.964	82.88
230.199	69.88
230.433	70.88
230.667	81.88
230.901	81.88
231.136	99.88
231.37	80.88
231.604	73.88
231.838	74.88
232.072	81.88
232.306	86.88
232.541	90.88
232.775	79.88
233.009	80.88
233.243	74.88
233.477	71.88
233.711	76.88
233.945	85.88
234.179	88.88
234.413	73.88
234.647	67.88
234.881	90.88
235.115	89.88
235.349	74.88
235.583	84.88
235.817	69.88
236.051	80.88
236.285	86.88
236.519	70.88
236.753	74.88
236.987	83.88
237.221	76.88
237.455	85.88
237.689	67.88
237.922	84.88
238.156	88.88
238.39	79.88
238.624	70.88
238.858	64.88
239.091	85.88
239.325	76.88
239.559	69.88
239.793	65.88
240.027	70.88
240.26	92.88
240.494	62.88
240.728	75.88
240.961	82.88
241.195	82.88
241.429	93.88
241.662	78.88
241.896	93.88
242.13	75.88
242.363	84.88
242.597	83.88
242.83	74.88
243.064	77.88
243.298	83.88
243.531	71.88
243.765	80.88
243.998	80.88
244.232	78.88
244.465	85.88
244.699	74.88
244.932	73.88
245.166	80.88
245.399	71.88
245.633	77.88
245.866	91.88
246.099	88.88
246.333	80.88
246.566	77.88
246.8	80.88
247.033	78.88
247.266	78.88
247.5	85.88
247.733	77.88
247.966	72.88
248.2	75.88
248.433	87.88
248.666	67.88
248.899	64.88
249.133	70.88
249.366	75.88
249.599	89.88
249.832	85.88
250.066	85.88
250.299	79.88
250.532	75.88
250.765	80.88
250.998	77.88
251.231	67.88
251.465	73.88
251.698	68.88
251.931	75.88
252.164	90.88
252.397	82.88
252.63	84.88
252.863	78.88
253.096	83.88
253.329	82.88
253.562	79.88
253.795	88.88
254.028	85.88
254.261	76.88
254.494	75.88
254.727	72.88
254.96	76.88
255.193	86.88
255.426	88.88
255.659	80.88
255.892	88.88
256.124	76.88
256.357	68.88
256.59	84.88
256.823	76.88
257.056	87.88
257.289	82.88
257.521	86.88
257.754	75.88
257.987	72.88
258.22	95.88
258.452	81.88
258.685	79.88
258.918	77.88
259.151	73.88
259.383	76.88
259.616	84.88
259.849	88.88
260.081	72.88
260.314	97.88
260.547	75.88
260.779	75.88
261.012	88.88
261.244	70.88
261.477	80.88
261.71	82.88
261.942	79.88
262.175	84.88
262.407	85.88
262.64	83.88
262.872	85.88
263.105	69.88
263.337	77.88
263.57	73.88
263.802	71.88
264.035	75.88
264.267	81.88
264.499	86.88
264.732	85.88
264.964	91.88
265.197	90.88
265.429	85.88
265.661	77.88
265.894	81.88
266.126	79.88
266.358	76.88
266.591	73.88
266.823	74.88
267.055	90.88
267.287	85.88
267.52	82.88
267.752	83.88
267.984	83.88
268.216	91.88
268.448	91.88
268.681	87.88
268.913	85.88
269.145	84.88
269.377	83.88
269.609	74.88
269.841	95.88
270.073	102.88
270.306	76.88
270.538	76.88
270.77	81.88
271.002	95.88
271.234	93.88
271.466	79.88
271.698	83.88
271.93	76.88
272.162	89.88
272.394	88.88
272.626	78.88
272.858	71.88
273.09	77.88
273.322	87.88
273.553	89.88
273.785	91.88
274.017	85.88
274.249	85.88
274.481	81.88
274.713	81.88
274.945	88.88
275.176	86.88
275.408	78.88
275.64	97.88
275.872	98.88
276.104	80.88
276.335	88.88
276.567	85.88
276.799	91.88
277.031	74.88
277.262	95.88
277.494	82.88
277.726	84.88
277.957	95.88
278.189	84.88
278.421	87.88
278.652	90.88
278.884	72.88
279.115	79.88
279.347	84.88
279.579	90.88
279.81	95.88
280.042	80.88
280.273	79.88
280.505	97.88
280.736	80.88
280.968	88.88
281.199	82.88
281.431	85.88
281.662	80.88
281.894	71.88
282.125	87.88
282.356	99.88
282.588	77.88
282.819	91.88
283.051	84.88
283.282	86.88
283.513	80.88
283.745	86.88
283.976	74.88
284.207	57.88
284.439	87.88
284.67	87.88
284.901	85.88
285.132	100.88
285.364	81.88
285.595	90.88
285.826	74.88
286.057	96.88
286.288	75.88
286.52	71.88
286.751	84.88
286.982	98.88
287.213	74.88
287.444	91.88
287.675	84.88
287.906	81.88
288.138	92.88
288.369	97.88
288.6	84.88
288.831	82.88
289.062	80.88
289.293	77.88
289.524	84.88
289.755	85.88
289.986	83.88
290.217	86.88
290.448	83.88
290.679	76.88
290.91	89.88
291.141	88.88
291.371	88.88
291.602	81.88
291.833	99.88
292.064	86.88
292.295	86.88
292.526	91.88
292.757	104.88
292.987	90.88
293.218	79.88
293.449	85.88
293.68	95.88
293.91	97.88
294.141	86.88
294.372	71.88
294.603	83.88
294.833	76.88
295.064	79.88
295.295	100.88
295.525	88.88
295.756	79.88
295.987	81.88
296.217	75.88
296.448	82.88
296.679	92.88
296.909	89.88
297.14	72.88
297.37	94.88
297.601	90.88
297.831	85.88
298.062	94.88
298.292	94.88
298.523	77.88
298.753	82.88
298.984	84.88
299.214	81.88
299.445	85.88
299.675	81.88
299.905	82.88
300.136	81.88
300.366	90.88
300.597	90.88
300.827	79.88
301.057	72.88
301.288	73.88
301.518	84.88
301.748	87.88
301.979	79.88
302.209	90.88
302.439	73.88
302.669	89.88
302.9	85.88
303.13	81.88
303.36	83.88
303.59	76.88
303.82	80.88
304.051	76.88
304.281	82.88
304.511	74.88
304.741	81.88
304.971	83.88
305.201	84.88
305.431	81.88
305.661	84.88
305.891	90.88
306.121	92.88
306.352	76.88
306.582	73.88
306.812	83.88
307.042	90.88
307.272	87.88
307.502	100.88
307.731	84.88
307.961	84.88
308.191	81.88
308.421	83.88
308.651	94.88
308.881	94.88
309.111	82.88
309.341	96.88
309.571	76.88
309.8	88.88
310.03	81.88
310.26	82.88
310.49	75.88
310.72	91.88
310.949	82.88
311.179	87.88
311.409	90.88
311.639	85.88
311.868	85.88
312.098	79.88
312.328	87.88
312.557	88.88
312.787	80.88
313.017	94.88
313.246	82.88
313.476	81.88
313.706	85.88
313.935	91.88
314.165	84.88
314.394	79.88
314.624	95.88
314.853	89.88
315.083	89.88
315.312	73.88
315.542	97.88
315.771	89.88
316.001	89.88
316.23	74.88
316.46	88.88
316.689	80.88
316.919	81.88
317.148	96.88
317.377	81.88
317.607	92.88
317.836	84.88
318.065	79.88
318.295	63.88
318.524	88.88
318.753	82.88
318.983	95.88
319.212	83.88
319.441	82.88
319.67	91.88
319.9	83.88
320.129	81.88
320.358	83.88
320.587	74.88
320.816	76.88
321.046	76.88
321.275	102.88
321.504	82.88
321.733	76.88
321.962	73.88
322.191	82.88
322.42	87.88
322.649	95.88
322.878	92.88
323.108	72.88
323.337	90.88
323.566	79.88
323.795	88.88
324.024	94.88
324.253	77.88
324.482	88.88
324.71	83.88
324.939	98.88
325.168	82.88
325.397	86.88
325.626	87.88
325.855	86.88
326.084	72.88
326.313	86.88
326.542	85.88
326.77	97.88
326.999	83.88
327.228	94.88
327.457	80.88
327.686	70.88
327.914	88.88
328.143	83.88
328.372	87.88
328.6	97.88
328.829	85.88
329.058	83.88
329.287	73.88
329.515	74.88
329.744	88.88
329.972	84.88
330.201	67.88
330.43	74.88
330.658	93.88
330.887	95.88
331.115	93.88
331.344	85.88
331.572	90.88
331.801	87.88
332.03	83.88
332.258	92.88
332.486	77.88
332.715	77.88
332.943	78.88
333.172	76.88
333.4	91.88
333.629	82.88
333.857	79.88
334.085	83.88
334.314	81.88
334.542	79.88
334.771	79.88
334.999	84.88
335.227	78.88
335.455	86.88
335.684	96.88
335.912	85.88
336.14	68.88
336.369	78.88
336.597	86.88
336.825	86.88
337.053	80.88
337.281	88.88
337.51	92.88
337.738	88.88
337.966	89.88
338.194	87.88
338.422	80.88
338.65	99.88
338.878	88.88
339.106	88.88
339.334	93.88
339.562	91.88
339.79	93.88
340.018	83.88
340.246	91.88
340.474	74.88
340.702	76.88
340.93	80.88
341.158	86.88
341.386	84.88
341.614	87.88
341.842	82.88
342.07	94.88
342.298	83.88
342.526	86.88
342.754	78.88
342.981	94.88
343.209	68.88
343.437	82.88
343.665	90.88
343.893	101.88
344.12	86.88
344.348	70.88
344.576	87.88
344.804	73.88
345.031	80.88
345.259	79.88
345.487	90.88
345.714	73.88
345.942	90.88
346.17	81.88
346.397	90.88
346.625	89.88
346.853	90.88
347.08	84.88
347.308	86.88
347.535	92.88
347.763	68.88
347.99	87.88
348.218	89.88
348.445	76.88
348.673	78.88
348.9	82.88
349.128	92.88
349.355	90.88
349.583	88.88
349.81	78.88
350.037	80.88
350.265	73.88
350.492	78.88
350.72	76.88
350.947	82.88
351.174	76.88
351.402	90.88
351.629	83.88
351.856	81.88
352.083	96.88
352.311	87.88
352.538	79.88
352.765	75.88
352.992	82.88
353.22	79.88
353.447	81.88
353.674	94.88
353.901	91.88
354.128	82.88
354.355	68.88
354.583	81.88
354.81	77.88
355.037	75.88
355.264	77.88
355.491	84.88
355.718	75.88
355.945	81.88
356.172	81.88
356.399	98.88
356.626	89.88
356.853	82.88
357.08	86.88
357.307	70.88
357.534	76.88
357.761	85.88
357.988	78.88
358.215	78.88
358.441	87.88
358.668	77.88
358.895	67.88
359.122	91.88
359.349	80.88
359.576	72.88
359.802	94.88
360.029	76.88
360.256	85.88
360.483	73.88
360.709	70.88
360.936	86.88
361.163	80.88
361.39	81.88
361.616	82.88
361.843	95.88
362.07	85.88
362.296	77.88
362.523	81.88
362.749	90.88
362.976	71.88
363.203	74.88
363.429	73.88
363.656	88.88
363.882	76.88
364.109	86.88
364.335	94.88
364.562	108.88
364.788	69.88
365.015	87.88
365.241	78.88
365.468	86.88
365.694	82.88
365.92	73.88
366.147	83.88
366.373	73.88
366.599	77.88
366.826	72.88
367.052	93.88
367.278	77.88
367.505	86.88
367.731	93.88
367.957	75.88
368.184	86.88
368.41	75.88
368.636	87.88
368.862	78.88
369.089	86.88
369.315	86.88
369.541	87.88
369.767	96.88
369.993	72.88
370.219	81.88
370.445	81.88
370.672	75.88
370.898	79.88
371.124	90.88
371.35	103.88
371.576	97.88
371.802	106.88
372.028	87.88
372.254	72.88
372.48	81.88
372.706	96.88
372.932	91.88
373.158	86.88
373.384	90.88
373.61	92.88
373.835	86.88
374.061	93.88
374.287	77.88
374.513	86.88
374.739	87.88
374.965	61.88
375.191	86.88
375.416	70.88
375.642	84.88
375.868	84.88
376.094	91.88
376.319	85.88
376.545	78.88
376.771	86.88
376.997	79.88
377.222	82.88
377.448	84.88
377.674	95.88
377.899	90.88
378.125	84.88
378.35	89.88
378.576	95.88
378.802	91.88
379.027	91.88
379.253	76.88
379.478	87.88
379.704	88.88
379.929	80.88
380.155	81.88
380.38	78.88
380.606	91.88
380.831	84.88
381.057	87.88
381.282	85.88
381.507	80.88
381.733	89.88
381.958	83.88
382.184	91.88
382.409	83.88
382.634	91.88
382.86	85.88
383.085	96.88
383.31	83.88
383.535	77.88
383.761	79.88
383.986	87.88
384.211	90.88
384.436	77.88
384.662	99.88
384.887	83.88
385.112	88.88
385.337	88.88
385.562	86.88
385.787	84.88
386.013	88.88
386.238	83.88
386.463	85.88
386.688	88.88
386.913	70.88
387.138	90.88
387.363	87.88
387.588	91.88
387.813	82.88
388.038	78.88
388.263	94.88
388.488	71.88
388.713	90.88
388.938	88.88
389.163	87.88
389.387	80.88
389.612	98.88
389.837	87.88
390.062	93.88
390.287	89.88
390.512	84.88
390.736	82.88
390.961	99.88
391.186	92.88
391.411	82.88
391.636	86.88
391.86	102.88
392.085	90.88
392.31	89.88
392.534	81.88
392.759	92.88
392.984	94.88
393.208	85.88
393.433	83.88
393.658	86.88
393.882	74.88
394.107	82.88
394.331	90.88
394.556	90.88
394.78	96.88
395.005	70.88
395.229	71.88
395.454	86.88
395.678	89.88
395.903	79.88
396.127	78.88
396.352	104.88
396.576	92.88
396.801	90.88
397.025	84.88
397.249	88.88
397.474	94.88
397.698	87.88
397.922	80.88
398.147	69.88
398.371	76.88
398.595	90.88
398.82	89.88
399.044	87.88
399.268	85.88
399.492	101.88
399.717	87.88
399.941	90.88
400.165	89.88
400.389	86.88
400.613	82.88
400.837	87.88
401.062	69.88
401.286	101.88
401.51	91.88
401.734	82.88
401.958	82.88
402.182	92.88
402.406	100.88
402.63	82.88
402.854	92.88
403.078	75.88
403.302	95.88
403.526	76.88
403.75	85.88
403.974	98.88
404.198	82.88
404.422	97.88
404.645	96.88
404.869	90.88
405.093	96.88
405.317	81.88
405.541	92.88
405.765	86.88
405.988	99.88
406.212	88.88
406.436	88.88
406.66	98.88
406.883	96.88
407.107	114.88
407.331	92.88
407.555	108.88
407.778	98.88
408.002	87.88
408.226	82.88
408.449	80.88
408.673	85.88
408.896	96.88
409.12	90.88
409.344	89.88
409.567	93.88
409.791	95.88
410.014	84.88
410.238	106.88
410.461	89.88
410.685	86.88
410.908	86.88
411.132	95.88
411.355	94.88
411.578	90.88
411.802	88.88
412.025	82.88
412.249	94.88
412.472	84.88
412.695	98.88
412.919	73.88
413.142	84.88
413.365	95.88
413.589	87.88
413.812	86.88
414.035	94.88
414.258	77.88
414.482	86.88
414.705	99.88
414.928	86.88
415.151	73.88
415.374	93.88
415.597	94.88
415.821	94.88
416.044	96.88
416.267	86.88
416.49	86.88
416.713	93.88
416.936	91.88
417.159	82.88
417.382	96.88
417.605	81.88
417.828	81.88
418.051	85.88
418.274	76.88
418.497	88.88
418.72	97.88
418.943	97.88
419.166	96.88
419.389	99.88
419.611	97.88
419.834	93.88
420.057	118.88
420.28	82.88
420.503	84.88
420.726	90.88
420.948	91.88
421.171	100.88
421.394	89.88
421.617	90.88
421.839	104.88
422.062	90.88
422.285	80.88
422.507	80.88
422.73	105.88
422.953	98.88
423.175	91.88
423.398	91.88
423.621	83.88
423.843	103.88
424.066	97.88
424.288	108.88
424.511	112.88
424.733	108.88
424.956	114.88
425.178	104.88
425.401	88.88
425.623	103.88
425.846	86.88
426.068	82.88
426.291	95.88
426.513	93.88
426.735	91.88
426.958	97.88
427.18	89.88
427.402	94.88
427.625	100.88
427.847	87.88
428.069	93.88
428.292	103.88
428.514	92.88
428.736	93.88
428.958	90.88
429.181	92.88
429.403	100.88
429.625	96.88
429.847	89.88
430.069	99.88
430.292	105.88
430.514	92.88
430.736	94.88
430.958	92.88
431.18	85.88
431.402	89.88
431.624	82.88
431.846	91.88
432.068	86.88
432.29	91.88
432.512	100.88
432.734	97.88
432.956	83.88
433.178	95.88
433.4	98.88
433.622	112.88
433.844	114.88
434.066	92.88
434.287	84.88
434.509	84.88
434.731	77.88
434.953	91.88
435.175	91.88
435.397	92.88
435.618	95.88
435.84	78.88
436.062	86.88
436.284	91.88
436.505	97.88
436.727	91.88
436.949	83.88
437.17	90.88
437.392	93.88
437.614	103.88
437.835	86.88
438.057	91.88
438.278	89.88
438.5	94.88
438.721	92.88
438.943	101.88
439.165	96.88
439.386	82.88
439.608	103.88
439.829	104.88
440.05	101.88
440.272	92.88
440.493	100.88
440.715	104.88
440.936	86.88
441.158	95.88
441.379	88.88
441.6	101.88
441.822	100.88
442.043	101.88
442.264	97.88
442.486	106.88
442.707	96.88
442.928	105.88
443.149	90.88
443.371	97.88
443.592	87.88
443.813	81.88
444.034	95.88
444.255	90.88
444.476	88.88
444.698	98.88
444.919	103.88
445.14	164.88
445.361	138.88
445.582	95.88
445.803	90.88
446.024	114.88
446.245	91.88
446.466	94.88
446.687	105.88
446.908	90.88
447.129	112.88
447.35	93.88
447.571	86.88
447.792	107.88
448.013	94.88
448.234	103.88
448.455	108.88
448.675	99.88
448.896	110.88
449.117	110.88
449.338	87.88
449.559	97.88
449.779	99.88
450	108.88
450.221	94.88
450.442	97.88
450.662	94.88
450.883	83.88
451.104	83.88
451.324	90.88
451.545	101.88
451.766	86.88
451.986	87.88
452.207	93.88
452.428	93.88
452.648	99.88
452.869	103.88
453.089	93.88
453.31	94.88
453.53	91.88
453.751	93.88
453.971	94.88
454.192	96.88
454.412	87.88
454.633	82.88
454.853	83.88
455.073	86.88
455.294	114.88
455.514	100.88
455.734	107.88
455.955	96.88
456.175	86.88
456.395	95.88
456.616	92.88
456.836	92.88
457.056	98.88
457.276	83.88
457.497	67.88
457.717	84.88
457.937	83.88
458.157	84.88
458.377	93.88
458.598	75.88
458.818	71.88
459.038	103.88
459.258	85.88
459.478	83.88
459.698	89.88
459.918	95.88
460.138	86.88
460.358	89.88
460.578	93.88
460.798	78.88
461.018	86.88
461.238	95.88
461.458	90.88
461.678	94.88
461.898	89.88
462.118	88.88
462.338	98.88
462.558	99.88
462.777	91.88
462.997	88.88
463.217	92.88
463.437	101.88
463.657	95.88
463.876	106.88
464.096	82.88
464.316	80.88
464.536	96.88
464.755	88.88
464.975	90.88
465.195	70.88
465.414	86.88
465.634	91.88
465.854	95.88
466.073	84.88
466.293	94.88
466.512	91.88
466.732	93.88
466.951	90.88
467.171	87.88
467.391	103.88
467.61	94.88
467.829	86.88
468.049	92.88
468.268	106.88
468.488	114.88
468.707	106.88
468.927	85.88
469.146	105.88
469.365	105.88
469.585	90.88
469.804	108.88
470.023	112.88
470.243	102.88
470.462	87.88
470.681	106.88
470.901	99.88
471.12	102.88
471.339	99.88
471.558	96.88
471.777	98.88
471.997	102.88
472.216	103.88
472.435	89.88
472.654	86.88
472.873	84.88
473.092	86.88
473.311	104.88
473.53	88.88
473.749	108.88
473.968	80.88
474.187	103.88
474.406	86.88
474.625	103.88
474.844	89.88
475.063	95.88
475.282	83.88
475.501	75.88
475.72	89.88
475.939	94.88
476.158	101.88
476.377	100.88
476.596	88.88
476.814	112.88
477.033	93.88
477.252	88.88
477.471	95.88
477.69	106.88
477.908	110.88
478.127	95.88
478.346	98.88
478.564	81.88
478.783	108.88
479.002	98.88
479.22	99.88
479.439	98.88
479.658	91.88
479.876	98.88
480.095	109.88
480.313	88.88
480.532	89.88
480.751	90.88
480.969	97.88
481.188	82.88
481.406	86.88
481.624	90.88
481.843	82.88
482.061	93.88
482.28	91.88
482.498	83.88
482.717	84.88
482.935	90.88
483.153	101.88
483.372	102.88
483.59	98.88
483.808	101.88
484.027	107.88
484.245	88.88
484.463	92.88
484.681	105.88
484.9	102.88
485.118	98.88
485.336	96.88
485.554	78.88
485.772	97.88
485.99	78.88
486.209	100.88
486.427	92.88
486.645	93.88
486.863	98.88
487.081	87.88
487.299	98.88
487.517	112.88
487.735	107.88
487.953	99.88
488.171	108.88
488.389	119.88
488.607	104.88
488.825	104.88
489.043	91.88
489.261	98.88
489.479	103.88
489.696	108.88
489.914	97.88
490.132	95.88
490.35	96.88
490.568	79.88
490.786	97.88
491.003	95.88
491.221	107.88
491.439	106.88
491.657	119.88
491.874	126.88
492.092	143.88
492.31	129.88
492.527	125.88
492.745	114.88
492.963	108.88
493.18	128.88
493.398	103.88
493.615	122.88
493.833	100.88
494.05	105.88
494.268	122.88
494.485	112.88
494.703	108.88
494.92	106.88
495.138	119.88
495.355	103.88
495.573	104.88
495.79	121.88
496.008	106.88
496.225	123.88
496.442	102.88
496.66	99.88
496.877	104.88
497.094	105.88
497.312	110.88
497.529	83.88
497.746	92.88
497.963	101.88
498.181	94.88
498.398	85.88
498.615	95.88
498.832	90.88
499.049	94.88
499.267	93.88
499.484	99.88
499.701	101.88
499.918	85.88
500.135	105.88
500.352	107.88
500.569	103.88
500.786	98.88
501.003	96.88
501.22	100.88
501.437	99.88
501.654	108.88
501.871	98.88
502.088	94.88
502.305	93.88
502.522	108.88
502.739	91.88
502.956	88.88
503.172	103.88
503.389	93.88
503.606	95.88
503.823	104.88
504.04	112.88
504.256	90.88
504.473	86.88
504.69	101.88
504.907	99.88
505.123	101.88
505.34	100.88
505.557	91.88
505.773	88.88
505.99	88.88
506.207	95.88
506.423	89.88
506.64	99.88
506.856	92.88
507.073	97.88
507.289	86.88
507.506	90.88
507.722	89.88
507.939	104.88
508.155	104.88
508.372	101.88
508.588	102.88
508.805	105.88
509.021	104.88
509.238	88.88
509.454	94.88
509.67	110.88
509.887	93.88
510.103	90.88
510.319	97.88
510.536	94.88
510.752	92.88
510.968	84.88
511.184	82.88
511.401	76.88
511.617	81.88
511.833	91.88
512.049	77.88
512.265	97.88
512.481	95.88
512.698	83.88
512.914	80.88
513.13	95.88
513.346	99.88
513.562	90.88
513.778	86.88
513.994	81.88
514.21	98.88
514.426	75.88
514.642	85.88
514.858	79.88
515.074	103.88
515.29	93.88
515.506	82.88
515.721	75.88
515.937	85.88
516.153	80.88
516.369	89.88
516.585	96.88
516.801	80.88
517.016	76.88
517.232	81.88
517.448	85.88
