Data from Location3.07152019.Energy5.Lamp.07192019.3%Agarose_HRD10591_15-18-42-269.txt Node
Date: Fri Jul 19 15:18:42 EDT 2019
User: cochatt
Spectrometer: HR+D1059
Trigger mode: 1
Integration Time (sec): 1.000000E-1
Scans to average: 1
Electric dark correction enabled: true
Nonlinearity correction enabled: false
Boxcar width: 0
XAxis mode: Wavelengths
Number of Pixels in Spectrum: 2048
>>>>>Begin Spectral Data<<<<<
223.165	-17.62
223.4	-17.62
223.635	-17.62
223.869	-21.62
224.104	-11.62
224.338	-9.62
224.573	-12.62
224.808	-4.62
225.042	-8.62
225.277	-11.62
225.511	11.38
225.746	-0.62
225.98	1.38
226.215	4.38
226.449	16.38
226.683	12.38
226.918	25.38
227.152	27.38
227.387	25.38
227.621	42.38
227.856	40.38
228.09	67.38
228.324	63.38
228.559	63.38
228.793	66.38
229.027	70.38
229.262	83.38
229.496	63.38
229.73	57.38
229.964	77.38
230.199	68.38
230.433	78.38
230.667	80.38
230.901	79.38
231.136	56.38
231.37	76.38
231.604	79.38
231.838	71.38
232.072	81.38
232.306	71.38
232.541	93.38
232.775	89.38
233.009	90.38
233.243	67.38
233.477	75.38
233.711	80.38
233.945	88.38
234.179	77.38
234.413	94.38
234.647	84.38
234.881	73.38
235.115	82.38
235.349	84.38
235.583	82.38
235.817	84.38
236.051	81.38
236.285	83.38
236.519	85.38
236.753	76.38
236.987	75.38
237.221	80.38
237.455	80.38
237.689	68.38
237.922	87.38
238.156	76.38
238.39	78.38
238.624	86.38
238.858	82.38
239.091	75.38
239.325	67.38
239.559	80.38
239.793	66.38
240.027	72.38
240.26	66.38
240.494	81.38
240.728	69.38
240.961	76.38
241.195	80.38
241.429	77.38
241.662	64.38
241.896	78.38
242.13	89.38
242.363	77.38
242.597	70.38
242.83	78.38
243.064	75.38
243.298	88.38
243.531	81.38
243.765	79.38
243.998	87.38
244.232	74.38
244.465	78.38
244.699	87.38
244.932	88.38
245.166	76.38
245.399	72.38
245.633	78.38
245.866	76.38
246.099	77.38
246.333	76.38
246.566	90.38
246.8	84.38
247.033	76.38
247.266	66.38
247.5	81.38
247.733	79.38
247.966	64.38
248.2	73.38
248.433	82.38
248.666	89.38
248.899	84.38
249.133	82.38
249.366	85.38
249.599	86.38
249.832	81.38
250.066	71.38
250.299	88.38
250.532	88.38
250.765	86.38
250.998	80.38
251.231	75.38
251.465	98.38
251.698	80.38
251.931	75.38
252.164	83.38
252.397	74.38
252.63	78.38
252.863	75.38
253.096	87.38
253.329	84.38
253.562	81.38
253.795	78.38
254.028	86.38
254.261	90.38
254.494	84.38
254.727	83.38
254.96	92.38
255.193	88.38
255.426	73.38
255.659	76.38
255.892	91.38
256.124	80.38
256.357	75.38
256.59	78.38
256.823	66.38
257.056	77.38
257.289	77.38
257.521	90.38
257.754	85.38
257.987	96.38
258.22	88.38
258.452	81.38
258.685	68.38
258.918	84.38
259.151	58.38
259.383	79.38
259.616	67.38
259.849	82.38
260.081	105.38
260.314	83.38
260.547	78.38
260.779	88.38
261.012	92.38
261.244	70.38
261.477	97.38
261.71	87.38
261.942	92.38
262.175	82.38
262.407	82.38
262.64	70.38
262.872	76.38
263.105	82.38
263.337	80.38
263.57	83.38
263.802	84.38
264.035	86.38
264.267	83.38
264.499	78.38
264.732	89.38
264.964	92.38
265.197	76.38
265.429	84.38
265.661	91.38
265.894	84.38
266.126	93.38
266.358	101.38
266.591	75.38
266.823	83.38
267.055	88.38
267.287	87.38
267.52	84.38
267.752	92.38
267.984	87.38
268.216	85.38
268.448	71.38
268.681	78.38
268.913	90.38
269.145	86.38
269.377	82.38
269.609	93.38
269.841	76.38
270.073	79.38
270.306	97.38
270.538	82.38
270.77	80.38
271.002	83.38
271.234	81.38
271.466	87.38
271.698	84.38
271.93	79.38
272.162	82.38
272.394	96.38
272.626	86.38
272.858	71.38
273.09	95.38
273.322	81.38
273.553	79.38
273.785	82.38
274.017	75.38
274.249	90.38
274.481	91.38
274.713	88.38
274.945	83.38
275.176	82.38
275.408	82.38
275.64	75.38
275.872	78.38
276.104	80.38
276.335	83.38
276.567	81.38
276.799	101.38
277.031	88.38
277.262	78.38
277.494	93.38
277.726	82.38
277.957	92.38
278.189	96.38
278.421	74.38
278.652	86.38
278.884	77.38
279.115	87.38
279.347	84.38
279.579	81.38
279.81	77.38
280.042	98.38
280.273	83.38
280.505	76.38
280.736	87.38
280.968	100.38
281.199	84.38
281.431	91.38
281.662	85.38
281.894	79.38
282.125	86.38
282.356	90.38
282.588	97.38
282.819	86.38
283.051	86.38
283.282	88.38
283.513	97.38
283.745	88.38
283.976	84.38
284.207	78.38
284.439	82.38
284.67	82.38
284.901	89.38
285.132	86.38
285.364	74.38
285.595	90.38
285.826	82.38
286.057	75.38
286.288	90.38
286.52	87.38
286.751	82.38
286.982	85.38
287.213	80.38
287.444	82.38
287.675	94.38
287.906	93.38
288.138	76.38
288.369	80.38
288.6	86.38
288.831	81.38
289.062	84.38
289.293	92.38
289.524	90.38
289.755	70.38
289.986	90.38
290.217	91.38
290.448	73.38
290.679	82.38
290.91	81.38
291.141	85.38
291.371	81.38
291.602	94.38
291.833	78.38
292.064	90.38
292.295	74.38
292.526	96.38
292.757	102.38
292.987	103.38
293.218	86.38
293.449	79.38
293.68	87.38
293.91	75.38
294.141	79.38
294.372	83.38
294.603	93.38
294.833	85.38
295.064	94.38
295.295	84.38
295.525	89.38
295.756	78.38
295.987	91.38
296.217	77.38
296.448	83.38
296.679	81.38
296.909	81.38
297.14	89.38
297.37	85.38
297.601	81.38
297.831	78.38
298.062	82.38
298.292	83.38
298.523	84.38
298.753	93.38
298.984	83.38
299.214	84.38
299.445	96.38
299.675	80.38
299.905	95.38
300.136	79.38
300.366	88.38
300.597	98.38
300.827	72.38
301.057	81.38
301.288	71.38
301.518	78.38
301.748	89.38
301.979	91.38
302.209	92.38
302.439	89.38
302.669	88.38
302.9	75.38
303.13	81.38
303.36	84.38
303.59	73.38
303.82	78.38
304.051	93.38
304.281	104.38
304.511	91.38
304.741	94.38
304.971	91.38
305.201	85.38
305.431	83.38
305.661	96.38
305.891	98.38
306.121	87.38
306.352	90.38
306.582	69.38
306.812	77.38
307.042	84.38
307.272	82.38
307.502	85.38
307.731	86.38
307.961	97.38
308.191	81.38
308.421	88.38
308.651	97.38
308.881	77.38
309.111	87.38
309.341	89.38
309.571	83.38
309.8	90.38
310.03	84.38
310.26	89.38
310.49	74.38
310.72	79.38
310.949	70.38
311.179	88.38
311.409	79.38
311.639	82.38
311.868	88.38
312.098	85.38
312.328	78.38
312.557	93.38
312.787	83.38
313.017	104.38
313.246	89.38
313.476	90.38
313.706	73.38
313.935	81.38
314.165	97.38
314.394	78.38
314.624	86.38
314.853	81.38
315.083	86.38
315.312	105.38
315.542	92.38
315.771	84.38
316.001	90.38
316.23	77.38
316.46	93.38
316.689	81.38
316.919	95.38
317.148	83.38
317.377	90.38
317.607	88.38
317.836	84.38
318.065	95.38
318.295	97.38
318.524	87.38
318.753	73.38
318.983	88.38
319.212	88.38
319.441	79.38
319.67	104.38
319.9	95.38
320.129	81.38
320.358	85.38
320.587	86.38
320.816	81.38
321.046	86.38
321.275	92.38
321.504	88.38
321.733	89.38
321.962	87.38
322.191	87.38
322.42	87.38
322.649	94.38
322.878	70.38
323.108	88.38
323.337	82.38
323.566	84.38
323.795	89.38
324.024	81.38
324.253	82.38
324.482	88.38
324.71	86.38
324.939	91.38
325.168	76.38
325.397	75.38
325.626	96.38
325.855	72.38
326.084	72.38
326.313	86.38
326.542	95.38
326.77	85.38
326.999	92.38
327.228	83.38
327.457	67.38
327.686	75.38
327.914	84.38
328.143	87.38
328.372	86.38
328.6	89.38
328.829	94.38
329.058	96.38
329.287	85.38
329.515	85.38
329.744	91.38
329.972	74.38
330.201	100.38
330.43	88.38
330.658	88.38
330.887	86.38
331.115	93.38
331.344	86.38
331.572	90.38
331.801	77.38
332.03	87.38
332.258	77.38
332.486	86.38
332.715	79.38
332.943	89.38
333.172	79.38
333.4	77.38
333.629	78.38
333.857	73.38
334.085	77.38
334.314	93.38
334.542	73.38
334.771	81.38
334.999	87.38
335.227	87.38
335.455	93.38
335.684	88.38
335.912	80.38
336.14	82.38
336.369	91.38
336.597	70.38
336.825	76.38
337.053	84.38
337.281	82.38
337.51	85.38
337.738	82.38
337.966	82.38
338.194	90.38
338.422	89.38
338.65	113.38
338.878	90.38
339.106	100.38
339.334	87.38
339.562	91.38
339.79	91.38
340.018	99.38
340.246	91.38
340.474	77.38
340.702	82.38
340.93	83.38
341.158	66.38
341.386	84.38
341.614	92.38
341.842	92.38
342.07	72.38
342.298	89.38
342.526	79.38
342.754	90.38
342.981	96.38
343.209	84.38
343.437	101.38
343.665	83.38
343.893	88.38
344.12	84.38
344.348	81.38
344.576	99.38
344.804	92.38
345.031	84.38
345.259	80.38
345.487	77.38
345.714	84.38
345.942	85.38
346.17	87.38
346.397	87.38
346.625	86.38
346.853	90.38
347.08	94.38
347.308	89.38
347.535	94.38
347.763	81.38
347.99	86.38
348.218	81.38
348.445	78.38
348.673	96.38
348.9	86.38
349.128	74.38
349.355	86.38
349.583	88.38
349.81	84.38
350.037	102.38
350.265	79.38
350.492	80.38
350.72	83.38
350.947	87.38
351.174	93.38
351.402	86.38
351.629	95.38
351.856	80.38
352.083	93.38
352.311	77.38
352.538	85.38
352.765	98.38
352.992	87.38
353.22	100.38
353.447	86.38
353.674	96.38
353.901	89.38
354.128	96.38
354.355	88.38
354.583	85.38
354.81	91.38
355.037	86.38
355.264	84.38
355.491	88.38
355.718	74.38
355.945	86.38
356.172	99.38
356.399	76.38
356.626	91.38
356.853	77.38
357.08	84.38
357.307	79.38
357.534	86.38
357.761	76.38
357.988	88.38
358.215	81.38
358.441	89.38
358.668	85.38
358.895	93.38
359.122	85.38
359.349	80.38
359.576	72.38
359.802	83.38
360.029	72.38
360.256	92.38
360.483	88.38
360.709	88.38
360.936	79.38
361.163	91.38
361.39	83.38
361.616	84.38
361.843	86.38
362.07	81.38
362.296	77.38
362.523	87.38
362.749	84.38
362.976	77.38
363.203	86.38
363.429	88.38
363.656	89.38
363.882	85.38
364.109	83.38
364.335	83.38
364.562	82.38
364.788	73.38
365.015	93.38
365.241	91.38
365.468	93.38
365.694	87.38
365.92	86.38
366.147	74.38
366.373	72.38
366.599	78.38
366.826	93.38
367.052	85.38
367.278	95.38
367.505	86.38
367.731	88.38
367.957	85.38
368.184	92.38
368.41	89.38
368.636	77.38
368.862	76.38
369.089	90.38
369.315	107.38
369.541	102.38
369.767	81.38
369.993	86.38
370.219	101.38
370.445	86.38
370.672	83.38
370.898	100.38
371.124	96.38
371.35	90.38
371.576	90.38
371.802	102.38
372.028	77.38
372.254	70.38
372.48	69.38
372.706	99.38
372.932	85.38
373.158	98.38
373.384	103.38
373.61	78.38
373.835	80.38
374.061	85.38
374.287	93.38
374.513	75.38
374.739	91.38
374.965	112.38
375.191	88.38
375.416	93.38
375.642	94.38
375.868	102.38
376.094	80.38
376.319	89.38
376.545	103.38
376.771	89.38
376.997	90.38
377.222	95.38
377.448	93.38
377.674	98.38
377.899	88.38
378.125	92.38
378.35	108.38
378.576	93.38
378.802	82.38
379.027	90.38
379.253	83.38
379.478	82.38
379.704	80.38
379.929	93.38
380.155	89.38
380.38	88.38
380.606	97.38
380.831	95.38
381.057	92.38
381.282	90.38
381.507	81.38
381.733	84.38
381.958	82.38
382.184	85.38
382.409	90.38
382.634	97.38
382.86	73.38
383.085	95.38
383.31	95.38
383.535	87.38
383.761	90.38
383.986	85.38
384.211	81.38
384.436	90.38
384.662	97.38
384.887	99.38
385.112	93.38
385.337	82.38
385.562	83.38
385.787	78.38
386.013	89.38
386.238	88.38
386.463	77.38
386.688	80.38
386.913	93.38
387.138	80.38
387.363	98.38
387.588	84.38
387.813	96.38
388.038	78.38
388.263	82.38
388.488	90.38
388.713	95.38
388.938	101.38
389.163	97.38
389.387	71.38
389.612	89.38
389.837	92.38
390.062	84.38
390.287	89.38
390.512	84.38
390.736	82.38
390.961	83.38
391.186	92.38
391.411	87.38
391.636	86.38
391.86	78.38
392.085	93.38
392.31	92.38
392.534	95.38
392.759	86.38
392.984	85.38
393.208	90.38
393.433	92.38
393.658	89.38
393.882	85.38
394.107	85.38
394.331	101.38
394.556	93.38
394.78	94.38
395.005	87.38
395.229	85.38
395.454	92.38
395.678	81.38
395.903	73.38
396.127	88.38
396.352	97.38
396.576	87.38
396.801	90.38
397.025	90.38
397.249	90.38
397.474	88.38
397.698	95.38
397.922	94.38
398.147	84.38
398.371	79.38
398.595	89.38
398.82	94.38
399.044	94.38
399.268	98.38
399.492	89.38
399.717	108.38
399.941	81.38
400.165	89.38
400.389	93.38
400.613	75.38
400.837	84.38
401.062	99.38
401.286	89.38
401.51	93.38
401.734	98.38
401.958	100.38
402.182	102.38
402.406	103.38
402.63	101.38
402.854	103.38
403.078	88.38
403.302	85.38
403.526	97.38
403.75	88.38
403.974	97.38
404.198	88.38
404.422	88.38
404.645	84.38
404.869	89.38
405.093	102.38
405.317	102.38
405.541	91.38
405.765	108.38
405.988	91.38
406.212	91.38
406.436	89.38
406.66	96.38
406.883	87.38
407.107	101.38
407.331	108.38
407.555	94.38
407.778	91.38
408.002	93.38
408.226	90.38
408.449	88.38
408.673	92.38
408.896	93.38
409.12	88.38
409.344	90.38
409.567	89.38
409.791	94.38
410.014	100.38
410.238	92.38
410.461	87.38
410.685	93.38
410.908	102.38
411.132	91.38
411.355	92.38
411.578	97.38
411.802	116.38
412.025	102.38
412.249	90.38
412.472	89.38
412.695	96.38
412.919	109.38
413.142	113.38
413.365	92.38
413.589	72.38
413.812	75.38
414.035	114.38
414.258	93.38
414.482	96.38
414.705	112.38
414.928	94.38
415.151	88.38
415.374	90.38
415.597	98.38
415.821	97.38
416.044	93.38
416.267	103.38
416.49	87.38
416.713	93.38
416.936	98.38
417.159	92.38
417.382	103.38
417.605	89.38
417.828	99.38
418.051	93.38
418.274	93.38
418.497	117.38
418.72	88.38
418.943	100.38
419.166	98.38
419.389	86.38
419.611	99.38
419.834	89.38
420.057	94.38
420.28	93.38
420.503	96.38
420.726	112.38
420.948	114.38
421.171	91.38
421.394	85.38
421.617	93.38
421.839	113.38
422.062	112.38
422.285	104.38
422.507	90.38
422.73	93.38
422.953	96.38
423.175	90.38
423.398	115.38
423.621	104.38
423.843	91.38
424.066	88.38
424.288	103.38
424.511	92.38
424.733	87.38
424.956	107.38
425.178	102.38
425.401	98.38
425.623	110.38
425.846	94.38
426.068	84.38
426.291	81.38
426.513	96.38
426.735	99.38
426.958	110.38
427.18	81.38
427.402	104.38
427.625	76.38
427.847	101.38
428.069	106.38
428.292	88.38
428.514	81.38
428.736	94.38
428.958	112.38
429.181	100.38
429.403	101.38
429.625	96.38
429.847	82.38
430.069	98.38
430.292	95.38
430.514	98.38
430.736	98.38
430.958	101.38
431.18	99.38
431.402	94.38
431.624	98.38
431.846	98.38
432.068	89.38
432.29	82.38
432.512	82.38
432.734	97.38
432.956	79.38
433.178	103.38
433.4	96.38
433.622	102.38
433.844	97.38
434.066	90.38
434.287	89.38
434.509	92.38
434.731	79.38
434.953	95.38
435.175	99.38
435.397	92.38
435.618	91.38
435.84	92.38
436.062	94.38
436.284	89.38
436.505	102.38
436.727	90.38
436.949	95.38
437.17	97.38
437.392	90.38
437.614	92.38
437.835	76.38
438.057	85.38
438.278	102.38
438.5	82.38
438.721	96.38
438.943	107.38
439.165	94.38
439.386	97.38
439.608	104.38
439.829	93.38
440.05	98.38
440.272	97.38
440.493	104.38
440.715	107.38
440.936	93.38
441.158	92.38
441.379	106.38
441.6	100.38
441.822	115.38
442.043	98.38
442.264	110.38
442.486	100.38
442.707	105.38
442.928	103.38
443.149	88.38
443.371	104.38
443.592	106.38
443.813	100.38
444.034	104.38
444.255	113.38
444.476	99.38
444.698	115.38
444.919	95.38
445.14	219.38
445.361	180.38
445.582	107.38
445.803	101.38
446.024	108.38
446.245	97.38
446.466	96.38
446.687	105.38
446.908	94.38
447.129	102.38
447.35	93.38
447.571	107.38
447.792	117.38
448.013	108.38
448.234	82.38
448.455	99.38
448.675	93.38
448.896	106.38
449.117	99.38
449.338	98.38
449.559	87.38
449.779	114.38
450	106.38
450.221	88.38
450.442	100.38
450.662	102.38
450.883	91.38
451.104	98.38
451.324	106.38
451.545	92.38
451.766	93.38
451.986	87.38
452.207	110.38
452.428	93.38
452.648	76.38
452.869	92.38
453.089	78.38
453.31	92.38
453.53	90.38
453.751	72.38
453.971	89.38
454.192	94.38
454.412	90.38
454.633	97.38
454.853	96.38
455.073	99.38
455.294	85.38
455.514	103.38
455.734	85.38
455.955	106.38
456.175	80.38
456.395	98.38
456.616	103.38
456.836	88.38
457.056	83.38
457.276	94.38
457.497	91.38
457.717	108.38
457.937	102.38
458.157	97.38
458.377	79.38
458.598	85.38
458.818	84.38
459.038	71.38
459.258	78.38
459.478	79.38
459.698	77.38
459.918	84.38
460.138	91.38
460.358	96.38
460.578	83.38
460.798	103.38
461.018	89.38
461.238	87.38
461.458	87.38
461.678	87.38
461.898	104.38
462.118	83.38
462.338	98.38
462.558	77.38
462.777	97.38
462.997	91.38
463.217	81.38
463.437	91.38
463.657	93.38
463.876	82.38
464.096	93.38
464.316	92.38
464.536	86.38
464.755	89.38
464.975	93.38
465.195	100.38
465.414	91.38
465.634	89.38
465.854	93.38
466.073	89.38
466.293	103.38
466.512	99.38
466.732	98.38
466.951	104.38
467.171	79.38
467.391	101.38
467.61	98.38
467.829	85.38
468.049	101.38
468.268	92.38
468.488	95.38
468.707	88.38
468.927	105.38
469.146	88.38
469.365	106.38
469.585	93.38
469.804	98.38
470.023	106.38
470.243	118.38
470.462	88.38
470.681	109.38
470.901	102.38
471.12	97.38
471.339	94.38
471.558	98.38
471.777	95.38
471.997	104.38
472.216	88.38
472.435	93.38
472.654	77.38
472.873	98.38
473.092	89.38
473.311	100.38
473.53	90.38
473.749	86.38
473.968	79.38
474.187	92.38
474.406	96.38
474.625	93.38
474.844	114.38
475.063	88.38
475.282	94.38
475.501	100.38
475.72	91.38
475.939	89.38
476.158	84.38
476.377	94.38
476.596	82.38
476.814	100.38
477.033	80.38
477.252	95.38
477.471	94.38
477.69	89.38
477.908	94.38
478.127	108.38
478.346	100.38
478.564	93.38
478.783	102.38
479.002	101.38
479.22	110.38
479.439	108.38
479.658	95.38
479.876	92.38
480.095	82.38
480.313	95.38
480.532	96.38
480.751	97.38
480.969	89.38
481.188	94.38
481.406	78.38
481.624	89.38
481.843	101.38
482.061	90.38
482.28	87.38
482.498	92.38
482.717	107.38
482.935	100.38
483.153	87.38
483.372	104.38
483.59	119.38
483.808	99.38
484.027	95.38
484.245	98.38
484.463	92.38
484.681	98.38
484.9	98.38
485.118	98.38
485.336	96.38
485.554	100.38
485.772	80.38
485.99	76.38
486.209	100.38
486.427	90.38
486.645	98.38
486.863	93.38
487.081	103.38
487.299	108.38
487.517	102.38
487.735	107.38
487.953	128.38
488.171	112.38
488.389	123.38
488.607	88.38
488.825	95.38
489.043	101.38
489.261	93.38
489.479	96.38
489.696	90.38
489.914	101.38
490.132	111.38
490.35	107.38
490.568	107.38
490.786	118.38
491.003	120.38
491.221	114.38
491.439	123.38
491.657	128.38
491.874	132.38
492.092	116.38
492.31	131.38
492.527	134.38
492.745	130.38
492.963	118.38
493.18	114.38
493.398	107.38
493.615	112.38
493.833	106.38
494.05	107.38
494.268	99.38
494.485	115.38
494.703	116.38
494.92	116.38
495.138	112.38
495.355	102.38
495.573	125.38
495.79	117.38
496.008	102.38
496.225	104.38
496.442	114.38
496.66	121.38
496.877	109.38
497.094	109.38
497.312	113.38
497.529	89.38
497.746	98.38
497.963	112.38
498.181	94.38
498.398	96.38
498.615	97.38
498.832	102.38
499.049	112.38
499.267	98.38
499.484	100.38
499.701	91.38
499.918	106.38
500.135	109.38
500.352	94.38
500.569	97.38
500.786	107.38
501.003	94.38
501.22	107.38
501.437	101.38
501.654	91.38
501.871	87.38
502.088	92.38
502.305	103.38
502.522	97.38
502.739	98.38
502.956	92.38
503.172	105.38
503.389	90.38
503.606	77.38
503.823	106.38
504.04	108.38
504.256	89.38
504.473	105.38
504.69	101.38
504.907	105.38
505.123	102.38
505.34	104.38
505.557	95.38
505.773	100.38
505.99	96.38
506.207	89.38
506.423	88.38
506.64	94.38
506.856	95.38
507.073	91.38
507.289	96.38
507.506	85.38
507.722	78.38
507.939	84.38
508.155	97.38
508.372	114.38
508.588	90.38
508.805	96.38
509.021	99.38
509.238	99.38
509.454	89.38
509.67	85.38
509.887	88.38
510.103	91.38
510.319	93.38
510.536	75.38
510.752	84.38
510.968	90.38
511.184	68.38
511.401	80.38
511.617	96.38
511.833	89.38
512.049	97.38
512.265	78.38
512.481	79.38
512.698	92.38
512.914	94.38
513.13	85.38
513.346	94.38
513.562	82.38
513.778	94.38
513.994	84.38
514.21	98.38
514.426	94.38
514.642	91.38
514.858	90.38
515.074	87.38
515.29	89.38
515.506	92.38
515.721	100.38
515.937	92.38
516.153	83.38
516.369	90.38
516.585	84.38
