Data from Location3.07152019.Energy5.Lamp.07192019.3%Agarose_HRD10591_15-18-44-278.txt Node
Date: Fri Jul 19 15:18:44 EDT 2019
User: cochatt
Spectrometer: HR+D1059
Trigger mode: 1
Integration Time (sec): 1.000000E-1
Scans to average: 1
Electric dark correction enabled: true
Nonlinearity correction enabled: false
Boxcar width: 0
XAxis mode: Wavelengths
Number of Pixels in Spectrum: 2048
>>>>>Begin Spectral Data<<<<<
223.165	-18.5
223.4	-18.5
223.635	-18.5
223.869	-14.5
224.104	-22.5
224.338	-15.5
224.573	-8.5
224.808	-12.5
225.042	-12.5
225.277	-7.5
225.511	5.5
225.746	10.5
225.98	2.5
226.215	2.5
226.449	15.5
226.683	20.5
226.918	25.5
227.152	29.5
227.387	38.5
227.621	36.5
227.856	49.5
228.09	46.5
228.324	53.5
228.559	57.5
228.793	62.5
229.027	74.5
229.262	72.5
229.496	72.5
229.73	72.5
229.964	76.5
230.199	71.5
230.433	78.5
230.667	90.5
230.901	86.5
231.136	91.5
231.37	66.5
231.604	78.5
231.838	69.5
232.072	82.5
232.306	92.5
232.541	99.5
232.775	86.5
233.009	60.5
233.243	75.5
233.477	78.5
233.711	87.5
233.945	81.5
234.179	81.5
234.413	87.5
234.647	74.5
234.881	69.5
235.115	80.5
235.349	88.5
235.583	83.5
235.817	93.5
236.051	83.5
236.285	72.5
236.519	72.5
236.753	90.5
236.987	93.5
237.221	72.5
237.455	82.5
237.689	78.5
237.922	80.5
238.156	79.5
238.39	79.5
238.624	61.5
238.858	91.5
239.091	95.5
239.325	83.5
239.559	81.5
239.793	89.5
240.027	85.5
240.26	82.5
240.494	87.5
240.728	78.5
240.961	89.5
241.195	75.5
241.429	81.5
241.662	77.5
241.896	86.5
242.13	83.5
242.363	71.5
242.597	79.5
242.83	79.5
243.064	93.5
243.298	103.5
243.531	80.5
243.765	75.5
243.998	74.5
244.232	80.5
244.465	84.5
244.699	83.5
244.932	65.5
245.166	81.5
245.399	84.5
245.633	78.5
245.866	78.5
246.099	79.5
246.333	76.5
246.566	75.5
246.8	78.5
247.033	91.5
247.266	64.5
247.5	84.5
247.733	81.5
247.966	80.5
248.2	76.5
248.433	79.5
248.666	94.5
248.899	81.5
249.133	65.5
249.366	89.5
249.599	93.5
249.832	91.5
250.066	82.5
250.299	71.5
250.532	74.5
250.765	68.5
250.998	84.5
251.231	74.5
251.465	86.5
251.698	65.5
251.931	66.5
252.164	90.5
252.397	91.5
252.63	84.5
252.863	85.5
253.096	92.5
253.329	73.5
253.562	78.5
253.795	90.5
254.028	85.5
254.261	79.5
254.494	73.5
254.727	74.5
254.96	84.5
255.193	75.5
255.426	82.5
255.659	87.5
255.892	77.5
256.124	77.5
256.357	81.5
256.59	85.5
256.823	90.5
257.056	81.5
257.289	80.5
257.521	93.5
257.754	81.5
257.987	77.5
258.22	83.5
258.452	83.5
258.685	72.5
258.918	91.5
259.151	91.5
259.383	94.5
259.616	74.5
259.849	65.5
260.081	70.5
260.314	60.5
260.547	79.5
260.779	89.5
261.012	78.5
261.244	84.5
261.477	79.5
261.71	83.5
261.942	81.5
262.175	86.5
262.407	80.5
262.64	91.5
262.872	95.5
263.105	89.5
263.337	90.5
263.57	77.5
263.802	81.5
264.035	69.5
264.267	80.5
264.499	67.5
264.732	77.5
264.964	88.5
265.197	78.5
265.429	80.5
265.661	84.5
265.894	87.5
266.126	91.5
266.358	78.5
266.591	84.5
266.823	86.5
267.055	91.5
267.287	97.5
267.52	84.5
267.752	77.5
267.984	91.5
268.216	83.5
268.448	95.5
268.681	92.5
268.913	78.5
269.145	82.5
269.377	86.5
269.609	83.5
269.841	96.5
270.073	93.5
270.306	88.5
270.538	85.5
270.77	102.5
271.002	97.5
271.234	90.5
271.466	96.5
271.698	78.5
271.93	75.5
272.162	98.5
272.394	104.5
272.626	79.5
272.858	84.5
273.09	95.5
273.322	102.5
273.553	72.5
273.785	86.5
274.017	93.5
274.249	88.5
274.481	85.5
274.713	92.5
274.945	96.5
275.176	83.5
275.408	73.5
275.64	98.5
275.872	78.5
276.104	86.5
276.335	88.5
276.567	87.5
276.799	86.5
277.031	84.5
277.262	82.5
277.494	94.5
277.726	92.5
277.957	97.5
278.189	82.5
278.421	88.5
278.652	77.5
278.884	71.5
279.115	86.5
279.347	87.5
279.579	89.5
279.81	82.5
280.042	83.5
280.273	100.5
280.505	86.5
280.736	92.5
280.968	91.5
281.199	72.5
281.431	75.5
281.662	90.5
281.894	86.5
282.125	90.5
282.356	94.5
282.588	87.5
282.819	82.5
283.051	87.5
283.282	96.5
283.513	97.5
283.745	88.5
283.976	86.5
284.207	79.5
284.439	92.5
284.67	89.5
284.901	100.5
285.132	87.5
285.364	89.5
285.595	74.5
285.826	90.5
286.057	90.5
286.288	88.5
286.52	89.5
286.751	86.5
286.982	95.5
287.213	82.5
287.444	91.5
287.675	77.5
287.906	95.5
288.138	103.5
288.369	103.5
288.6	94.5
288.831	73.5
289.062	84.5
289.293	82.5
289.524	82.5
289.755	92.5
289.986	92.5
290.217	78.5
290.448	92.5
290.679	91.5
290.91	73.5
291.141	97.5
291.371	87.5
291.602	89.5
291.833	78.5
292.064	94.5
292.295	87.5
292.526	81.5
292.757	86.5
292.987	82.5
293.218	82.5
293.449	84.5
293.68	88.5
293.91	82.5
294.141	90.5
294.372	70.5
294.603	66.5
294.833	88.5
295.064	90.5
295.295	102.5
295.525	86.5
295.756	82.5
295.987	90.5
296.217	84.5
296.448	80.5
296.679	73.5
296.909	84.5
297.14	91.5
297.37	85.5
297.601	68.5
297.831	90.5
298.062	83.5
298.292	87.5
298.523	96.5
298.753	95.5
298.984	76.5
299.214	83.5
299.445	83.5
299.675	88.5
299.905	99.5
300.136	92.5
300.366	98.5
300.597	95.5
300.827	84.5
301.057	96.5
301.288	86.5
301.518	85.5
301.748	105.5
301.979	87.5
302.209	84.5
302.439	82.5
302.669	97.5
302.9	84.5
303.13	86.5
303.36	76.5
303.59	60.5
303.82	82.5
304.051	88.5
304.281	90.5
304.511	84.5
304.741	74.5
304.971	76.5
305.201	87.5
305.431	81.5
305.661	92.5
305.891	91.5
306.121	92.5
306.352	78.5
306.582	95.5
306.812	86.5
307.042	84.5
307.272	88.5
307.502	99.5
307.731	86.5
307.961	88.5
308.191	73.5
308.421	92.5
308.651	77.5
308.881	94.5
309.111	72.5
309.341	99.5
309.571	86.5
309.8	97.5
310.03	85.5
310.26	77.5
310.49	86.5
310.72	94.5
310.949	101.5
311.179	85.5
311.409	78.5
311.639	86.5
311.868	91.5
312.098	97.5
312.328	83.5
312.557	83.5
312.787	73.5
313.017	93.5
313.246	83.5
313.476	83.5
313.706	77.5
313.935	76.5
314.165	87.5
314.394	93.5
314.624	82.5
314.853	93.5
315.083	78.5
315.312	88.5
315.542	86.5
315.771	89.5
316.001	87.5
316.23	80.5
316.46	92.5
316.689	80.5
316.919	88.5
317.148	93.5
317.377	98.5
317.607	84.5
317.836	94.5
318.065	82.5
318.295	85.5
318.524	97.5
318.753	92.5
318.983	99.5
319.212	80.5
319.441	84.5
319.67	78.5
319.9	82.5
320.129	98.5
320.358	85.5
320.587	89.5
320.816	84.5
321.046	93.5
321.275	99.5
321.504	87.5
321.733	99.5
321.962	72.5
322.191	93.5
322.42	86.5
322.649	91.5
322.878	84.5
323.108	83.5
323.337	95.5
323.566	87.5
323.795	95.5
324.024	80.5
324.253	85.5
324.482	86.5
324.71	96.5
324.939	94.5
325.168	95.5
325.397	97.5
325.626	91.5
325.855	79.5
326.084	71.5
326.313	80.5
326.542	79.5
326.77	86.5
326.999	78.5
327.228	94.5
327.457	82.5
327.686	98.5
327.914	102.5
328.143	78.5
328.372	82.5
328.6	78.5
328.829	87.5
329.058	83.5
329.287	87.5
329.515	94.5
329.744	83.5
329.972	84.5
330.201	77.5
330.43	86.5
330.658	88.5
330.887	89.5
331.115	86.5
331.344	82.5
331.572	73.5
331.801	77.5
332.03	82.5
332.258	80.5
332.486	70.5
332.715	87.5
332.943	87.5
333.172	82.5
333.4	90.5
333.629	94.5
333.857	89.5
334.085	77.5
334.314	90.5
334.542	98.5
334.771	97.5
334.999	93.5
335.227	74.5
335.455	94.5
335.684	89.5
335.912	91.5
336.14	76.5
336.369	93.5
336.597	84.5
336.825	73.5
337.053	91.5
337.281	100.5
337.51	80.5
337.738	86.5
337.966	75.5
338.194	86.5
338.422	105.5
338.65	95.5
338.878	86.5
339.106	101.5
339.334	100.5
339.562	89.5
339.79	79.5
340.018	84.5
340.246	94.5
340.474	88.5
340.702	90.5
340.93	91.5
341.158	83.5
341.386	82.5
341.614	96.5
341.842	79.5
342.07	89.5
342.298	103.5
342.526	85.5
342.754	78.5
342.981	76.5
343.209	79.5
343.437	107.5
343.665	101.5
343.893	96.5
344.12	91.5
344.348	97.5
344.576	99.5
344.804	92.5
345.031	74.5
345.259	74.5
345.487	86.5
345.714	95.5
345.942	91.5
346.17	102.5
346.397	86.5
346.625	89.5
346.853	92.5
347.08	82.5
347.308	81.5
347.535	94.5
347.763	81.5
347.99	88.5
348.218	98.5
348.445	76.5
348.673	82.5
348.9	88.5
349.128	79.5
349.355	89.5
349.583	76.5
349.81	92.5
350.037	86.5
350.265	76.5
350.492	78.5
350.72	83.5
350.947	74.5
351.174	86.5
351.402	64.5
351.629	81.5
351.856	89.5
352.083	73.5
352.311	87.5
352.538	73.5
352.765	87.5
352.992	93.5
353.22	85.5
353.447	80.5
353.674	86.5
353.901	85.5
354.128	81.5
354.355	82.5
354.583	72.5
354.81	93.5
355.037	84.5
355.264	89.5
355.491	79.5
355.718	82.5
355.945	91.5
356.172	85.5
356.399	78.5
356.626	90.5
356.853	76.5
357.08	92.5
357.307	100.5
357.534	98.5
357.761	89.5
357.988	80.5
358.215	84.5
358.441	86.5
358.668	92.5
358.895	84.5
359.122	88.5
359.349	96.5
359.576	83.5
359.802	86.5
360.029	72.5
360.256	87.5
360.483	67.5
360.709	86.5
360.936	100.5
361.163	88.5
361.39	79.5
361.616	101.5
361.843	92.5
362.07	91.5
362.296	89.5
362.523	74.5
362.749	87.5
362.976	76.5
363.203	95.5
363.429	88.5
363.656	88.5
363.882	79.5
364.109	99.5
364.335	88.5
364.562	80.5
364.788	72.5
365.015	84.5
365.241	81.5
365.468	99.5
365.694	86.5
365.92	89.5
366.147	83.5
366.373	82.5
366.599	80.5
366.826	87.5
367.052	77.5
367.278	89.5
367.505	85.5
367.731	87.5
367.957	91.5
368.184	85.5
368.41	98.5
368.636	78.5
368.862	83.5
369.089	89.5
369.315	79.5
369.541	93.5
369.767	88.5
369.993	96.5
370.219	94.5
370.445	80.5
370.672	84.5
370.898	96.5
371.124	91.5
371.35	77.5
371.576	90.5
371.802	86.5
372.028	102.5
372.254	78.5
372.48	81.5
372.706	93.5
372.932	79.5
373.158	82.5
373.384	90.5
373.61	91.5
373.835	65.5
374.061	96.5
374.287	78.5
374.513	103.5
374.739	81.5
374.965	97.5
375.191	85.5
375.416	82.5
375.642	82.5
375.868	86.5
376.094	89.5
376.319	95.5
376.545	85.5
376.771	74.5
376.997	98.5
377.222	88.5
377.448	89.5
377.674	96.5
377.899	85.5
378.125	81.5
378.35	87.5
378.576	99.5
378.802	70.5
379.027	97.5
379.253	93.5
379.478	84.5
379.704	93.5
379.929	77.5
380.155	105.5
380.38	79.5
380.606	81.5
380.831	95.5
381.057	91.5
381.282	93.5
381.507	89.5
381.733	74.5
381.958	95.5
382.184	82.5
382.409	86.5
382.634	88.5
382.86	86.5
383.085	95.5
383.31	83.5
383.535	88.5
383.761	75.5
383.986	97.5
384.211	84.5
384.436	75.5
384.662	84.5
384.887	84.5
385.112	81.5
385.337	96.5
385.562	92.5
385.787	102.5
386.013	81.5
386.238	96.5
386.463	90.5
386.688	81.5
386.913	92.5
387.138	81.5
387.363	91.5
387.588	84.5
387.813	86.5
388.038	95.5
388.263	89.5
388.488	86.5
388.713	76.5
388.938	84.5
389.163	91.5
389.387	83.5
389.612	99.5
389.837	88.5
390.062	99.5
390.287	81.5
390.512	92.5
390.736	91.5
390.961	79.5
391.186	83.5
391.411	96.5
391.636	91.5
391.86	88.5
392.085	93.5
392.31	87.5
392.534	92.5
392.759	93.5
392.984	93.5
393.208	88.5
393.433	95.5
393.658	80.5
393.882	104.5
394.107	98.5
394.331	92.5
394.556	93.5
394.78	98.5
395.005	93.5
395.229	98.5
395.454	96.5
395.678	84.5
395.903	88.5
396.127	91.5
396.352	105.5
396.576	83.5
396.801	90.5
397.025	82.5
397.249	84.5
397.474	106.5
397.698	91.5
397.922	90.5
398.147	98.5
398.371	94.5
398.595	87.5
398.82	92.5
399.044	86.5
399.268	106.5
399.492	105.5
399.717	91.5
399.941	80.5
400.165	77.5
400.389	82.5
400.613	79.5
400.837	83.5
401.062	88.5
401.286	84.5
401.51	77.5
401.734	84.5
401.958	81.5
402.182	99.5
402.406	100.5
402.63	104.5
402.854	78.5
403.078	91.5
403.302	92.5
403.526	105.5
403.75	94.5
403.974	83.5
404.198	99.5
404.422	89.5
404.645	89.5
404.869	93.5
405.093	97.5
405.317	99.5
405.541	92.5
405.765	101.5
405.988	89.5
406.212	112.5
406.436	94.5
406.66	88.5
406.883	110.5
407.107	96.5
407.331	100.5
407.555	87.5
407.778	82.5
408.002	91.5
408.226	90.5
408.449	93.5
408.673	81.5
408.896	93.5
409.12	97.5
409.344	93.5
409.567	98.5
409.791	97.5
410.014	78.5
410.238	82.5
410.461	80.5
410.685	98.5
410.908	92.5
411.132	106.5
411.355	91.5
411.578	89.5
411.802	94.5
412.025	105.5
412.249	92.5
412.472	105.5
412.695	96.5
412.919	82.5
413.142	97.5
413.365	84.5
413.589	75.5
413.812	81.5
414.035	89.5
414.258	85.5
414.482	94.5
414.705	99.5
414.928	88.5
415.151	77.5
415.374	98.5
415.597	92.5
415.821	98.5
416.044	110.5
416.267	104.5
416.49	91.5
416.713	97.5
416.936	94.5
417.159	98.5
417.382	84.5
417.605	97.5
417.828	90.5
418.051	93.5
418.274	89.5
418.497	102.5
418.72	98.5
418.943	96.5
419.166	97.5
419.389	98.5
419.611	89.5
419.834	98.5
420.057	99.5
420.28	93.5
420.503	97.5
420.726	100.5
420.948	100.5
421.171	98.5
421.394	107.5
421.617	100.5
421.839	98.5
422.062	99.5
422.285	93.5
422.507	86.5
422.73	87.5
422.953	87.5
423.175	94.5
423.398	102.5
423.621	100.5
423.843	99.5
424.066	103.5
424.288	90.5
424.511	95.5
424.733	99.5
424.956	106.5
425.178	91.5
425.401	101.5
425.623	92.5
425.846	95.5
426.068	107.5
426.291	108.5
426.513	87.5
426.735	94.5
426.958	88.5
427.18	99.5
427.402	110.5
427.625	102.5
427.847	100.5
428.069	92.5
428.292	109.5
428.514	104.5
428.736	93.5
428.958	93.5
429.181	98.5
429.403	104.5
429.625	93.5
429.847	105.5
430.069	101.5
430.292	108.5
430.514	98.5
430.736	84.5
430.958	105.5
431.18	91.5
431.402	90.5
431.624	90.5
431.846	103.5
432.068	83.5
432.29	71.5
432.512	101.5
432.734	97.5
432.956	95.5
433.178	91.5
433.4	78.5
433.622	102.5
433.844	94.5
434.066	92.5
434.287	96.5
434.509	92.5
434.731	89.5
434.953	94.5
435.175	105.5
435.397	87.5
435.618	96.5
435.84	107.5
436.062	97.5
436.284	83.5
436.505	95.5
436.727	97.5
436.949	88.5
437.17	89.5
437.392	91.5
437.614	106.5
437.835	86.5
438.057	84.5
438.278	73.5
438.5	106.5
438.721	86.5
438.943	104.5
439.165	102.5
439.386	111.5
439.608	100.5
439.829	106.5
440.05	113.5
440.272	105.5
440.493	97.5
440.715	99.5
440.936	84.5
441.158	101.5
441.379	93.5
441.6	98.5
441.822	93.5
442.043	98.5
442.264	96.5
442.486	92.5
442.707	90.5
442.928	96.5
443.149	99.5
443.371	108.5
443.592	98.5
443.813	92.5
444.034	105.5
444.255	96.5
444.476	109.5
444.698	112.5
444.919	98.5
445.14	240.5
445.361	167.5
445.582	98.5
445.803	114.5
446.024	108.5
446.245	116.5
446.466	112.5
446.687	98.5
446.908	105.5
447.129	106.5
447.35	108.5
447.571	101.5
447.792	106.5
448.013	100.5
448.234	100.5
448.455	102.5
448.675	102.5
448.896	105.5
449.117	99.5
449.338	101.5
449.559	104.5
449.779	99.5
450	112.5
450.221	117.5
450.442	89.5
450.662	95.5
450.883	90.5
451.104	84.5
451.324	88.5
451.545	90.5
451.766	98.5
451.986	101.5
452.207	89.5
452.428	92.5
452.648	89.5
452.869	94.5
453.089	91.5
453.31	89.5
453.53	104.5
453.751	96.5
453.971	93.5
454.192	78.5
454.412	89.5
454.633	99.5
454.853	99.5
455.073	97.5
455.294	91.5
455.514	94.5
455.734	100.5
455.955	104.5
456.175	78.5
456.395	77.5
456.616	104.5
456.836	105.5
457.056	92.5
457.276	90.5
457.497	75.5
457.717	92.5
457.937	74.5
458.157	92.5
458.377	97.5
458.598	82.5
458.818	91.5
459.038	91.5
459.258	83.5
459.478	76.5
459.698	102.5
459.918	81.5
460.138	99.5
460.358	93.5
460.578	101.5
460.798	99.5
461.018	98.5
461.238	86.5
461.458	93.5
461.678	98.5
461.898	103.5
462.118	107.5
462.338	100.5
462.558	101.5
462.777	81.5
462.997	91.5
463.217	89.5
463.437	115.5
463.657	94.5
463.876	102.5
464.096	83.5
464.316	87.5
464.536	105.5
464.755	101.5
464.975	91.5
465.195	104.5
465.414	102.5
465.634	92.5
465.854	94.5
466.073	105.5
466.293	109.5
466.512	77.5
466.732	93.5
466.951	99.5
467.171	83.5
467.391	96.5
467.61	97.5
467.829	87.5
468.049	94.5
468.268	97.5
468.488	104.5
468.707	108.5
468.927	100.5
469.146	96.5
469.365	102.5
469.585	96.5
469.804	114.5
470.023	101.5
470.243	102.5
470.462	102.5
470.681	101.5
470.901	105.5
471.12	112.5
471.339	93.5
471.558	106.5
471.777	104.5
471.997	105.5
472.216	89.5
472.435	93.5
472.654	87.5
472.873	93.5
473.092	89.5
473.311	97.5
473.53	93.5
473.749	93.5
473.968	114.5
474.187	101.5
474.406	98.5
474.625	93.5
474.844	107.5
475.063	99.5
475.282	100.5
475.501	97.5
475.72	86.5
475.939	105.5
476.158	95.5
476.377	102.5
476.596	116.5
476.814	91.5
477.033	91.5
477.252	88.5
477.471	97.5
477.69	104.5
477.908	98.5
478.127	118.5
478.346	112.5
478.564	91.5
478.783	101.5
479.002	103.5
479.22	96.5
479.439	99.5
479.658	107.5
479.876	80.5
480.095	88.5
480.313	94.5
480.532	106.5
480.751	100.5
480.969	77.5
481.188	83.5
481.406	87.5
481.624	85.5
481.843	69.5
482.061	97.5
482.28	89.5
482.498	89.5
482.717	90.5
482.935	92.5
483.153	102.5
483.372	99.5
483.59	88.5
483.808	90.5
484.027	94.5
484.245	94.5
484.463	92.5
484.681	114.5
484.9	103.5
485.118	103.5
485.336	109.5
485.554	82.5
485.772	89.5
485.99	90.5
486.209	85.5
486.427	82.5
486.645	98.5
486.863	97.5
487.081	103.5
487.299	103.5
487.517	117.5
487.735	106.5
487.953	125.5
488.171	105.5
488.389	112.5
488.607	117.5
488.825	96.5
489.043	104.5
489.261	102.5
489.479	98.5
489.696	109.5
489.914	106.5
490.132	92.5
490.35	118.5
490.568	114.5
490.786	93.5
491.003	114.5
491.221	105.5
491.439	109.5
491.657	114.5
491.874	114.5
492.092	110.5
492.31	130.5
492.527	133.5
492.745	105.5
492.963	133.5
493.18	120.5
493.398	120.5
493.615	125.5
493.833	109.5
494.05	110.5
494.268	113.5
494.485	103.5
494.703	124.5
494.92	118.5
495.138	109.5
495.355	108.5
495.573	110.5
495.79	124.5
496.008	115.5
496.225	104.5
496.442	101.5
496.66	114.5
496.877	107.5
497.094	106.5
497.312	119.5
497.529	97.5
497.746	98.5
497.963	98.5
498.181	89.5
498.398	88.5
498.615	84.5
498.832	91.5
499.049	84.5
499.267	96.5
499.484	93.5
499.701	100.5
499.918	98.5
500.135	105.5
500.352	99.5
500.569	91.5
500.786	101.5
501.003	108.5
501.22	119.5
501.437	98.5
501.654	102.5
501.871	90.5
502.088	96.5
502.305	89.5
502.522	84.5
502.739	93.5
502.956	98.5
503.172	94.5
503.389	102.5
503.606	94.5
503.823	99.5
504.04	86.5
504.256	101.5
504.473	80.5
504.69	88.5
504.907	105.5
505.123	86.5
505.34	94.5
505.557	97.5
505.773	93.5
505.99	84.5
506.207	95.5
506.423	79.5
506.64	97.5
506.856	109.5
507.073	87.5
507.289	98.5
507.506	78.5
507.722	83.5
507.939	106.5
508.155	103.5
508.372	80.5
508.588	83.5
508.805	88.5
509.021	87.5
509.238	91.5
509.454	92.5
509.67	99.5
509.887	86.5
510.103	84.5
510.319	80.5
510.536	86.5
510.752	79.5
510.968	79.5
511.184	83.5
511.401	82.5
511.617	85.5
511.833	93.5
512.049	90.5
512.265	99.5
512.481	93.5
512.698	87.5
512.914	85.5
513.13	90.5
513.346	85.5
513.562	87.5
513.778	84.5
513.994	92.5
514.21	88.5
514.426	81.5
514.642	97.5
514.858	89.5
515.074	96.5
515.29	75.5
515.506	72.5
515.721	86.5
515.937	101.5
516.153	87.5
516.369	94.5
516.585	85.5
516.801	102.5
517.016	82.5
517.232	73.5
517.448	86.5
517.664	92.5
517.879	92.5
518.095	84.5
518.311	97.5
518.527	86.5
518.742	86.5
518.958	84.5
519.173	84.5
519.389	98.5
519.605	99.5
519.82	90.5
520.036	89.5
520.251	101.5
520.467	78.5
520.682	99.5
520.898	89.5
521.113	81.5
521.329	83.5
521.544	81.5
521.76	88.5
521.975	81.5
522.19	97.5
522.406	104.5
522.621	94.5
522.836	76.5
523.052	84.5
523.267	86.5
523.482	105.5
523.698	88.5
523.913	104.5
524.128	92.5
524.343	106.5
524.559	100.5
524.774	88.5
524.989	91.5
525.204	90.5
525.419	109.5
525.634	82.5
525.849	101.5
526.064	93.5
526.28	87.5
526.495	78.5
526.71	87.5
526.925	83.5
527.14	88.5
527.355	90.5
527.57	101.5
527.785	82.5
527.999	89.5
528.214	96.5
528.429	99.5
528.644	94.5
528.859	99.5
529.074	107.5
529.289	101.5
529.503	104.5
529.718	109.5
529.933	95.5
530.148	82.5
530.363	85.5
530.577	89.5
530.792	89.5
531.007	85.5
531.221	85.5
531.436	88.5
531.651	95.5
531.865	93.5
532.08	102.5
532.295	77.5
532.509	75.5
532.724	79.5
532.938	78.5
533.153	95.5
533.367	100.5
533.582	92.5
533.796	88.5
534.011	85.5
534.225	83.5
534.44	92.5
534.654	77.5
534.868	71.5
535.083	94.5
535.297	100.5
535.511	93.5
535.726	94.5
535.94	92.5
536.154	87.5
536.369	93.5
