Data from Location3.07152019.Energy5.Lamp.07192019.3%Agarose_HRD10591_15-18-32-269.txt Node
Date: Fri Jul 19 15:18:32 EDT 2019
User: cochatt
Spectrometer: HR+D1059
Trigger mode: 1
Integration Time (sec): 1.000000E-1
Scans to average: 1
Electric dark correction enabled: true
Nonlinearity correction enabled: false
Boxcar width: 0
XAxis mode: Wavelengths
Number of Pixels in Spectrum: 2048
>>>>>Begin Spectral Data<<<<<
223.165	-11.94
223.4	-11.94
223.635	-11.94
223.869	-8.94
224.104	-17.94
224.338	-19.94
224.573	-8.94
224.808	-13.94
225.042	-13.94
225.277	-1.94
225.511	-16.94
225.746	5.06
225.98	6.06
226.215	3.06
226.449	22.06
226.683	20.06
226.918	17.06
227.152	41.06
227.387	32.06
227.621	33.06
227.856	28.06
228.09	46.06
228.324	47.06
228.559	49.06
228.793	67.06
229.027	61.06
229.262	86.06
229.496	59.06
229.73	82.06
229.964	66.06
230.199	73.06
230.433	81.06
230.667	84.06
230.901	75.06
231.136	78.06
231.37	84.06
231.604	88.06
231.838	84.06
232.072	74.06
232.306	79.06
232.541	75.06
232.775	83.06
233.009	81.06
233.243	79.06
233.477	75.06
233.711	75.06
233.945	95.06
234.179	80.06
234.413	67.06
234.647	81.06
234.881	70.06
235.115	88.06
235.349	74.06
235.583	85.06
235.817	83.06
236.051	81.06
236.285	88.06
236.519	67.06
236.753	66.06
236.987	79.06
237.221	78.06
237.455	74.06
237.689	72.06
237.922	79.06
238.156	81.06
238.39	74.06
238.624	68.06
238.858	81.06
239.091	71.06
239.325	68.06
239.559	87.06
239.793	80.06
240.027	68.06
240.26	75.06
240.494	82.06
240.728	86.06
240.961	72.06
241.195	90.06
241.429	74.06
241.662	72.06
241.896	84.06
242.13	64.06
242.363	95.06
242.597	84.06
242.83	80.06
243.064	83.06
243.298	73.06
243.531	73.06
243.765	84.06
243.998	80.06
244.232	85.06
244.465	79.06
244.699	80.06
244.932	73.06
245.166	81.06
245.399	73.06
245.633	79.06
245.866	73.06
246.099	77.06
246.333	71.06
246.566	73.06
246.8	77.06
247.033	80.06
247.266	73.06
247.5	91.06
247.733	71.06
247.966	75.06
248.2	86.06
248.433	71.06
248.666	91.06
248.899	96.06
249.133	74.06
249.366	91.06
249.599	73.06
249.832	79.06
250.066	76.06
250.299	90.06
250.532	74.06
250.765	81.06
250.998	69.06
251.231	94.06
251.465	75.06
251.698	82.06
251.931	78.06
252.164	81.06
252.397	75.06
252.63	73.06
252.863	93.06
253.096	84.06
253.329	88.06
253.562	59.06
253.795	83.06
254.028	84.06
254.261	92.06
254.494	62.06
254.727	78.06
254.96	80.06
255.193	89.06
255.426	74.06
255.659	85.06
255.892	77.06
256.124	91.06
256.357	85.06
256.59	84.06
256.823	94.06
257.056	81.06
257.289	80.06
257.521	73.06
257.754	75.06
257.987	79.06
258.22	86.06
258.452	70.06
258.685	73.06
258.918	67.06
259.151	91.06
259.383	81.06
259.616	82.06
259.849	87.06
260.081	89.06
260.314	67.06
260.547	74.06
260.779	87.06
261.012	81.06
261.244	78.06
261.477	90.06
261.71	70.06
261.942	82.06
262.175	67.06
262.407	76.06
262.64	84.06
262.872	90.06
263.105	88.06
263.337	79.06
263.57	89.06
263.802	99.06
264.035	86.06
264.267	92.06
264.499	88.06
264.732	70.06
264.964	97.06
265.197	99.06
265.429	81.06
265.661	81.06
265.894	83.06
266.126	77.06
266.358	75.06
266.591	89.06
266.823	79.06
267.055	88.06
267.287	82.06
267.52	69.06
267.752	77.06
267.984	69.06
268.216	81.06
268.448	86.06
268.681	80.06
268.913	90.06
269.145	64.06
269.377	84.06
269.609	78.06
269.841	69.06
270.073	73.06
270.306	74.06
270.538	92.06
270.77	76.06
271.002	90.06
271.234	89.06
271.466	82.06
271.698	74.06
271.93	77.06
272.162	84.06
272.394	82.06
272.626	79.06
272.858	91.06
273.09	83.06
273.322	93.06
273.553	85.06
273.785	75.06
274.017	82.06
274.249	84.06
274.481	75.06
274.713	84.06
274.945	82.06
275.176	82.06
275.408	82.06
275.64	86.06
275.872	98.06
276.104	76.06
276.335	72.06
276.567	87.06
276.799	82.06
277.031	75.06
277.262	75.06
277.494	87.06
277.726	92.06
277.957	68.06
278.189	71.06
278.421	84.06
278.652	76.06
278.884	84.06
279.115	81.06
279.347	94.06
279.579	80.06
279.81	77.06
280.042	86.06
280.273	74.06
280.505	75.06
280.736	92.06
280.968	84.06
281.199	78.06
281.431	79.06
281.662	87.06
281.894	92.06
282.125	89.06
282.356	95.06
282.588	84.06
282.819	81.06
283.051	78.06
283.282	86.06
283.513	88.06
283.745	97.06
283.976	75.06
284.207	86.06
284.439	74.06
284.67	92.06
284.901	80.06
285.132	89.06
285.364	89.06
285.595	91.06
285.826	80.06
286.057	81.06
286.288	82.06
286.52	87.06
286.751	97.06
286.982	81.06
287.213	85.06
287.444	87.06
287.675	78.06
287.906	88.06
288.138	89.06
288.369	95.06
288.6	76.06
288.831	73.06
289.062	95.06
289.293	72.06
289.524	81.06
289.755	72.06
289.986	80.06
290.217	84.06
290.448	76.06
290.679	81.06
290.91	88.06
291.141	90.06
291.371	84.06
291.602	87.06
291.833	82.06
292.064	99.06
292.295	83.06
292.526	83.06
292.757	87.06
292.987	69.06
293.218	89.06
293.449	78.06
293.68	75.06
293.91	75.06
294.141	76.06
294.372	92.06
294.603	78.06
294.833	88.06
295.064	88.06
295.295	71.06
295.525	74.06
295.756	88.06
295.987	79.06
296.217	84.06
296.448	78.06
296.679	80.06
296.909	73.06
297.14	86.06
297.37	89.06
297.601	86.06
297.831	76.06
298.062	94.06
298.292	93.06
298.523	79.06
298.753	72.06
298.984	88.06
299.214	85.06
299.445	91.06
299.675	88.06
299.905	91.06
300.136	71.06
300.366	86.06
300.597	76.06
300.827	91.06
301.057	91.06
301.288	78.06
301.518	88.06
301.748	90.06
301.979	85.06
302.209	90.06
302.439	90.06
302.669	90.06
302.9	89.06
303.13	84.06
303.36	85.06
303.59	79.06
303.82	73.06
304.051	81.06
304.281	81.06
304.511	79.06
304.741	76.06
304.971	81.06
305.201	83.06
305.431	95.06
305.661	84.06
305.891	97.06
306.121	89.06
306.352	100.06
306.582	82.06
306.812	79.06
307.042	94.06
307.272	92.06
307.502	90.06
307.731	101.06
307.961	69.06
308.191	84.06
308.421	80.06
308.651	80.06
308.881	90.06
309.111	94.06
309.341	90.06
309.571	82.06
309.8	90.06
310.03	81.06
310.26	70.06
310.49	91.06
310.72	84.06
310.949	95.06
311.179	78.06
311.409	81.06
311.639	93.06
311.868	86.06
312.098	88.06
312.328	97.06
312.557	100.06
312.787	85.06
313.017	84.06
313.246	91.06
313.476	86.06
313.706	85.06
313.935	77.06
314.165	82.06
314.394	95.06
314.624	77.06
314.853	59.06
315.083	87.06
315.312	79.06
315.542	75.06
315.771	94.06
316.001	84.06
316.23	90.06
316.46	91.06
316.689	82.06
316.919	94.06
317.148	80.06
317.377	83.06
317.607	91.06
317.836	74.06
318.065	86.06
318.295	96.06
318.524	70.06
318.753	82.06
318.983	92.06
319.212	87.06
319.441	71.06
319.67	94.06
319.9	89.06
320.129	81.06
320.358	82.06
320.587	80.06
320.816	88.06
321.046	102.06
321.275	89.06
321.504	88.06
321.733	86.06
321.962	83.06
322.191	85.06
322.42	94.06
322.649	87.06
322.878	84.06
323.108	82.06
323.337	94.06
323.566	79.06
323.795	88.06
324.024	74.06
324.253	81.06
324.482	89.06
324.71	86.06
324.939	87.06
325.168	73.06
325.397	79.06
325.626	81.06
325.855	91.06
326.084	79.06
326.313	82.06
326.542	74.06
326.77	73.06
326.999	83.06
327.228	92.06
327.457	103.06
327.686	74.06
327.914	87.06
328.143	71.06
328.372	84.06
328.6	85.06
328.829	83.06
329.058	87.06
329.287	73.06
329.515	94.06
329.744	80.06
329.972	82.06
330.201	79.06
330.43	82.06
330.658	88.06
330.887	93.06
331.115	82.06
331.344	82.06
331.572	79.06
331.801	80.06
332.03	85.06
332.258	80.06
332.486	92.06
332.715	80.06
332.943	88.06
333.172	74.06
333.4	82.06
333.629	80.06
333.857	68.06
334.085	76.06
334.314	75.06
334.542	86.06
334.771	80.06
334.999	86.06
335.227	85.06
335.455	80.06
335.684	75.06
335.912	86.06
336.14	71.06
336.369	82.06
336.597	94.06
336.825	79.06
337.053	81.06
337.281	72.06
337.51	83.06
337.738	103.06
337.966	88.06
338.194	69.06
338.422	86.06
338.65	94.06
338.878	82.06
339.106	94.06
339.334	102.06
339.562	91.06
339.79	82.06
340.018	89.06
340.246	81.06
340.474	95.06
340.702	71.06
340.93	80.06
341.158	89.06
341.386	78.06
341.614	81.06
341.842	84.06
342.07	77.06
342.298	81.06
342.526	74.06
342.754	72.06
342.981	77.06
343.209	76.06
343.437	78.06
343.665	79.06
343.893	90.06
344.12	87.06
344.348	86.06
344.576	92.06
344.804	82.06
345.031	93.06
345.259	65.06
345.487	89.06
345.714	83.06
345.942	80.06
346.17	84.06
346.397	83.06
346.625	89.06
346.853	66.06
347.08	71.06
347.308	86.06
347.535	97.06
347.763	82.06
347.99	93.06
348.218	83.06
348.445	87.06
348.673	95.06
348.9	85.06
349.128	88.06
349.355	75.06
349.583	97.06
349.81	90.06
350.037	74.06
350.265	84.06
350.492	78.06
350.72	68.06
350.947	94.06
351.174	83.06
351.402	64.06
351.629	71.06
351.856	94.06
352.083	87.06
352.311	91.06
352.538	75.06
352.765	76.06
352.992	83.06
353.22	84.06
353.447	77.06
353.674	97.06
353.901	98.06
354.128	85.06
354.355	81.06
354.583	83.06
354.81	66.06
355.037	78.06
355.264	76.06
355.491	95.06
355.718	87.06
355.945	77.06
356.172	83.06
356.399	73.06
356.626	72.06
356.853	87.06
357.08	96.06
357.307	74.06
357.534	75.06
357.761	72.06
357.988	69.06
358.215	85.06
358.441	78.06
358.668	73.06
358.895	78.06
359.122	78.06
359.349	70.06
359.576	62.06
359.802	91.06
360.029	76.06
360.256	84.06
360.483	96.06
360.709	91.06
360.936	95.06
361.163	77.06
361.39	75.06
361.616	76.06
361.843	79.06
362.07	86.06
362.296	81.06
362.523	79.06
362.749	87.06
362.976	94.06
363.203	73.06
363.429	80.06
363.656	80.06
363.882	71.06
364.109	78.06
364.335	88.06
364.562	76.06
364.788	79.06
365.015	99.06
365.241	92.06
365.468	82.06
365.694	76.06
365.92	76.06
366.147	91.06
366.373	78.06
366.599	72.06
366.826	78.06
367.052	91.06
367.278	94.06
367.505	91.06
367.731	85.06
367.957	80.06
368.184	87.06
368.41	70.06
368.636	95.06
368.862	78.06
369.089	82.06
369.315	82.06
369.541	83.06
369.767	66.06
369.993	71.06
370.219	78.06
370.445	76.06
370.672	85.06
370.898	78.06
371.124	84.06
371.35	84.06
371.576	75.06
371.802	88.06
372.028	86.06
372.254	76.06
372.48	85.06
372.706	65.06
372.932	77.06
373.158	80.06
373.384	67.06
373.61	99.06
373.835	81.06
374.061	89.06
374.287	85.06
374.513	85.06
374.739	87.06
374.965	75.06
375.191	91.06
375.416	76.06
375.642	73.06
375.868	83.06
376.094	80.06
376.319	92.06
376.545	84.06
376.771	81.06
376.997	77.06
377.222	83.06
377.448	77.06
377.674	74.06
377.899	86.06
378.125	85.06
378.35	77.06
378.576	85.06
378.802	79.06
379.027	75.06
379.253	95.06
379.478	96.06
379.704	74.06
379.929	68.06
380.155	80.06
380.38	89.06
380.606	90.06
380.831	82.06
381.057	86.06
381.282	84.06
381.507	73.06
381.733	75.06
381.958	84.06
382.184	74.06
382.409	89.06
382.634	80.06
382.86	95.06
383.085	68.06
383.31	81.06
383.535	83.06
383.761	76.06
383.986	89.06
384.211	70.06
384.436	83.06
384.662	75.06
384.887	85.06
385.112	82.06
385.337	79.06
385.562	84.06
385.787	81.06
386.013	89.06
386.238	75.06
386.463	80.06
386.688	88.06
386.913	89.06
387.138	87.06
387.363	91.06
387.588	99.06
387.813	79.06
388.038	89.06
388.263	83.06
388.488	85.06
388.713	93.06
388.938	85.06
389.163	96.06
389.387	78.06
389.612	87.06
389.837	84.06
390.062	84.06
390.287	81.06
390.512	92.06
390.736	82.06
390.961	76.06
391.186	72.06
391.411	81.06
391.636	76.06
391.86	87.06
392.085	100.06
392.31	75.06
392.534	90.06
392.759	87.06
392.984	103.06
393.208	89.06
393.433	96.06
393.658	92.06
393.882	80.06
394.107	80.06
394.331	84.06
394.556	78.06
394.78	90.06
395.005	74.06
395.229	80.06
395.454	89.06
395.678	89.06
395.903	89.06
396.127	83.06
396.352	81.06
396.576	103.06
396.801	95.06
397.025	86.06
397.249	88.06
397.474	83.06
397.698	88.06
397.922	82.06
398.147	75.06
398.371	85.06
398.595	97.06
398.82	79.06
399.044	86.06
399.268	90.06
399.492	81.06
399.717	87.06
399.941	83.06
400.165	87.06
400.389	88.06
400.613	84.06
400.837	89.06
401.062	95.06
401.286	111.06
401.51	102.06
401.734	87.06
401.958	97.06
402.182	103.06
402.406	77.06
402.63	91.06
402.854	74.06
403.078	91.06
403.302	95.06
403.526	83.06
403.75	90.06
403.974	99.06
404.198	96.06
404.422	97.06
404.645	88.06
404.869	82.06
405.093	84.06
405.317	108.06
405.541	107.06
405.765	75.06
405.988	82.06
406.212	86.06
406.436	100.06
406.66	98.06
406.883	87.06
407.107	71.06
407.331	86.06
407.555	70.06
407.778	82.06
408.002	107.06
408.226	86.06
408.449	81.06
408.673	105.06
408.896	98.06
409.12	85.06
409.344	99.06
409.567	87.06
409.791	95.06
410.014	86.06
410.238	97.06
410.461	86.06
410.685	82.06
410.908	76.06
411.132	99.06
411.355	94.06
411.578	96.06
411.802	111.06
412.025	96.06
412.249	90.06
412.472	94.06
412.695	94.06
412.919	79.06
413.142	75.06
413.365	98.06
413.589	79.06
413.812	91.06
414.035	94.06
414.258	87.06
414.482	94.06
414.705	103.06
414.928	85.06
415.151	95.06
415.374	109.06
415.597	93.06
415.821	89.06
416.044	81.06
416.267	92.06
416.49	89.06
416.713	82.06
416.936	103.06
417.159	87.06
417.382	71.06
417.605	94.06
417.828	99.06
418.051	99.06
418.274	81.06
418.497	86.06
418.72	87.06
418.943	106.06
419.166	111.06
419.389	96.06
419.611	86.06
419.834	88.06
420.057	98.06
420.28	92.06
420.503	101.06
420.726	87.06
420.948	103.06
421.171	92.06
421.394	101.06
421.617	113.06
421.839	106.06
422.062	98.06
422.285	93.06
422.507	105.06
422.73	97.06
422.953	86.06
423.175	80.06
423.398	95.06
423.621	79.06
423.843	102.06
424.066	90.06
424.288	92.06
424.511	89.06
424.733	94.06
424.956	91.06
425.178	94.06
425.401	98.06
425.623	83.06
425.846	92.06
426.068	97.06
426.291	112.06
426.513	94.06
426.735	98.06
426.958	97.06
427.18	96.06
427.402	95.06
427.625	86.06
427.847	94.06
428.069	94.06
428.292	101.06
428.514	96.06
428.736	96.06
428.958	91.06
429.181	95.06
429.403	99.06
429.625	97.06
429.847	93.06
430.069	85.06
430.292	85.06
430.514	91.06
430.736	89.06
430.958	99.06
431.18	91.06
431.402	90.06
431.624	94.06
431.846	82.06
432.068	88.06
432.29	98.06
432.512	93.06
432.734	97.06
432.956	96.06
433.178	104.06
433.4	87.06
433.622	88.06
433.844	95.06
434.066	96.06
434.287	80.06
434.509	80.06
434.731	87.06
434.953	91.06
435.175	94.06
435.397	84.06
435.618	119.06
435.84	83.06
436.062	86.06
436.284	94.06
436.505	90.06
436.727	103.06
436.949	93.06
437.17	99.06
437.392	97.06
437.614	96.06
437.835	92.06
438.057	89.06
438.278	82.06
438.5	87.06
438.721	114.06
438.943	107.06
439.165	101.06
439.386	110.06
439.608	105.06
439.829	105.06
440.05	100.06
440.272	83.06
440.493	98.06
440.715	96.06
440.936	88.06
441.158	99.06
441.379	100.06
441.6	101.06
441.822	92.06
442.043	96.06
442.264	93.06
442.486	91.06
442.707	99.06
442.928	88.06
443.149	86.06
443.371	83.06
443.592	104.06
443.813	109.06
444.034	115.06
444.255	96.06
444.476	111.06
444.698	91.06
444.919	91.06
445.14	198.06
445.361	150.06
445.582	104.06
445.803	110.06
446.024	99.06
446.245	90.06
446.466	96.06
446.687	99.06
446.908	97.06
447.129	105.06
447.35	95.06
447.571	98.06
447.792	84.06
448.013	99.06
448.234	102.06
448.455	86.06
448.675	98.06
448.896	93.06
449.117	91.06
449.338	99.06
449.559	98.06
449.779	106.06
450	105.06
450.221	104.06
450.442	87.06
450.662	82.06
450.883	94.06
451.104	92.06
451.324	91.06
451.545	85.06
451.766	88.06
451.986	100.06
452.207	93.06
452.428	98.06
452.648	91.06
452.869	86.06
453.089	82.06
453.31	86.06
453.53	80.06
453.751	80.06
453.971	97.06
454.192	81.06
454.412	92.06
454.633	74.06
454.853	92.06
455.073	111.06
455.294	93.06
455.514	94.06
455.734	100.06
455.955	98.06
456.175	93.06
456.395	85.06
456.616	71.06
456.836	89.06
457.056	92.06
457.276	89.06
457.497	78.06
457.717	95.06
457.937	93.06
458.157	83.06
458.377	98.06
458.598	83.06
458.818	85.06
459.038	76.06
459.258	96.06
459.478	83.06
459.698	85.06
459.918	104.06
460.138	99.06
460.358	93.06
460.578	95.06
460.798	98.06
461.018	101.06
461.238	92.06
461.458	91.06
461.678	91.06
461.898	77.06
462.118	80.06
462.338	103.06
462.558	88.06
462.777	88.06
462.997	87.06
463.217	85.06
463.437	81.06
463.657	110.06
463.876	70.06
464.096	93.06
464.316	94.06
464.536	77.06
464.755	108.06
464.975	97.06
465.195	109.06
465.414	98.06
465.634	94.06
465.854	87.06
466.073	91.06
466.293	87.06
466.512	91.06
466.732	95.06
466.951	86.06
467.171	100.06
467.391	100.06
467.61	103.06
467.829	100.06
468.049	95.06
468.268	90.06
468.488	92.06
468.707	104.06
468.927	102.06
469.146	95.06
469.365	92.06
469.585	94.06
469.804	109.06
470.023	110.06
470.243	99.06
470.462	104.06
470.681	107.06
470.901	111.06
471.12	101.06
471.339	96.06
471.558	95.06
471.777	87.06
471.997	101.06
472.216	102.06
472.435	94.06
472.654	100.06
472.873	99.06
473.092	94.06
473.311	98.06
473.53	84.06
473.749	81.06
473.968	87.06
474.187	86.06
474.406	84.06
474.625	97.06
474.844	88.06
475.063	92.06
475.282	100.06
475.501	88.06
475.72	95.06
475.939	98.06
476.158	88.06
476.377	100.06
476.596	105.06
476.814	81.06
477.033	87.06
477.252	91.06
477.471	89.06
477.69	102.06
477.908	98.06
478.127	104.06
478.346	95.06
478.564	100.06
478.783	114.06
479.002	102.06
479.22	94.06
479.439	82.06
479.658	91.06
479.876	85.06
480.095	86.06
480.313	83.06
480.532	87.06
480.751	75.06
480.969	95.06
481.188	97.06
481.406	80.06
481.624	83.06
481.843	79.06
482.061	92.06
482.28	80.06
482.498	94.06
482.717	95.06
482.935	96.06
483.153	83.06
483.372	110.06
483.59	105.06
483.808	92.06
484.027	92.06
484.245	108.06
484.463	90.06
484.681	106.06
484.9	103.06
485.118	95.06
485.336	101.06
485.554	98.06
485.772	86.06
485.99	80.06
486.209	95.06
486.427	88.06
486.645	87.06
486.863	116.06
487.081	98.06
487.299	103.06
487.517	115.06
487.735	114.06
487.953	106.06
488.171	111.06
488.389	113.06
488.607	114.06
488.825	96.06
489.043	90.06
489.261	95.06
489.479	102.06
489.696	100.06
489.914	100.06
490.132	101.06
490.35	105.06
490.568	96.06
490.786	110.06
491.003	111.06
491.221	111.06
491.439	90.06
491.657	109.06
491.874	122.06
492.092	124.06
492.31	121.06
492.527	113.06
492.745	107.06
492.963	115.06
493.18	102.06
493.398	119.06
493.615	115.06
493.833	96.06
494.05	113.06
494.268	112.06
494.485	105.06
494.703	110.06
494.92	118.06
495.138	106.06
495.355	105.06
495.573	97.06
495.79	111.06
496.008	112.06
496.225	113.06
496.442	117.06
496.66	118.06
496.877	104.06
497.094	105.06
497.312	112.06
497.529	114.06
497.746	118.06
497.963	121.06
498.181	80.06
498.398	81.06
498.615	96.06
498.832	81.06
499.049	93.06
499.267	97.06
499.484	100.06
499.701	101.06
499.918	82.06
500.135	94.06
500.352	104.06
500.569	103.06
500.786	96.06
501.003	105.06
501.22	84.06
501.437	100.06
501.654	83.06
501.871	98.06
502.088	94.06
502.305	95.06
502.522	103.06
502.739	92.06
502.956	104.06
503.172	99.06
503.389	88.06
503.606	103.06
503.823	83.06
504.04	88.06
504.256	93.06
504.473	92.06
504.69	104.06
504.907	95.06
505.123	90.06
505.34	96.06
505.557	101.06
505.773	91.06
505.99	94.06
506.207	91.06
506.423	100.06
506.64	81.06
506.856	96.06
507.073	100.06
507.289	92.06
507.506	96.06
507.722	100.06
507.939	90.06
508.155	96.06
508.372	81.06
508.588	89.06
508.805	94.06
509.021	86.06
509.238	92.06
509.454	84.06
509.67	100.06
509.887	91.06
510.103	101.06
510.319	102.06
510.536	89.06
510.752	74.06
510.968	85.06
511.184	90.06
511.401	80.06
511.617	88.06
511.833	85.06
512.049	87.06
512.265	84.06
512.481	78.06
512.698	86.06
512.914	86.06
513.13	87.06
513.346	85.06
513.562	90.06
513.778	89.06
513.994	91.06
514.21	86.06
514.426	99.06
514.642	94.06
514.858	90.06
515.074	83.06
515.29	82.06
515.506	71.06
515.721	87.06
515.937	94.06
516.153	83.06
516.369	78.06
516.585	77.06
516.801	72.06
517.016	94.06
517.232	92.06
