Data from Location3.07152019.Energy5.Lamp.07192019.3%Agarose_HRD10591_15-16-54-269.txt Node
Date: Fri Jul 19 15:16:54 EDT 2019
User: cochatt
Spectrometer: HR+D1059
Trigger mode: 1
Integration Time (sec): 1.000000E-1
Scans to average: 1
Electric dark correction enabled: true
Nonlinearity correction enabled: false
Boxcar width: 0
XAxis mode: Wavelengths
Number of Pixels in Spectrum: 2048
>>>>>Begin Spectral Data<<<<<
223.165	-13.38
223.4	-13.38
223.635	-13.38
223.869	-17.38
224.104	-24.38
224.338	-11.38
224.573	-17.38
224.808	0.62
225.042	-4.38
225.277	-9.38
225.511	-0.38
225.746	-7.38
225.98	-3.38
226.215	14.62
226.449	20.62
226.683	32.62
226.918	20.62
227.152	19.62
227.387	34.62
227.621	46.62
227.856	41.62
228.09	38.62
228.324	55.62
228.559	49.62
228.793	40.62
229.027	68.62
229.262	54.62
229.496	61.62
229.73	64.62
229.964	71.62
230.199	64.62
230.433	65.62
230.667	82.62
230.901	83.62
231.136	72.62
231.37	86.62
231.604	84.62
231.838	78.62
232.072	80.62
232.306	83.62
232.541	73.62
232.775	74.62
233.009	78.62
233.243	85.62
233.477	78.62
233.711	81.62
233.945	87.62
234.179	79.62
234.413	74.62
234.647	77.62
234.881	73.62
235.115	62.62
235.349	68.62
235.583	74.62
235.817	78.62
236.051	71.62
236.285	76.62
236.519	78.62
236.753	78.62
236.987	79.62
237.221	84.62
237.455	66.62
237.689	73.62
237.922	86.62
238.156	79.62
238.39	63.62
238.624	67.62
238.858	82.62
239.091	73.62
239.325	75.62
239.559	66.62
239.793	78.62
240.027	65.62
240.26	78.62
240.494	74.62
240.728	67.62
240.961	66.62
241.195	80.62
241.429	87.62
241.662	70.62
241.896	65.62
242.13	86.62
242.363	68.62
242.597	79.62
242.83	72.62
243.064	64.62
243.298	66.62
243.531	69.62
243.765	82.62
243.998	64.62
244.232	81.62
244.465	71.62
244.699	81.62
244.932	80.62
245.166	79.62
245.399	70.62
245.633	76.62
245.866	71.62
246.099	76.62
246.333	58.62
246.566	83.62
246.8	86.62
247.033	70.62
247.266	77.62
247.5	82.62
247.733	76.62
247.966	77.62
248.2	74.62
248.433	67.62
248.666	57.62
248.899	88.62
249.133	79.62
249.366	67.62
249.599	76.62
249.832	68.62
250.066	93.62
250.299	89.62
250.532	77.62
250.765	76.62
250.998	74.62
251.231	72.62
251.465	78.62
251.698	84.62
251.931	86.62
252.164	87.62
252.397	72.62
252.63	77.62
252.863	78.62
253.096	62.62
253.329	86.62
253.562	80.62
253.795	68.62
254.028	68.62
254.261	74.62
254.494	65.62
254.727	87.62
254.96	83.62
255.193	75.62
255.426	82.62
255.659	71.62
255.892	85.62
256.124	76.62
256.357	82.62
256.59	76.62
256.823	73.62
257.056	73.62
257.289	76.62
257.521	72.62
257.754	74.62
257.987	80.62
258.22	76.62
258.452	69.62
258.685	87.62
258.918	74.62
259.151	92.62
259.383	88.62
259.616	76.62
259.849	80.62
260.081	76.62
260.314	82.62
260.547	66.62
260.779	76.62
261.012	85.62
261.244	68.62
261.477	73.62
261.71	77.62
261.942	72.62
262.175	71.62
262.407	72.62
262.64	74.62
262.872	80.62
263.105	73.62
263.337	84.62
263.57	78.62
263.802	84.62
264.035	77.62
264.267	81.62
264.499	70.62
264.732	69.62
264.964	72.62
265.197	79.62
265.429	79.62
265.661	79.62
265.894	79.62
266.126	85.62
266.358	73.62
266.591	82.62
266.823	97.62
267.055	81.62
267.287	76.62
267.52	80.62
267.752	78.62
267.984	92.62
268.216	78.62
268.448	75.62
268.681	91.62
268.913	81.62
269.145	69.62
269.377	89.62
269.609	66.62
269.841	76.62
270.073	77.62
270.306	75.62
270.538	83.62
270.77	86.62
271.002	69.62
271.234	79.62
271.466	89.62
271.698	83.62
271.93	93.62
272.162	73.62
272.394	91.62
272.626	87.62
272.858	80.62
273.09	82.62
273.322	77.62
273.553	84.62
273.785	86.62
274.017	70.62
274.249	76.62
274.481	76.62
274.713	85.62
274.945	89.62
275.176	93.62
275.408	88.62
275.64	83.62
275.872	88.62
276.104	89.62
276.335	82.62
276.567	96.62
276.799	88.62
277.031	89.62
277.262	87.62
277.494	90.62
277.726	84.62
277.957	77.62
278.189	87.62
278.421	74.62
278.652	77.62
278.884	83.62
279.115	79.62
279.347	79.62
279.579	87.62
279.81	75.62
280.042	93.62
280.273	76.62
280.505	81.62
280.736	78.62
280.968	76.62
281.199	85.62
281.431	84.62
281.662	84.62
281.894	97.62
282.125	99.62
282.356	81.62
282.588	84.62
282.819	92.62
283.051	80.62
283.282	85.62
283.513	82.62
283.745	82.62
283.976	82.62
284.207	67.62
284.439	88.62
284.67	79.62
284.901	84.62
285.132	94.62
285.364	71.62
285.595	76.62
285.826	79.62
286.057	80.62
286.288	86.62
286.52	79.62
286.751	95.62
286.982	86.62
287.213	77.62
287.444	86.62
287.675	92.62
287.906	84.62
288.138	73.62
288.369	83.62
288.6	87.62
288.831	88.62
289.062	76.62
289.293	86.62
289.524	87.62
289.755	89.62
289.986	76.62
290.217	72.62
290.448	82.62
290.679	88.62
290.91	84.62
291.141	78.62
291.371	96.62
291.602	84.62
291.833	83.62
292.064	82.62
292.295	78.62
292.526	85.62
292.757	77.62
292.987	84.62
293.218	78.62
293.449	84.62
293.68	85.62
293.91	71.62
294.141	81.62
294.372	79.62
294.603	89.62
294.833	96.62
295.064	68.62
295.295	98.62
295.525	93.62
295.756	93.62
295.987	100.62
296.217	87.62
296.448	82.62
296.679	89.62
296.909	88.62
297.14	84.62
297.37	68.62
297.601	88.62
297.831	86.62
298.062	85.62
298.292	92.62
298.523	73.62
298.753	91.62
298.984	79.62
299.214	92.62
299.445	79.62
299.675	79.62
299.905	97.62
300.136	81.62
300.366	78.62
300.597	80.62
300.827	79.62
301.057	76.62
301.288	80.62
301.518	79.62
301.748	77.62
301.979	88.62
302.209	76.62
302.439	81.62
302.669	64.62
302.9	87.62
303.13	78.62
303.36	71.62
303.59	78.62
303.82	83.62
304.051	92.62
304.281	85.62
304.511	98.62
304.741	79.62
304.971	78.62
305.201	80.62
305.431	84.62
305.661	87.62
305.891	80.62
306.121	82.62
306.352	82.62
306.582	65.62
306.812	75.62
307.042	88.62
307.272	82.62
307.502	93.62
307.731	76.62
307.961	86.62
308.191	78.62
308.421	92.62
308.651	92.62
308.881	80.62
309.111	71.62
309.341	84.62
309.571	76.62
309.8	100.62
310.03	85.62
310.26	74.62
310.49	88.62
310.72	92.62
310.949	75.62
311.179	66.62
311.409	79.62
311.639	84.62
311.868	79.62
312.098	87.62
312.328	82.62
312.557	85.62
312.787	73.62
313.017	84.62
313.246	81.62
313.476	72.62
313.706	80.62
313.935	79.62
314.165	90.62
314.394	88.62
314.624	76.62
314.853	74.62
315.083	88.62
315.312	85.62
315.542	92.62
315.771	89.62
316.001	97.62
316.23	96.62
316.46	79.62
316.689	82.62
316.919	84.62
317.148	87.62
317.377	84.62
317.607	94.62
317.836	77.62
318.065	73.62
318.295	79.62
318.524	81.62
318.753	81.62
318.983	79.62
319.212	87.62
319.441	80.62
319.67	82.62
319.9	81.62
320.129	67.62
320.358	91.62
320.587	93.62
320.816	86.62
321.046	84.62
321.275	81.62
321.504	91.62
321.733	82.62
321.962	78.62
322.191	90.62
322.42	83.62
322.649	73.62
322.878	93.62
323.108	77.62
323.337	93.62
323.566	89.62
323.795	86.62
324.024	72.62
324.253	81.62
324.482	82.62
324.71	95.62
324.939	87.62
325.168	79.62
325.397	78.62
325.626	77.62
325.855	97.62
326.084	80.62
326.313	82.62
326.542	90.62
326.77	87.62
326.999	84.62
327.228	78.62
327.457	71.62
327.686	86.62
327.914	82.62
328.143	81.62
328.372	82.62
328.6	85.62
328.829	75.62
329.058	85.62
329.287	75.62
329.515	77.62
329.744	86.62
329.972	77.62
330.201	87.62
330.43	95.62
330.658	75.62
330.887	60.62
331.115	73.62
331.344	76.62
331.572	89.62
331.801	90.62
332.03	100.62
332.258	75.62
332.486	84.62
332.715	88.62
332.943	81.62
333.172	79.62
333.4	81.62
333.629	78.62
333.857	80.62
334.085	96.62
334.314	88.62
334.542	93.62
334.771	86.62
334.999	90.62
335.227	80.62
335.455	97.62
335.684	85.62
335.912	83.62
336.14	87.62
336.369	87.62
336.597	80.62
336.825	83.62
337.053	86.62
337.281	77.62
337.51	85.62
337.738	84.62
337.966	83.62
338.194	74.62
338.422	91.62
338.65	85.62
338.878	82.62
339.106	93.62
339.334	105.62
339.562	88.62
339.79	82.62
340.018	79.62
340.246	65.62
340.474	71.62
340.702	78.62
340.93	89.62
341.158	75.62
341.386	82.62
341.614	90.62
341.842	96.62
342.07	90.62
342.298	80.62
342.526	83.62
342.754	74.62
342.981	83.62
343.209	84.62
343.437	85.62
343.665	87.62
343.893	80.62
344.12	89.62
344.348	83.62
344.576	84.62
344.804	69.62
345.031	76.62
345.259	86.62
345.487	74.62
345.714	90.62
345.942	93.62
346.17	84.62
346.397	79.62
346.625	88.62
346.853	78.62
347.08	89.62
347.308	99.62
347.535	87.62
347.763	86.62
347.99	92.62
348.218	84.62
348.445	73.62
348.673	85.62
348.9	73.62
349.128	90.62
349.355	86.62
349.583	99.62
349.81	85.62
350.037	81.62
350.265	78.62
350.492	80.62
350.72	77.62
350.947	84.62
351.174	88.62
351.402	78.62
351.629	80.62
351.856	71.62
352.083	87.62
352.311	82.62
352.538	86.62
352.765	94.62
352.992	82.62
353.22	77.62
353.447	68.62
353.674	76.62
353.901	84.62
354.128	81.62
354.355	83.62
354.583	83.62
354.81	69.62
355.037	86.62
355.264	77.62
355.491	81.62
355.718	79.62
355.945	102.62
356.172	80.62
356.399	86.62
356.626	86.62
356.853	86.62
357.08	102.62
357.307	83.62
357.534	76.62
357.761	88.62
357.988	72.62
358.215	80.62
358.441	81.62
358.668	72.62
358.895	94.62
359.122	80.62
359.349	66.62
359.576	85.62
359.802	76.62
360.029	77.62
360.256	87.62
360.483	85.62
360.709	62.62
360.936	82.62
361.163	79.62
361.39	80.62
361.616	95.62
361.843	83.62
362.07	76.62
362.296	87.62
362.523	79.62
362.749	70.62
362.976	85.62
363.203	87.62
363.429	88.62
363.656	85.62
363.882	69.62
364.109	85.62
364.335	77.62
364.562	80.62
364.788	79.62
365.015	75.62
365.241	93.62
365.468	83.62
365.694	77.62
365.92	92.62
366.147	81.62
366.373	86.62
366.599	73.62
366.826	80.62
367.052	86.62
367.278	84.62
367.505	75.62
367.731	86.62
367.957	75.62
368.184	92.62
368.41	84.62
368.636	87.62
368.862	86.62
369.089	86.62
369.315	89.62
369.541	75.62
369.767	86.62
369.993	90.62
370.219	82.62
370.445	79.62
370.672	86.62
370.898	96.62
371.124	86.62
371.35	77.62
371.576	67.62
371.802	86.62
372.028	81.62
372.254	91.62
372.48	87.62
372.706	78.62
372.932	87.62
373.158	87.62
373.384	93.62
373.61	83.62
373.835	83.62
374.061	76.62
374.287	76.62
374.513	79.62
374.739	77.62
374.965	71.62
375.191	87.62
375.416	89.62
375.642	94.62
375.868	91.62
376.094	76.62
376.319	83.62
376.545	78.62
376.771	84.62
376.997	86.62
377.222	81.62
377.448	78.62
377.674	82.62
377.899	78.62
378.125	68.62
378.35	83.62
378.576	83.62
378.802	90.62
379.027	81.62
379.253	77.62
379.478	81.62
379.704	87.62
379.929	82.62
380.155	87.62
380.38	85.62
380.606	82.62
380.831	84.62
381.057	90.62
381.282	86.62
381.507	83.62
381.733	85.62
381.958	94.62
382.184	72.62
382.409	81.62
382.634	84.62
382.86	70.62
383.085	85.62
383.31	87.62
383.535	93.62
383.761	82.62
383.986	79.62
384.211	81.62
384.436	87.62
384.662	78.62
384.887	87.62
385.112	99.62
385.337	78.62
385.562	89.62
385.787	81.62
386.013	104.62
386.238	99.62
386.463	86.62
386.688	93.62
386.913	86.62
387.138	86.62
387.363	75.62
387.588	98.62
387.813	88.62
388.038	91.62
388.263	89.62
388.488	90.62
388.713	85.62
388.938	83.62
389.163	83.62
389.387	101.62
389.612	77.62
389.837	82.62
390.062	73.62
390.287	90.62
390.512	87.62
390.736	84.62
390.961	85.62
391.186	77.62
391.411	85.62
391.636	99.62
391.86	72.62
392.085	82.62
392.31	96.62
392.534	96.62
392.759	92.62
392.984	86.62
393.208	89.62
393.433	88.62
393.658	87.62
393.882	75.62
394.107	75.62
394.331	83.62
394.556	79.62
394.78	83.62
395.005	80.62
395.229	99.62
395.454	80.62
395.678	66.62
395.903	72.62
396.127	87.62
396.352	85.62
396.576	72.62
396.801	72.62
397.025	89.62
397.249	95.62
397.474	94.62
397.698	89.62
397.922	97.62
398.147	79.62
398.371	72.62
398.595	85.62
398.82	85.62
399.044	89.62
399.268	84.62
399.492	99.62
399.717	101.62
399.941	97.62
400.165	95.62
400.389	83.62
400.613	87.62
400.837	75.62
401.062	82.62
401.286	75.62
401.51	95.62
401.734	93.62
401.958	92.62
402.182	81.62
402.406	86.62
402.63	84.62
402.854	85.62
403.078	93.62
403.302	99.62
403.526	78.62
403.75	95.62
403.974	89.62
404.198	104.62
404.422	102.62
404.645	94.62
404.869	92.62
405.093	84.62
405.317	90.62
405.541	96.62
405.765	92.62
405.988	90.62
406.212	93.62
406.436	89.62
406.66	92.62
406.883	83.62
407.107	96.62
407.331	81.62
407.555	97.62
407.778	96.62
408.002	87.62
408.226	80.62
408.449	92.62
408.673	82.62
408.896	93.62
409.12	87.62
409.344	94.62
409.567	81.62
409.791	100.62
410.014	93.62
410.238	88.62
410.461	84.62
410.685	90.62
410.908	87.62
411.132	94.62
411.355	75.62
411.578	91.62
411.802	75.62
412.025	80.62
412.249	75.62
412.472	99.62
412.695	97.62
412.919	89.62
413.142	90.62
413.365	90.62
413.589	70.62
413.812	88.62
414.035	98.62
414.258	93.62
414.482	89.62
414.705	79.62
414.928	93.62
415.151	79.62
415.374	87.62
415.597	88.62
415.821	86.62
416.044	88.62
416.267	89.62
416.49	86.62
416.713	87.62
416.936	101.62
417.159	94.62
417.382	96.62
417.605	72.62
417.828	96.62
418.051	103.62
418.274	78.62
418.497	83.62
418.72	94.62
418.943	90.62
419.166	94.62
419.389	104.62
419.611	108.62
419.834	101.62
420.057	92.62
420.28	103.62
420.503	96.62
420.726	101.62
420.948	91.62
421.171	83.62
421.394	87.62
421.617	84.62
421.839	87.62
422.062	92.62
422.285	88.62
422.507	94.62
422.73	87.62
422.953	90.62
423.175	100.62
423.398	84.62
423.621	97.62
423.843	85.62
424.066	75.62
424.288	87.62
424.511	95.62
424.733	99.62
424.956	99.62
425.178	90.62
425.401	81.62
425.623	77.62
425.846	84.62
426.068	89.62
426.291	74.62
426.513	84.62
426.735	90.62
426.958	92.62
427.18	84.62
427.402	89.62
427.625	73.62
427.847	89.62
428.069	99.62
428.292	89.62
428.514	95.62
428.736	100.62
428.958	89.62
429.181	82.62
429.403	98.62
429.625	96.62
429.847	96.62
430.069	93.62
430.292	96.62
430.514	86.62
430.736	88.62
430.958	86.62
431.18	91.62
431.402	103.62
431.624	90.62
431.846	74.62
432.068	89.62
432.29	89.62
432.512	82.62
432.734	82.62
432.956	98.62
433.178	99.62
433.4	88.62
433.622	97.62
433.844	85.62
434.066	87.62
434.287	84.62
434.509	89.62
434.731	80.62
434.953	85.62
435.175	103.62
435.397	89.62
435.618	90.62
435.84	85.62
436.062	81.62
436.284	96.62
436.505	75.62
436.727	94.62
436.949	73.62
437.17	86.62
437.392	89.62
437.614	85.62
437.835	81.62
438.057	88.62
438.278	85.62
438.5	81.62
438.721	89.62
438.943	87.62
439.165	95.62
439.386	81.62
439.608	99.62
439.829	104.62
440.05	94.62
440.272	105.62
440.493	86.62
440.715	99.62
440.936	106.62
441.158	104.62
441.379	94.62
441.6	100.62
441.822	104.62
442.043	90.62
442.264	81.62
442.486	87.62
442.707	104.62
442.928	104.62
443.149	86.62
443.371	89.62
443.592	101.62
443.813	89.62
444.034	112.62
444.255	108.62
444.476	98.62
444.698	96.62
444.919	88.62
445.14	237.62
445.361	152.62
445.582	97.62
445.803	98.62
446.024	91.62
446.245	96.62
446.466	83.62
446.687	94.62
446.908	88.62
447.129	94.62
447.35	101.62
447.571	103.62
447.792	102.62
448.013	96.62
448.234	87.62
448.455	106.62
448.675	100.62
448.896	101.62
449.117	93.62
449.338	96.62
449.559	93.62
449.779	101.62
450	101.62
450.221	90.62
450.442	96.62
450.662	91.62
450.883	92.62
451.104	88.62
451.324	97.62
451.545	86.62
451.766	88.62
451.986	95.62
452.207	87.62
452.428	93.62
452.648	104.62
452.869	87.62
453.089	87.62
453.31	97.62
453.53	82.62
453.751	97.62
453.971	78.62
454.192	84.62
454.412	71.62
454.633	91.62
454.853	83.62
455.073	85.62
455.294	89.62
455.514	103.62
455.734	92.62
455.955	92.62
456.175	96.62
456.395	71.62
456.616	84.62
456.836	86.62
457.056	86.62
457.276	92.62
457.497	100.62
457.717	80.62
457.937	96.62
458.157	70.62
458.377	84.62
458.598	91.62
458.818	86.62
459.038	82.62
459.258	87.62
459.478	72.62
459.698	87.62
459.918	77.62
460.138	86.62
460.358	72.62
460.578	85.62
460.798	77.62
461.018	74.62
461.238	96.62
461.458	80.62
461.678	77.62
461.898	90.62
462.118	76.62
462.338	93.62
462.558	90.62
462.777	102.62
462.997	85.62
463.217	89.62
463.437	84.62
463.657	88.62
463.876	85.62
464.096	89.62
464.316	85.62
464.536	98.62
464.755	92.62
464.975	84.62
465.195	83.62
465.414	87.62
465.634	92.62
465.854	86.62
466.073	88.62
466.293	88.62
466.512	92.62
466.732	92.62
466.951	91.62
467.171	90.62
467.391	90.62
467.61	99.62
467.829	85.62
468.049	93.62
468.268	95.62
468.488	95.62
468.707	101.62
468.927	98.62
469.146	111.62
469.365	92.62
469.585	94.62
469.804	103.62
470.023	112.62
470.243	115.62
470.462	105.62
470.681	91.62
470.901	80.62
471.12	99.62
471.339	78.62
471.558	100.62
471.777	104.62
471.997	100.62
472.216	86.62
472.435	92.62
472.654	93.62
472.873	97.62
473.092	87.62
473.311	83.62
473.53	104.62
473.749	81.62
473.968	97.62
474.187	83.62
474.406	103.62
474.625	105.62
474.844	100.62
475.063	88.62
475.282	89.62
475.501	80.62
475.72	81.62
475.939	88.62
476.158	80.62
476.377	85.62
476.596	75.62
476.814	93.62
477.033	88.62
477.252	93.62
477.471	82.62
477.69	95.62
477.908	112.62
478.127	89.62
478.346	92.62
478.564	86.62
478.783	110.62
479.002	87.62
479.22	84.62
479.439	103.62
479.658	78.62
479.876	92.62
480.095	85.62
480.313	100.62
480.532	92.62
480.751	90.62
480.969	101.62
481.188	89.62
481.406	71.62
481.624	87.62
481.843	84.62
482.061	88.62
482.28	86.62
482.498	78.62
482.717	74.62
482.935	81.62
483.153	97.62
483.372	102.62
483.59	98.62
483.808	104.62
484.027	97.62
484.245	101.62
484.463	109.62
484.681	110.62
484.9	106.62
485.118	93.62
485.336	80.62
485.554	95.62
485.772	101.62
485.99	101.62
486.209	86.62
486.427	90.62
486.645	84.62
486.863	87.62
487.081	98.62
487.299	87.62
487.517	100.62
487.735	102.62
487.953	128.62
488.171	106.62
488.389	108.62
488.607	96.62
488.825	105.62
489.043	88.62
489.261	94.62
489.479	91.62
489.696	85.62
489.914	89.62
490.132	91.62
490.35	92.62
490.568	103.62
490.786	93.62
491.003	106.62
491.221	109.62
491.439	92.62
491.657	104.62
491.874	130.62
492.092	112.62
492.31	139.62
492.527	109.62
492.745	105.62
492.963	113.62
493.18	116.62
493.398	118.62
493.615	121.62
493.833	115.62
494.05	101.62
494.268	100.62
494.485	117.62
494.703	100.62
494.92	97.62
495.138	106.62
495.355	99.62
495.573	92.62
495.79	98.62
496.008	128.62
496.225	109.62
496.442	114.62
496.66	101.62
496.877	103.62
497.094	104.62
497.312	100.62
497.529	94.62
497.746	109.62
497.963	105.62
498.181	100.62
498.398	82.62
498.615	86.62
498.832	74.62
499.049	85.62
499.267	93.62
499.484	99.62
499.701	87.62
499.918	91.62
500.135	88.62
500.352	102.62
500.569	103.62
500.786	102.62
501.003	87.62
501.22	93.62
501.437	86.62
501.654	86.62
501.871	98.62
502.088	110.62
502.305	85.62
502.522	78.62
502.739	100.62
502.956	97.62
503.172	90.62
503.389	78.62
503.606	83.62
503.823	86.62
504.04	108.62
504.256	104.62
504.473	85.62
504.69	82.62
504.907	88.62
505.123	84.62
505.34	90.62
505.557	94.62
505.773	73.62
505.99	85.62
506.207	102.62
506.423	82.62
506.64	72.62
506.856	84.62
507.073	87.62
507.289	99.62
507.506	91.62
507.722	93.62
507.939	105.62
508.155	80.62
508.372	92.62
508.588	84.62
508.805	85.62
509.021	82.62
509.238	68.62
509.454	78.62
509.67	72.62
509.887	80.62
510.103	87.62
510.319	86.62
510.536	78.62
510.752	79.62
510.968	81.62
511.184	86.62
511.401	80.62
511.617	89.62
511.833	72.62
512.049	77.62
512.265	76.62
512.481	82.62
512.698	85.62
512.914	96.62
513.13	84.62
513.346	70.62
513.562	94.62
513.778	74.62
513.994	74.62
514.21	87.62
514.426	84.62
514.642	75.62
514.858	75.62
515.074	92.62
515.29	81.62
515.506	81.62
515.721	75.62
515.937	65.62
516.153	71.62
516.369	85.62
516.585	80.62
516.801	79.62
517.016	74.62
517.232	74.62
517.448	90.62
517.664	78.62
517.879	89.62
