Data from Location3.07152019.Energy5.Lamp.07192019.3%Agarose_HRD10591_15-18-30-269.txt Node
Date: Fri Jul 19 15:18:30 EDT 2019
User: cochatt
Spectrometer: HR+D1059
Trigger mode: 1
Integration Time (sec): 1.000000E-1
Scans to average: 1
Electric dark correction enabled: true
Nonlinearity correction enabled: false
Boxcar width: 0
XAxis mode: Wavelengths
Number of Pixels in Spectrum: 2048
>>>>>Begin Spectral Data<<<<<
223.165	-18.44
223.4	-18.44
223.635	-18.44
223.869	-11.44
224.104	-1.44
224.338	-17.44
224.573	-20.44
224.808	-8.44
225.042	-2.44
225.277	2.56
225.511	-5.44
225.746	-3.44
225.98	2.56
226.215	-1.44
226.449	12.56
226.683	23.56
226.918	22.56
227.152	26.56
227.387	30.56
227.621	30.56
227.856	61.56
228.09	54.56
228.324	54.56
228.559	60.56
228.793	72.56
229.027	66.56
229.262	66.56
229.496	59.56
229.73	68.56
229.964	74.56
230.199	68.56
230.433	68.56
230.667	96.56
230.901	78.56
231.136	78.56
231.37	96.56
231.604	79.56
231.838	89.56
232.072	83.56
232.306	97.56
232.541	80.56
232.775	81.56
233.009	72.56
233.243	74.56
233.477	74.56
233.711	79.56
233.945	73.56
234.179	71.56
234.413	81.56
234.647	77.56
234.881	81.56
235.115	71.56
235.349	71.56
235.583	73.56
235.817	66.56
236.051	81.56
236.285	93.56
236.519	80.56
236.753	70.56
236.987	78.56
237.221	99.56
237.455	89.56
237.689	75.56
237.922	87.56
238.156	81.56
238.39	67.56
238.624	72.56
238.858	93.56
239.091	96.56
239.325	86.56
239.559	73.56
239.793	68.56
240.027	84.56
240.26	79.56
240.494	83.56
240.728	72.56
240.961	66.56
241.195	77.56
241.429	66.56
241.662	97.56
241.896	77.56
242.13	78.56
242.363	63.56
242.597	70.56
242.83	76.56
243.064	93.56
243.298	80.56
243.531	79.56
243.765	87.56
243.998	70.56
244.232	72.56
244.465	72.56
244.699	75.56
244.932	64.56
245.166	82.56
245.399	83.56
245.633	79.56
245.866	83.56
246.099	81.56
246.333	65.56
246.566	55.56
246.8	66.56
247.033	78.56
247.266	82.56
247.5	83.56
247.733	84.56
247.966	77.56
248.2	94.56
248.433	80.56
248.666	79.56
248.899	88.56
249.133	74.56
249.366	85.56
249.599	90.56
249.832	84.56
250.066	77.56
250.299	72.56
250.532	71.56
250.765	74.56
250.998	75.56
251.231	73.56
251.465	79.56
251.698	88.56
251.931	68.56
252.164	78.56
252.397	89.56
252.63	85.56
252.863	83.56
253.096	82.56
253.329	86.56
253.562	92.56
253.795	81.56
254.028	90.56
254.261	90.56
254.494	81.56
254.727	88.56
254.96	81.56
255.193	66.56
255.426	73.56
255.659	71.56
255.892	77.56
256.124	75.56
256.357	88.56
256.59	81.56
256.823	85.56
257.056	63.56
257.289	79.56
257.521	90.56
257.754	78.56
257.987	74.56
258.22	72.56
258.452	68.56
258.685	85.56
258.918	70.56
259.151	79.56
259.383	99.56
259.616	76.56
259.849	93.56
260.081	82.56
260.314	81.56
260.547	68.56
260.779	64.56
261.012	89.56
261.244	77.56
261.477	78.56
261.71	69.56
261.942	89.56
262.175	67.56
262.407	85.56
262.64	79.56
262.872	72.56
263.105	85.56
263.337	90.56
263.57	79.56
263.802	91.56
264.035	83.56
264.267	62.56
264.499	72.56
264.732	90.56
264.964	77.56
265.197	81.56
265.429	85.56
265.661	82.56
265.894	85.56
266.126	86.56
266.358	86.56
266.591	84.56
266.823	80.56
267.055	85.56
267.287	86.56
267.52	84.56
267.752	87.56
267.984	75.56
268.216	81.56
268.448	89.56
268.681	82.56
268.913	103.56
269.145	85.56
269.377	87.56
269.609	76.56
269.841	88.56
270.073	80.56
270.306	79.56
270.538	79.56
270.77	73.56
271.002	90.56
271.234	81.56
271.466	88.56
271.698	74.56
271.93	79.56
272.162	70.56
272.394	84.56
272.626	84.56
272.858	82.56
273.09	86.56
273.322	75.56
273.553	94.56
273.785	82.56
274.017	79.56
274.249	82.56
274.481	78.56
274.713	96.56
274.945	76.56
275.176	80.56
275.408	83.56
275.64	82.56
275.872	70.56
276.104	83.56
276.335	85.56
276.567	87.56
276.799	81.56
277.031	70.56
277.262	79.56
277.494	89.56
277.726	82.56
277.957	69.56
278.189	90.56
278.421	81.56
278.652	70.56
278.884	74.56
279.115	73.56
279.347	93.56
279.579	79.56
279.81	94.56
280.042	71.56
280.273	81.56
280.505	81.56
280.736	84.56
280.968	86.56
281.199	94.56
281.431	78.56
281.662	74.56
281.894	82.56
282.125	79.56
282.356	102.56
282.588	91.56
282.819	83.56
283.051	83.56
283.282	89.56
283.513	91.56
283.745	69.56
283.976	74.56
284.207	87.56
284.439	83.56
284.67	88.56
284.901	89.56
285.132	74.56
285.364	88.56
285.595	98.56
285.826	87.56
286.057	81.56
286.288	81.56
286.52	78.56
286.751	87.56
286.982	78.56
287.213	75.56
287.444	82.56
287.675	88.56
287.906	75.56
288.138	87.56
288.369	84.56
288.6	86.56
288.831	76.56
289.062	92.56
289.293	91.56
289.524	78.56
289.755	94.56
289.986	74.56
290.217	74.56
290.448	59.56
290.679	84.56
290.91	87.56
291.141	78.56
291.371	88.56
291.602	79.56
291.833	89.56
292.064	94.56
292.295	85.56
292.526	77.56
292.757	81.56
292.987	106.56
293.218	86.56
293.449	86.56
293.68	86.56
293.91	95.56
294.141	74.56
294.372	76.56
294.603	93.56
294.833	78.56
295.064	74.56
295.295	76.56
295.525	71.56
295.756	93.56
295.987	90.56
296.217	100.56
296.448	90.56
296.679	94.56
296.909	74.56
297.14	99.56
297.37	89.56
297.601	85.56
297.831	98.56
298.062	80.56
298.292	93.56
298.523	84.56
298.753	65.56
298.984	102.56
299.214	79.56
299.445	77.56
299.675	68.56
299.905	86.56
300.136	68.56
300.366	76.56
300.597	84.56
300.827	87.56
301.057	75.56
301.288	75.56
301.518	98.56
301.748	84.56
301.979	79.56
302.209	85.56
302.439	74.56
302.669	71.56
302.9	90.56
303.13	75.56
303.36	85.56
303.59	85.56
303.82	80.56
304.051	75.56
304.281	95.56
304.511	81.56
304.741	74.56
304.971	72.56
305.201	89.56
305.431	89.56
305.661	85.56
305.891	82.56
306.121	73.56
306.352	68.56
306.582	91.56
306.812	92.56
307.042	85.56
307.272	79.56
307.502	70.56
307.731	75.56
307.961	98.56
308.191	82.56
308.421	93.56
308.651	70.56
308.881	82.56
309.111	79.56
309.341	78.56
309.571	80.56
309.8	88.56
310.03	82.56
310.26	65.56
310.49	75.56
310.72	83.56
310.949	77.56
311.179	75.56
311.409	77.56
311.639	93.56
311.868	91.56
312.098	90.56
312.328	89.56
312.557	96.56
312.787	89.56
313.017	82.56
313.246	89.56
313.476	65.56
313.706	87.56
313.935	90.56
314.165	67.56
314.394	77.56
314.624	80.56
314.853	84.56
315.083	75.56
315.312	83.56
315.542	89.56
315.771	91.56
316.001	75.56
316.23	87.56
316.46	84.56
316.689	84.56
316.919	94.56
317.148	95.56
317.377	70.56
317.607	87.56
317.836	93.56
318.065	73.56
318.295	90.56
318.524	86.56
318.753	82.56
318.983	84.56
319.212	82.56
319.441	76.56
319.67	85.56
319.9	82.56
320.129	73.56
320.358	91.56
320.587	84.56
320.816	85.56
321.046	82.56
321.275	72.56
321.504	89.56
321.733	75.56
321.962	77.56
322.191	73.56
322.42	83.56
322.649	89.56
322.878	81.56
323.108	86.56
323.337	75.56
323.566	92.56
323.795	90.56
324.024	95.56
324.253	72.56
324.482	98.56
324.71	70.56
324.939	96.56
325.168	73.56
325.397	77.56
325.626	80.56
325.855	78.56
326.084	85.56
326.313	71.56
326.542	81.56
326.77	86.56
326.999	85.56
327.228	79.56
327.457	90.56
327.686	81.56
327.914	81.56
328.143	85.56
328.372	83.56
328.6	81.56
328.829	86.56
329.058	90.56
329.287	71.56
329.515	94.56
329.744	94.56
329.972	74.56
330.201	73.56
330.43	71.56
330.658	71.56
330.887	87.56
331.115	89.56
331.344	81.56
331.572	70.56
331.801	85.56
332.03	81.56
332.258	88.56
332.486	82.56
332.715	74.56
332.943	91.56
333.172	84.56
333.4	91.56
333.629	90.56
333.857	78.56
334.085	69.56
334.314	70.56
334.542	88.56
334.771	93.56
334.999	94.56
335.227	87.56
335.455	86.56
335.684	89.56
335.912	86.56
336.14	88.56
336.369	89.56
336.597	81.56
336.825	88.56
337.053	82.56
337.281	72.56
337.51	82.56
337.738	80.56
337.966	78.56
338.194	77.56
338.422	92.56
338.65	81.56
338.878	85.56
339.106	75.56
339.334	82.56
339.562	84.56
339.79	86.56
340.018	82.56
340.246	72.56
340.474	69.56
340.702	84.56
340.93	83.56
341.158	82.56
341.386	95.56
341.614	93.56
341.842	94.56
342.07	71.56
342.298	82.56
342.526	75.56
342.754	88.56
342.981	71.56
343.209	89.56
343.437	89.56
343.665	73.56
343.893	85.56
344.12	91.56
344.348	89.56
344.576	79.56
344.804	74.56
345.031	80.56
345.259	88.56
345.487	88.56
345.714	81.56
345.942	63.56
346.17	87.56
346.397	73.56
346.625	87.56
346.853	78.56
347.08	73.56
347.308	83.56
347.535	77.56
347.763	70.56
347.99	80.56
348.218	80.56
348.445	67.56
348.673	76.56
348.9	73.56
349.128	86.56
349.355	81.56
349.583	83.56
349.81	92.56
350.037	78.56
350.265	88.56
350.492	90.56
350.72	90.56
350.947	82.56
351.174	94.56
351.402	81.56
351.629	94.56
351.856	82.56
352.083	91.56
352.311	78.56
352.538	81.56
352.765	83.56
352.992	85.56
353.22	85.56
353.447	85.56
353.674	89.56
353.901	83.56
354.128	76.56
354.355	73.56
354.583	84.56
354.81	93.56
355.037	74.56
355.264	100.56
355.491	96.56
355.718	91.56
355.945	78.56
356.172	69.56
356.399	77.56
356.626	81.56
356.853	83.56
357.08	95.56
357.307	72.56
357.534	76.56
357.761	93.56
357.988	81.56
358.215	75.56
358.441	82.56
358.668	87.56
358.895	75.56
359.122	88.56
359.349	99.56
359.576	87.56
359.802	68.56
360.029	100.56
360.256	97.56
360.483	74.56
360.709	80.56
360.936	99.56
361.163	91.56
361.39	79.56
361.616	79.56
361.843	79.56
362.07	93.56
362.296	95.56
362.523	93.56
362.749	87.56
362.976	99.56
363.203	74.56
363.429	87.56
363.656	84.56
363.882	82.56
364.109	93.56
364.335	80.56
364.562	68.56
364.788	73.56
365.015	75.56
365.241	72.56
365.468	91.56
365.694	91.56
365.92	66.56
366.147	89.56
366.373	81.56
366.599	71.56
366.826	81.56
367.052	79.56
367.278	79.56
367.505	79.56
367.731	94.56
367.957	79.56
368.184	68.56
368.41	90.56
368.636	91.56
368.862	97.56
369.089	84.56
369.315	72.56
369.541	76.56
369.767	85.56
369.993	88.56
370.219	96.56
370.445	96.56
370.672	83.56
370.898	85.56
371.124	77.56
371.35	75.56
371.576	77.56
371.802	75.56
372.028	90.56
372.254	87.56
372.48	80.56
372.706	90.56
372.932	89.56
373.158	79.56
373.384	81.56
373.61	86.56
373.835	87.56
374.061	84.56
374.287	86.56
374.513	75.56
374.739	74.56
374.965	75.56
375.191	85.56
375.416	101.56
375.642	98.56
375.868	93.56
376.094	82.56
376.319	74.56
376.545	97.56
376.771	96.56
376.997	75.56
377.222	90.56
377.448	88.56
377.674	95.56
377.899	90.56
378.125	79.56
378.35	83.56
378.576	91.56
378.802	80.56
379.027	82.56
379.253	94.56
379.478	91.56
379.704	91.56
379.929	85.56
380.155	80.56
380.38	93.56
380.606	78.56
380.831	64.56
381.057	75.56
381.282	95.56
381.507	92.56
381.733	89.56
381.958	81.56
382.184	75.56
382.409	91.56
382.634	93.56
382.86	93.56
383.085	82.56
383.31	86.56
383.535	87.56
383.761	82.56
383.986	88.56
384.211	85.56
384.436	75.56
384.662	89.56
384.887	97.56
385.112	85.56
385.337	77.56
385.562	91.56
385.787	82.56
386.013	70.56
386.238	65.56
386.463	78.56
386.688	91.56
386.913	93.56
387.138	80.56
387.363	79.56
387.588	85.56
387.813	82.56
388.038	77.56
388.263	83.56
388.488	93.56
388.713	71.56
388.938	91.56
389.163	92.56
389.387	71.56
389.612	85.56
389.837	86.56
390.062	82.56
390.287	74.56
390.512	80.56
390.736	68.56
390.961	88.56
391.186	73.56
391.411	73.56
391.636	90.56
391.86	77.56
392.085	70.56
392.31	81.56
392.534	80.56
392.759	80.56
392.984	89.56
393.208	84.56
393.433	98.56
393.658	91.56
393.882	76.56
394.107	81.56
394.331	96.56
394.556	88.56
394.78	87.56
395.005	96.56
395.229	87.56
395.454	86.56
395.678	84.56
395.903	84.56
396.127	107.56
396.352	76.56
396.576	97.56
396.801	95.56
397.025	93.56
397.249	85.56
397.474	107.56
397.698	84.56
397.922	85.56
398.147	87.56
398.371	87.56
398.595	90.56
398.82	92.56
399.044	83.56
399.268	88.56
399.492	90.56
399.717	101.56
399.941	80.56
400.165	85.56
400.389	89.56
400.613	81.56
400.837	83.56
401.062	82.56
401.286	101.56
401.51	84.56
401.734	87.56
401.958	99.56
402.182	82.56
402.406	89.56
402.63	87.56
402.854	99.56
403.078	81.56
403.302	91.56
403.526	88.56
403.75	91.56
403.974	81.56
404.198	90.56
404.422	85.56
404.645	75.56
404.869	78.56
405.093	82.56
405.317	91.56
405.541	73.56
405.765	94.56
405.988	89.56
406.212	97.56
406.436	75.56
406.66	84.56
406.883	101.56
407.107	92.56
407.331	89.56
407.555	83.56
407.778	76.56
408.002	86.56
408.226	89.56
408.449	95.56
408.673	89.56
408.896	85.56
409.12	90.56
409.344	87.56
409.567	100.56
409.791	94.56
410.014	95.56
410.238	91.56
410.461	86.56
410.685	90.56
410.908	110.56
411.132	85.56
411.355	83.56
411.578	87.56
411.802	73.56
412.025	86.56
412.249	95.56
412.472	78.56
412.695	96.56
412.919	96.56
413.142	103.56
413.365	103.56
413.589	81.56
413.812	87.56
414.035	101.56
414.258	84.56
414.482	85.56
414.705	98.56
414.928	97.56
415.151	101.56
415.374	90.56
415.597	96.56
415.821	105.56
416.044	100.56
416.267	87.56
416.49	85.56
416.713	100.56
416.936	93.56
417.159	97.56
417.382	97.56
417.605	100.56
417.828	98.56
418.051	95.56
418.274	100.56
418.497	99.56
418.72	94.56
418.943	101.56
419.166	95.56
419.389	93.56
419.611	87.56
419.834	99.56
420.057	101.56
420.28	86.56
420.503	96.56
420.726	73.56
420.948	93.56
421.171	75.56
421.394	100.56
421.617	98.56
421.839	99.56
422.062	102.56
422.285	99.56
422.507	95.56
422.73	94.56
422.953	91.56
423.175	110.56
423.398	92.56
423.621	92.56
423.843	94.56
424.066	91.56
424.288	95.56
424.511	96.56
424.733	122.56
424.956	100.56
425.178	87.56
425.401	89.56
425.623	87.56
425.846	80.56
426.068	101.56
426.291	96.56
426.513	91.56
426.735	95.56
426.958	110.56
427.18	100.56
427.402	93.56
427.625	90.56
427.847	92.56
428.069	103.56
428.292	87.56
428.514	97.56
428.736	94.56
428.958	99.56
429.181	86.56
429.403	90.56
429.625	86.56
429.847	91.56
430.069	84.56
430.292	96.56
430.514	99.56
430.736	98.56
430.958	96.56
431.18	104.56
431.402	88.56
431.624	85.56
431.846	92.56
432.068	105.56
432.29	89.56
432.512	86.56
432.734	93.56
432.956	89.56
433.178	106.56
433.4	100.56
433.622	105.56
433.844	93.56
434.066	100.56
434.287	79.56
434.509	96.56
434.731	87.56
434.953	73.56
435.175	90.56
435.397	96.56
435.618	98.56
435.84	90.56
436.062	97.56
436.284	99.56
436.505	95.56
436.727	96.56
436.949	89.56
437.17	91.56
437.392	84.56
437.614	102.56
437.835	83.56
438.057	93.56
438.278	91.56
438.5	92.56
438.721	91.56
438.943	105.56
439.165	102.56
439.386	91.56
439.608	91.56
439.829	94.56
440.05	111.56
440.272	109.56
440.493	102.56
440.715	109.56
440.936	83.56
441.158	106.56
441.379	98.56
441.6	97.56
441.822	98.56
442.043	84.56
442.264	81.56
442.486	86.56
442.707	91.56
442.928	84.56
443.149	93.56
443.371	81.56
443.592	100.56
443.813	102.56
444.034	104.56
444.255	96.56
444.476	102.56
444.698	100.56
444.919	80.56
445.14	233.56
445.361	133.56
445.582	106.56
445.803	89.56
446.024	104.56
446.245	111.56
446.466	87.56
446.687	93.56
446.908	97.56
447.129	95.56
447.35	86.56
447.571	105.56
447.792	97.56
448.013	92.56
448.234	105.56
448.455	100.56
448.675	101.56
448.896	105.56
449.117	109.56
449.338	96.56
449.559	102.56
449.779	97.56
450	106.56
450.221	94.56
450.442	102.56
450.662	100.56
450.883	91.56
451.104	95.56
451.324	89.56
451.545	106.56
451.766	103.56
451.986	92.56
452.207	103.56
452.428	92.56
452.648	89.56
452.869	109.56
453.089	83.56
453.31	91.56
453.53	91.56
453.751	88.56
453.971	81.56
454.192	87.56
454.412	85.56
454.633	84.56
454.853	89.56
455.073	105.56
455.294	98.56
455.514	91.56
455.734	90.56
455.955	103.56
456.175	87.56
456.395	87.56
456.616	106.56
456.836	90.56
457.056	85.56
457.276	100.56
457.497	73.56
457.717	75.56
457.937	91.56
458.157	92.56
458.377	78.56
458.598	96.56
458.818	79.56
459.038	79.56
459.258	85.56
459.478	87.56
459.698	91.56
459.918	100.56
460.138	89.56
460.358	93.56
460.578	90.56
460.798	97.56
461.018	111.56
461.238	87.56
461.458	80.56
461.678	97.56
461.898	91.56
462.118	86.56
462.338	94.56
462.558	86.56
462.777	91.56
462.997	89.56
463.217	89.56
463.437	85.56
463.657	98.56
463.876	83.56
464.096	83.56
464.316	84.56
464.536	90.56
464.755	91.56
464.975	90.56
465.195	90.56
465.414	84.56
465.634	83.56
465.854	86.56
466.073	89.56
466.293	88.56
466.512	97.56
466.732	95.56
466.951	81.56
467.171	99.56
467.391	94.56
467.61	87.56
467.829	95.56
468.049	111.56
468.268	85.56
468.488	87.56
468.707	99.56
468.927	87.56
469.146	92.56
469.365	108.56
469.585	98.56
469.804	95.56
470.023	92.56
470.243	84.56
470.462	95.56
470.681	95.56
470.901	95.56
471.12	103.56
471.339	90.56
471.558	105.56
471.777	105.56
471.997	88.56
472.216	95.56
472.435	95.56
472.654	83.56
472.873	98.56
473.092	98.56
473.311	101.56
473.53	81.56
473.749	94.56
473.968	103.56
474.187	94.56
474.406	100.56
474.625	100.56
474.844	105.56
475.063	83.56
475.282	95.56
475.501	71.56
475.72	96.56
475.939	98.56
476.158	104.56
476.377	84.56
476.596	88.56
476.814	86.56
477.033	86.56
477.252	87.56
477.471	101.56
477.69	93.56
477.908	98.56
478.127	104.56
478.346	97.56
478.564	101.56
478.783	89.56
479.002	98.56
479.22	90.56
479.439	97.56
479.658	95.56
479.876	87.56
480.095	85.56
480.313	99.56
480.532	106.56
480.751	88.56
480.969	90.56
481.188	86.56
481.406	87.56
481.624	72.56
481.843	69.56
482.061	91.56
482.28	81.56
482.498	88.56
482.717	81.56
482.935	82.56
483.153	111.56
483.372	105.56
483.59	79.56
483.808	80.56
484.027	87.56
484.245	94.56
484.463	98.56
484.681	106.56
484.9	105.56
485.118	87.56
485.336	97.56
485.554	90.56
485.772	87.56
485.99	88.56
486.209	96.56
486.427	95.56
486.645	94.56
486.863	111.56
487.081	111.56
487.299	97.56
487.517	102.56
487.735	98.56
487.953	115.56
488.171	117.56
488.389	118.56
488.607	110.56
488.825	104.56
489.043	102.56
489.261	103.56
489.479	101.56
489.696	106.56
489.914	98.56
490.132	102.56
490.35	86.56
490.568	96.56
490.786	107.56
491.003	109.56
491.221	119.56
491.439	107.56
491.657	108.56
491.874	125.56
492.092	119.56
492.31	124.56
492.527	125.56
492.745	122.56
492.963	107.56
493.18	106.56
493.398	121.56
493.615	112.56
493.833	106.56
494.05	104.56
494.268	108.56
494.485	114.56
494.703	109.56
494.92	94.56
495.138	104.56
495.355	113.56
495.573	110.56
495.79	100.56
496.008	104.56
496.225	115.56
496.442	110.56
496.66	103.56
496.877	101.56
497.094	111.56
497.312	111.56
497.529	116.56
497.746	102.56
497.963	104.56
498.181	102.56
498.398	87.56
498.615	98.56
498.832	103.56
499.049	74.56
499.267	95.56
499.484	98.56
499.701	103.56
499.918	100.56
500.135	110.56
500.352	103.56
500.569	102.56
500.786	107.56
501.003	102.56
501.22	90.56
501.437	95.56
501.654	94.56
501.871	96.56
502.088	96.56
502.305	99.56
502.522	104.56
502.739	101.56
502.956	106.56
503.172	95.56
503.389	94.56
503.606	94.56
503.823	100.56
504.04	102.56
504.256	96.56
504.473	95.56
504.69	87.56
504.907	102.56
505.123	91.56
505.34	102.56
505.557	83.56
505.773	86.56
505.99	98.56
506.207	99.56
506.423	98.56
506.64	99.56
506.856	97.56
507.073	99.56
507.289	94.56
507.506	91.56
507.722	102.56
507.939	96.56
508.155	74.56
508.372	96.56
508.588	98.56
508.805	88.56
509.021	84.56
509.238	96.56
509.454	85.56
509.67	93.56
509.887	87.56
510.103	76.56
510.319	86.56
510.536	91.56
510.752	74.56
510.968	98.56
511.184	86.56
511.401	74.56
511.617	80.56
511.833	91.56
512.049	82.56
512.265	87.56
512.481	98.56
512.698	81.56
512.914	93.56
513.13	96.56
513.346	85.56
513.562	84.56
513.778	97.56
513.994	96.56
514.21	92.56
514.426	91.56
514.642	83.56
514.858	90.56
515.074	82.56
515.29	80.56
515.506	65.56
515.721	75.56
515.937	94.56
516.153	81.56
516.369	81.56
516.585	96.56
516.801	87.56
517.016	96.56
517.232	91.56
