Data from Location3.07152019.Energy5.Lamp.07192019.3%Agarose_HRD10591_15-17-38-269.txt Node
Date: Fri Jul 19 15:17:38 EDT 2019
User: cochatt
Spectrometer: HR+D1059
Trigger mode: 1
Integration Time (sec): 1.000000E-1
Scans to average: 1
Electric dark correction enabled: true
Nonlinearity correction enabled: false
Boxcar width: 0
XAxis mode: Wavelengths
Number of Pixels in Spectrum: 2048
>>>>>Begin Spectral Data<<<<<
223.165	-9.88
223.4	-9.88
223.635	-9.88
223.869	-20.88
224.104	-20.88
224.338	-12.88
224.573	-21.88
224.808	-16.88
225.042	-19.88
225.277	-19.88
225.511	8.12
225.746	5.12
225.98	11.12
226.215	19.12
226.449	22.12
226.683	22.12
226.918	34.12
227.152	21.12
227.387	39.12
227.621	38.12
227.856	36.12
228.09	52.12
228.324	50.12
228.559	52.12
228.793	64.12
229.027	53.12
229.262	62.12
229.496	67.12
229.73	62.12
229.964	57.12
230.199	61.12
230.433	71.12
230.667	75.12
230.901	70.12
231.136	79.12
231.37	89.12
231.604	71.12
231.838	95.12
232.072	77.12
232.306	88.12
232.541	84.12
232.775	83.12
233.009	86.12
233.243	75.12
233.477	77.12
233.711	88.12
233.945	90.12
234.179	89.12
234.413	69.12
234.647	77.12
234.881	70.12
235.115	88.12
235.349	86.12
235.583	88.12
235.817	81.12
236.051	71.12
236.285	82.12
236.519	86.12
236.753	62.12
236.987	80.12
237.221	70.12
237.455	84.12
237.689	75.12
237.922	89.12
238.156	88.12
238.39	72.12
238.624	74.12
238.858	76.12
239.091	72.12
239.325	73.12
239.559	70.12
239.793	82.12
240.027	100.12
240.26	82.12
240.494	82.12
240.728	81.12
240.961	81.12
241.195	70.12
241.429	77.12
241.662	77.12
241.896	84.12
242.13	70.12
242.363	71.12
242.597	89.12
242.83	77.12
243.064	83.12
243.298	96.12
243.531	80.12
243.765	92.12
243.998	73.12
244.232	76.12
244.465	74.12
244.699	88.12
244.932	85.12
245.166	82.12
245.399	79.12
245.633	70.12
245.866	72.12
246.099	72.12
246.333	73.12
246.566	79.12
246.8	93.12
247.033	100.12
247.266	84.12
247.5	89.12
247.733	79.12
247.966	72.12
248.2	85.12
248.433	88.12
248.666	66.12
248.899	83.12
249.133	85.12
249.366	65.12
249.599	70.12
249.832	80.12
250.066	84.12
250.299	90.12
250.532	89.12
250.765	96.12
250.998	78.12
251.231	78.12
251.465	91.12
251.698	76.12
251.931	66.12
252.164	74.12
252.397	81.12
252.63	92.12
252.863	87.12
253.096	82.12
253.329	77.12
253.562	83.12
253.795	96.12
254.028	88.12
254.261	100.12
254.494	89.12
254.727	91.12
254.96	85.12
255.193	84.12
255.426	87.12
255.659	97.12
255.892	92.12
256.124	79.12
256.357	89.12
256.59	85.12
256.823	97.12
257.056	82.12
257.289	83.12
257.521	85.12
257.754	83.12
257.987	79.12
258.22	79.12
258.452	78.12
258.685	65.12
258.918	83.12
259.151	80.12
259.383	68.12
259.616	97.12
259.849	87.12
260.081	77.12
260.314	77.12
260.547	80.12
260.779	72.12
261.012	92.12
261.244	81.12
261.477	100.12
261.71	91.12
261.942	81.12
262.175	78.12
262.407	80.12
262.64	90.12
262.872	75.12
263.105	73.12
263.337	97.12
263.57	79.12
263.802	77.12
264.035	81.12
264.267	77.12
264.499	85.12
264.732	74.12
264.964	91.12
265.197	100.12
265.429	77.12
265.661	89.12
265.894	92.12
266.126	85.12
266.358	86.12
266.591	91.12
266.823	82.12
267.055	82.12
267.287	75.12
267.52	88.12
267.752	92.12
267.984	101.12
268.216	83.12
268.448	83.12
268.681	86.12
268.913	85.12
269.145	83.12
269.377	83.12
269.609	84.12
269.841	84.12
270.073	89.12
270.306	96.12
270.538	87.12
270.77	77.12
271.002	82.12
271.234	87.12
271.466	82.12
271.698	85.12
271.93	88.12
272.162	84.12
272.394	92.12
272.626	89.12
272.858	89.12
273.09	103.12
273.322	99.12
273.553	81.12
273.785	77.12
274.017	76.12
274.249	77.12
274.481	82.12
274.713	78.12
274.945	70.12
275.176	84.12
275.408	96.12
275.64	79.12
275.872	75.12
276.104	101.12
276.335	74.12
276.567	84.12
276.799	67.12
277.031	84.12
277.262	80.12
277.494	88.12
277.726	93.12
277.957	79.12
278.189	77.12
278.421	89.12
278.652	87.12
278.884	90.12
279.115	87.12
279.347	71.12
279.579	95.12
279.81	81.12
280.042	83.12
280.273	69.12
280.505	91.12
280.736	99.12
280.968	83.12
281.199	89.12
281.431	98.12
281.662	93.12
281.894	88.12
282.125	93.12
282.356	73.12
282.588	86.12
282.819	93.12
283.051	85.12
283.282	90.12
283.513	98.12
283.745	99.12
283.976	97.12
284.207	95.12
284.439	87.12
284.67	95.12
284.901	82.12
285.132	98.12
285.364	100.12
285.595	83.12
285.826	80.12
286.057	76.12
286.288	77.12
286.52	89.12
286.751	73.12
286.982	75.12
287.213	91.12
287.444	90.12
287.675	96.12
287.906	98.12
288.138	104.12
288.369	107.12
288.6	85.12
288.831	83.12
289.062	86.12
289.293	100.12
289.524	80.12
289.755	95.12
289.986	79.12
290.217	97.12
290.448	90.12
290.679	88.12
290.91	84.12
291.141	83.12
291.371	88.12
291.602	95.12
291.833	89.12
292.064	89.12
292.295	98.12
292.526	86.12
292.757	82.12
292.987	90.12
293.218	86.12
293.449	98.12
293.68	85.12
293.91	80.12
294.141	78.12
294.372	92.12
294.603	92.12
294.833	78.12
295.064	91.12
295.295	85.12
295.525	92.12
295.756	90.12
295.987	84.12
296.217	86.12
296.448	80.12
296.679	88.12
296.909	84.12
297.14	80.12
297.37	75.12
297.601	89.12
297.831	83.12
298.062	85.12
298.292	85.12
298.523	90.12
298.753	85.12
298.984	77.12
299.214	89.12
299.445	91.12
299.675	99.12
299.905	90.12
300.136	82.12
300.366	84.12
300.597	92.12
300.827	66.12
301.057	84.12
301.288	85.12
301.518	83.12
301.748	88.12
301.979	86.12
302.209	85.12
302.439	78.12
302.669	80.12
302.9	84.12
303.13	79.12
303.36	83.12
303.59	86.12
303.82	93.12
304.051	76.12
304.281	84.12
304.511	92.12
304.741	77.12
304.971	94.12
305.201	92.12
305.431	88.12
305.661	75.12
305.891	75.12
306.121	98.12
306.352	86.12
306.582	65.12
306.812	81.12
307.042	87.12
307.272	69.12
307.502	96.12
307.731	93.12
307.961	77.12
308.191	86.12
308.421	89.12
308.651	96.12
308.881	89.12
309.111	89.12
309.341	80.12
309.571	90.12
309.8	96.12
310.03	83.12
310.26	97.12
310.49	100.12
310.72	90.12
310.949	84.12
311.179	85.12
311.409	101.12
311.639	89.12
311.868	81.12
312.098	74.12
312.328	97.12
312.557	81.12
312.787	93.12
313.017	85.12
313.246	87.12
313.476	81.12
313.706	87.12
313.935	89.12
314.165	86.12
314.394	94.12
314.624	75.12
314.853	65.12
315.083	89.12
315.312	73.12
315.542	87.12
315.771	88.12
316.001	70.12
316.23	84.12
316.46	72.12
316.689	75.12
316.919	73.12
317.148	83.12
317.377	88.12
317.607	79.12
317.836	86.12
318.065	89.12
318.295	88.12
318.524	84.12
318.753	84.12
318.983	97.12
319.212	96.12
319.441	84.12
319.67	88.12
319.9	81.12
320.129	82.12
320.358	87.12
320.587	86.12
320.816	80.12
321.046	71.12
321.275	81.12
321.504	83.12
321.733	100.12
321.962	102.12
322.191	94.12
322.42	84.12
322.649	66.12
322.878	93.12
323.108	97.12
323.337	90.12
323.566	86.12
323.795	96.12
324.024	89.12
324.253	86.12
324.482	92.12
324.71	78.12
324.939	102.12
325.168	82.12
325.397	98.12
325.626	93.12
325.855	72.12
326.084	80.12
326.313	85.12
326.542	79.12
326.77	78.12
326.999	91.12
327.228	90.12
327.457	93.12
327.686	89.12
327.914	69.12
328.143	80.12
328.372	82.12
328.6	98.12
328.829	85.12
329.058	80.12
329.287	78.12
329.515	91.12
329.744	88.12
329.972	98.12
330.201	87.12
330.43	78.12
330.658	88.12
330.887	94.12
331.115	81.12
331.344	91.12
331.572	101.12
331.801	85.12
332.03	88.12
332.258	76.12
332.486	77.12
332.715	76.12
332.943	84.12
333.172	73.12
333.4	81.12
333.629	96.12
333.857	88.12
334.085	95.12
334.314	78.12
334.542	84.12
334.771	82.12
334.999	84.12
335.227	84.12
335.455	76.12
335.684	76.12
335.912	86.12
336.14	91.12
336.369	91.12
336.597	88.12
336.825	92.12
337.053	72.12
337.281	96.12
337.51	85.12
337.738	85.12
337.966	84.12
338.194	86.12
338.422	83.12
338.65	87.12
338.878	83.12
339.106	89.12
339.334	86.12
339.562	91.12
339.79	83.12
340.018	73.12
340.246	83.12
340.474	87.12
340.702	98.12
340.93	94.12
341.158	104.12
341.386	80.12
341.614	74.12
341.842	97.12
342.07	87.12
342.298	91.12
342.526	67.12
342.754	82.12
342.981	89.12
343.209	87.12
343.437	85.12
343.665	85.12
343.893	97.12
344.12	77.12
344.348	89.12
344.576	79.12
344.804	75.12
345.031	76.12
345.259	85.12
345.487	92.12
345.714	95.12
345.942	100.12
346.17	87.12
346.397	79.12
346.625	78.12
346.853	97.12
347.08	80.12
347.308	81.12
347.535	78.12
347.763	102.12
347.99	86.12
348.218	77.12
348.445	74.12
348.673	78.12
348.9	64.12
349.128	78.12
349.355	94.12
349.583	93.12
349.81	77.12
350.037	85.12
350.265	81.12
350.492	79.12
350.72	95.12
350.947	84.12
351.174	86.12
351.402	84.12
351.629	88.12
351.856	90.12
352.083	86.12
352.311	87.12
352.538	74.12
352.765	89.12
352.992	81.12
353.22	72.12
353.447	82.12
353.674	85.12
353.901	104.12
354.128	85.12
354.355	73.12
354.583	72.12
354.81	96.12
355.037	70.12
355.264	88.12
355.491	90.12
355.718	97.12
355.945	93.12
356.172	92.12
356.399	78.12
356.626	95.12
356.853	85.12
357.08	84.12
357.307	84.12
357.534	84.12
357.761	79.12
357.988	95.12
358.215	84.12
358.441	94.12
358.668	92.12
358.895	88.12
359.122	96.12
359.349	81.12
359.576	73.12
359.802	88.12
360.029	84.12
360.256	87.12
360.483	79.12
360.709	96.12
360.936	85.12
361.163	83.12
361.39	90.12
361.616	90.12
361.843	85.12
362.07	100.12
362.296	96.12
362.523	91.12
362.749	83.12
362.976	79.12
363.203	88.12
363.429	83.12
363.656	79.12
363.882	89.12
364.109	88.12
364.335	72.12
364.562	85.12
364.788	91.12
365.015	78.12
365.241	99.12
365.468	73.12
365.694	78.12
365.92	91.12
366.147	76.12
366.373	73.12
366.599	75.12
366.826	88.12
367.052	91.12
367.278	92.12
367.505	90.12
367.731	77.12
367.957	77.12
368.184	81.12
368.41	89.12
368.636	77.12
368.862	85.12
369.089	84.12
369.315	86.12
369.541	98.12
369.767	81.12
369.993	81.12
370.219	90.12
370.445	94.12
370.672	73.12
370.898	81.12
371.124	89.12
371.35	79.12
371.576	86.12
371.802	98.12
372.028	98.12
372.254	89.12
372.48	88.12
372.706	78.12
372.932	74.12
373.158	80.12
373.384	81.12
373.61	76.12
373.835	79.12
374.061	90.12
374.287	93.12
374.513	90.12
374.739	90.12
374.965	88.12
375.191	84.12
375.416	77.12
375.642	92.12
375.868	84.12
376.094	89.12
376.319	87.12
376.545	84.12
376.771	81.12
376.997	86.12
377.222	86.12
377.448	105.12
377.674	84.12
377.899	81.12
378.125	84.12
378.35	70.12
378.576	81.12
378.802	86.12
379.027	83.12
379.253	76.12
379.478	91.12
379.704	78.12
379.929	68.12
380.155	86.12
380.38	83.12
380.606	88.12
380.831	96.12
381.057	98.12
381.282	81.12
381.507	93.12
381.733	96.12
381.958	88.12
382.184	82.12
382.409	91.12
382.634	71.12
382.86	70.12
383.085	89.12
383.31	88.12
383.535	106.12
383.761	91.12
383.986	84.12
384.211	100.12
384.436	95.12
384.662	87.12
384.887	92.12
385.112	101.12
385.337	100.12
385.562	91.12
385.787	78.12
386.013	101.12
386.238	91.12
386.463	84.12
386.688	78.12
386.913	92.12
387.138	100.12
387.363	95.12
387.588	94.12
387.813	89.12
388.038	83.12
388.263	82.12
388.488	86.12
388.713	88.12
388.938	74.12
389.163	100.12
389.387	86.12
389.612	96.12
389.837	97.12
390.062	82.12
390.287	85.12
390.512	102.12
390.736	98.12
390.961	76.12
391.186	89.12
391.411	79.12
391.636	86.12
391.86	97.12
392.085	92.12
392.31	91.12
392.534	93.12
392.759	105.12
392.984	83.12
393.208	91.12
393.433	85.12
393.658	99.12
393.882	90.12
394.107	99.12
394.331	84.12
394.556	72.12
394.78	84.12
395.005	94.12
395.229	74.12
395.454	83.12
395.678	89.12
395.903	86.12
396.127	94.12
396.352	89.12
396.576	82.12
396.801	94.12
397.025	80.12
397.249	101.12
397.474	86.12
397.698	90.12
397.922	89.12
398.147	85.12
398.371	82.12
398.595	79.12
398.82	93.12
399.044	97.12
399.268	85.12
399.492	77.12
399.717	82.12
399.941	90.12
400.165	73.12
400.389	100.12
400.613	89.12
400.837	104.12
401.062	86.12
401.286	68.12
401.51	109.12
401.734	96.12
401.958	86.12
402.182	91.12
402.406	83.12
402.63	83.12
402.854	99.12
403.078	90.12
403.302	84.12
403.526	90.12
403.75	98.12
403.974	76.12
404.198	88.12
404.422	89.12
404.645	88.12
404.869	99.12
405.093	87.12
405.317	86.12
405.541	92.12
405.765	103.12
405.988	96.12
406.212	94.12
406.436	90.12
406.66	95.12
406.883	90.12
407.107	95.12
407.331	86.12
407.555	92.12
407.778	97.12
408.002	98.12
408.226	96.12
408.449	103.12
408.673	86.12
408.896	88.12
409.12	90.12
409.344	82.12
409.567	92.12
409.791	100.12
410.014	90.12
410.238	84.12
410.461	98.12
410.685	82.12
410.908	93.12
411.132	97.12
411.355	103.12
411.578	92.12
411.802	95.12
412.025	86.12
412.249	91.12
412.472	87.12
412.695	97.12
412.919	83.12
413.142	95.12
413.365	102.12
413.589	102.12
413.812	98.12
414.035	86.12
414.258	97.12
414.482	99.12
414.705	94.12
414.928	101.12
415.151	96.12
415.374	96.12
415.597	88.12
415.821	91.12
416.044	94.12
416.267	104.12
416.49	79.12
416.713	111.12
416.936	98.12
417.159	97.12
417.382	94.12
417.605	91.12
417.828	91.12
418.051	100.12
418.274	94.12
418.497	102.12
418.72	101.12
418.943	103.12
419.166	92.12
419.389	83.12
419.611	98.12
419.834	73.12
420.057	91.12
420.28	88.12
420.503	100.12
420.726	110.12
420.948	82.12
421.171	102.12
421.394	106.12
421.617	102.12
421.839	84.12
422.062	106.12
422.285	84.12
422.507	102.12
422.73	95.12
422.953	97.12
423.175	107.12
423.398	97.12
423.621	104.12
423.843	91.12
424.066	95.12
424.288	83.12
424.511	98.12
424.733	105.12
424.956	99.12
425.178	97.12
425.401	89.12
425.623	88.12
425.846	84.12
426.068	102.12
426.291	102.12
426.513	93.12
426.735	87.12
426.958	109.12
427.18	96.12
427.402	92.12
427.625	78.12
427.847	99.12
428.069	91.12
428.292	97.12
428.514	97.12
428.736	90.12
428.958	90.12
429.181	97.12
429.403	101.12
429.625	83.12
429.847	89.12
430.069	94.12
430.292	98.12
430.514	106.12
430.736	100.12
430.958	96.12
431.18	101.12
431.402	90.12
431.624	85.12
431.846	84.12
432.068	95.12
432.29	88.12
432.512	95.12
432.734	91.12
432.956	106.12
433.178	101.12
433.4	109.12
433.622	88.12
433.844	93.12
434.066	98.12
434.287	91.12
434.509	77.12
434.731	89.12
434.953	112.12
435.175	90.12
435.397	86.12
435.618	89.12
435.84	91.12
436.062	93.12
436.284	91.12
436.505	88.12
436.727	104.12
436.949	98.12
437.17	98.12
437.392	90.12
437.614	109.12
437.835	87.12
438.057	86.12
438.278	97.12
438.5	88.12
438.721	97.12
438.943	92.12
439.165	92.12
439.386	104.12
439.608	98.12
439.829	104.12
440.05	102.12
440.272	102.12
440.493	89.12
440.715	92.12
440.936	107.12
441.158	92.12
441.379	96.12
441.6	104.12
441.822	112.12
442.043	92.12
442.264	90.12
442.486	93.12
442.707	98.12
442.928	89.12
443.149	99.12
443.371	103.12
443.592	110.12
443.813	83.12
444.034	93.12
444.255	105.12
444.476	119.12
444.698	93.12
444.919	99.12
445.14	221.12
445.361	161.12
445.582	104.12
445.803	93.12
446.024	113.12
446.245	108.12
446.466	97.12
446.687	98.12
446.908	90.12
447.129	101.12
447.35	94.12
447.571	82.12
447.792	83.12
448.013	101.12
448.234	99.12
448.455	102.12
448.675	98.12
448.896	113.12
449.117	92.12
449.338	94.12
449.559	101.12
449.779	89.12
450	92.12
450.221	90.12
450.442	84.12
450.662	88.12
450.883	77.12
451.104	98.12
451.324	100.12
451.545	117.12
451.766	92.12
451.986	97.12
452.207	97.12
452.428	91.12
452.648	88.12
452.869	82.12
453.089	82.12
453.31	89.12
453.53	91.12
453.751	102.12
453.971	87.12
454.192	95.12
454.412	88.12
454.633	85.12
454.853	104.12
455.073	90.12
455.294	85.12
455.514	89.12
455.734	97.12
455.955	93.12
456.175	71.12
456.395	83.12
456.616	84.12
456.836	88.12
457.056	92.12
457.276	70.12
457.497	84.12
457.717	84.12
457.937	96.12
458.157	85.12
458.377	107.12
458.598	83.12
458.818	87.12
459.038	74.12
459.258	82.12
459.478	98.12
459.698	82.12
459.918	77.12
460.138	85.12
460.358	87.12
460.578	91.12
460.798	92.12
461.018	92.12
461.238	103.12
461.458	98.12
461.678	96.12
461.898	91.12
462.118	89.12
462.338	101.12
462.558	91.12
462.777	81.12
462.997	91.12
463.217	77.12
463.437	91.12
463.657	92.12
463.876	85.12
464.096	87.12
464.316	85.12
464.536	94.12
464.755	85.12
464.975	78.12
465.195	96.12
465.414	89.12
465.634	90.12
465.854	82.12
466.073	78.12
466.293	96.12
466.512	96.12
466.732	95.12
466.951	98.12
467.171	76.12
467.391	115.12
467.61	80.12
467.829	99.12
468.049	112.12
468.268	98.12
468.488	98.12
468.707	109.12
468.927	91.12
469.146	98.12
469.365	98.12
469.585	103.12
469.804	105.12
470.023	99.12
470.243	98.12
470.462	82.12
470.681	92.12
470.901	112.12
471.12	114.12
471.339	107.12
471.558	94.12
471.777	80.12
471.997	100.12
472.216	93.12
472.435	92.12
472.654	82.12
472.873	92.12
473.092	96.12
473.311	90.12
473.53	99.12
473.749	95.12
473.968	104.12
474.187	81.12
474.406	82.12
474.625	91.12
474.844	104.12
475.063	88.12
475.282	90.12
475.501	91.12
475.72	108.12
475.939	107.12
476.158	99.12
476.377	104.12
476.596	88.12
476.814	113.12
477.033	96.12
477.252	78.12
477.471	102.12
477.69	95.12
477.908	105.12
478.127	96.12
478.346	80.12
478.564	97.12
478.783	102.12
479.002	89.12
479.22	78.12
479.439	99.12
479.658	90.12
479.876	103.12
480.095	94.12
480.313	84.12
480.532	84.12
480.751	88.12
480.969	77.12
481.188	92.12
481.406	94.12
481.624	86.12
481.843	77.12
482.061	89.12
482.28	96.12
482.498	78.12
482.717	76.12
482.935	98.12
483.153	89.12
483.372	95.12
483.59	105.12
483.808	97.12
484.027	89.12
484.245	94.12
484.463	106.12
484.681	106.12
484.9	99.12
485.118	96.12
485.336	108.12
485.554	81.12
485.772	81.12
485.99	88.12
486.209	97.12
486.427	93.12
486.645	107.12
486.863	84.12
487.081	86.12
487.299	99.12
487.517	93.12
487.735	103.12
487.953	99.12
488.171	124.12
488.389	112.12
488.607	106.12
488.825	90.12
489.043	78.12
489.261	88.12
489.479	92.12
489.696	96.12
489.914	87.12
490.132	88.12
490.35	107.12
490.568	99.12
490.786	120.12
491.003	119.12
491.221	108.12
491.439	118.12
491.657	122.12
491.874	136.12
492.092	122.12
492.31	154.12
492.527	122.12
492.745	113.12
492.963	122.12
493.18	105.12
493.398	114.12
493.615	123.12
493.833	109.12
494.05	112.12
494.268	116.12
494.485	100.12
494.703	116.12
494.92	104.12
495.138	107.12
495.355	123.12
495.573	117.12
495.79	109.12
496.008	113.12
496.225	118.12
496.442	102.12
496.66	119.12
496.877	109.12
497.094	106.12
497.312	113.12
497.529	114.12
497.746	105.12
497.963	116.12
498.181	98.12
498.398	92.12
498.615	85.12
498.832	100.12
499.049	96.12
499.267	102.12
499.484	98.12
499.701	89.12
499.918	94.12
500.135	93.12
500.352	109.12
500.569	104.12
500.786	114.12
501.003	109.12
501.22	107.12
501.437	103.12
501.654	105.12
501.871	102.12
502.088	94.12
502.305	90.12
502.522	96.12
502.739	85.12
502.956	75.12
503.172	95.12
503.389	94.12
503.606	101.12
503.823	106.12
504.04	112.12
504.256	95.12
504.473	94.12
504.69	83.12
504.907	107.12
505.123	97.12
505.34	99.12
505.557	97.12
505.773	102.12
505.99	101.12
506.207	92.12
506.423	106.12
506.64	113.12
506.856	104.12
507.073	89.12
507.289	93.12
507.506	102.12
507.722	94.12
507.939	101.12
508.155	90.12
508.372	91.12
508.588	84.12
508.805	90.12
509.021	84.12
509.238	96.12
509.454	91.12
509.67	83.12
509.887	95.12
510.103	84.12
510.319	82.12
510.536	81.12
510.752	85.12
510.968	94.12
511.184	79.12
511.401	81.12
511.617	78.12
511.833	82.12
512.049	91.12
512.265	87.12
512.481	93.12
512.698	83.12
512.914	84.12
513.13	90.12
513.346	87.12
513.562	68.12
513.778	77.12
513.994	94.12
514.21	79.12
514.426	80.12
514.642	101.12
514.858	95.12
515.074	86.12
515.29	94.12
515.506	73.12
515.721	99.12
515.937	85.12
516.153	83.12
516.369	96.12
516.585	103.12
516.801	85.12
