Data from Location3.07152019.Energy5.Lamp.07192019.3%Agarose_HRD10591_15-17-24-269.txt Node
Date: Fri Jul 19 15:17:24 EDT 2019
User: cochatt
Spectrometer: HR+D1059
Trigger mode: 1
Integration Time (sec): 1.000000E-1
Scans to average: 1
Electric dark correction enabled: true
Nonlinearity correction enabled: false
Boxcar width: 0
XAxis mode: Wavelengths
Number of Pixels in Spectrum: 2048
>>>>>Begin Spectral Data<<<<<
223.165	-14.56
223.4	-14.56
223.635	-14.56
223.869	-23.56
224.104	-23.56
224.338	-3.56
224.573	-14.56
224.808	-14.56
225.042	2.44
225.277	-5.56
225.511	-7.56
225.746	-3.56
225.98	7.44
226.215	7.44
226.449	9.44
226.683	39.44
226.918	24.44
227.152	20.44
227.387	34.44
227.621	38.44
227.856	43.44
228.09	35.44
228.324	36.44
228.559	49.44
228.793	47.44
229.027	79.44
229.262	62.44
229.496	64.44
229.73	63.44
229.964	72.44
230.199	72.44
230.433	72.44
230.667	65.44
230.901	77.44
231.136	81.44
231.37	71.44
231.604	86.44
231.838	82.44
232.072	75.44
232.306	96.44
232.541	86.44
232.775	76.44
233.009	69.44
233.243	80.44
233.477	71.44
233.711	77.44
233.945	71.44
234.179	69.44
234.413	82.44
234.647	85.44
234.881	71.44
235.115	68.44
235.349	78.44
235.583	72.44
235.817	86.44
236.051	81.44
236.285	76.44
236.519	77.44
236.753	83.44
236.987	82.44
237.221	78.44
237.455	85.44
237.689	80.44
237.922	71.44
238.156	72.44
238.39	81.44
238.624	77.44
238.858	70.44
239.091	73.44
239.325	61.44
239.559	68.44
239.793	80.44
240.027	81.44
240.26	80.44
240.494	77.44
240.728	82.44
240.961	77.44
241.195	74.44
241.429	81.44
241.662	53.44
241.896	67.44
242.13	69.44
242.363	77.44
242.597	69.44
242.83	80.44
243.064	72.44
243.298	69.44
243.531	82.44
243.765	81.44
243.998	74.44
244.232	79.44
244.465	85.44
244.699	90.44
244.932	79.44
245.166	88.44
245.399	80.44
245.633	79.44
245.866	82.44
246.099	79.44
246.333	75.44
246.566	79.44
246.8	64.44
247.033	99.44
247.266	79.44
247.5	75.44
247.733	90.44
247.966	90.44
248.2	75.44
248.433	70.44
248.666	83.44
248.899	73.44
249.133	87.44
249.366	94.44
249.599	73.44
249.832	74.44
250.066	68.44
250.299	75.44
250.532	77.44
250.765	82.44
250.998	74.44
251.231	80.44
251.465	72.44
251.698	96.44
251.931	81.44
252.164	73.44
252.397	78.44
252.63	73.44
252.863	69.44
253.096	81.44
253.329	71.44
253.562	74.44
253.795	89.44
254.028	68.44
254.261	77.44
254.494	75.44
254.727	77.44
254.96	79.44
255.193	76.44
255.426	68.44
255.659	71.44
255.892	92.44
256.124	83.44
256.357	75.44
256.59	81.44
256.823	86.44
257.056	79.44
257.289	84.44
257.521	93.44
257.754	93.44
257.987	68.44
258.22	81.44
258.452	72.44
258.685	78.44
258.918	70.44
259.151	81.44
259.383	82.44
259.616	84.44
259.849	66.44
260.081	79.44
260.314	85.44
260.547	69.44
260.779	83.44
261.012	68.44
261.244	80.44
261.477	78.44
261.71	78.44
261.942	81.44
262.175	82.44
262.407	69.44
262.64	75.44
262.872	92.44
263.105	89.44
263.337	94.44
263.57	81.44
263.802	85.44
264.035	81.44
264.267	87.44
264.499	89.44
264.732	89.44
264.964	81.44
265.197	81.44
265.429	70.44
265.661	83.44
265.894	94.44
266.126	86.44
266.358	85.44
266.591	85.44
266.823	69.44
267.055	68.44
267.287	72.44
267.52	82.44
267.752	97.44
267.984	75.44
268.216	79.44
268.448	76.44
268.681	85.44
268.913	88.44
269.145	68.44
269.377	91.44
269.609	85.44
269.841	85.44
270.073	75.44
270.306	90.44
270.538	80.44
270.77	84.44
271.002	82.44
271.234	86.44
271.466	91.44
271.698	74.44
271.93	67.44
272.162	89.44
272.394	89.44
272.626	84.44
272.858	94.44
273.09	78.44
273.322	78.44
273.553	85.44
273.785	79.44
274.017	89.44
274.249	90.44
274.481	86.44
274.713	70.44
274.945	76.44
275.176	84.44
275.408	84.44
275.64	73.44
275.872	78.44
276.104	88.44
276.335	83.44
276.567	84.44
276.799	69.44
277.031	91.44
277.262	93.44
277.494	89.44
277.726	80.44
277.957	83.44
278.189	83.44
278.421	96.44
278.652	87.44
278.884	75.44
279.115	72.44
279.347	87.44
279.579	85.44
279.81	95.44
280.042	76.44
280.273	70.44
280.505	81.44
280.736	78.44
280.968	88.44
281.199	93.44
281.431	86.44
281.662	88.44
281.894	93.44
282.125	77.44
282.356	82.44
282.588	85.44
282.819	82.44
283.051	84.44
283.282	84.44
283.513	88.44
283.745	87.44
283.976	94.44
284.207	78.44
284.439	81.44
284.67	87.44
284.901	86.44
285.132	84.44
285.364	84.44
285.595	87.44
285.826	81.44
286.057	75.44
286.288	91.44
286.52	89.44
286.751	73.44
286.982	88.44
287.213	86.44
287.444	89.44
287.675	84.44
287.906	86.44
288.138	97.44
288.369	83.44
288.6	93.44
288.831	75.44
289.062	80.44
289.293	87.44
289.524	88.44
289.755	87.44
289.986	85.44
290.217	87.44
290.448	86.44
290.679	81.44
290.91	82.44
291.141	87.44
291.371	82.44
291.602	97.44
291.833	72.44
292.064	97.44
292.295	80.44
292.526	88.44
292.757	64.44
292.987	84.44
293.218	83.44
293.449	74.44
293.68	84.44
293.91	82.44
294.141	73.44
294.372	89.44
294.603	94.44
294.833	87.44
295.064	80.44
295.295	75.44
295.525	82.44
295.756	80.44
295.987	80.44
296.217	88.44
296.448	81.44
296.679	86.44
296.909	80.44
297.14	78.44
297.37	87.44
297.601	83.44
297.831	95.44
298.062	91.44
298.292	99.44
298.523	90.44
298.753	76.44
298.984	94.44
299.214	82.44
299.445	87.44
299.675	91.44
299.905	82.44
300.136	81.44
300.366	88.44
300.597	90.44
300.827	87.44
301.057	69.44
301.288	81.44
301.518	81.44
301.748	77.44
301.979	83.44
302.209	98.44
302.439	89.44
302.669	78.44
302.9	107.44
303.13	83.44
303.36	90.44
303.59	86.44
303.82	83.44
304.051	91.44
304.281	88.44
304.511	67.44
304.741	92.44
304.971	87.44
305.201	86.44
305.431	71.44
305.661	93.44
305.891	89.44
306.121	90.44
306.352	88.44
306.582	85.44
306.812	87.44
307.042	90.44
307.272	79.44
307.502	96.44
307.731	80.44
307.961	81.44
308.191	88.44
308.421	86.44
308.651	84.44
308.881	90.44
309.111	88.44
309.341	90.44
309.571	86.44
309.8	69.44
310.03	82.44
310.26	80.44
310.49	73.44
310.72	87.44
310.949	85.44
311.179	72.44
311.409	72.44
311.639	82.44
311.868	81.44
312.098	97.44
312.328	82.44
312.557	89.44
312.787	83.44
313.017	84.44
313.246	90.44
313.476	88.44
313.706	83.44
313.935	88.44
314.165	81.44
314.394	83.44
314.624	75.44
314.853	90.44
315.083	83.44
315.312	86.44
315.542	84.44
315.771	94.44
316.001	91.44
316.23	88.44
316.46	91.44
316.689	74.44
316.919	81.44
317.148	89.44
317.377	100.44
317.607	97.44
317.836	67.44
318.065	94.44
318.295	90.44
318.524	86.44
318.753	97.44
318.983	83.44
319.212	78.44
319.441	76.44
319.67	89.44
319.9	94.44
320.129	75.44
320.358	88.44
320.587	82.44
320.816	74.44
321.046	75.44
321.275	86.44
321.504	79.44
321.733	86.44
321.962	96.44
322.191	89.44
322.42	77.44
322.649	87.44
322.878	101.44
323.108	84.44
323.337	92.44
323.566	86.44
323.795	86.44
324.024	93.44
324.253	87.44
324.482	79.44
324.71	83.44
324.939	94.44
325.168	88.44
325.397	101.44
325.626	97.44
325.855	89.44
326.084	80.44
326.313	70.44
326.542	86.44
326.77	80.44
326.999	87.44
327.228	81.44
327.457	86.44
327.686	78.44
327.914	84.44
328.143	100.44
328.372	75.44
328.6	72.44
328.829	89.44
329.058	88.44
329.287	81.44
329.515	81.44
329.744	85.44
329.972	88.44
330.201	67.44
330.43	76.44
330.658	75.44
330.887	78.44
331.115	92.44
331.344	86.44
331.572	97.44
331.801	76.44
332.03	81.44
332.258	79.44
332.486	81.44
332.715	91.44
332.943	90.44
333.172	100.44
333.4	75.44
333.629	88.44
333.857	92.44
334.085	90.44
334.314	89.44
334.542	82.44
334.771	82.44
334.999	85.44
335.227	77.44
335.455	91.44
335.684	94.44
335.912	87.44
336.14	68.44
336.369	94.44
336.597	93.44
336.825	69.44
337.053	87.44
337.281	93.44
337.51	75.44
337.738	88.44
337.966	77.44
338.194	80.44
338.422	79.44
338.65	90.44
338.878	79.44
339.106	80.44
339.334	83.44
339.562	93.44
339.79	84.44
340.018	82.44
340.246	83.44
340.474	94.44
340.702	84.44
340.93	86.44
341.158	71.44
341.386	80.44
341.614	78.44
341.842	84.44
342.07	86.44
342.298	88.44
342.526	79.44
342.754	82.44
342.981	87.44
343.209	87.44
343.437	86.44
343.665	81.44
343.893	83.44
344.12	84.44
344.348	75.44
344.576	73.44
344.804	94.44
345.031	84.44
345.259	90.44
345.487	83.44
345.714	72.44
345.942	76.44
346.17	87.44
346.397	84.44
346.625	89.44
346.853	83.44
347.08	73.44
347.308	74.44
347.535	72.44
347.763	76.44
347.99	102.44
348.218	78.44
348.445	73.44
348.673	91.44
348.9	90.44
349.128	74.44
349.355	79.44
349.583	81.44
349.81	75.44
350.037	78.44
350.265	71.44
350.492	73.44
350.72	88.44
350.947	88.44
351.174	79.44
351.402	88.44
351.629	98.44
351.856	88.44
352.083	83.44
352.311	85.44
352.538	76.44
352.765	83.44
352.992	80.44
353.22	88.44
353.447	80.44
353.674	80.44
353.901	94.44
354.128	73.44
354.355	76.44
354.583	78.44
354.81	88.44
355.037	74.44
355.264	94.44
355.491	75.44
355.718	74.44
355.945	86.44
356.172	75.44
356.399	72.44
356.626	97.44
356.853	87.44
357.08	94.44
357.307	90.44
357.534	88.44
357.761	81.44
357.988	96.44
358.215	90.44
358.441	80.44
358.668	74.44
358.895	90.44
359.122	84.44
359.349	91.44
359.576	85.44
359.802	94.44
360.029	86.44
360.256	90.44
360.483	73.44
360.709	85.44
360.936	81.44
361.163	88.44
361.39	75.44
361.616	81.44
361.843	87.44
362.07	88.44
362.296	73.44
362.523	83.44
362.749	67.44
362.976	101.44
363.203	86.44
363.429	66.44
363.656	79.44
363.882	88.44
364.109	90.44
364.335	85.44
364.562	88.44
364.788	77.44
365.015	86.44
365.241	89.44
365.468	84.44
365.694	79.44
365.92	77.44
366.147	69.44
366.373	92.44
366.599	80.44
366.826	78.44
367.052	85.44
367.278	92.44
367.505	78.44
367.731	80.44
367.957	89.44
368.184	71.44
368.41	87.44
368.636	74.44
368.862	95.44
369.089	75.44
369.315	85.44
369.541	81.44
369.767	96.44
369.993	71.44
370.219	91.44
370.445	77.44
370.672	84.44
370.898	74.44
371.124	83.44
371.35	87.44
371.576	87.44
371.802	73.44
372.028	67.44
372.254	94.44
372.48	71.44
372.706	83.44
372.932	71.44
373.158	80.44
373.384	81.44
373.61	81.44
373.835	79.44
374.061	62.44
374.287	77.44
374.513	79.44
374.739	81.44
374.965	87.44
375.191	90.44
375.416	80.44
375.642	89.44
375.868	88.44
376.094	80.44
376.319	87.44
376.545	73.44
376.771	83.44
376.997	74.44
377.222	77.44
377.448	72.44
377.674	80.44
377.899	90.44
378.125	83.44
378.35	86.44
378.576	89.44
378.802	97.44
379.027	83.44
379.253	91.44
379.478	84.44
379.704	66.44
379.929	81.44
380.155	81.44
380.38	71.44
380.606	87.44
380.831	66.44
381.057	95.44
381.282	89.44
381.507	91.44
381.733	66.44
381.958	86.44
382.184	73.44
382.409	86.44
382.634	87.44
382.86	93.44
383.085	105.44
383.31	102.44
383.535	86.44
383.761	81.44
383.986	100.44
384.211	86.44
384.436	79.44
384.662	93.44
384.887	100.44
385.112	100.44
385.337	98.44
385.562	79.44
385.787	89.44
386.013	86.44
386.238	101.44
386.463	72.44
386.688	82.44
386.913	82.44
387.138	84.44
387.363	81.44
387.588	93.44
387.813	86.44
388.038	85.44
388.263	78.44
388.488	87.44
388.713	82.44
388.938	87.44
389.163	98.44
389.387	90.44
389.612	80.44
389.837	100.44
390.062	87.44
390.287	91.44
390.512	95.44
390.736	64.44
390.961	80.44
391.186	80.44
391.411	80.44
391.636	94.44
391.86	87.44
392.085	92.44
392.31	91.44
392.534	80.44
392.759	79.44
392.984	98.44
393.208	87.44
393.433	89.44
393.658	87.44
393.882	84.44
394.107	101.44
394.331	95.44
394.556	93.44
394.78	90.44
395.005	84.44
395.229	98.44
395.454	89.44
395.678	102.44
395.903	93.44
396.127	88.44
396.352	109.44
396.576	79.44
396.801	88.44
397.025	70.44
397.249	73.44
397.474	92.44
397.698	84.44
397.922	86.44
398.147	78.44
398.371	93.44
398.595	83.44
398.82	82.44
399.044	96.44
399.268	83.44
399.492	86.44
399.717	95.44
399.941	95.44
400.165	79.44
400.389	78.44
400.613	79.44
400.837	88.44
401.062	85.44
401.286	92.44
401.51	91.44
401.734	89.44
401.958	86.44
402.182	95.44
402.406	87.44
402.63	102.44
402.854	83.44
403.078	83.44
403.302	76.44
403.526	80.44
403.75	79.44
403.974	81.44
404.198	89.44
404.422	82.44
404.645	92.44
404.869	90.44
405.093	92.44
405.317	80.44
405.541	90.44
405.765	87.44
405.988	85.44
406.212	81.44
406.436	89.44
406.66	91.44
406.883	87.44
407.107	90.44
407.331	93.44
407.555	89.44
407.778	82.44
408.002	87.44
408.226	85.44
408.449	87.44
408.673	99.44
408.896	101.44
409.12	95.44
409.344	85.44
409.567	89.44
409.791	88.44
410.014	79.44
410.238	91.44
410.461	85.44
410.685	92.44
410.908	81.44
411.132	76.44
411.355	90.44
411.578	102.44
411.802	100.44
412.025	98.44
412.249	103.44
412.472	94.44
412.695	87.44
412.919	92.44
413.142	90.44
413.365	94.44
413.589	93.44
413.812	85.44
414.035	90.44
414.258	91.44
414.482	103.44
414.705	93.44
414.928	90.44
415.151	96.44
415.374	81.44
415.597	92.44
415.821	96.44
416.044	93.44
416.267	93.44
416.49	78.44
416.713	104.44
416.936	96.44
417.159	89.44
417.382	93.44
417.605	92.44
417.828	100.44
418.051	99.44
418.274	91.44
418.497	89.44
418.72	108.44
418.943	93.44
419.166	111.44
419.389	87.44
419.611	94.44
419.834	100.44
420.057	96.44
420.28	84.44
420.503	90.44
420.726	89.44
420.948	93.44
421.171	86.44
421.394	83.44
421.617	98.44
421.839	98.44
422.062	83.44
422.285	100.44
422.507	81.44
422.73	101.44
422.953	73.44
423.175	90.44
423.398	92.44
423.621	106.44
423.843	91.44
424.066	102.44
424.288	97.44
424.511	110.44
424.733	97.44
424.956	94.44
425.178	91.44
425.401	94.44
425.623	85.44
425.846	95.44
426.068	91.44
426.291	99.44
426.513	85.44
426.735	93.44
426.958	93.44
427.18	105.44
427.402	90.44
427.625	97.44
427.847	106.44
428.069	93.44
428.292	99.44
428.514	79.44
428.736	93.44
428.958	90.44
429.181	98.44
429.403	89.44
429.625	97.44
429.847	98.44
430.069	114.44
430.292	104.44
430.514	84.44
430.736	74.44
430.958	100.44
431.18	93.44
431.402	93.44
431.624	83.44
431.846	83.44
432.068	74.44
432.29	80.44
432.512	91.44
432.734	83.44
432.956	97.44
433.178	89.44
433.4	86.44
433.622	110.44
433.844	95.44
434.066	109.44
434.287	100.44
434.509	89.44
434.731	91.44
434.953	84.44
435.175	100.44
435.397	97.44
435.618	79.44
435.84	97.44
436.062	87.44
436.284	106.44
436.505	86.44
436.727	86.44
436.949	98.44
437.17	77.44
437.392	82.44
437.614	90.44
437.835	82.44
438.057	99.44
438.278	84.44
438.5	86.44
438.721	97.44
438.943	94.44
439.165	91.44
439.386	86.44
439.608	99.44
439.829	102.44
440.05	93.44
440.272	100.44
440.493	104.44
440.715	105.44
440.936	85.44
441.158	103.44
441.379	102.44
441.6	98.44
441.822	113.44
442.043	89.44
442.264	111.44
442.486	97.44
442.707	109.44
442.928	87.44
443.149	99.44
443.371	89.44
443.592	107.44
443.813	95.44
444.034	109.44
444.255	100.44
444.476	80.44
444.698	78.44
444.919	99.44
445.14	223.44
445.361	145.44
445.582	97.44
445.803	90.44
446.024	113.44
446.245	105.44
446.466	120.44
446.687	96.44
446.908	100.44
447.129	90.44
447.35	99.44
447.571	100.44
447.792	99.44
448.013	93.44
448.234	99.44
448.455	97.44
448.675	101.44
448.896	116.44
449.117	100.44
449.338	98.44
449.559	82.44
449.779	100.44
450	101.44
450.221	113.44
450.442	101.44
450.662	100.44
450.883	94.44
451.104	94.44
451.324	94.44
451.545	90.44
451.766	89.44
451.986	100.44
452.207	91.44
452.428	93.44
452.648	91.44
452.869	95.44
453.089	95.44
453.31	98.44
453.53	106.44
453.751	78.44
453.971	85.44
454.192	82.44
454.412	98.44
454.633	86.44
454.853	85.44
455.073	99.44
455.294	97.44
455.514	93.44
455.734	85.44
455.955	86.44
456.175	95.44
456.395	93.44
456.616	82.44
456.836	83.44
457.056	90.44
457.276	98.44
457.497	93.44
457.717	86.44
457.937	96.44
458.157	89.44
458.377	98.44
458.598	83.44
458.818	100.44
459.038	79.44
459.258	91.44
459.478	94.44
459.698	84.44
459.918	81.44
460.138	91.44
460.358	102.44
460.578	85.44
460.798	87.44
461.018	61.44
461.238	83.44
461.458	90.44
461.678	94.44
461.898	88.44
462.118	91.44
462.338	82.44
462.558	95.44
462.777	100.44
462.997	82.44
463.217	94.44
463.437	97.44
463.657	97.44
463.876	105.44
464.096	98.44
464.316	83.44
464.536	93.44
464.755	90.44
464.975	97.44
465.195	92.44
465.414	82.44
465.634	85.44
465.854	85.44
466.073	85.44
466.293	84.44
466.512	94.44
466.732	86.44
466.951	89.44
467.171	99.44
467.391	79.44
467.61	104.44
467.829	102.44
468.049	93.44
468.268	102.44
468.488	88.44
468.707	103.44
468.927	101.44
469.146	93.44
469.365	107.44
469.585	88.44
469.804	93.44
470.023	98.44
470.243	100.44
470.462	118.44
470.681	106.44
470.901	94.44
471.12	82.44
471.339	107.44
471.558	92.44
471.777	104.44
471.997	90.44
472.216	90.44
472.435	101.44
472.654	85.44
472.873	92.44
473.092	97.44
473.311	89.44
473.53	98.44
473.749	82.44
473.968	102.44
474.187	82.44
474.406	83.44
474.625	92.44
474.844	87.44
475.063	89.44
475.282	97.44
475.501	84.44
475.72	103.44
475.939	100.44
476.158	94.44
476.377	90.44
476.596	96.44
476.814	95.44
477.033	82.44
477.252	108.44
477.471	97.44
477.69	105.44
477.908	101.44
478.127	118.44
478.346	89.44
478.564	98.44
478.783	89.44
479.002	99.44
479.22	110.44
479.439	110.44
479.658	89.44
479.876	80.44
480.095	81.44
480.313	90.44
480.532	104.44
480.751	95.44
480.969	86.44
481.188	86.44
481.406	89.44
481.624	84.44
481.843	89.44
482.061	89.44
482.28	87.44
482.498	86.44
482.717	89.44
482.935	84.44
483.153	74.44
483.372	95.44
483.59	116.44
483.808	91.44
484.027	89.44
484.245	85.44
484.463	91.44
484.681	103.44
484.9	86.44
485.118	104.44
485.336	94.44
485.554	104.44
485.772	88.44
485.99	104.44
486.209	89.44
486.427	81.44
486.645	105.44
486.863	105.44
487.081	91.44
487.299	101.44
487.517	104.44
487.735	114.44
487.953	109.44
488.171	117.44
488.389	117.44
488.607	95.44
488.825	88.44
489.043	101.44
489.261	98.44
489.479	112.44
489.696	104.44
489.914	109.44
490.132	104.44
490.35	109.44
490.568	115.44
490.786	114.44
491.003	113.44
491.221	119.44
491.439	111.44
491.657	105.44
491.874	121.44
492.092	117.44
492.31	133.44
492.527	128.44
492.745	127.44
492.963	124.44
493.18	116.44
493.398	114.44
493.615	109.44
493.833	102.44
494.05	103.44
494.268	109.44
494.485	102.44
494.703	113.44
494.92	119.44
495.138	103.44
495.355	110.44
495.573	114.44
495.79	112.44
496.008	97.44
496.225	93.44
496.442	112.44
496.66	93.44
496.877	102.44
497.094	107.44
497.312	89.44
497.529	103.44
497.746	100.44
497.963	86.44
498.181	99.44
498.398	90.44
498.615	86.44
498.832	85.44
499.049	107.44
499.267	94.44
499.484	84.44
499.701	97.44
499.918	85.44
500.135	86.44
500.352	107.44
500.569	112.44
500.786	112.44
501.003	103.44
501.22	102.44
501.437	100.44
501.654	98.44
501.871	84.44
502.088	87.44
502.305	96.44
502.522	111.44
502.739	101.44
502.956	83.44
503.172	80.44
503.389	99.44
503.606	82.44
503.823	100.44
504.04	84.44
504.256	87.44
504.473	88.44
504.69	93.44
504.907	89.44
505.123	89.44
505.34	101.44
505.557	90.44
505.773	110.44
505.99	89.44
506.207	94.44
506.423	92.44
506.64	106.44
506.856	89.44
507.073	99.44
507.289	87.44
507.506	103.44
507.722	93.44
507.939	89.44
508.155	89.44
508.372	99.44
508.588	85.44
508.805	88.44
509.021	84.44
509.238	80.44
509.454	91.44
509.67	73.44
509.887	94.44
510.103	89.44
510.319	94.44
510.536	88.44
510.752	81.44
510.968	81.44
511.184	81.44
511.401	96.44
511.617	80.44
511.833	90.44
512.049	93.44
512.265	73.44
512.481	88.44
512.698	97.44
512.914	82.44
513.13	96.44
513.346	90.44
513.562	84.44
513.778	80.44
513.994	80.44
514.21	84.44
514.426	89.44
514.642	82.44
514.858	80.44
515.074	75.44
515.29	99.44
515.506	97.44
515.721	84.44
515.937	86.44
516.153	72.44
516.369	91.44
516.585	81.44
516.801	73.44
517.016	71.44
517.232	77.44
