Data from Location3.07152019.Energy5.Lamp.07192019.3%Agarose_HRD10591_15-18-13-269.txt Node
Date: Fri Jul 19 15:18:13 EDT 2019
User: cochatt
Spectrometer: HR+D1059
Trigger mode: 1
Integration Time (sec): 1.000000E-1
Scans to average: 1
Electric dark correction enabled: true
Nonlinearity correction enabled: false
Boxcar width: 0
XAxis mode: Wavelengths
Number of Pixels in Spectrum: 2048
>>>>>Begin Spectral Data<<<<<
223.165	-21.44
223.4	-21.44
223.635	-21.44
223.869	-27.44
224.104	-22.44
224.338	-8.44
224.573	2.56
224.808	-4.44
225.042	-25.44
225.277	4.56
225.511	-16.44
225.746	5.56
225.98	5.56
226.215	17.56
226.449	29.56
226.683	15.56
226.918	20.56
227.152	24.56
227.387	28.56
227.621	39.56
227.856	45.56
228.09	54.56
228.324	53.56
228.559	53.56
228.793	62.56
229.027	72.56
229.262	63.56
229.496	60.56
229.73	81.56
229.964	70.56
230.199	74.56
230.433	64.56
230.667	78.56
230.901	87.56
231.136	74.56
231.37	73.56
231.604	94.56
231.838	77.56
232.072	80.56
232.306	80.56
232.541	76.56
232.775	81.56
233.009	93.56
233.243	78.56
233.477	87.56
233.711	84.56
233.945	75.56
234.179	83.56
234.413	86.56
234.647	79.56
234.881	74.56
235.115	75.56
235.349	89.56
235.583	72.56
235.817	73.56
236.051	75.56
236.285	75.56
236.519	68.56
236.753	92.56
236.987	76.56
237.221	82.56
237.455	68.56
237.689	65.56
237.922	82.56
238.156	73.56
238.39	78.56
238.624	74.56
238.858	94.56
239.091	78.56
239.325	77.56
239.559	67.56
239.793	81.56
240.027	72.56
240.26	78.56
240.494	76.56
240.728	78.56
240.961	87.56
241.195	67.56
241.429	78.56
241.662	79.56
241.896	79.56
242.13	64.56
242.363	70.56
242.597	75.56
242.83	61.56
243.064	56.56
243.298	100.56
243.531	76.56
243.765	70.56
243.998	67.56
244.232	73.56
244.465	93.56
244.699	77.56
244.932	77.56
245.166	79.56
245.399	76.56
245.633	81.56
245.866	81.56
246.099	76.56
246.333	68.56
246.566	64.56
246.8	79.56
247.033	67.56
247.266	92.56
247.5	65.56
247.733	77.56
247.966	64.56
248.2	77.56
248.433	80.56
248.666	81.56
248.899	84.56
249.133	70.56
249.366	80.56
249.599	88.56
249.832	76.56
250.066	94.56
250.299	74.56
250.532	71.56
250.765	85.56
250.998	85.56
251.231	90.56
251.465	88.56
251.698	68.56
251.931	69.56
252.164	83.56
252.397	88.56
252.63	90.56
252.863	71.56
253.096	88.56
253.329	83.56
253.562	81.56
253.795	65.56
254.028	83.56
254.261	85.56
254.494	77.56
254.727	81.56
254.96	79.56
255.193	67.56
255.426	80.56
255.659	83.56
255.892	76.56
256.124	95.56
256.357	70.56
256.59	79.56
256.823	79.56
257.056	82.56
257.289	86.56
257.521	80.56
257.754	82.56
257.987	70.56
258.22	63.56
258.452	69.56
258.685	73.56
258.918	65.56
259.151	73.56
259.383	77.56
259.616	69.56
259.849	81.56
260.081	85.56
260.314	73.56
260.547	82.56
260.779	71.56
261.012	70.56
261.244	86.56
261.477	67.56
261.71	78.56
261.942	90.56
262.175	89.56
262.407	88.56
262.64	83.56
262.872	83.56
263.105	83.56
263.337	81.56
263.57	90.56
263.802	76.56
264.035	83.56
264.267	83.56
264.499	100.56
264.732	76.56
264.964	89.56
265.197	80.56
265.429	75.56
265.661	82.56
265.894	71.56
266.126	85.56
266.358	88.56
266.591	80.56
266.823	89.56
267.055	78.56
267.287	80.56
267.52	81.56
267.752	64.56
267.984	73.56
268.216	74.56
268.448	80.56
268.681	86.56
268.913	72.56
269.145	91.56
269.377	94.56
269.609	80.56
269.841	81.56
270.073	74.56
270.306	82.56
270.538	81.56
270.77	73.56
271.002	77.56
271.234	86.56
271.466	91.56
271.698	72.56
271.93	76.56
272.162	76.56
272.394	76.56
272.626	84.56
272.858	99.56
273.09	77.56
273.322	73.56
273.553	89.56
273.785	88.56
274.017	61.56
274.249	88.56
274.481	80.56
274.713	87.56
274.945	87.56
275.176	80.56
275.408	86.56
275.64	86.56
275.872	88.56
276.104	81.56
276.335	88.56
276.567	92.56
276.799	92.56
277.031	84.56
277.262	87.56
277.494	93.56
277.726	87.56
277.957	86.56
278.189	96.56
278.421	85.56
278.652	89.56
278.884	87.56
279.115	93.56
279.347	92.56
279.579	84.56
279.81	97.56
280.042	75.56
280.273	69.56
280.505	91.56
280.736	74.56
280.968	81.56
281.199	76.56
281.431	80.56
281.662	78.56
281.894	82.56
282.125	87.56
282.356	77.56
282.588	89.56
282.819	87.56
283.051	68.56
283.282	84.56
283.513	72.56
283.745	80.56
283.976	85.56
284.207	92.56
284.439	87.56
284.67	91.56
284.901	90.56
285.132	78.56
285.364	79.56
285.595	96.56
285.826	79.56
286.057	87.56
286.288	96.56
286.52	81.56
286.751	82.56
286.982	78.56
287.213	93.56
287.444	75.56
287.675	67.56
287.906	78.56
288.138	89.56
288.369	78.56
288.6	86.56
288.831	89.56
289.062	75.56
289.293	91.56
289.524	79.56
289.755	78.56
289.986	84.56
290.217	71.56
290.448	71.56
290.679	83.56
290.91	87.56
291.141	96.56
291.371	87.56
291.602	76.56
291.833	81.56
292.064	76.56
292.295	82.56
292.526	85.56
292.757	88.56
292.987	85.56
293.218	81.56
293.449	82.56
293.68	81.56
293.91	81.56
294.141	76.56
294.372	78.56
294.603	83.56
294.833	80.56
295.064	73.56
295.295	88.56
295.525	88.56
295.756	92.56
295.987	87.56
296.217	84.56
296.448	65.56
296.679	88.56
296.909	87.56
297.14	88.56
297.37	88.56
297.601	82.56
297.831	101.56
298.062	86.56
298.292	82.56
298.523	79.56
298.753	80.56
298.984	89.56
299.214	86.56
299.445	92.56
299.675	77.56
299.905	80.56
300.136	73.56
300.366	83.56
300.597	97.56
300.827	78.56
301.057	85.56
301.288	77.56
301.518	87.56
301.748	78.56
301.979	87.56
302.209	76.56
302.439	79.56
302.669	70.56
302.9	79.56
303.13	94.56
303.36	74.56
303.59	76.56
303.82	83.56
304.051	94.56
304.281	96.56
304.511	89.56
304.741	89.56
304.971	86.56
305.201	90.56
305.431	75.56
305.661	66.56
305.891	78.56
306.121	81.56
306.352	72.56
306.582	65.56
306.812	89.56
307.042	84.56
307.272	92.56
307.502	93.56
307.731	59.56
307.961	87.56
308.191	95.56
308.421	76.56
308.651	84.56
308.881	74.56
309.111	80.56
309.341	83.56
309.571	70.56
309.8	92.56
310.03	95.56
310.26	88.56
310.49	83.56
310.72	85.56
310.949	75.56
311.179	71.56
311.409	82.56
311.639	77.56
311.868	84.56
312.098	84.56
312.328	95.56
312.557	99.56
312.787	79.56
313.017	84.56
313.246	80.56
313.476	76.56
313.706	92.56
313.935	88.56
314.165	91.56
314.394	75.56
314.624	103.56
314.853	88.56
315.083	87.56
315.312	77.56
315.542	69.56
315.771	91.56
316.001	69.56
316.23	74.56
316.46	83.56
316.689	87.56
316.919	71.56
317.148	101.56
317.377	91.56
317.607	82.56
317.836	91.56
318.065	81.56
318.295	79.56
318.524	85.56
318.753	81.56
318.983	95.56
319.212	79.56
319.441	71.56
319.67	91.56
319.9	80.56
320.129	87.56
320.358	86.56
320.587	83.56
320.816	74.56
321.046	82.56
321.275	73.56
321.504	76.56
321.733	89.56
321.962	81.56
322.191	91.56
322.42	87.56
322.649	92.56
322.878	80.56
323.108	84.56
323.337	85.56
323.566	84.56
323.795	96.56
324.024	84.56
324.253	73.56
324.482	79.56
324.71	84.56
324.939	105.56
325.168	108.56
325.397	92.56
325.626	90.56
325.855	74.56
326.084	78.56
326.313	84.56
326.542	79.56
326.77	75.56
326.999	79.56
327.228	88.56
327.457	89.56
327.686	83.56
327.914	86.56
328.143	95.56
328.372	77.56
328.6	81.56
328.829	78.56
329.058	93.56
329.287	93.56
329.515	81.56
329.744	80.56
329.972	77.56
330.201	98.56
330.43	73.56
330.658	82.56
330.887	68.56
331.115	76.56
331.344	83.56
331.572	83.56
331.801	87.56
332.03	79.56
332.258	91.56
332.486	86.56
332.715	75.56
332.943	88.56
333.172	88.56
333.4	70.56
333.629	85.56
333.857	87.56
334.085	84.56
334.314	77.56
334.542	86.56
334.771	90.56
334.999	79.56
335.227	95.56
335.455	71.56
335.684	79.56
335.912	86.56
336.14	80.56
336.369	94.56
336.597	83.56
336.825	86.56
337.053	80.56
337.281	76.56
337.51	68.56
337.738	84.56
337.966	91.56
338.194	82.56
338.422	89.56
338.65	72.56
338.878	80.56
339.106	79.56
339.334	99.56
339.562	92.56
339.79	91.56
340.018	81.56
340.246	84.56
340.474	87.56
340.702	76.56
340.93	93.56
341.158	104.56
341.386	82.56
341.614	68.56
341.842	69.56
342.07	86.56
342.298	74.56
342.526	83.56
342.754	80.56
342.981	67.56
343.209	76.56
343.437	78.56
343.665	82.56
343.893	85.56
344.12	78.56
344.348	81.56
344.576	69.56
344.804	72.56
345.031	93.56
345.259	79.56
345.487	82.56
345.714	80.56
345.942	86.56
346.17	90.56
346.397	75.56
346.625	85.56
346.853	84.56
347.08	86.56
347.308	75.56
347.535	72.56
347.763	87.56
347.99	75.56
348.218	70.56
348.445	77.56
348.673	80.56
348.9	92.56
349.128	84.56
349.355	84.56
349.583	68.56
349.81	86.56
350.037	82.56
350.265	83.56
350.492	83.56
350.72	94.56
350.947	79.56
351.174	83.56
351.402	75.56
351.629	87.56
351.856	81.56
352.083	81.56
352.311	77.56
352.538	74.56
352.765	78.56
352.992	83.56
353.22	80.56
353.447	83.56
353.674	90.56
353.901	81.56
354.128	85.56
354.355	89.56
354.583	86.56
354.81	92.56
355.037	81.56
355.264	78.56
355.491	86.56
355.718	82.56
355.945	82.56
356.172	83.56
356.399	69.56
356.626	73.56
356.853	69.56
357.08	76.56
357.307	84.56
357.534	92.56
357.761	75.56
357.988	68.56
358.215	78.56
358.441	80.56
358.668	86.56
358.895	66.56
359.122	76.56
359.349	69.56
359.576	92.56
359.802	80.56
360.029	76.56
360.256	78.56
360.483	71.56
360.709	82.56
360.936	94.56
361.163	88.56
361.39	80.56
361.616	78.56
361.843	75.56
362.07	75.56
362.296	87.56
362.523	82.56
362.749	85.56
362.976	87.56
363.203	83.56
363.429	77.56
363.656	84.56
363.882	85.56
364.109	78.56
364.335	80.56
364.562	85.56
364.788	99.56
365.015	75.56
365.241	78.56
365.468	80.56
365.694	92.56
365.92	88.56
366.147	89.56
366.373	87.56
366.599	77.56
366.826	84.56
367.052	76.56
367.278	80.56
367.505	84.56
367.731	75.56
367.957	89.56
368.184	85.56
368.41	79.56
368.636	86.56
368.862	76.56
369.089	81.56
369.315	79.56
369.541	73.56
369.767	76.56
369.993	103.56
370.219	86.56
370.445	70.56
370.672	83.56
370.898	77.56
371.124	72.56
371.35	94.56
371.576	74.56
371.802	69.56
372.028	66.56
372.254	76.56
372.48	95.56
372.706	80.56
372.932	74.56
373.158	80.56
373.384	95.56
373.61	90.56
373.835	72.56
374.061	81.56
374.287	70.56
374.513	80.56
374.739	83.56
374.965	88.56
375.191	89.56
375.416	89.56
375.642	80.56
375.868	77.56
376.094	69.56
376.319	69.56
376.545	72.56
376.771	78.56
376.997	67.56
377.222	81.56
377.448	84.56
377.674	92.56
377.899	87.56
378.125	79.56
378.35	83.56
378.576	90.56
378.802	86.56
379.027	96.56
379.253	80.56
379.478	101.56
379.704	76.56
379.929	86.56
380.155	73.56
380.38	89.56
380.606	86.56
380.831	83.56
381.057	84.56
381.282	77.56
381.507	77.56
381.733	95.56
381.958	72.56
382.184	71.56
382.409	79.56
382.634	73.56
382.86	81.56
383.085	79.56
383.31	74.56
383.535	87.56
383.761	85.56
383.986	89.56
384.211	72.56
384.436	101.56
384.662	82.56
384.887	79.56
385.112	82.56
385.337	82.56
385.562	82.56
385.787	86.56
386.013	94.56
386.238	89.56
386.463	85.56
386.688	84.56
386.913	74.56
387.138	81.56
387.363	73.56
387.588	83.56
387.813	77.56
388.038	90.56
388.263	79.56
388.488	80.56
388.713	83.56
388.938	88.56
389.163	95.56
389.387	60.56
389.612	79.56
389.837	82.56
390.062	85.56
390.287	93.56
390.512	93.56
390.736	89.56
390.961	88.56
391.186	104.56
391.411	94.56
391.636	70.56
391.86	78.56
392.085	82.56
392.31	72.56
392.534	88.56
392.759	80.56
392.984	86.56
393.208	90.56
393.433	85.56
393.658	83.56
393.882	75.56
394.107	85.56
394.331	84.56
394.556	84.56
394.78	80.56
395.005	87.56
395.229	78.56
395.454	88.56
395.678	86.56
395.903	83.56
396.127	85.56
396.352	84.56
396.576	88.56
396.801	89.56
397.025	73.56
397.249	72.56
397.474	77.56
397.698	84.56
397.922	99.56
398.147	82.56
398.371	86.56
398.595	100.56
398.82	88.56
399.044	81.56
399.268	79.56
399.492	97.56
399.717	88.56
399.941	94.56
400.165	88.56
400.389	76.56
400.613	94.56
400.837	90.56
401.062	83.56
401.286	88.56
401.51	88.56
401.734	87.56
401.958	93.56
402.182	97.56
402.406	87.56
402.63	92.56
402.854	84.56
403.078	86.56
403.302	93.56
403.526	84.56
403.75	91.56
403.974	88.56
404.198	73.56
404.422	92.56
404.645	88.56
404.869	90.56
405.093	77.56
405.317	88.56
405.541	87.56
405.765	90.56
405.988	93.56
406.212	88.56
406.436	82.56
406.66	83.56
406.883	87.56
407.107	88.56
407.331	97.56
407.555	84.56
407.778	85.56
408.002	80.56
408.226	81.56
408.449	99.56
408.673	87.56
408.896	93.56
409.12	80.56
409.344	88.56
409.567	79.56
409.791	81.56
410.014	96.56
410.238	82.56
410.461	96.56
410.685	110.56
410.908	91.56
411.132	97.56
411.355	83.56
411.578	85.56
411.802	85.56
412.025	93.56
412.249	88.56
412.472	79.56
412.695	84.56
412.919	81.56
413.142	91.56
413.365	88.56
413.589	88.56
413.812	104.56
414.035	91.56
414.258	87.56
414.482	95.56
414.705	86.56
414.928	79.56
415.151	88.56
415.374	81.56
415.597	78.56
415.821	86.56
416.044	91.56
416.267	92.56
416.49	88.56
416.713	91.56
416.936	92.56
417.159	88.56
417.382	100.56
417.605	111.56
417.828	99.56
418.051	92.56
418.274	98.56
418.497	95.56
418.72	95.56
418.943	96.56
419.166	88.56
419.389	81.56
419.611	108.56
419.834	83.56
420.057	90.56
420.28	111.56
420.503	84.56
420.726	98.56
420.948	105.56
421.171	99.56
421.394	89.56
421.617	111.56
421.839	93.56
422.062	97.56
422.285	85.56
422.507	89.56
422.73	104.56
422.953	87.56
423.175	79.56
423.398	99.56
423.621	91.56
423.843	93.56
424.066	88.56
424.288	83.56
424.511	99.56
424.733	90.56
424.956	92.56
425.178	83.56
425.401	82.56
425.623	83.56
425.846	86.56
426.068	83.56
426.291	96.56
426.513	100.56
426.735	103.56
426.958	93.56
427.18	85.56
427.402	97.56
427.625	77.56
427.847	89.56
428.069	104.56
428.292	80.56
428.514	92.56
428.736	95.56
428.958	103.56
429.181	99.56
429.403	95.56
429.625	80.56
429.847	88.56
430.069	91.56
430.292	94.56
430.514	81.56
430.736	84.56
430.958	86.56
431.18	88.56
431.402	91.56
431.624	89.56
431.846	93.56
432.068	85.56
432.29	81.56
432.512	89.56
432.734	92.56
432.956	85.56
433.178	94.56
433.4	108.56
433.622	109.56
433.844	101.56
434.066	85.56
434.287	86.56
434.509	87.56
434.731	87.56
434.953	86.56
435.175	84.56
435.397	94.56
435.618	89.56
435.84	85.56
436.062	84.56
436.284	91.56
436.505	107.56
436.727	86.56
436.949	92.56
437.17	94.56
437.392	93.56
437.614	91.56
437.835	83.56
438.057	84.56
438.278	83.56
438.5	95.56
438.721	88.56
438.943	94.56
439.165	96.56
439.386	105.56
439.608	112.56
439.829	84.56
440.05	108.56
440.272	101.56
440.493	94.56
440.715	99.56
440.936	96.56
441.158	88.56
441.379	93.56
441.6	99.56
441.822	95.56
442.043	104.56
442.264	91.56
442.486	90.56
442.707	109.56
442.928	89.56
443.149	99.56
443.371	91.56
443.592	98.56
443.813	99.56
444.034	112.56
444.255	88.56
444.476	95.56
444.698	86.56
444.919	107.56
445.14	179.56
445.361	136.56
445.582	95.56
445.803	94.56
446.024	113.56
446.245	109.56
446.466	94.56
446.687	95.56
446.908	105.56
447.129	104.56
447.35	84.56
447.571	102.56
447.792	87.56
448.013	94.56
448.234	91.56
448.455	95.56
448.675	101.56
448.896	84.56
449.117	79.56
449.338	85.56
449.559	92.56
449.779	94.56
450	104.56
450.221	111.56
450.442	101.56
450.662	95.56
450.883	84.56
451.104	96.56
451.324	90.56
451.545	107.56
451.766	92.56
451.986	103.56
452.207	93.56
452.428	79.56
452.648	83.56
452.869	93.56
453.089	97.56
453.31	93.56
453.53	97.56
453.751	72.56
453.971	76.56
454.192	85.56
454.412	92.56
454.633	91.56
454.853	92.56
455.073	101.56
455.294	87.56
455.514	93.56
455.734	82.56
455.955	96.56
456.175	78.56
456.395	81.56
456.616	85.56
456.836	84.56
457.056	85.56
457.276	91.56
457.497	97.56
457.717	88.56
457.937	91.56
458.157	86.56
458.377	97.56
458.598	83.56
458.818	88.56
459.038	93.56
459.258	85.56
459.478	84.56
459.698	95.56
459.918	86.56
460.138	88.56
460.358	87.56
460.578	91.56
460.798	86.56
461.018	90.56
461.238	92.56
461.458	80.56
461.678	83.56
461.898	81.56
462.118	88.56
462.338	95.56
462.558	94.56
462.777	97.56
462.997	89.56
463.217	93.56
463.437	101.56
463.657	80.56
463.876	79.56
464.096	88.56
464.316	83.56
464.536	91.56
464.755	95.56
464.975	87.56
465.195	69.56
465.414	86.56
465.634	99.56
465.854	79.56
466.073	91.56
466.293	85.56
466.512	85.56
466.732	78.56
466.951	95.56
467.171	90.56
467.391	87.56
467.61	100.56
467.829	115.56
468.049	96.56
468.268	106.56
468.488	108.56
468.707	98.56
468.927	90.56
469.146	72.56
469.365	93.56
469.585	101.56
469.804	103.56
470.023	93.56
470.243	114.56
470.462	104.56
470.681	91.56
470.901	87.56
471.12	92.56
471.339	86.56
471.558	94.56
471.777	96.56
471.997	89.56
472.216	95.56
472.435	89.56
472.654	90.56
472.873	98.56
473.092	89.56
473.311	89.56
473.53	80.56
473.749	90.56
473.968	93.56
474.187	82.56
474.406	110.56
474.625	93.56
474.844	89.56
475.063	75.56
475.282	94.56
475.501	78.56
475.72	89.56
475.939	87.56
476.158	94.56
476.377	89.56
476.596	72.56
476.814	87.56
477.033	94.56
477.252	78.56
477.471	98.56
477.69	101.56
477.908	100.56
478.127	109.56
478.346	92.56
478.564	112.56
478.783	94.56
479.002	94.56
479.22	95.56
479.439	94.56
479.658	93.56
479.876	83.56
480.095	95.56
480.313	96.56
480.532	98.56
480.751	100.56
480.969	102.56
481.188	76.56
481.406	76.56
481.624	88.56
481.843	87.56
482.061	73.56
482.28	98.56
482.498	101.56
482.717	83.56
482.935	96.56
483.153	85.56
483.372	110.56
483.59	99.56
483.808	96.56
484.027	105.56
484.245	106.56
484.463	92.56
484.681	99.56
484.9	100.56
485.118	83.56
485.336	94.56
485.554	84.56
485.772	93.56
485.99	74.56
486.209	96.56
486.427	82.56
486.645	83.56
486.863	95.56
487.081	102.56
487.299	107.56
487.517	84.56
487.735	100.56
487.953	113.56
488.171	110.56
488.389	111.56
488.607	99.56
488.825	97.56
489.043	107.56
489.261	87.56
489.479	96.56
489.696	118.56
489.914	104.56
490.132	95.56
490.35	104.56
490.568	103.56
490.786	114.56
491.003	109.56
491.221	117.56
491.439	115.56
491.657	112.56
491.874	120.56
492.092	109.56
492.31	123.56
492.527	113.56
492.745	116.56
492.963	111.56
493.18	115.56
493.398	112.56
493.615	108.56
493.833	103.56
494.05	116.56
494.268	92.56
494.485	116.56
494.703	101.56
494.92	110.56
495.138	113.56
495.355	109.56
495.573	117.56
495.79	103.56
496.008	112.56
496.225	115.56
496.442	83.56
496.66	95.56
496.877	102.56
497.094	124.56
497.312	119.56
497.529	113.56
497.746	101.56
497.963	103.56
498.181	98.56
498.398	91.56
498.615	92.56
498.832	85.56
499.049	90.56
499.267	99.56
499.484	89.56
499.701	93.56
499.918	84.56
500.135	78.56
500.352	91.56
500.569	103.56
500.786	98.56
501.003	96.56
501.22	101.56
501.437	88.56
501.654	104.56
501.871	94.56
502.088	108.56
502.305	101.56
502.522	103.56
502.739	93.56
502.956	92.56
503.172	101.56
503.389	87.56
503.606	91.56
503.823	96.56
504.04	84.56
504.256	85.56
504.473	90.56
504.69	93.56
504.907	95.56
505.123	91.56
505.34	78.56
505.557	85.56
505.773	82.56
505.99	101.56
506.207	89.56
506.423	88.56
506.64	91.56
506.856	94.56
507.073	91.56
507.289	106.56
507.506	88.56
507.722	90.56
507.939	92.56
508.155	71.56
508.372	92.56
508.588	96.56
508.805	91.56
509.021	80.56
509.238	97.56
509.454	89.56
509.67	83.56
509.887	93.56
510.103	65.56
510.319	83.56
510.536	85.56
510.752	94.56
510.968	87.56
511.184	84.56
511.401	89.56
511.617	83.56
511.833	70.56
512.049	78.56
512.265	83.56
512.481	80.56
512.698	77.56
512.914	101.56
513.13	88.56
513.346	66.56
513.562	86.56
513.778	76.56
513.994	79.56
514.21	71.56
514.426	69.56
514.642	89.56
514.858	79.56
515.074	89.56
515.29	71.56
515.506	83.56
515.721	72.56
515.937	88.56
516.153	72.56
516.369	88.56
516.585	79.56
516.801	81.56
517.016	80.56
517.232	89.56
517.448	91.56
517.664	80.56
