Data from Location3.07152019.Energy5.Lamp.07192019.3%Agarose_HRD10591_15-16-41-269.txt Node
Date: Fri Jul 19 15:16:41 EDT 2019
User: cochatt
Spectrometer: HR+D1059
Trigger mode: 1
Integration Time (sec): 1.000000E-1
Scans to average: 1
Electric dark correction enabled: true
Nonlinearity correction enabled: false
Boxcar width: 0
XAxis mode: Wavelengths
Number of Pixels in Spectrum: 2048
>>>>>Begin Spectral Data<<<<<
223.165	-25.31
223.4	-25.31
223.635	-25.31
223.869	-7.31
224.104	-11.31
224.338	-24.31
224.573	-1.31
224.808	-2.31
225.042	-3.31
225.277	-10.31
225.511	-2.31
225.746	16.69
225.98	-3.31
226.215	3.69
226.449	11.69
226.683	12.69
226.918	14.69
227.152	31.69
227.387	32.69
227.621	30.69
227.856	46.69
228.09	47.69
228.324	55.69
228.559	45.69
228.793	70.69
229.027	54.69
229.262	60.69
229.496	65.69
229.73	70.69
229.964	69.69
230.199	68.69
230.433	68.69
230.667	65.69
230.901	82.69
231.136	82.69
231.37	79.69
231.604	74.69
231.838	86.69
232.072	66.69
232.306	93.69
232.541	70.69
232.775	86.69
233.009	68.69
233.243	88.69
233.477	79.69
233.711	89.69
233.945	82.69
234.179	89.69
234.413	86.69
234.647	87.69
234.881	73.69
235.115	68.69
235.349	78.69
235.583	72.69
235.817	75.69
236.051	95.69
236.285	73.69
236.519	84.69
236.753	82.69
236.987	80.69
237.221	69.69
237.455	67.69
237.689	76.69
237.922	73.69
238.156	79.69
238.39	82.69
238.624	79.69
238.858	80.69
239.091	86.69
239.325	73.69
239.559	61.69
239.793	75.69
240.027	91.69
240.26	71.69
240.494	68.69
240.728	69.69
240.961	68.69
241.195	64.69
241.429	86.69
241.662	75.69
241.896	89.69
242.13	75.69
242.363	80.69
242.597	63.69
242.83	67.69
243.064	86.69
243.298	85.69
243.531	80.69
243.765	66.69
243.998	79.69
244.232	68.69
244.465	62.69
244.699	79.69
244.932	57.69
245.166	76.69
245.399	71.69
245.633	89.69
245.866	83.69
246.099	81.69
246.333	80.69
246.566	76.69
246.8	64.69
247.033	72.69
247.266	71.69
247.5	67.69
247.733	79.69
247.966	75.69
248.2	86.69
248.433	79.69
248.666	76.69
248.899	74.69
249.133	86.69
249.366	75.69
249.599	79.69
249.832	68.69
250.066	78.69
250.299	92.69
250.532	76.69
250.765	68.69
250.998	77.69
251.231	82.69
251.465	99.69
251.698	85.69
251.931	94.69
252.164	82.69
252.397	73.69
252.63	75.69
252.863	81.69
253.096	88.69
253.329	89.69
253.562	95.69
253.795	91.69
254.028	84.69
254.261	76.69
254.494	78.69
254.727	80.69
254.96	88.69
255.193	70.69
255.426	71.69
255.659	78.69
255.892	77.69
256.124	87.69
256.357	72.69
256.59	83.69
256.823	85.69
257.056	98.69
257.289	74.69
257.521	72.69
257.754	67.69
257.987	83.69
258.22	91.69
258.452	77.69
258.685	83.69
258.918	82.69
259.151	85.69
259.383	87.69
259.616	74.69
259.849	92.69
260.081	89.69
260.314	76.69
260.547	79.69
260.779	92.69
261.012	80.69
261.244	84.69
261.477	89.69
261.71	79.69
261.942	82.69
262.175	80.69
262.407	88.69
262.64	77.69
262.872	88.69
263.105	86.69
263.337	85.69
263.57	73.69
263.802	70.69
264.035	82.69
264.267	87.69
264.499	76.69
264.732	95.69
264.964	80.69
265.197	84.69
265.429	91.69
265.661	74.69
265.894	73.69
266.126	78.69
266.358	80.69
266.591	80.69
266.823	69.69
267.055	75.69
267.287	87.69
267.52	90.69
267.752	88.69
267.984	89.69
268.216	72.69
268.448	67.69
268.681	84.69
268.913	71.69
269.145	91.69
269.377	83.69
269.609	67.69
269.841	73.69
270.073	73.69
270.306	91.69
270.538	84.69
270.77	84.69
271.002	83.69
271.234	78.69
271.466	83.69
271.698	78.69
271.93	69.69
272.162	73.69
272.394	75.69
272.626	68.69
272.858	86.69
273.09	79.69
273.322	66.69
273.553	78.69
273.785	99.69
274.017	86.69
274.249	88.69
274.481	85.69
274.713	83.69
274.945	77.69
275.176	91.69
275.408	80.69
275.64	89.69
275.872	71.69
276.104	85.69
276.335	93.69
276.567	71.69
276.799	84.69
277.031	97.69
277.262	76.69
277.494	94.69
277.726	90.69
277.957	73.69
278.189	88.69
278.421	89.69
278.652	85.69
278.884	77.69
279.115	75.69
279.347	74.69
279.579	97.69
279.81	80.69
280.042	83.69
280.273	72.69
280.505	91.69
280.736	83.69
280.968	90.69
281.199	83.69
281.431	96.69
281.662	83.69
281.894	81.69
282.125	87.69
282.356	79.69
282.588	84.69
282.819	96.69
283.051	83.69
283.282	91.69
283.513	104.69
283.745	88.69
283.976	96.69
284.207	86.69
284.439	84.69
284.67	72.69
284.901	93.69
285.132	87.69
285.364	95.69
285.595	76.69
285.826	90.69
286.057	92.69
286.288	89.69
286.52	87.69
286.751	88.69
286.982	89.69
287.213	69.69
287.444	88.69
287.675	73.69
287.906	80.69
288.138	87.69
288.369	77.69
288.6	82.69
288.831	89.69
289.062	85.69
289.293	71.69
289.524	94.69
289.755	80.69
289.986	95.69
290.217	82.69
290.448	74.69
290.679	89.69
290.91	89.69
291.141	85.69
291.371	71.69
291.602	81.69
291.833	64.69
292.064	87.69
292.295	73.69
292.526	88.69
292.757	74.69
292.987	93.69
293.218	82.69
293.449	102.69
293.68	88.69
293.91	90.69
294.141	75.69
294.372	82.69
294.603	72.69
294.833	86.69
295.064	78.69
295.295	84.69
295.525	102.69
295.756	84.69
295.987	82.69
296.217	92.69
296.448	76.69
296.679	74.69
296.909	83.69
297.14	89.69
297.37	75.69
297.601	90.69
297.831	99.69
298.062	82.69
298.292	73.69
298.523	80.69
298.753	81.69
298.984	88.69
299.214	82.69
299.445	82.69
299.675	76.69
299.905	91.69
300.136	82.69
300.366	88.69
300.597	81.69
300.827	77.69
301.057	76.69
301.288	72.69
301.518	67.69
301.748	77.69
301.979	78.69
302.209	86.69
302.439	80.69
302.669	91.69
302.9	79.69
303.13	91.69
303.36	87.69
303.59	75.69
303.82	81.69
304.051	82.69
304.281	99.69
304.511	94.69
304.741	76.69
304.971	83.69
305.201	90.69
305.431	82.69
305.661	98.69
305.891	90.69
306.121	82.69
306.352	88.69
306.582	91.69
306.812	90.69
307.042	80.69
307.272	85.69
307.502	85.69
307.731	75.69
307.961	72.69
308.191	85.69
308.421	86.69
308.651	84.69
308.881	93.69
309.111	86.69
309.341	93.69
309.571	76.69
309.8	93.69
310.03	78.69
310.26	71.69
310.49	82.69
310.72	89.69
310.949	97.69
311.179	91.69
311.409	81.69
311.639	83.69
311.868	84.69
312.098	77.69
312.328	84.69
312.557	94.69
312.787	76.69
313.017	79.69
313.246	82.69
313.476	80.69
313.706	102.69
313.935	87.69
314.165	95.69
314.394	86.69
314.624	93.69
314.853	95.69
315.083	80.69
315.312	90.69
315.542	99.69
315.771	79.69
316.001	93.69
316.23	71.69
316.46	73.69
316.689	99.69
316.919	68.69
317.148	91.69
317.377	88.69
317.607	78.69
317.836	89.69
318.065	89.69
318.295	81.69
318.524	91.69
318.753	84.69
318.983	81.69
319.212	79.69
319.441	76.69
319.67	95.69
319.9	90.69
320.129	86.69
320.358	72.69
320.587	86.69
320.816	89.69
321.046	93.69
321.275	82.69
321.504	88.69
321.733	90.69
321.962	66.69
322.191	76.69
322.42	78.69
322.649	79.69
322.878	86.69
323.108	72.69
323.337	78.69
323.566	91.69
323.795	92.69
324.024	89.69
324.253	88.69
324.482	83.69
324.71	92.69
324.939	93.69
325.168	84.69
325.397	89.69
325.626	68.69
325.855	85.69
326.084	76.69
326.313	87.69
326.542	98.69
326.77	75.69
326.999	84.69
327.228	89.69
327.457	87.69
327.686	81.69
327.914	90.69
328.143	75.69
328.372	73.69
328.6	89.69
328.829	86.69
329.058	74.69
329.287	85.69
329.515	83.69
329.744	89.69
329.972	70.69
330.201	86.69
330.43	85.69
330.658	82.69
330.887	92.69
331.115	84.69
331.344	92.69
331.572	90.69
331.801	96.69
332.03	76.69
332.258	80.69
332.486	77.69
332.715	83.69
332.943	79.69
333.172	86.69
333.4	79.69
333.629	81.69
333.857	75.69
334.085	101.69
334.314	76.69
334.542	73.69
334.771	74.69
334.999	88.69
335.227	90.69
335.455	86.69
335.684	82.69
335.912	83.69
336.14	85.69
336.369	85.69
336.597	81.69
336.825	76.69
337.053	79.69
337.281	78.69
337.51	91.69
337.738	78.69
337.966	96.69
338.194	75.69
338.422	75.69
338.65	91.69
338.878	91.69
339.106	79.69
339.334	74.69
339.562	76.69
339.79	84.69
340.018	84.69
340.246	83.69
340.474	90.69
340.702	94.69
340.93	84.69
341.158	81.69
341.386	94.69
341.614	86.69
341.842	91.69
342.07	92.69
342.298	106.69
342.526	99.69
342.754	91.69
342.981	94.69
343.209	80.69
343.437	79.69
343.665	72.69
343.893	72.69
344.12	94.69
344.348	73.69
344.576	80.69
344.804	78.69
345.031	75.69
345.259	80.69
345.487	85.69
345.714	87.69
345.942	82.69
346.17	96.69
346.397	81.69
346.625	87.69
346.853	87.69
347.08	79.69
347.308	91.69
347.535	78.69
347.763	87.69
347.99	63.69
348.218	86.69
348.445	83.69
348.673	88.69
348.9	87.69
349.128	77.69
349.355	88.69
349.583	88.69
349.81	84.69
350.037	91.69
350.265	81.69
350.492	79.69
350.72	81.69
350.947	75.69
351.174	84.69
351.402	91.69
351.629	83.69
351.856	86.69
352.083	89.69
352.311	82.69
352.538	80.69
352.765	94.69
352.992	75.69
353.22	87.69
353.447	76.69
353.674	78.69
353.901	72.69
354.128	105.69
354.355	68.69
354.583	80.69
354.81	93.69
355.037	86.69
355.264	76.69
355.491	74.69
355.718	82.69
355.945	86.69
356.172	89.69
356.399	91.69
356.626	78.69
356.853	70.69
357.08	79.69
357.307	80.69
357.534	88.69
357.761	81.69
357.988	78.69
358.215	103.69
358.441	96.69
358.668	96.69
358.895	81.69
359.122	88.69
359.349	86.69
359.576	75.69
359.802	86.69
360.029	73.69
360.256	84.69
360.483	76.69
360.709	82.69
360.936	94.69
361.163	83.69
361.39	88.69
361.616	85.69
361.843	58.69
362.07	76.69
362.296	85.69
362.523	79.69
362.749	95.69
362.976	83.69
363.203	88.69
363.429	72.69
363.656	81.69
363.882	76.69
364.109	76.69
364.335	80.69
364.562	95.69
364.788	77.69
365.015	79.69
365.241	81.69
365.468	94.69
365.694	93.69
365.92	82.69
366.147	71.69
366.373	84.69
366.599	90.69
366.826	90.69
367.052	80.69
367.278	87.69
367.505	90.69
367.731	98.69
367.957	75.69
368.184	83.69
368.41	79.69
368.636	84.69
368.862	84.69
369.089	88.69
369.315	89.69
369.541	83.69
369.767	85.69
369.993	79.69
370.219	89.69
370.445	100.69
370.672	74.69
370.898	77.69
371.124	91.69
371.35	81.69
371.576	77.69
371.802	82.69
372.028	90.69
372.254	99.69
372.48	75.69
372.706	88.69
372.932	84.69
373.158	79.69
373.384	98.69
373.61	97.69
373.835	96.69
374.061	74.69
374.287	82.69
374.513	74.69
374.739	87.69
374.965	70.69
375.191	84.69
375.416	90.69
375.642	78.69
375.868	63.69
376.094	96.69
376.319	96.69
376.545	87.69
376.771	105.69
376.997	91.69
377.222	73.69
377.448	89.69
377.674	79.69
377.899	84.69
378.125	88.69
378.35	84.69
378.576	70.69
378.802	86.69
379.027	90.69
379.253	104.69
379.478	88.69
379.704	85.69
379.929	76.69
380.155	85.69
380.38	86.69
380.606	80.69
380.831	90.69
381.057	88.69
381.282	96.69
381.507	83.69
381.733	90.69
381.958	77.69
382.184	92.69
382.409	86.69
382.634	84.69
382.86	88.69
383.085	69.69
383.31	92.69
383.535	84.69
383.761	95.69
383.986	78.69
384.211	76.69
384.436	92.69
384.662	80.69
384.887	92.69
385.112	89.69
385.337	83.69
385.562	86.69
385.787	81.69
386.013	86.69
386.238	72.69
386.463	91.69
386.688	80.69
386.913	85.69
387.138	96.69
387.363	77.69
387.588	100.69
387.813	97.69
388.038	84.69
388.263	84.69
388.488	81.69
388.713	79.69
388.938	92.69
389.163	87.69
389.387	83.69
389.612	83.69
389.837	98.69
390.062	83.69
390.287	105.69
390.512	86.69
390.736	81.69
390.961	83.69
391.186	74.69
391.411	82.69
391.636	87.69
391.86	84.69
392.085	92.69
392.31	89.69
392.534	86.69
392.759	88.69
392.984	85.69
393.208	91.69
393.433	90.69
393.658	81.69
393.882	82.69
394.107	87.69
394.331	90.69
394.556	72.69
394.78	90.69
395.005	78.69
395.229	72.69
395.454	74.69
395.678	95.69
395.903	74.69
396.127	92.69
396.352	86.69
396.576	86.69
396.801	90.69
397.025	94.69
397.249	92.69
397.474	101.69
397.698	87.69
397.922	84.69
398.147	82.69
398.371	91.69
398.595	104.69
398.82	89.69
399.044	92.69
399.268	78.69
399.492	86.69
399.717	85.69
399.941	95.69
400.165	86.69
400.389	91.69
400.613	87.69
400.837	80.69
401.062	91.69
401.286	77.69
401.51	90.69
401.734	92.69
401.958	91.69
402.182	104.69
402.406	68.69
402.63	95.69
402.854	78.69
403.078	82.69
403.302	91.69
403.526	98.69
403.75	96.69
403.974	90.69
404.198	87.69
404.422	95.69
404.645	95.69
404.869	99.69
405.093	92.69
405.317	96.69
405.541	90.69
405.765	85.69
405.988	82.69
406.212	90.69
406.436	96.69
406.66	98.69
406.883	87.69
407.107	84.69
407.331	92.69
407.555	82.69
407.778	94.69
408.002	79.69
408.226	77.69
408.449	78.69
408.673	88.69
408.896	80.69
409.12	84.69
409.344	90.69
409.567	91.69
409.791	83.69
410.014	76.69
410.238	93.69
410.461	83.69
410.685	90.69
410.908	94.69
411.132	89.69
411.355	83.69
411.578	90.69
411.802	90.69
412.025	94.69
412.249	85.69
412.472	83.69
412.695	85.69
412.919	90.69
413.142	97.69
413.365	78.69
413.589	84.69
413.812	90.69
414.035	79.69
414.258	98.69
414.482	96.69
414.705	90.69
414.928	87.69
415.151	91.69
415.374	88.69
415.597	93.69
415.821	107.69
416.044	80.69
416.267	96.69
416.49	106.69
416.713	89.69
416.936	97.69
417.159	83.69
417.382	85.69
417.605	77.69
417.828	103.69
418.051	96.69
418.274	102.69
418.497	96.69
418.72	98.69
418.943	106.69
419.166	107.69
419.389	91.69
419.611	90.69
419.834	108.69
420.057	95.69
420.28	102.69
420.503	76.69
420.726	95.69
420.948	102.69
421.171	97.69
421.394	87.69
421.617	84.69
421.839	79.69
422.062	86.69
422.285	83.69
422.507	90.69
422.73	93.69
422.953	88.69
423.175	87.69
423.398	96.69
423.621	92.69
423.843	88.69
424.066	90.69
424.288	89.69
424.511	90.69
424.733	112.69
424.956	98.69
425.178	84.69
425.401	81.69
425.623	100.69
425.846	84.69
426.068	78.69
426.291	87.69
426.513	81.69
426.735	100.69
426.958	104.69
427.18	94.69
427.402	94.69
427.625	95.69
427.847	106.69
428.069	86.69
428.292	86.69
428.514	70.69
428.736	101.69
428.958	99.69
429.181	94.69
429.403	97.69
429.625	82.69
429.847	97.69
430.069	89.69
430.292	86.69
430.514	79.69
430.736	93.69
430.958	91.69
431.18	84.69
431.402	98.69
431.624	86.69
431.846	81.69
432.068	95.69
432.29	77.69
432.512	91.69
432.734	100.69
432.956	89.69
433.178	88.69
433.4	95.69
433.622	94.69
433.844	94.69
434.066	84.69
434.287	97.69
434.509	80.69
434.731	76.69
434.953	74.69
435.175	95.69
435.397	90.69
435.618	89.69
435.84	91.69
436.062	90.69
436.284	87.69
436.505	90.69
436.727	100.69
436.949	89.69
437.17	102.69
437.392	81.69
437.614	86.69
437.835	94.69
438.057	104.69
438.278	93.69
438.5	99.69
438.721	90.69
438.943	104.69
439.165	91.69
439.386	80.69
439.608	97.69
439.829	99.69
440.05	102.69
440.272	102.69
440.493	83.69
440.715	94.69
440.936	100.69
441.158	85.69
441.379	104.69
441.6	105.69
441.822	103.69
442.043	94.69
442.264	104.69
442.486	83.69
442.707	86.69
442.928	104.69
443.149	101.69
443.371	91.69
443.592	116.69
443.813	91.69
444.034	94.69
444.255	99.69
444.476	90.69
444.698	104.69
444.919	102.69
445.14	185.69
445.361	136.69
445.582	94.69
445.803	80.69
446.024	100.69
446.245	99.69
446.466	91.69
446.687	106.69
446.908	96.69
447.129	91.69
447.35	106.69
447.571	89.69
447.792	98.69
448.013	99.69
448.234	117.69
448.455	114.69
448.675	102.69
448.896	89.69
449.117	91.69
449.338	94.69
449.559	91.69
449.779	98.69
450	98.69
450.221	97.69
450.442	96.69
450.662	92.69
450.883	81.69
451.104	104.69
451.324	103.69
451.545	87.69
451.766	87.69
451.986	93.69
452.207	85.69
452.428	88.69
452.648	94.69
452.869	91.69
453.089	100.69
453.31	76.69
453.53	97.69
453.751	91.69
453.971	100.69
454.192	92.69
454.412	75.69
454.633	89.69
454.853	92.69
455.073	106.69
455.294	100.69
455.514	102.69
455.734	97.69
455.955	89.69
456.175	85.69
456.395	81.69
456.616	94.69
456.836	92.69
457.056	99.69
457.276	82.69
457.497	97.69
457.717	90.69
457.937	84.69
458.157	86.69
458.377	86.69
458.598	86.69
458.818	91.69
459.038	69.69
459.258	76.69
459.478	75.69
459.698	78.69
459.918	73.69
460.138	81.69
460.358	81.69
460.578	103.69
460.798	89.69
461.018	82.69
461.238	95.69
461.458	95.69
461.678	92.69
461.898	81.69
462.118	78.69
462.338	87.69
462.558	105.69
462.777	94.69
462.997	89.69
463.217	88.69
463.437	92.69
463.657	101.69
463.876	76.69
464.096	84.69
464.316	94.69
464.536	79.69
464.755	86.69
464.975	94.69
465.195	86.69
465.414	81.69
465.634	78.69
465.854	85.69
466.073	77.69
466.293	94.69
466.512	100.69
466.732	100.69
466.951	103.69
467.171	88.69
467.391	87.69
467.61	83.69
467.829	103.69
468.049	98.69
468.268	103.69
468.488	83.69
468.707	73.69
468.927	90.69
469.146	83.69
469.365	100.69
469.585	94.69
469.804	77.69
470.023	112.69
470.243	108.69
470.462	99.69
470.681	97.69
470.901	95.69
471.12	83.69
471.339	103.69
471.558	96.69
471.777	95.69
471.997	99.69
472.216	94.69
472.435	90.69
472.654	93.69
472.873	96.69
473.092	88.69
473.311	89.69
473.53	81.69
473.749	98.69
473.968	102.69
474.187	108.69
474.406	113.69
474.625	76.69
474.844	95.69
475.063	101.69
475.282	97.69
475.501	92.69
475.72	93.69
475.939	91.69
476.158	102.69
476.377	92.69
476.596	91.69
476.814	89.69
477.033	86.69
477.252	68.69
477.471	80.69
477.69	92.69
477.908	81.69
478.127	94.69
478.346	94.69
478.564	105.69
478.783	101.69
479.002	92.69
479.22	106.69
479.439	99.69
479.658	96.69
479.876	83.69
480.095	83.69
480.313	90.69
480.532	86.69
480.751	89.69
480.969	83.69
481.188	83.69
481.406	79.69
481.624	78.69
481.843	78.69
482.061	104.69
482.28	94.69
482.498	95.69
482.717	89.69
482.935	92.69
483.153	98.69
483.372	104.69
483.59	111.69
483.808	105.69
484.027	97.69
484.245	105.69
484.463	103.69
484.681	102.69
484.9	96.69
485.118	82.69
485.336	93.69
485.554	102.69
485.772	74.69
485.99	78.69
486.209	71.69
486.427	77.69
486.645	74.69
486.863	86.69
487.081	98.69
487.299	88.69
487.517	115.69
487.735	116.69
487.953	118.69
488.171	116.69
488.389	119.69
488.607	101.69
488.825	103.69
489.043	102.69
489.261	99.69
489.479	99.69
489.696	96.69
489.914	94.69
490.132	118.69
490.35	114.69
490.568	98.69
490.786	111.69
491.003	116.69
491.221	97.69
491.439	122.69
491.657	115.69
491.874	131.69
492.092	125.69
492.31	132.69
492.527	114.69
492.745	128.69
492.963	116.69
493.18	118.69
493.398	111.69
493.615	96.69
493.833	122.69
494.05	118.69
494.268	102.69
494.485	111.69
494.703	111.69
494.92	91.69
495.138	105.69
495.355	118.69
495.573	102.69
495.79	117.69
496.008	116.69
496.225	103.69
496.442	110.69
496.66	119.69
496.877	96.69
497.094	109.69
497.312	120.69
497.529	101.69
497.746	98.69
497.963	106.69
498.181	97.69
498.398	91.69
498.615	100.69
498.832	91.69
499.049	101.69
499.267	85.69
499.484	103.69
499.701	91.69
499.918	88.69
500.135	111.69
500.352	93.69
500.569	101.69
500.786	89.69
501.003	100.69
501.22	83.69
501.437	113.69
501.654	102.69
501.871	98.69
502.088	75.69
502.305	106.69
502.522	96.69
502.739	100.69
502.956	87.69
503.172	96.69
503.389	87.69
503.606	87.69
503.823	94.69
504.04	89.69
504.256	91.69
504.473	100.69
504.69	84.69
504.907	106.69
505.123	95.69
505.34	94.69
505.557	103.69
505.773	100.69
505.99	89.69
506.207	91.69
506.423	97.69
506.64	83.69
506.856	88.69
507.073	106.69
507.289	80.69
507.506	88.69
507.722	107.69
507.939	88.69
508.155	90.69
508.372	89.69
508.588	84.69
508.805	100.69
509.021	89.69
509.238	93.69
509.454	81.69
509.67	97.69
509.887	92.69
510.103	84.69
510.319	77.69
510.536	76.69
510.752	81.69
510.968	81.69
511.184	83.69
511.401	96.69
511.617	82.69
511.833	71.69
512.049	100.69
512.265	93.69
512.481	86.69
512.698	91.69
512.914	88.69
513.13	88.69
513.346	79.69
513.562	80.69
513.778	86.69
513.994	91.69
514.21	85.69
514.426	101.69
514.642	97.69
514.858	93.69
515.074	82.69
515.29	83.69
515.506	81.69
515.721	82.69
515.937	86.69
516.153	94.69
516.369	84.69
516.585	96.69
516.801	84.69
517.016	90.69
517.232	91.69
517.448	96.69
