Data from Location3.07152019.Energy5.Lamp.07192019.3%Agarose_HRD10591_15-17-16-269.txt Node
Date: Fri Jul 19 15:17:16 EDT 2019
User: cochatt
Spectrometer: HR+D1059
Trigger mode: 1
Integration Time (sec): 1.000000E-1
Scans to average: 1
Electric dark correction enabled: true
Nonlinearity correction enabled: false
Boxcar width: 0
XAxis mode: Wavelengths
Number of Pixels in Spectrum: 2048
>>>>>Begin Spectral Data<<<<<
223.165	-15.5
223.4	-15.5
223.635	-15.5
223.869	-19.5
224.104	-19.5
224.338	-11.5
224.573	-24.5
224.808	-20.5
225.042	-5.5
225.277	6.5
225.511	-0.5
225.746	-3.5
225.98	-0.5
226.215	23.5
226.449	10.5
226.683	19.5
226.918	23.5
227.152	37.5
227.387	18.5
227.621	19.5
227.856	49.5
228.09	40.5
228.324	54.5
228.559	61.5
228.793	53.5
229.027	56.5
229.262	66.5
229.496	67.5
229.73	65.5
229.964	81.5
230.199	69.5
230.433	83.5
230.667	78.5
230.901	77.5
231.136	88.5
231.37	67.5
231.604	70.5
231.838	96.5
232.072	86.5
232.306	83.5
232.541	76.5
232.775	102.5
233.009	101.5
233.243	94.5
233.477	80.5
233.711	76.5
233.945	74.5
234.179	75.5
234.413	77.5
234.647	73.5
234.881	83.5
235.115	85.5
235.349	73.5
235.583	89.5
235.817	78.5
236.051	77.5
236.285	84.5
236.519	83.5
236.753	74.5
236.987	70.5
237.221	69.5
237.455	74.5
237.689	73.5
237.922	71.5
238.156	77.5
238.39	58.5
238.624	78.5
238.858	85.5
239.091	77.5
239.325	86.5
239.559	55.5
239.793	79.5
240.027	75.5
240.26	77.5
240.494	92.5
240.728	79.5
240.961	85.5
241.195	90.5
241.429	72.5
241.662	91.5
241.896	78.5
242.13	68.5
242.363	77.5
242.597	76.5
242.83	89.5
243.064	87.5
243.298	86.5
243.531	88.5
243.765	85.5
243.998	77.5
244.232	70.5
244.465	92.5
244.699	87.5
244.932	66.5
245.166	76.5
245.399	89.5
245.633	76.5
245.866	79.5
246.099	78.5
246.333	68.5
246.566	81.5
246.8	93.5
247.033	85.5
247.266	81.5
247.5	60.5
247.733	73.5
247.966	61.5
248.2	79.5
248.433	72.5
248.666	68.5
248.899	96.5
249.133	93.5
249.366	82.5
249.599	89.5
249.832	89.5
250.066	84.5
250.299	85.5
250.532	67.5
250.765	78.5
250.998	80.5
251.231	86.5
251.465	77.5
251.698	86.5
251.931	81.5
252.164	85.5
252.397	87.5
252.63	84.5
252.863	80.5
253.096	79.5
253.329	84.5
253.562	96.5
253.795	76.5
254.028	82.5
254.261	67.5
254.494	74.5
254.727	77.5
254.96	72.5
255.193	77.5
255.426	73.5
255.659	89.5
255.892	82.5
256.124	75.5
256.357	84.5
256.59	85.5
256.823	86.5
257.056	89.5
257.289	83.5
257.521	79.5
257.754	81.5
257.987	89.5
258.22	68.5
258.452	93.5
258.685	83.5
258.918	95.5
259.151	67.5
259.383	95.5
259.616	91.5
259.849	80.5
260.081	100.5
260.314	88.5
260.547	81.5
260.779	89.5
261.012	89.5
261.244	91.5
261.477	67.5
261.71	84.5
261.942	80.5
262.175	81.5
262.407	69.5
262.64	73.5
262.872	93.5
263.105	84.5
263.337	78.5
263.57	75.5
263.802	75.5
264.035	80.5
264.267	83.5
264.499	94.5
264.732	89.5
264.964	75.5
265.197	80.5
265.429	85.5
265.661	90.5
265.894	79.5
266.126	87.5
266.358	83.5
266.591	80.5
266.823	80.5
267.055	92.5
267.287	86.5
267.52	86.5
267.752	81.5
267.984	80.5
268.216	89.5
268.448	71.5
268.681	77.5
268.913	99.5
269.145	74.5
269.377	83.5
269.609	81.5
269.841	86.5
270.073	84.5
270.306	79.5
270.538	85.5
270.77	85.5
271.002	86.5
271.234	89.5
271.466	77.5
271.698	88.5
271.93	97.5
272.162	91.5
272.394	82.5
272.626	98.5
272.858	70.5
273.09	87.5
273.322	86.5
273.553	74.5
273.785	87.5
274.017	84.5
274.249	68.5
274.481	85.5
274.713	87.5
274.945	83.5
275.176	85.5
275.408	81.5
275.64	79.5
275.872	92.5
276.104	88.5
276.335	78.5
276.567	75.5
276.799	86.5
277.031	81.5
277.262	97.5
277.494	83.5
277.726	89.5
277.957	85.5
278.189	88.5
278.421	94.5
278.652	103.5
278.884	84.5
279.115	84.5
279.347	84.5
279.579	80.5
279.81	81.5
280.042	91.5
280.273	89.5
280.505	68.5
280.736	70.5
280.968	86.5
281.199	100.5
281.431	97.5
281.662	88.5
281.894	81.5
282.125	79.5
282.356	76.5
282.588	90.5
282.819	88.5
283.051	88.5
283.282	88.5
283.513	86.5
283.745	76.5
283.976	87.5
284.207	84.5
284.439	76.5
284.67	88.5
284.901	76.5
285.132	86.5
285.364	69.5
285.595	95.5
285.826	82.5
286.057	93.5
286.288	89.5
286.52	81.5
286.751	70.5
286.982	88.5
287.213	88.5
287.444	73.5
287.675	88.5
287.906	77.5
288.138	85.5
288.369	84.5
288.6	81.5
288.831	90.5
289.062	91.5
289.293	91.5
289.524	81.5
289.755	83.5
289.986	77.5
290.217	93.5
290.448	90.5
290.679	90.5
290.91	83.5
291.141	95.5
291.371	81.5
291.602	83.5
291.833	91.5
292.064	77.5
292.295	90.5
292.526	88.5
292.757	82.5
292.987	64.5
293.218	100.5
293.449	74.5
293.68	79.5
293.91	80.5
294.141	80.5
294.372	88.5
294.603	96.5
294.833	89.5
295.064	78.5
295.295	88.5
295.525	88.5
295.756	85.5
295.987	97.5
296.217	98.5
296.448	90.5
296.679	74.5
296.909	79.5
297.14	97.5
297.37	99.5
297.601	77.5
297.831	73.5
298.062	77.5
298.292	73.5
298.523	89.5
298.753	84.5
298.984	103.5
299.214	100.5
299.445	89.5
299.675	92.5
299.905	88.5
300.136	82.5
300.366	89.5
300.597	80.5
300.827	75.5
301.057	74.5
301.288	88.5
301.518	78.5
301.748	91.5
301.979	89.5
302.209	86.5
302.439	94.5
302.669	77.5
302.9	80.5
303.13	81.5
303.36	94.5
303.59	83.5
303.82	83.5
304.051	92.5
304.281	85.5
304.511	87.5
304.741	82.5
304.971	70.5
305.201	84.5
305.431	80.5
305.661	73.5
305.891	84.5
306.121	74.5
306.352	63.5
306.582	95.5
306.812	78.5
307.042	78.5
307.272	94.5
307.502	78.5
307.731	106.5
307.961	97.5
308.191	83.5
308.421	85.5
308.651	79.5
308.881	73.5
309.111	87.5
309.341	73.5
309.571	79.5
309.8	84.5
310.03	79.5
310.26	67.5
310.49	77.5
310.72	80.5
310.949	81.5
311.179	82.5
311.409	95.5
311.639	90.5
311.868	91.5
312.098	75.5
312.328	88.5
312.557	83.5
312.787	99.5
313.017	84.5
313.246	90.5
313.476	80.5
313.706	94.5
313.935	76.5
314.165	87.5
314.394	85.5
314.624	83.5
314.853	86.5
315.083	91.5
315.312	78.5
315.542	99.5
315.771	86.5
316.001	95.5
316.23	76.5
316.46	78.5
316.689	75.5
316.919	88.5
317.148	89.5
317.377	92.5
317.607	74.5
317.836	89.5
318.065	100.5
318.295	87.5
318.524	85.5
318.753	81.5
318.983	88.5
319.212	93.5
319.441	78.5
319.67	97.5
319.9	79.5
320.129	78.5
320.358	91.5
320.587	66.5
320.816	78.5
321.046	84.5
321.275	79.5
321.504	74.5
321.733	87.5
321.962	94.5
322.191	83.5
322.42	79.5
322.649	86.5
322.878	73.5
323.108	85.5
323.337	83.5
323.566	94.5
323.795	82.5
324.024	95.5
324.253	76.5
324.482	86.5
324.71	89.5
324.939	104.5
325.168	90.5
325.397	84.5
325.626	91.5
325.855	77.5
326.084	97.5
326.313	85.5
326.542	90.5
326.77	90.5
326.999	86.5
327.228	71.5
327.457	78.5
327.686	81.5
327.914	92.5
328.143	84.5
328.372	80.5
328.6	93.5
328.829	88.5
329.058	92.5
329.287	81.5
329.515	95.5
329.744	62.5
329.972	78.5
330.201	79.5
330.43	93.5
330.658	91.5
330.887	84.5
331.115	76.5
331.344	96.5
331.572	83.5
331.801	89.5
332.03	77.5
332.258	84.5
332.486	81.5
332.715	76.5
332.943	83.5
333.172	79.5
333.4	88.5
333.629	94.5
333.857	88.5
334.085	84.5
334.314	64.5
334.542	93.5
334.771	90.5
334.999	87.5
335.227	67.5
335.455	76.5
335.684	81.5
335.912	83.5
336.14	81.5
336.369	83.5
336.597	95.5
336.825	84.5
337.053	92.5
337.281	84.5
337.51	88.5
337.738	79.5
337.966	84.5
338.194	86.5
338.422	77.5
338.65	81.5
338.878	100.5
339.106	75.5
339.334	83.5
339.562	87.5
339.79	89.5
340.018	83.5
340.246	103.5
340.474	87.5
340.702	85.5
340.93	80.5
341.158	95.5
341.386	81.5
341.614	92.5
341.842	92.5
342.07	87.5
342.298	82.5
342.526	84.5
342.754	88.5
342.981	87.5
343.209	77.5
343.437	87.5
343.665	68.5
343.893	92.5
344.12	91.5
344.348	81.5
344.576	91.5
344.804	69.5
345.031	81.5
345.259	80.5
345.487	90.5
345.714	77.5
345.942	86.5
346.17	78.5
346.397	81.5
346.625	94.5
346.853	73.5
347.08	101.5
347.308	82.5
347.535	80.5
347.763	83.5
347.99	78.5
348.218	83.5
348.445	77.5
348.673	82.5
348.9	84.5
349.128	79.5
349.355	74.5
349.583	91.5
349.81	81.5
350.037	99.5
350.265	86.5
350.492	70.5
350.72	79.5
350.947	82.5
351.174	89.5
351.402	88.5
351.629	100.5
351.856	83.5
352.083	93.5
352.311	90.5
352.538	84.5
352.765	88.5
352.992	82.5
353.22	88.5
353.447	92.5
353.674	78.5
353.901	93.5
354.128	81.5
354.355	87.5
354.583	87.5
354.81	80.5
355.037	95.5
355.264	88.5
355.491	88.5
355.718	84.5
355.945	82.5
356.172	90.5
356.399	80.5
356.626	86.5
356.853	66.5
357.08	92.5
357.307	85.5
357.534	94.5
357.761	92.5
357.988	86.5
358.215	95.5
358.441	75.5
358.668	85.5
358.895	85.5
359.122	96.5
359.349	93.5
359.576	81.5
359.802	89.5
360.029	85.5
360.256	87.5
360.483	77.5
360.709	83.5
360.936	91.5
361.163	85.5
361.39	88.5
361.616	86.5
361.843	75.5
362.07	93.5
362.296	83.5
362.523	107.5
362.749	82.5
362.976	89.5
363.203	91.5
363.429	77.5
363.656	89.5
363.882	82.5
364.109	79.5
364.335	91.5
364.562	76.5
364.788	86.5
365.015	82.5
365.241	85.5
365.468	90.5
365.694	78.5
365.92	84.5
366.147	77.5
366.373	88.5
366.599	92.5
366.826	77.5
367.052	75.5
367.278	80.5
367.505	88.5
367.731	78.5
367.957	82.5
368.184	91.5
368.41	84.5
368.636	89.5
368.862	97.5
369.089	94.5
369.315	80.5
369.541	95.5
369.767	74.5
369.993	74.5
370.219	85.5
370.445	90.5
370.672	79.5
370.898	74.5
371.124	81.5
371.35	78.5
371.576	88.5
371.802	87.5
372.028	96.5
372.254	81.5
372.48	89.5
372.706	85.5
372.932	95.5
373.158	83.5
373.384	91.5
373.61	102.5
373.835	87.5
374.061	92.5
374.287	82.5
374.513	83.5
374.739	78.5
374.965	77.5
375.191	85.5
375.416	76.5
375.642	95.5
375.868	80.5
376.094	87.5
376.319	89.5
376.545	87.5
376.771	92.5
376.997	86.5
377.222	102.5
377.448	94.5
377.674	107.5
377.899	96.5
378.125	70.5
378.35	83.5
378.576	80.5
378.802	82.5
379.027	83.5
379.253	78.5
379.478	85.5
379.704	99.5
379.929	70.5
380.155	86.5
380.38	95.5
380.606	77.5
380.831	83.5
381.057	96.5
381.282	73.5
381.507	85.5
381.733	90.5
381.958	84.5
382.184	88.5
382.409	91.5
382.634	84.5
382.86	79.5
383.085	96.5
383.31	81.5
383.535	86.5
383.761	89.5
383.986	93.5
384.211	87.5
384.436	74.5
384.662	72.5
384.887	79.5
385.112	78.5
385.337	96.5
385.562	89.5
385.787	75.5
386.013	96.5
386.238	77.5
386.463	77.5
386.688	70.5
386.913	93.5
387.138	83.5
387.363	87.5
387.588	95.5
387.813	84.5
388.038	89.5
388.263	77.5
388.488	80.5
388.713	92.5
388.938	88.5
389.163	95.5
389.387	91.5
389.612	86.5
389.837	86.5
390.062	89.5
390.287	79.5
390.512	81.5
390.736	93.5
390.961	71.5
391.186	100.5
391.411	83.5
391.636	85.5
391.86	98.5
392.085	80.5
392.31	88.5
392.534	82.5
392.759	92.5
392.984	78.5
393.208	83.5
393.433	91.5
393.658	92.5
393.882	83.5
394.107	80.5
394.331	88.5
394.556	101.5
394.78	86.5
395.005	86.5
395.229	83.5
395.454	85.5
395.678	87.5
395.903	89.5
396.127	91.5
396.352	96.5
396.576	86.5
396.801	104.5
397.025	100.5
397.249	99.5
397.474	93.5
397.698	90.5
397.922	92.5
398.147	97.5
398.371	87.5
398.595	101.5
398.82	91.5
399.044	93.5
399.268	100.5
399.492	90.5
399.717	97.5
399.941	81.5
400.165	82.5
400.389	87.5
400.613	86.5
400.837	85.5
401.062	97.5
401.286	84.5
401.51	73.5
401.734	95.5
401.958	93.5
402.182	91.5
402.406	92.5
402.63	85.5
402.854	95.5
403.078	96.5
403.302	84.5
403.526	87.5
403.75	91.5
403.974	96.5
404.198	82.5
404.422	91.5
404.645	83.5
404.869	85.5
405.093	72.5
405.317	83.5
405.541	86.5
405.765	92.5
405.988	90.5
406.212	101.5
406.436	94.5
406.66	95.5
406.883	88.5
407.107	84.5
407.331	94.5
407.555	96.5
407.778	96.5
408.002	105.5
408.226	98.5
408.449	79.5
408.673	92.5
408.896	93.5
409.12	73.5
409.344	95.5
409.567	98.5
409.791	90.5
410.014	92.5
410.238	71.5
410.461	87.5
410.685	81.5
410.908	111.5
411.132	84.5
411.355	100.5
411.578	92.5
411.802	103.5
412.025	93.5
412.249	96.5
412.472	90.5
412.695	92.5
412.919	88.5
413.142	101.5
413.365	88.5
413.589	95.5
413.812	91.5
414.035	76.5
414.258	77.5
414.482	91.5
414.705	83.5
414.928	100.5
415.151	88.5
415.374	87.5
415.597	100.5
415.821	92.5
416.044	98.5
416.267	98.5
416.49	82.5
416.713	91.5
416.936	98.5
417.159	87.5
417.382	84.5
417.605	99.5
417.828	86.5
418.051	96.5
418.274	104.5
418.497	103.5
418.72	99.5
418.943	98.5
419.166	88.5
419.389	96.5
419.611	87.5
419.834	95.5
420.057	94.5
420.28	90.5
420.503	88.5
420.726	95.5
420.948	87.5
421.171	91.5
421.394	95.5
421.617	101.5
421.839	95.5
422.062	112.5
422.285	103.5
422.507	85.5
422.73	87.5
422.953	97.5
423.175	87.5
423.398	84.5
423.621	104.5
423.843	97.5
424.066	85.5
424.288	108.5
424.511	86.5
424.733	109.5
424.956	112.5
425.178	91.5
425.401	110.5
425.623	92.5
425.846	91.5
426.068	99.5
426.291	102.5
426.513	98.5
426.735	100.5
426.958	93.5
427.18	93.5
427.402	104.5
427.625	101.5
427.847	103.5
428.069	103.5
428.292	87.5
428.514	88.5
428.736	102.5
428.958	88.5
429.181	87.5
429.403	77.5
429.625	99.5
429.847	104.5
430.069	91.5
430.292	115.5
430.514	101.5
430.736	96.5
430.958	85.5
431.18	86.5
431.402	94.5
431.624	93.5
431.846	96.5
432.068	83.5
432.29	94.5
432.512	96.5
432.734	93.5
432.956	106.5
433.178	100.5
433.4	99.5
433.622	112.5
433.844	88.5
434.066	84.5
434.287	71.5
434.509	93.5
434.731	86.5
434.953	83.5
435.175	106.5
435.397	94.5
435.618	90.5
435.84	90.5
436.062	91.5
436.284	89.5
436.505	92.5
436.727	98.5
436.949	95.5
437.17	82.5
437.392	101.5
437.614	102.5
437.835	100.5
438.057	97.5
438.278	90.5
438.5	87.5
438.721	102.5
438.943	94.5
439.165	89.5
439.386	98.5
439.608	83.5
439.829	81.5
440.05	95.5
440.272	112.5
440.493	88.5
440.715	119.5
440.936	100.5
441.158	104.5
441.379	96.5
441.6	97.5
441.822	95.5
442.043	102.5
442.264	81.5
442.486	103.5
442.707	105.5
442.928	90.5
443.149	110.5
443.371	108.5
443.592	113.5
443.813	107.5
444.034	77.5
444.255	101.5
444.476	99.5
444.698	93.5
444.919	100.5
445.14	218.5
445.361	143.5
445.582	102.5
445.803	111.5
446.024	91.5
446.245	93.5
446.466	114.5
446.687	91.5
446.908	102.5
447.129	114.5
447.35	91.5
447.571	99.5
447.792	99.5
448.013	88.5
448.234	98.5
448.455	95.5
448.675	92.5
448.896	102.5
449.117	100.5
449.338	89.5
449.559	108.5
449.779	90.5
450	95.5
450.221	104.5
450.442	107.5
450.662	89.5
450.883	108.5
451.104	95.5
451.324	104.5
451.545	107.5
451.766	105.5
451.986	99.5
452.207	98.5
452.428	104.5
452.648	81.5
452.869	104.5
453.089	103.5
453.31	90.5
453.53	92.5
453.751	101.5
453.971	87.5
454.192	86.5
454.412	95.5
454.633	99.5
454.853	88.5
455.073	80.5
455.294	93.5
455.514	89.5
455.734	96.5
455.955	85.5
456.175	85.5
456.395	83.5
456.616	83.5
456.836	76.5
457.056	98.5
457.276	83.5
457.497	95.5
457.717	99.5
457.937	98.5
458.157	91.5
458.377	92.5
458.598	91.5
458.818	90.5
459.038	96.5
459.258	95.5
459.478	90.5
459.698	77.5
459.918	82.5
460.138	88.5
460.358	99.5
460.578	92.5
460.798	83.5
461.018	87.5
461.238	98.5
461.458	101.5
461.678	88.5
461.898	94.5
462.118	95.5
462.338	86.5
462.558	87.5
462.777	99.5
462.997	83.5
463.217	84.5
463.437	94.5
463.657	85.5
463.876	81.5
464.096	84.5
464.316	86.5
464.536	94.5
464.755	99.5
464.975	72.5
465.195	103.5
465.414	95.5
465.634	90.5
465.854	94.5
466.073	93.5
466.293	87.5
466.512	88.5
466.732	105.5
466.951	82.5
467.171	93.5
467.391	101.5
467.61	96.5
467.829	90.5
468.049	93.5
468.268	106.5
468.488	98.5
468.707	86.5
468.927	89.5
469.146	108.5
469.365	85.5
469.585	105.5
469.804	108.5
470.023	94.5
470.243	102.5
470.462	106.5
470.681	97.5
470.901	98.5
471.12	96.5
471.339	95.5
471.558	92.5
471.777	100.5
471.997	106.5
472.216	83.5
472.435	96.5
472.654	84.5
472.873	80.5
473.092	100.5
473.311	103.5
473.53	97.5
473.749	92.5
473.968	102.5
474.187	92.5
474.406	105.5
474.625	97.5
474.844	88.5
475.063	86.5
475.282	102.5
475.501	101.5
475.72	103.5
475.939	90.5
476.158	97.5
476.377	96.5
476.596	96.5
476.814	87.5
477.033	84.5
477.252	88.5
477.471	96.5
477.69	94.5
477.908	98.5
478.127	116.5
478.346	97.5
478.564	81.5
478.783	89.5
479.002	113.5
479.22	113.5
479.439	105.5
479.658	81.5
479.876	87.5
480.095	87.5
480.313	82.5
480.532	94.5
480.751	97.5
480.969	90.5
481.188	80.5
481.406	80.5
481.624	93.5
481.843	95.5
482.061	90.5
482.28	105.5
482.498	82.5
482.717	80.5
482.935	92.5
483.153	95.5
483.372	101.5
483.59	104.5
483.808	99.5
484.027	104.5
484.245	96.5
484.463	100.5
484.681	96.5
484.9	98.5
485.118	109.5
485.336	95.5
485.554	97.5
485.772	97.5
485.99	91.5
486.209	91.5
486.427	82.5
486.645	90.5
486.863	76.5
487.081	107.5
487.299	103.5
487.517	96.5
487.735	101.5
487.953	101.5
488.171	105.5
488.389	90.5
488.607	100.5
488.825	108.5
489.043	101.5
489.261	95.5
489.479	84.5
489.696	99.5
489.914	108.5
490.132	93.5
490.35	107.5
490.568	98.5
490.786	106.5
491.003	103.5
491.221	106.5
491.439	105.5
491.657	116.5
491.874	130.5
492.092	129.5
492.31	127.5
492.527	135.5
492.745	124.5
492.963	119.5
493.18	125.5
493.398	122.5
493.615	122.5
493.833	116.5
494.05	107.5
494.268	114.5
494.485	101.5
494.703	106.5
494.92	117.5
495.138	87.5
495.355	109.5
495.573	119.5
495.79	108.5
496.008	95.5
496.225	97.5
496.442	97.5
496.66	121.5
496.877	107.5
497.094	109.5
497.312	117.5
497.529	103.5
497.746	95.5
497.963	97.5
498.181	98.5
498.398	104.5
498.615	88.5
498.832	87.5
499.049	103.5
499.267	94.5
499.484	88.5
499.701	87.5
499.918	102.5
500.135	88.5
500.352	111.5
500.569	105.5
500.786	108.5
501.003	89.5
501.22	95.5
501.437	103.5
501.654	86.5
501.871	97.5
502.088	95.5
502.305	102.5
502.522	96.5
502.739	93.5
502.956	97.5
503.172	110.5
503.389	91.5
503.606	104.5
503.823	91.5
504.04	107.5
504.256	92.5
504.473	90.5
504.69	87.5
504.907	91.5
505.123	84.5
505.34	94.5
505.557	87.5
505.773	104.5
505.99	93.5
506.207	85.5
506.423	100.5
506.64	91.5
506.856	108.5
507.073	107.5
507.289	104.5
507.506	87.5
507.722	96.5
507.939	105.5
508.155	88.5
508.372	103.5
508.588	86.5
508.805	104.5
509.021	96.5
509.238	109.5
509.454	80.5
509.67	99.5
509.887	87.5
510.103	93.5
510.319	86.5
510.536	99.5
510.752	75.5
510.968	87.5
511.184	83.5
511.401	82.5
511.617	93.5
511.833	81.5
512.049	88.5
512.265	88.5
512.481	93.5
512.698	85.5
512.914	98.5
513.13	97.5
513.346	97.5
513.562	96.5
513.778	96.5
513.994	83.5
514.21	86.5
514.426	81.5
514.642	89.5
514.858	91.5
515.074	92.5
515.29	67.5
515.506	88.5
515.721	101.5
515.937	96.5
516.153	79.5
516.369	83.5
516.585	80.5
516.801	83.5
517.016	91.5
517.232	79.5
517.448	85.5
517.664	85.5
517.879	89.5
518.095	98.5
518.311	95.5
518.527	91.5
518.742	105.5
518.958	87.5
519.173	87.5
519.389	82.5
519.605	102.5
519.82	111.5
520.036	96.5
520.251	102.5
520.467	87.5
520.682	89.5
520.898	82.5
521.113	87.5
521.329	96.5
521.544	83.5
521.76	75.5
521.975	81.5
522.19	95.5
522.406	88.5
522.621	86.5
522.836	94.5
523.052	77.5
523.267	88.5
523.482	88.5
523.698	86.5
523.913	99.5
524.128	82.5
524.343	100.5
524.559	98.5
524.774	92.5
524.989	91.5
525.204	101.5
525.419	98.5
525.634	91.5
525.849	104.5
526.064	88.5
526.28	94.5
526.495	88.5
526.71	90.5
526.925	95.5
527.14	80.5
527.355	83.5
527.57	85.5
527.785	88.5
527.999	74.5
528.214	88.5
528.429	95.5
528.644	84.5
528.859	106.5
529.074	95.5
529.289	102.5
529.503	106.5
529.718	101.5
529.933	113.5
530.148	93.5
530.363	96.5
530.577	81.5
530.792	84.5
531.007	90.5
531.221	80.5
531.436	88.5
531.651	95.5
531.865	86.5
532.08	83.5
532.295	88.5
532.509	80.5
532.724	85.5
532.938	81.5
533.153	88.5
533.367	89.5
533.582	84.5
533.796	97.5
534.011	89.5
534.225	103.5
534.44	81.5
534.654	86.5
534.868	95.5
535.083	88.5
535.297	92.5
535.511	90.5
535.726	98.5
535.94	96.5
536.154	88.5
536.369	85.5
536.583	84.5
536.797	92.5
