Data from Location3.07152019.Energy5.Lamp.07192019.3%Agarose_HRD10591_15-19-40-270.txt Node
Date: Fri Jul 19 15:19:40 EDT 2019
User: cochatt
Spectrometer: HR+D1059
Trigger mode: 1
Integration Time (sec): 1.000000E-1
Scans to average: 1
Electric dark correction enabled: true
Nonlinearity correction enabled: false
Boxcar width: 0
XAxis mode: Wavelengths
Number of Pixels in Spectrum: 2048
>>>>>Begin Spectral Data<<<<<
223.165	-5.38
223.4	-5.38
223.635	-5.38
223.869	-18.38
224.104	-25.38
224.338	-10.38
224.573	-16.38
224.808	-7.38
225.042	0.62
225.277	-9.38
225.511	-4.38
225.746	6.62
225.98	8.62
226.215	1.62
226.449	16.62
226.683	8.62
226.918	18.62
227.152	35.62
227.387	40.62
227.621	43.62
227.856	50.62
228.09	46.62
228.324	55.62
228.559	55.62
228.793	61.62
229.027	66.62
229.262	57.62
229.496	61.62
229.73	65.62
229.964	63.62
230.199	75.62
230.433	82.62
230.667	78.62
230.901	69.62
231.136	76.62
231.37	78.62
231.604	59.62
231.838	78.62
232.072	91.62
232.306	72.62
232.541	73.62
232.775	82.62
233.009	72.62
233.243	72.62
233.477	83.62
233.711	82.62
233.945	59.62
234.179	75.62
234.413	70.62
234.647	75.62
234.881	82.62
235.115	88.62
235.349	81.62
235.583	95.62
235.817	76.62
236.051	89.62
236.285	83.62
236.519	76.62
236.753	88.62
236.987	80.62
237.221	80.62
237.455	83.62
237.689	97.62
237.922	73.62
238.156	91.62
238.39	82.62
238.624	64.62
238.858	68.62
239.091	89.62
239.325	76.62
239.559	91.62
239.793	103.62
240.027	80.62
240.26	69.62
240.494	71.62
240.728	77.62
240.961	80.62
241.195	75.62
241.429	82.62
241.662	85.62
241.896	85.62
242.13	85.62
242.363	75.62
242.597	74.62
242.83	92.62
243.064	68.62
243.298	76.62
243.531	79.62
243.765	80.62
243.998	64.62
244.232	86.62
244.465	92.62
244.699	76.62
244.932	75.62
245.166	79.62
245.399	71.62
245.633	90.62
245.866	72.62
246.099	79.62
246.333	84.62
246.566	75.62
246.8	74.62
247.033	82.62
247.266	66.62
247.5	86.62
247.733	69.62
247.966	93.62
248.2	76.62
248.433	76.62
248.666	79.62
248.899	79.62
249.133	75.62
249.366	80.62
249.599	73.62
249.832	76.62
250.066	76.62
250.299	87.62
250.532	74.62
250.765	78.62
250.998	78.62
251.231	79.62
251.465	77.62
251.698	74.62
251.931	73.62
252.164	86.62
252.397	86.62
252.63	72.62
252.863	91.62
253.096	78.62
253.329	73.62
253.562	76.62
253.795	64.62
254.028	75.62
254.261	74.62
254.494	87.62
254.727	78.62
254.96	86.62
255.193	89.62
255.426	72.62
255.659	88.62
255.892	71.62
256.124	87.62
256.357	81.62
256.59	76.62
256.823	75.62
257.056	81.62
257.289	84.62
257.521	75.62
257.754	83.62
257.987	68.62
258.22	73.62
258.452	97.62
258.685	91.62
258.918	83.62
259.151	85.62
259.383	80.62
259.616	78.62
259.849	66.62
260.081	78.62
260.314	79.62
260.547	78.62
260.779	81.62
261.012	91.62
261.244	89.62
261.477	90.62
261.71	80.62
261.942	95.62
262.175	75.62
262.407	69.62
262.64	73.62
262.872	63.62
263.105	80.62
263.337	68.62
263.57	88.62
263.802	82.62
264.035	75.62
264.267	85.62
264.499	84.62
264.732	90.62
264.964	90.62
265.197	87.62
265.429	97.62
265.661	85.62
265.894	95.62
266.126	85.62
266.358	90.62
266.591	81.62
266.823	78.62
267.055	87.62
267.287	95.62
267.52	76.62
267.752	91.62
267.984	75.62
268.216	85.62
268.448	76.62
268.681	76.62
268.913	75.62
269.145	89.62
269.377	82.62
269.609	85.62
269.841	80.62
270.073	88.62
270.306	92.62
270.538	91.62
270.77	90.62
271.002	66.62
271.234	88.62
271.466	86.62
271.698	89.62
271.93	90.62
272.162	85.62
272.394	88.62
272.626	82.62
272.858	87.62
273.09	80.62
273.322	91.62
273.553	72.62
273.785	68.62
274.017	89.62
274.249	81.62
274.481	86.62
274.713	79.62
274.945	83.62
275.176	77.62
275.408	94.62
275.64	93.62
275.872	76.62
276.104	83.62
276.335	86.62
276.567	74.62
276.799	74.62
277.031	85.62
277.262	65.62
277.494	77.62
277.726	91.62
277.957	80.62
278.189	88.62
278.421	75.62
278.652	79.62
278.884	71.62
279.115	87.62
279.347	78.62
279.579	83.62
279.81	82.62
280.042	85.62
280.273	84.62
280.505	85.62
280.736	88.62
280.968	89.62
281.199	96.62
281.431	79.62
281.662	81.62
281.894	85.62
282.125	91.62
282.356	77.62
282.588	78.62
282.819	83.62
283.051	82.62
283.282	71.62
283.513	94.62
283.745	80.62
283.976	82.62
284.207	83.62
284.439	84.62
284.67	85.62
284.901	79.62
285.132	78.62
285.364	85.62
285.595	74.62
285.826	95.62
286.057	90.62
286.288	84.62
286.52	85.62
286.751	84.62
286.982	84.62
287.213	78.62
287.444	80.62
287.675	87.62
287.906	89.62
288.138	90.62
288.369	74.62
288.6	73.62
288.831	91.62
289.062	89.62
289.293	87.62
289.524	90.62
289.755	91.62
289.986	88.62
290.217	84.62
290.448	71.62
290.679	88.62
290.91	96.62
291.141	83.62
291.371	72.62
291.602	80.62
291.833	72.62
292.064	107.62
292.295	81.62
292.526	85.62
292.757	87.62
292.987	85.62
293.218	93.62
293.449	92.62
293.68	75.62
293.91	94.62
294.141	77.62
294.372	79.62
294.603	83.62
294.833	83.62
295.064	90.62
295.295	87.62
295.525	91.62
295.756	86.62
295.987	79.62
296.217	78.62
296.448	74.62
296.679	98.62
296.909	99.62
297.14	94.62
297.37	80.62
297.601	79.62
297.831	79.62
298.062	89.62
298.292	85.62
298.523	74.62
298.753	86.62
298.984	96.62
299.214	81.62
299.445	81.62
299.675	97.62
299.905	96.62
300.136	86.62
300.366	94.62
300.597	86.62
300.827	76.62
301.057	79.62
301.288	91.62
301.518	76.62
301.748	87.62
301.979	82.62
302.209	90.62
302.439	92.62
302.669	79.62
302.9	86.62
303.13	78.62
303.36	77.62
303.59	91.62
303.82	104.62
304.051	92.62
304.281	95.62
304.511	83.62
304.741	86.62
304.971	76.62
305.201	84.62
305.431	80.62
305.661	83.62
305.891	89.62
306.121	79.62
306.352	85.62
306.582	95.62
306.812	90.62
307.042	71.62
307.272	85.62
307.502	84.62
307.731	89.62
307.961	83.62
308.191	80.62
308.421	82.62
308.651	71.62
308.881	89.62
309.111	88.62
309.341	91.62
309.571	80.62
309.8	80.62
310.03	77.62
310.26	88.62
310.49	87.62
310.72	84.62
310.949	79.62
311.179	94.62
311.409	92.62
311.639	87.62
311.868	96.62
312.098	104.62
312.328	65.62
312.557	87.62
312.787	82.62
313.017	85.62
313.246	94.62
313.476	82.62
313.706	108.62
313.935	83.62
314.165	82.62
314.394	103.62
314.624	83.62
314.853	82.62
315.083	83.62
315.312	86.62
315.542	76.62
315.771	94.62
316.001	95.62
316.23	82.62
316.46	85.62
316.689	98.62
316.919	80.62
317.148	84.62
317.377	80.62
317.607	79.62
317.836	87.62
318.065	87.62
318.295	90.62
318.524	76.62
318.753	79.62
318.983	65.62
319.212	87.62
319.441	78.62
319.67	81.62
319.9	88.62
320.129	93.62
320.358	91.62
320.587	87.62
320.816	103.62
321.046	73.62
321.275	95.62
321.504	75.62
321.733	83.62
321.962	104.62
322.191	83.62
322.42	81.62
322.649	75.62
322.878	79.62
323.108	87.62
323.337	82.62
323.566	80.62
323.795	86.62
324.024	81.62
324.253	81.62
324.482	103.62
324.71	78.62
324.939	87.62
325.168	102.62
325.397	92.62
325.626	76.62
325.855	94.62
326.084	80.62
326.313	82.62
326.542	92.62
326.77	88.62
326.999	87.62
327.228	79.62
327.457	87.62
327.686	84.62
327.914	83.62
328.143	87.62
328.372	87.62
328.6	87.62
328.829	96.62
329.058	83.62
329.287	72.62
329.515	93.62
329.744	81.62
329.972	87.62
330.201	89.62
330.43	80.62
330.658	78.62
330.887	86.62
331.115	87.62
331.344	95.62
331.572	77.62
331.801	75.62
332.03	86.62
332.258	82.62
332.486	82.62
332.715	81.62
332.943	82.62
333.172	77.62
333.4	93.62
333.629	94.62
333.857	72.62
334.085	80.62
334.314	93.62
334.542	82.62
334.771	90.62
334.999	83.62
335.227	72.62
335.455	88.62
335.684	87.62
335.912	81.62
336.14	78.62
336.369	90.62
336.597	72.62
336.825	80.62
337.053	80.62
337.281	88.62
337.51	81.62
337.738	86.62
337.966	102.62
338.194	97.62
338.422	79.62
338.65	64.62
338.878	83.62
339.106	90.62
339.334	78.62
339.562	87.62
339.79	81.62
340.018	97.62
340.246	82.62
340.474	91.62
340.702	89.62
340.93	80.62
341.158	84.62
341.386	85.62
341.614	88.62
341.842	88.62
342.07	82.62
342.298	94.62
342.526	65.62
342.754	80.62
342.981	79.62
343.209	100.62
343.437	83.62
343.665	86.62
343.893	68.62
344.12	94.62
344.348	76.62
344.576	95.62
344.804	83.62
345.031	82.62
345.259	93.62
345.487	84.62
345.714	93.62
345.942	78.62
346.17	84.62
346.397	81.62
346.625	68.62
346.853	86.62
347.08	80.62
347.308	74.62
347.535	71.62
347.763	69.62
347.99	92.62
348.218	91.62
348.445	81.62
348.673	88.62
348.9	83.62
349.128	86.62
349.355	91.62
349.583	82.62
349.81	86.62
350.037	75.62
350.265	84.62
350.492	70.62
350.72	86.62
350.947	87.62
351.174	95.62
351.402	84.62
351.629	75.62
351.856	71.62
352.083	76.62
352.311	80.62
352.538	86.62
352.765	79.62
352.992	79.62
353.22	80.62
353.447	81.62
353.674	84.62
353.901	76.62
354.128	82.62
354.355	79.62
354.583	86.62
354.81	92.62
355.037	88.62
355.264	89.62
355.491	87.62
355.718	80.62
355.945	99.62
356.172	87.62
356.399	89.62
356.626	79.62
356.853	74.62
357.08	86.62
357.307	82.62
357.534	86.62
357.761	80.62
357.988	88.62
358.215	83.62
358.441	86.62
358.668	76.62
358.895	83.62
359.122	82.62
359.349	82.62
359.576	83.62
359.802	77.62
360.029	69.62
360.256	91.62
360.483	76.62
360.709	79.62
360.936	79.62
361.163	78.62
361.39	104.62
361.616	80.62
361.843	80.62
362.07	76.62
362.296	85.62
362.523	82.62
362.749	99.62
362.976	99.62
363.203	76.62
363.429	79.62
363.656	82.62
363.882	81.62
364.109	85.62
364.335	91.62
364.562	84.62
364.788	86.62
365.015	80.62
365.241	80.62
365.468	79.62
365.694	75.62
365.92	81.62
366.147	96.62
366.373	75.62
366.599	75.62
366.826	74.62
367.052	88.62
367.278	81.62
367.505	91.62
367.731	90.62
367.957	91.62
368.184	86.62
368.41	75.62
368.636	92.62
368.862	88.62
369.089	78.62
369.315	86.62
369.541	89.62
369.767	92.62
369.993	80.62
370.219	84.62
370.445	74.62
370.672	83.62
370.898	98.62
371.124	90.62
371.35	86.62
371.576	85.62
371.802	90.62
372.028	80.62
372.254	88.62
372.48	89.62
372.706	83.62
372.932	89.62
373.158	75.62
373.384	89.62
373.61	85.62
373.835	86.62
374.061	83.62
374.287	93.62
374.513	85.62
374.739	86.62
374.965	86.62
375.191	97.62
375.416	83.62
375.642	87.62
375.868	96.62
376.094	80.62
376.319	88.62
376.545	103.62
376.771	97.62
376.997	76.62
377.222	83.62
377.448	91.62
377.674	90.62
377.899	79.62
378.125	86.62
378.35	92.62
378.576	80.62
378.802	74.62
379.027	83.62
379.253	90.62
379.478	82.62
379.704	100.62
379.929	77.62
380.155	74.62
380.38	82.62
380.606	79.62
380.831	82.62
381.057	94.62
381.282	92.62
381.507	76.62
381.733	100.62
381.958	86.62
382.184	84.62
382.409	88.62
382.634	88.62
382.86	89.62
383.085	89.62
383.31	79.62
383.535	76.62
383.761	68.62
383.986	84.62
384.211	83.62
384.436	84.62
384.662	72.62
384.887	83.62
385.112	87.62
385.337	82.62
385.562	66.62
385.787	85.62
386.013	93.62
386.238	82.62
386.463	85.62
386.688	80.62
386.913	86.62
387.138	84.62
387.363	106.62
387.588	80.62
387.813	85.62
388.038	86.62
388.263	99.62
388.488	87.62
388.713	82.62
388.938	81.62
389.163	79.62
389.387	89.62
389.612	89.62
389.837	95.62
390.062	79.62
390.287	96.62
390.512	87.62
390.736	92.62
390.961	86.62
391.186	87.62
391.411	83.62
391.636	76.62
391.86	91.62
392.085	84.62
392.31	105.62
392.534	87.62
392.759	101.62
392.984	74.62
393.208	98.62
393.433	81.62
393.658	80.62
393.882	81.62
394.107	89.62
394.331	80.62
394.556	74.62
394.78	83.62
395.005	87.62
395.229	79.62
395.454	81.62
395.678	88.62
395.903	94.62
396.127	99.62
396.352	107.62
396.576	86.62
396.801	97.62
397.025	77.62
397.249	90.62
397.474	92.62
397.698	97.62
397.922	100.62
398.147	98.62
398.371	84.62
398.595	92.62
398.82	86.62
399.044	83.62
399.268	93.62
399.492	87.62
399.717	90.62
399.941	91.62
400.165	69.62
400.389	77.62
400.613	94.62
400.837	75.62
401.062	89.62
401.286	96.62
401.51	83.62
401.734	87.62
401.958	94.62
402.182	69.62
402.406	97.62
402.63	98.62
402.854	85.62
403.078	74.62
403.302	80.62
403.526	84.62
403.75	93.62
403.974	85.62
404.198	87.62
404.422	82.62
404.645	82.62
404.869	83.62
405.093	87.62
405.317	90.62
405.541	96.62
405.765	87.62
405.988	91.62
406.212	103.62
406.436	98.62
406.66	87.62
406.883	82.62
407.107	79.62
407.331	85.62
407.555	87.62
407.778	90.62
408.002	97.62
408.226	90.62
408.449	92.62
408.673	92.62
408.896	94.62
409.12	74.62
409.344	88.62
409.567	78.62
409.791	93.62
410.014	94.62
410.238	103.62
410.461	92.62
410.685	89.62
410.908	101.62
411.132	87.62
411.355	84.62
411.578	97.62
411.802	90.62
412.025	80.62
412.249	112.62
412.472	91.62
412.695	100.62
412.919	103.62
413.142	79.62
413.365	97.62
413.589	91.62
413.812	95.62
414.035	102.62
414.258	102.62
414.482	82.62
414.705	102.62
414.928	84.62
415.151	94.62
415.374	94.62
415.597	79.62
415.821	80.62
416.044	96.62
416.267	83.62
416.49	106.62
416.713	94.62
416.936	111.62
417.159	97.62
417.382	95.62
417.605	101.62
417.828	100.62
418.051	97.62
418.274	92.62
418.497	93.62
418.72	107.62
418.943	91.62
419.166	101.62
419.389	90.62
419.611	92.62
419.834	103.62
420.057	114.62
420.28	93.62
420.503	86.62
420.726	93.62
420.948	95.62
421.171	107.62
421.394	87.62
421.617	96.62
421.839	101.62
422.062	100.62
422.285	90.62
422.507	94.62
422.73	86.62
422.953	96.62
423.175	87.62
423.398	92.62
423.621	111.62
423.843	99.62
424.066	85.62
424.288	106.62
424.511	96.62
424.733	95.62
424.956	105.62
425.178	99.62
425.401	89.62
425.623	86.62
425.846	84.62
426.068	97.62
426.291	91.62
426.513	77.62
426.735	90.62
426.958	95.62
427.18	87.62
427.402	91.62
427.625	98.62
427.847	86.62
428.069	98.62
428.292	100.62
428.514	91.62
428.736	94.62
428.958	101.62
429.181	89.62
429.403	91.62
429.625	89.62
429.847	86.62
430.069	98.62
430.292	78.62
430.514	97.62
430.736	84.62
430.958	97.62
431.18	97.62
431.402	86.62
431.624	94.62
431.846	94.62
432.068	87.62
432.29	80.62
432.512	88.62
432.734	90.62
432.956	90.62
433.178	96.62
433.4	91.62
433.622	97.62
433.844	112.62
434.066	78.62
434.287	73.62
434.509	86.62
434.731	85.62
434.953	89.62
435.175	94.62
435.397	93.62
435.618	76.62
435.84	82.62
436.062	81.62
436.284	101.62
436.505	83.62
436.727	91.62
436.949	88.62
437.17	91.62
437.392	96.62
437.614	102.62
437.835	82.62
438.057	101.62
438.278	91.62
438.5	99.62
438.721	100.62
438.943	84.62
439.165	116.62
439.386	87.62
439.608	96.62
439.829	91.62
440.05	94.62
440.272	92.62
440.493	82.62
440.715	88.62
440.936	96.62
441.158	97.62
441.379	103.62
441.6	104.62
441.822	96.62
442.043	97.62
442.264	91.62
442.486	87.62
442.707	99.62
442.928	95.62
443.149	97.62
443.371	107.62
443.592	96.62
443.813	95.62
444.034	95.62
444.255	81.62
444.476	91.62
444.698	87.62
444.919	111.62
445.14	227.62
445.361	158.62
445.582	101.62
445.803	105.62
446.024	106.62
446.245	94.62
446.466	106.62
446.687	95.62
446.908	108.62
447.129	103.62
447.35	97.62
447.571	103.62
447.792	97.62
448.013	99.62
448.234	97.62
448.455	111.62
448.675	104.62
448.896	113.62
449.117	94.62
449.338	96.62
449.559	87.62
449.779	89.62
450	104.62
450.221	99.62
450.442	96.62
450.662	73.62
450.883	92.62
451.104	100.62
451.324	106.62
451.545	89.62
451.766	101.62
451.986	93.62
452.207	105.62
452.428	90.62
452.648	83.62
452.869	88.62
453.089	92.62
453.31	95.62
453.53	94.62
453.751	79.62
453.971	91.62
454.192	75.62
454.412	76.62
454.633	87.62
454.853	102.62
455.073	97.62
455.294	95.62
455.514	97.62
455.734	90.62
455.955	84.62
456.175	88.62
456.395	100.62
456.616	97.62
456.836	90.62
457.056	85.62
457.276	85.62
457.497	82.62
457.717	99.62
457.937	102.62
458.157	85.62
458.377	78.62
458.598	80.62
458.818	97.62
459.038	80.62
459.258	95.62
459.478	84.62
459.698	82.62
459.918	95.62
460.138	97.62
460.358	98.62
460.578	88.62
460.798	82.62
461.018	93.62
461.238	94.62
461.458	88.62
461.678	89.62
461.898	74.62
462.118	79.62
462.338	85.62
462.558	93.62
462.777	88.62
462.997	86.62
463.217	90.62
463.437	94.62
463.657	90.62
463.876	64.62
464.096	91.62
464.316	80.62
464.536	86.62
464.755	94.62
464.975	77.62
465.195	100.62
465.414	103.62
465.634	92.62
465.854	80.62
466.073	88.62
466.293	82.62
466.512	92.62
466.732	85.62
466.951	88.62
467.171	91.62
467.391	102.62
467.61	96.62
467.829	111.62
468.049	86.62
468.268	80.62
468.488	100.62
468.707	101.62
468.927	98.62
469.146	92.62
469.365	121.62
469.585	106.62
469.804	101.62
470.023	106.62
470.243	103.62
470.462	94.62
470.681	110.62
470.901	101.62
471.12	106.62
471.339	101.62
471.558	117.62
471.777	105.62
471.997	99.62
472.216	111.62
472.435	89.62
472.654	83.62
472.873	86.62
473.092	83.62
473.311	88.62
473.53	89.62
473.749	94.62
473.968	99.62
474.187	100.62
474.406	85.62
474.625	99.62
474.844	101.62
475.063	79.62
475.282	105.62
475.501	106.62
475.72	108.62
475.939	98.62
476.158	96.62
476.377	88.62
476.596	90.62
476.814	93.62
477.033	84.62
477.252	87.62
477.471	98.62
477.69	107.62
477.908	111.62
478.127	114.62
478.346	103.62
478.564	95.62
478.783	96.62
479.002	86.62
479.22	90.62
479.439	99.62
479.658	78.62
479.876	88.62
480.095	97.62
480.313	106.62
480.532	87.62
480.751	107.62
480.969	89.62
481.188	81.62
481.406	89.62
481.624	87.62
481.843	85.62
482.061	101.62
482.28	102.62
482.498	101.62
482.717	81.62
482.935	92.62
483.153	100.62
483.372	96.62
483.59	94.62
483.808	90.62
484.027	99.62
484.245	99.62
484.463	86.62
484.681	105.62
484.9	104.62
485.118	114.62
485.336	97.62
485.554	79.62
485.772	87.62
485.99	97.62
486.209	91.62
486.427	85.62
486.645	108.62
486.863	98.62
487.081	92.62
487.299	94.62
487.517	86.62
487.735	99.62
487.953	107.62
488.171	122.62
488.389	109.62
488.607	101.62
488.825	96.62
489.043	99.62
489.261	87.62
489.479	119.62
489.696	82.62
489.914	92.62
490.132	96.62
490.35	103.62
490.568	124.62
490.786	107.62
491.003	109.62
491.221	116.62
491.439	120.62
491.657	123.62
491.874	124.62
492.092	114.62
492.31	129.62
492.527	123.62
492.745	117.62
492.963	111.62
493.18	116.62
493.398	122.62
493.615	107.62
493.833	114.62
494.05	114.62
494.268	117.62
494.485	116.62
494.703	121.62
494.92	131.62
495.138	112.62
495.355	119.62
495.573	108.62
495.79	102.62
496.008	111.62
496.225	110.62
496.442	110.62
496.66	127.62
496.877	119.62
497.094	98.62
497.312	90.62
497.529	114.62
497.746	104.62
497.963	98.62
498.181	90.62
498.398	95.62
498.615	100.62
498.832	107.62
499.049	97.62
499.267	88.62
499.484	90.62
499.701	95.62
499.918	85.62
500.135	98.62
500.352	99.62
500.569	106.62
500.786	100.62
501.003	94.62
501.22	96.62
501.437	90.62
501.654	96.62
501.871	89.62
502.088	93.62
502.305	93.62
502.522	101.62
502.739	112.62
502.956	96.62
503.172	96.62
503.389	103.62
503.606	93.62
503.823	90.62
504.04	96.62
504.256	99.62
504.473	95.62
504.69	81.62
504.907	106.62
505.123	89.62
505.34	105.62
505.557	99.62
505.773	78.62
505.99	88.62
506.207	85.62
506.423	84.62
506.64	90.62
506.856	82.62
507.073	99.62
507.289	90.62
507.506	86.62
507.722	84.62
507.939	101.62
508.155	91.62
508.372	87.62
508.588	90.62
508.805	99.62
509.021	97.62
509.238	92.62
509.454	96.62
509.67	75.62
509.887	89.62
510.103	72.62
510.319	78.62
510.536	86.62
510.752	84.62
510.968	77.62
511.184	81.62
511.401	91.62
511.617	84.62
511.833	78.62
512.049	76.62
512.265	74.62
512.481	83.62
512.698	88.62
512.914	94.62
513.13	96.62
513.346	95.62
513.562	86.62
513.778	75.62
513.994	85.62
514.21	89.62
514.426	83.62
514.642	70.62
514.858	74.62
515.074	86.62
515.29	76.62
515.506	84.62
515.721	77.62
515.937	98.62
516.153	75.62
516.369	74.62
516.585	79.62
516.801	70.62
517.016	86.62
517.232	91.62
