Data from Location3.07152019.Energy5.Lamp.07192019.3%Agarose_HRD10591_15-19-09-269.txt Node
Date: Fri Jul 19 15:19:09 EDT 2019
User: cochatt
Spectrometer: HR+D1059
Trigger mode: 1
Integration Time (sec): 1.000000E-1
Scans to average: 1
Electric dark correction enabled: true
Nonlinearity correction enabled: false
Boxcar width: 0
XAxis mode: Wavelengths
Number of Pixels in Spectrum: 2048
>>>>>Begin Spectral Data<<<<<
223.165	-12.88
223.4	-12.88
223.635	-12.88
223.869	-4.88
224.104	-22.88
224.338	-13.88
224.573	-22.88
224.808	-10.88
225.042	-0.88
225.277	-13.88
225.511	13.12
225.746	6.12
225.98	-3.88
226.215	10.12
226.449	22.12
226.683	5.12
226.918	19.12
227.152	31.12
227.387	33.12
227.621	36.12
227.856	50.12
228.09	54.12
228.324	54.12
228.559	66.12
228.793	58.12
229.027	64.12
229.262	48.12
229.496	77.12
229.73	63.12
229.964	70.12
230.199	84.12
230.433	80.12
230.667	80.12
230.901	83.12
231.136	93.12
231.37	80.12
231.604	67.12
231.838	87.12
232.072	97.12
232.306	79.12
232.541	64.12
232.775	90.12
233.009	82.12
233.243	80.12
233.477	80.12
233.711	83.12
233.945	85.12
234.179	83.12
234.413	84.12
234.647	72.12
234.881	81.12
235.115	86.12
235.349	86.12
235.583	89.12
235.817	83.12
236.051	87.12
236.285	71.12
236.519	86.12
236.753	93.12
236.987	93.12
237.221	77.12
237.455	81.12
237.689	77.12
237.922	72.12
238.156	88.12
238.39	84.12
238.624	80.12
238.858	72.12
239.091	67.12
239.325	74.12
239.559	71.12
239.793	78.12
240.027	94.12
240.26	82.12
240.494	80.12
240.728	77.12
240.961	82.12
241.195	71.12
241.429	93.12
241.662	88.12
241.896	80.12
242.13	78.12
242.363	79.12
242.597	84.12
242.83	70.12
243.064	90.12
243.298	74.12
243.531	75.12
243.765	69.12
243.998	74.12
244.232	59.12
244.465	75.12
244.699	85.12
244.932	83.12
245.166	75.12
245.399	84.12
245.633	91.12
245.866	75.12
246.099	68.12
246.333	63.12
246.566	80.12
246.8	79.12
247.033	67.12
247.266	86.12
247.5	90.12
247.733	84.12
247.966	88.12
248.2	90.12
248.433	80.12
248.666	75.12
248.899	88.12
249.133	69.12
249.366	72.12
249.599	73.12
249.832	90.12
250.066	84.12
250.299	85.12
250.532	86.12
250.765	83.12
250.998	82.12
251.231	87.12
251.465	91.12
251.698	84.12
251.931	77.12
252.164	91.12
252.397	86.12
252.63	89.12
252.863	92.12
253.096	72.12
253.329	82.12
253.562	67.12
253.795	83.12
254.028	81.12
254.261	75.12
254.494	82.12
254.727	87.12
254.96	86.12
255.193	69.12
255.426	84.12
255.659	80.12
255.892	79.12
256.124	80.12
256.357	73.12
256.59	96.12
256.823	87.12
257.056	93.12
257.289	92.12
257.521	84.12
257.754	71.12
257.987	92.12
258.22	84.12
258.452	79.12
258.685	73.12
258.918	66.12
259.151	86.12
259.383	87.12
259.616	79.12
259.849	93.12
260.081	89.12
260.314	76.12
260.547	78.12
260.779	87.12
261.012	73.12
261.244	76.12
261.477	76.12
261.71	80.12
261.942	72.12
262.175	90.12
262.407	74.12
262.64	69.12
262.872	82.12
263.105	79.12
263.337	76.12
263.57	87.12
263.802	89.12
264.035	70.12
264.267	77.12
264.499	71.12
264.732	89.12
264.964	92.12
265.197	87.12
265.429	99.12
265.661	94.12
265.894	84.12
266.126	83.12
266.358	88.12
266.591	81.12
266.823	97.12
267.055	78.12
267.287	74.12
267.52	81.12
267.752	78.12
267.984	90.12
268.216	99.12
268.448	89.12
268.681	96.12
268.913	89.12
269.145	90.12
269.377	68.12
269.609	77.12
269.841	92.12
270.073	89.12
270.306	75.12
270.538	89.12
270.77	88.12
271.002	94.12
271.234	89.12
271.466	80.12
271.698	86.12
271.93	78.12
272.162	68.12
272.394	88.12
272.626	75.12
272.858	71.12
273.09	86.12
273.322	84.12
273.553	74.12
273.785	90.12
274.017	84.12
274.249	84.12
274.481	96.12
274.713	86.12
274.945	90.12
275.176	96.12
275.408	77.12
275.64	90.12
275.872	60.12
276.104	81.12
276.335	78.12
276.567	91.12
276.799	93.12
277.031	90.12
277.262	85.12
277.494	94.12
277.726	98.12
277.957	97.12
278.189	79.12
278.421	85.12
278.652	99.12
278.884	83.12
279.115	76.12
279.347	84.12
279.579	81.12
279.81	94.12
280.042	89.12
280.273	91.12
280.505	84.12
280.736	88.12
280.968	93.12
281.199	81.12
281.431	80.12
281.662	90.12
281.894	90.12
282.125	77.12
282.356	84.12
282.588	83.12
282.819	87.12
283.051	68.12
283.282	83.12
283.513	81.12
283.745	82.12
283.976	97.12
284.207	82.12
284.439	88.12
284.67	90.12
284.901	96.12
285.132	75.12
285.364	86.12
285.595	83.12
285.826	79.12
286.057	88.12
286.288	76.12
286.52	81.12
286.751	90.12
286.982	84.12
287.213	80.12
287.444	82.12
287.675	94.12
287.906	78.12
288.138	90.12
288.369	100.12
288.6	95.12
288.831	87.12
289.062	82.12
289.293	86.12
289.524	89.12
289.755	96.12
289.986	93.12
290.217	79.12
290.448	75.12
290.679	86.12
290.91	89.12
291.141	85.12
291.371	92.12
291.602	81.12
291.833	85.12
292.064	75.12
292.295	85.12
292.526	87.12
292.757	97.12
292.987	83.12
293.218	77.12
293.449	100.12
293.68	88.12
293.91	92.12
294.141	96.12
294.372	83.12
294.603	76.12
294.833	100.12
295.064	73.12
295.295	90.12
295.525	90.12
295.756	79.12
295.987	93.12
296.217	92.12
296.448	82.12
296.679	73.12
296.909	83.12
297.14	73.12
297.37	77.12
297.601	87.12
297.831	90.12
298.062	87.12
298.292	90.12
298.523	84.12
298.753	88.12
298.984	91.12
299.214	89.12
299.445	84.12
299.675	90.12
299.905	73.12
300.136	90.12
300.366	85.12
300.597	97.12
300.827	82.12
301.057	83.12
301.288	83.12
301.518	89.12
301.748	81.12
301.979	96.12
302.209	90.12
302.439	96.12
302.669	79.12
302.9	100.12
303.13	91.12
303.36	76.12
303.59	85.12
303.82	83.12
304.051	87.12
304.281	86.12
304.511	97.12
304.741	102.12
304.971	100.12
305.201	88.12
305.431	89.12
305.661	98.12
305.891	92.12
306.121	74.12
306.352	85.12
306.582	71.12
306.812	74.12
307.042	87.12
307.272	90.12
307.502	74.12
307.731	85.12
307.961	84.12
308.191	79.12
308.421	73.12
308.651	95.12
308.881	80.12
309.111	84.12
309.341	85.12
309.571	80.12
309.8	84.12
310.03	89.12
310.26	97.12
310.49	84.12
310.72	86.12
310.949	92.12
311.179	86.12
311.409	89.12
311.639	102.12
311.868	83.12
312.098	96.12
312.328	83.12
312.557	99.12
312.787	91.12
313.017	81.12
313.246	71.12
313.476	100.12
313.706	92.12
313.935	83.12
314.165	81.12
314.394	83.12
314.624	87.12
314.853	87.12
315.083	95.12
315.312	78.12
315.542	87.12
315.771	101.12
316.001	104.12
316.23	81.12
316.46	100.12
316.689	93.12
316.919	75.12
317.148	73.12
317.377	96.12
317.607	97.12
317.836	94.12
318.065	92.12
318.295	90.12
318.524	88.12
318.753	83.12
318.983	76.12
319.212	98.12
319.441	78.12
319.67	80.12
319.9	91.12
320.129	92.12
320.358	99.12
320.587	91.12
320.816	89.12
321.046	98.12
321.275	90.12
321.504	81.12
321.733	84.12
321.962	81.12
322.191	74.12
322.42	88.12
322.649	99.12
322.878	83.12
323.108	98.12
323.337	82.12
323.566	85.12
323.795	89.12
324.024	78.12
324.253	84.12
324.482	84.12
324.71	78.12
324.939	87.12
325.168	90.12
325.397	95.12
325.626	86.12
325.855	91.12
326.084	89.12
326.313	73.12
326.542	86.12
326.77	88.12
326.999	97.12
327.228	82.12
327.457	88.12
327.686	85.12
327.914	92.12
328.143	88.12
328.372	91.12
328.6	77.12
328.829	84.12
329.058	82.12
329.287	75.12
329.515	91.12
329.744	93.12
329.972	89.12
330.201	90.12
330.43	79.12
330.658	82.12
330.887	88.12
331.115	89.12
331.344	87.12
331.572	86.12
331.801	91.12
332.03	85.12
332.258	96.12
332.486	78.12
332.715	89.12
332.943	80.12
333.172	89.12
333.4	79.12
333.629	91.12
333.857	98.12
334.085	98.12
334.314	88.12
334.542	85.12
334.771	80.12
334.999	81.12
335.227	93.12
335.455	92.12
335.684	96.12
335.912	87.12
336.14	79.12
336.369	85.12
336.597	69.12
336.825	74.12
337.053	79.12
337.281	95.12
337.51	74.12
337.738	81.12
337.966	74.12
338.194	83.12
338.422	91.12
338.65	85.12
338.878	89.12
339.106	80.12
339.334	82.12
339.562	102.12
339.79	72.12
340.018	88.12
340.246	85.12
340.474	81.12
340.702	92.12
340.93	94.12
341.158	84.12
341.386	80.12
341.614	88.12
341.842	85.12
342.07	81.12
342.298	83.12
342.526	80.12
342.754	89.12
342.981	87.12
343.209	78.12
343.437	97.12
343.665	100.12
343.893	90.12
344.12	90.12
344.348	75.12
344.576	86.12
344.804	76.12
345.031	77.12
345.259	87.12
345.487	84.12
345.714	82.12
345.942	92.12
346.17	85.12
346.397	83.12
346.625	90.12
346.853	79.12
347.08	83.12
347.308	77.12
347.535	65.12
347.763	95.12
347.99	96.12
348.218	86.12
348.445	85.12
348.673	100.12
348.9	94.12
349.128	93.12
349.355	83.12
349.583	94.12
349.81	79.12
350.037	91.12
350.265	77.12
350.492	77.12
350.72	73.12
350.947	80.12
351.174	83.12
351.402	80.12
351.629	84.12
351.856	81.12
352.083	97.12
352.311	97.12
352.538	88.12
352.765	78.12
352.992	79.12
353.22	101.12
353.447	91.12
353.674	89.12
353.901	84.12
354.128	96.12
354.355	94.12
354.583	86.12
354.81	80.12
355.037	89.12
355.264	87.12
355.491	84.12
355.718	84.12
355.945	91.12
356.172	85.12
356.399	97.12
356.626	85.12
356.853	83.12
357.08	103.12
357.307	92.12
357.534	77.12
357.761	85.12
357.988	75.12
358.215	79.12
358.441	84.12
358.668	80.12
358.895	84.12
359.122	102.12
359.349	87.12
359.576	95.12
359.802	83.12
360.029	88.12
360.256	85.12
360.483	90.12
360.709	83.12
360.936	101.12
361.163	77.12
361.39	89.12
361.616	97.12
361.843	83.12
362.07	90.12
362.296	93.12
362.523	91.12
362.749	74.12
362.976	84.12
363.203	82.12
363.429	96.12
363.656	83.12
363.882	80.12
364.109	89.12
364.335	95.12
364.562	88.12
364.788	93.12
365.015	87.12
365.241	104.12
365.468	77.12
365.694	81.12
365.92	87.12
366.147	90.12
366.373	84.12
366.599	93.12
366.826	98.12
367.052	95.12
367.278	88.12
367.505	72.12
367.731	86.12
367.957	72.12
368.184	86.12
368.41	83.12
368.636	89.12
368.862	90.12
369.089	86.12
369.315	79.12
369.541	76.12
369.767	78.12
369.993	77.12
370.219	85.12
370.445	96.12
370.672	86.12
370.898	85.12
371.124	90.12
371.35	79.12
371.576	87.12
371.802	75.12
372.028	88.12
372.254	84.12
372.48	102.12
372.706	85.12
372.932	82.12
373.158	84.12
373.384	92.12
373.61	96.12
373.835	100.12
374.061	67.12
374.287	85.12
374.513	76.12
374.739	95.12
374.965	87.12
375.191	75.12
375.416	100.12
375.642	83.12
375.868	79.12
376.094	90.12
376.319	87.12
376.545	92.12
376.771	99.12
376.997	89.12
377.222	107.12
377.448	97.12
377.674	84.12
377.899	91.12
378.125	99.12
378.35	83.12
378.576	81.12
378.802	89.12
379.027	92.12
379.253	91.12
379.478	81.12
379.704	79.12
379.929	81.12
380.155	83.12
380.38	99.12
380.606	79.12
380.831	90.12
381.057	89.12
381.282	89.12
381.507	81.12
381.733	90.12
381.958	80.12
382.184	88.12
382.409	96.12
382.634	96.12
382.86	84.12
383.085	100.12
383.31	82.12
383.535	77.12
383.761	87.12
383.986	92.12
384.211	87.12
384.436	97.12
384.662	66.12
384.887	87.12
385.112	86.12
385.337	98.12
385.562	84.12
385.787	68.12
386.013	104.12
386.238	85.12
386.463	84.12
386.688	83.12
386.913	77.12
387.138	97.12
387.363	94.12
387.588	92.12
387.813	94.12
388.038	81.12
388.263	95.12
388.488	85.12
388.713	86.12
388.938	93.12
389.163	75.12
389.387	100.12
389.612	83.12
389.837	73.12
390.062	79.12
390.287	81.12
390.512	73.12
390.736	89.12
390.961	86.12
391.186	81.12
391.411	85.12
391.636	94.12
391.86	86.12
392.085	92.12
392.31	95.12
392.534	82.12
392.759	74.12
392.984	94.12
393.208	99.12
393.433	97.12
393.658	97.12
393.882	84.12
394.107	88.12
394.331	79.12
394.556	100.12
394.78	94.12
395.005	81.12
395.229	79.12
395.454	88.12
395.678	87.12
395.903	90.12
396.127	105.12
396.352	88.12
396.576	95.12
396.801	89.12
397.025	77.12
397.249	98.12
397.474	82.12
397.698	96.12
397.922	89.12
398.147	90.12
398.371	77.12
398.595	84.12
398.82	90.12
399.044	81.12
399.268	78.12
399.492	82.12
399.717	93.12
399.941	87.12
400.165	66.12
400.389	87.12
400.613	78.12
400.837	83.12
401.062	96.12
401.286	86.12
401.51	85.12
401.734	96.12
401.958	91.12
402.182	81.12
402.406	92.12
402.63	75.12
402.854	85.12
403.078	92.12
403.302	96.12
403.526	101.12
403.75	94.12
403.974	85.12
404.198	95.12
404.422	92.12
404.645	90.12
404.869	85.12
405.093	93.12
405.317	75.12
405.541	79.12
405.765	95.12
405.988	87.12
406.212	94.12
406.436	91.12
406.66	92.12
406.883	83.12
407.107	90.12
407.331	81.12
407.555	86.12
407.778	93.12
408.002	90.12
408.226	90.12
408.449	93.12
408.673	87.12
408.896	93.12
409.12	81.12
409.344	88.12
409.567	96.12
409.791	90.12
410.014	91.12
410.238	96.12
410.461	86.12
410.685	102.12
410.908	88.12
411.132	99.12
411.355	98.12
411.578	116.12
411.802	77.12
412.025	92.12
412.249	99.12
412.472	83.12
412.695	92.12
412.919	93.12
413.142	100.12
413.365	89.12
413.589	98.12
413.812	88.12
414.035	97.12
414.258	95.12
414.482	107.12
414.705	93.12
414.928	96.12
415.151	92.12
415.374	85.12
415.597	99.12
415.821	88.12
416.044	83.12
416.267	101.12
416.49	92.12
416.713	91.12
416.936	97.12
417.159	101.12
417.382	88.12
417.605	77.12
417.828	78.12
418.051	99.12
418.274	102.12
418.497	90.12
418.72	102.12
418.943	93.12
419.166	99.12
419.389	79.12
419.611	100.12
419.834	98.12
420.057	96.12
420.28	101.12
420.503	101.12
420.726	96.12
420.948	100.12
421.171	86.12
421.394	90.12
421.617	105.12
421.839	103.12
422.062	101.12
422.285	97.12
422.507	96.12
422.73	96.12
422.953	92.12
423.175	100.12
423.398	98.12
423.621	95.12
423.843	91.12
424.066	99.12
424.288	87.12
424.511	84.12
424.733	97.12
424.956	109.12
425.178	96.12
425.401	93.12
425.623	102.12
425.846	78.12
426.068	102.12
426.291	93.12
426.513	89.12
426.735	101.12
426.958	86.12
427.18	91.12
427.402	106.12
427.625	87.12
427.847	97.12
428.069	96.12
428.292	101.12
428.514	107.12
428.736	95.12
428.958	93.12
429.181	100.12
429.403	106.12
429.625	100.12
429.847	92.12
430.069	99.12
430.292	100.12
430.514	98.12
430.736	96.12
430.958	99.12
431.18	86.12
431.402	93.12
431.624	91.12
431.846	101.12
432.068	103.12
432.29	79.12
432.512	80.12
432.734	85.12
432.956	104.12
433.178	120.12
433.4	96.12
433.622	98.12
433.844	80.12
434.066	83.12
434.287	89.12
434.509	84.12
434.731	91.12
434.953	97.12
435.175	89.12
435.397	100.12
435.618	89.12
435.84	79.12
436.062	88.12
436.284	98.12
436.505	97.12
436.727	89.12
436.949	76.12
437.17	104.12
437.392	99.12
437.614	99.12
437.835	86.12
438.057	91.12
438.278	100.12
438.5	101.12
438.721	105.12
438.943	95.12
439.165	106.12
439.386	85.12
439.608	106.12
439.829	105.12
440.05	86.12
440.272	103.12
440.493	115.12
440.715	101.12
440.936	100.12
441.158	101.12
441.379	101.12
441.6	90.12
441.822	89.12
442.043	114.12
442.264	91.12
442.486	101.12
442.707	121.12
442.928	96.12
443.149	100.12
443.371	104.12
443.592	97.12
443.813	105.12
444.034	88.12
444.255	100.12
444.476	102.12
444.698	89.12
444.919	90.12
445.14	263.12
445.361	140.12
445.582	117.12
445.803	88.12
446.024	115.12
446.245	102.12
446.466	95.12
446.687	107.12
446.908	104.12
447.129	95.12
447.35	91.12
447.571	115.12
447.792	105.12
448.013	79.12
448.234	101.12
448.455	97.12
448.675	85.12
448.896	98.12
449.117	106.12
449.338	92.12
449.559	89.12
449.779	97.12
450	92.12
450.221	94.12
450.442	85.12
450.662	101.12
450.883	100.12
451.104	91.12
451.324	105.12
451.545	93.12
451.766	92.12
451.986	84.12
452.207	94.12
452.428	94.12
452.648	86.12
452.869	103.12
453.089	105.12
453.31	96.12
453.53	99.12
453.751	102.12
453.971	87.12
454.192	97.12
454.412	97.12
454.633	102.12
454.853	106.12
455.073	94.12
455.294	108.12
455.514	103.12
455.734	77.12
455.955	87.12
456.175	81.12
456.395	92.12
456.616	80.12
456.836	102.12
457.056	91.12
457.276	87.12
457.497	88.12
457.717	98.12
457.937	79.12
458.157	82.12
458.377	107.12
458.598	97.12
458.818	75.12
459.038	90.12
459.258	90.12
459.478	85.12
459.698	83.12
459.918	86.12
460.138	83.12
460.358	96.12
460.578	94.12
460.798	93.12
461.018	105.12
461.238	90.12
461.458	87.12
461.678	84.12
461.898	96.12
462.118	87.12
462.338	85.12
462.558	91.12
462.777	88.12
462.997	86.12
463.217	78.12
463.437	99.12
463.657	80.12
463.876	100.12
464.096	96.12
464.316	84.12
464.536	87.12
464.755	97.12
464.975	89.12
465.195	100.12
465.414	95.12
465.634	86.12
465.854	92.12
466.073	96.12
466.293	93.12
466.512	100.12
466.732	85.12
466.951	112.12
467.171	99.12
467.391	91.12
467.61	91.12
467.829	88.12
468.049	103.12
468.268	92.12
468.488	102.12
468.707	106.12
468.927	112.12
469.146	100.12
469.365	105.12
469.585	104.12
469.804	98.12
470.023	86.12
470.243	92.12
470.462	94.12
470.681	94.12
470.901	106.12
471.12	100.12
471.339	90.12
471.558	98.12
471.777	112.12
471.997	116.12
472.216	87.12
472.435	83.12
472.654	65.12
472.873	99.12
473.092	79.12
473.311	97.12
473.53	101.12
473.749	96.12
473.968	104.12
474.187	100.12
474.406	100.12
474.625	91.12
474.844	100.12
475.063	98.12
475.282	90.12
475.501	86.12
475.72	107.12
475.939	93.12
476.158	88.12
476.377	90.12
476.596	87.12
476.814	97.12
477.033	107.12
477.252	102.12
477.471	103.12
477.69	92.12
477.908	111.12
478.127	99.12
478.346	97.12
478.564	106.12
478.783	93.12
479.002	93.12
479.22	103.12
479.439	99.12
479.658	92.12
479.876	99.12
480.095	95.12
480.313	96.12
480.532	97.12
480.751	96.12
480.969	93.12
481.188	77.12
481.406	87.12
481.624	83.12
481.843	80.12
482.061	85.12
482.28	91.12
482.498	85.12
482.717	100.12
482.935	82.12
483.153	100.12
483.372	104.12
483.59	105.12
483.808	96.12
484.027	84.12
484.245	101.12
484.463	97.12
484.681	103.12
484.9	100.12
485.118	107.12
485.336	101.12
485.554	86.12
485.772	84.12
485.99	89.12
486.209	89.12
486.427	108.12
486.645	103.12
486.863	104.12
487.081	97.12
487.299	97.12
487.517	114.12
487.735	92.12
487.953	108.12
488.171	107.12
488.389	131.12
488.607	111.12
488.825	88.12
489.043	101.12
489.261	102.12
489.479	108.12
489.696	96.12
489.914	102.12
490.132	99.12
490.35	100.12
490.568	102.12
490.786	109.12
491.003	107.12
491.221	115.12
491.439	118.12
491.657	113.12
491.874	113.12
492.092	119.12
492.31	120.12
492.527	128.12
492.745	131.12
492.963	129.12
493.18	116.12
493.398	111.12
493.615	102.12
493.833	95.12
494.05	107.12
494.268	115.12
494.485	106.12
494.703	106.12
494.92	104.12
495.138	115.12
495.355	111.12
495.573	106.12
495.79	108.12
496.008	114.12
496.225	111.12
496.442	99.12
496.66	121.12
496.877	111.12
497.094	109.12
497.312	98.12
497.529	111.12
497.746	102.12
497.963	99.12
498.181	103.12
498.398	108.12
498.615	100.12
498.832	85.12
499.049	96.12
499.267	92.12
499.484	76.12
499.701	103.12
499.918	97.12
500.135	96.12
500.352	104.12
500.569	101.12
500.786	80.12
501.003	106.12
501.22	112.12
501.437	115.12
501.654	106.12
501.871	100.12
502.088	92.12
502.305	102.12
502.522	105.12
502.739	88.12
502.956	97.12
503.172	108.12
503.389	93.12
503.606	95.12
503.823	86.12
504.04	88.12
504.256	80.12
504.473	100.12
504.69	78.12
504.907	101.12
505.123	80.12
505.34	104.12
505.557	95.12
505.773	94.12
505.99	90.12
506.207	112.12
506.423	90.12
506.64	83.12
506.856	96.12
507.073	83.12
507.289	99.12
507.506	100.12
507.722	82.12
507.939	79.12
508.155	105.12
508.372	84.12
508.588	93.12
508.805	86.12
509.021	76.12
509.238	88.12
509.454	80.12
509.67	99.12
509.887	92.12
510.103	92.12
510.319	102.12
510.536	80.12
510.752	75.12
510.968	102.12
511.184	92.12
511.401	81.12
511.617	87.12
511.833	90.12
512.049	73.12
512.265	81.12
512.481	95.12
512.698	80.12
512.914	86.12
513.13	90.12
513.346	92.12
513.562	87.12
513.778	85.12
513.994	90.12
514.21	77.12
514.426	91.12
514.642	73.12
514.858	98.12
515.074	68.12
515.29	80.12
515.506	87.12
515.721	80.12
515.937	99.12
516.153	77.12
516.369	79.12
516.585	80.12
