Data from Location3.07152019.Energy5.Lamp.07192019.3%Agarose_HRD10591_15-18-02-269.txt Node
Date: Fri Jul 19 15:18:02 EDT 2019
User: cochatt
Spectrometer: HR+D1059
Trigger mode: 1
Integration Time (sec): 1.000000E-1
Scans to average: 1
Electric dark correction enabled: true
Nonlinearity correction enabled: false
Boxcar width: 0
XAxis mode: Wavelengths
Number of Pixels in Spectrum: 2048
>>>>>Begin Spectral Data<<<<<
223.165	-16.06
223.4	-16.06
223.635	-16.06
223.869	-18.06
224.104	-21.06
224.338	-16.06
224.573	-2.06
224.808	-23.06
225.042	-15.06
225.277	-15.06
225.511	2.94
225.746	10.94
225.98	2.94
226.215	11.94
226.449	16.94
226.683	14.94
226.918	34.94
227.152	30.94
227.387	34.94
227.621	30.94
227.856	27.94
228.09	40.94
228.324	49.94
228.559	70.94
228.793	40.94
229.027	69.94
229.262	49.94
229.496	61.94
229.73	64.94
229.964	72.94
230.199	74.94
230.433	78.94
230.667	84.94
230.901	70.94
231.136	80.94
231.37	74.94
231.604	95.94
231.838	80.94
232.072	102.94
232.306	75.94
232.541	73.94
232.775	78.94
233.009	77.94
233.243	75.94
233.477	70.94
233.711	90.94
233.945	87.94
234.179	71.94
234.413	74.94
234.647	87.94
234.881	64.94
235.115	85.94
235.349	78.94
235.583	65.94
235.817	79.94
236.051	63.94
236.285	86.94
236.519	74.94
236.753	85.94
236.987	82.94
237.221	75.94
237.455	66.94
237.689	77.94
237.922	70.94
238.156	68.94
238.39	70.94
238.624	74.94
238.858	84.94
239.091	81.94
239.325	74.94
239.559	74.94
239.793	79.94
240.027	66.94
240.26	72.94
240.494	71.94
240.728	73.94
240.961	91.94
241.195	79.94
241.429	84.94
241.662	67.94
241.896	81.94
242.13	58.94
242.363	60.94
242.597	81.94
242.83	90.94
243.064	72.94
243.298	80.94
243.531	69.94
243.765	88.94
243.998	69.94
244.232	78.94
244.465	89.94
244.699	71.94
244.932	70.94
245.166	82.94
245.399	81.94
245.633	71.94
245.866	74.94
246.099	89.94
246.333	81.94
246.566	89.94
246.8	75.94
247.033	86.94
247.266	81.94
247.5	78.94
247.733	76.94
247.966	74.94
248.2	77.94
248.433	80.94
248.666	76.94
248.899	85.94
249.133	69.94
249.366	77.94
249.599	79.94
249.832	78.94
250.066	92.94
250.299	70.94
250.532	74.94
250.765	88.94
250.998	75.94
251.231	82.94
251.465	72.94
251.698	86.94
251.931	91.94
252.164	78.94
252.397	83.94
252.63	87.94
252.863	80.94
253.096	88.94
253.329	81.94
253.562	78.94
253.795	71.94
254.028	75.94
254.261	75.94
254.494	89.94
254.727	80.94
254.96	74.94
255.193	90.94
255.426	79.94
255.659	79.94
255.892	76.94
256.124	86.94
256.357	67.94
256.59	78.94
256.823	74.94
257.056	65.94
257.289	72.94
257.521	96.94
257.754	90.94
257.987	75.94
258.22	78.94
258.452	87.94
258.685	73.94
258.918	80.94
259.151	79.94
259.383	74.94
259.616	99.94
259.849	73.94
260.081	79.94
260.314	81.94
260.547	96.94
260.779	82.94
261.012	81.94
261.244	65.94
261.477	76.94
261.71	84.94
261.942	89.94
262.175	80.94
262.407	67.94
262.64	84.94
262.872	69.94
263.105	72.94
263.337	86.94
263.57	78.94
263.802	70.94
264.035	67.94
264.267	77.94
264.499	84.94
264.732	83.94
264.964	74.94
265.197	85.94
265.429	77.94
265.661	77.94
265.894	80.94
266.126	87.94
266.358	91.94
266.591	91.94
266.823	82.94
267.055	79.94
267.287	91.94
267.52	72.94
267.752	91.94
267.984	94.94
268.216	72.94
268.448	81.94
268.681	72.94
268.913	86.94
269.145	82.94
269.377	81.94
269.609	78.94
269.841	78.94
270.073	78.94
270.306	94.94
270.538	67.94
270.77	86.94
271.002	91.94
271.234	103.94
271.466	89.94
271.698	77.94
271.93	86.94
272.162	69.94
272.394	86.94
272.626	83.94
272.858	67.94
273.09	72.94
273.322	80.94
273.553	73.94
273.785	94.94
274.017	88.94
274.249	73.94
274.481	84.94
274.713	83.94
274.945	87.94
275.176	88.94
275.408	83.94
275.64	94.94
275.872	85.94
276.104	89.94
276.335	86.94
276.567	89.94
276.799	93.94
277.031	81.94
277.262	75.94
277.494	88.94
277.726	96.94
277.957	80.94
278.189	76.94
278.421	81.94
278.652	78.94
278.884	75.94
279.115	90.94
279.347	79.94
279.579	85.94
279.81	74.94
280.042	82.94
280.273	84.94
280.505	73.94
280.736	86.94
280.968	75.94
281.199	93.94
281.431	88.94
281.662	86.94
281.894	91.94
282.125	93.94
282.356	89.94
282.588	74.94
282.819	80.94
283.051	72.94
283.282	79.94
283.513	86.94
283.745	68.94
283.976	86.94
284.207	74.94
284.439	85.94
284.67	85.94
284.901	90.94
285.132	81.94
285.364	76.94
285.595	105.94
285.826	85.94
286.057	82.94
286.288	64.94
286.52	70.94
286.751	87.94
286.982	83.94
287.213	94.94
287.444	96.94
287.675	69.94
287.906	85.94
288.138	81.94
288.369	77.94
288.6	67.94
288.831	88.94
289.062	86.94
289.293	86.94
289.524	95.94
289.755	81.94
289.986	95.94
290.217	91.94
290.448	81.94
290.679	83.94
290.91	94.94
291.141	86.94
291.371	85.94
291.602	81.94
291.833	93.94
292.064	87.94
292.295	72.94
292.526	82.94
292.757	84.94
292.987	72.94
293.218	77.94
293.449	89.94
293.68	97.94
293.91	99.94
294.141	83.94
294.372	87.94
294.603	92.94
294.833	74.94
295.064	95.94
295.295	79.94
295.525	73.94
295.756	75.94
295.987	93.94
296.217	84.94
296.448	101.94
296.679	88.94
296.909	87.94
297.14	82.94
297.37	94.94
297.601	87.94
297.831	69.94
298.062	81.94
298.292	81.94
298.523	88.94
298.753	93.94
298.984	82.94
299.214	72.94
299.445	77.94
299.675	80.94
299.905	88.94
300.136	90.94
300.366	82.94
300.597	93.94
300.827	86.94
301.057	67.94
301.288	89.94
301.518	87.94
301.748	72.94
301.979	81.94
302.209	92.94
302.439	88.94
302.669	105.94
302.9	83.94
303.13	83.94
303.36	72.94
303.59	91.94
303.82	76.94
304.051	87.94
304.281	102.94
304.511	83.94
304.741	80.94
304.971	74.94
305.201	85.94
305.431	97.94
305.661	84.94
305.891	99.94
306.121	74.94
306.352	91.94
306.582	96.94
306.812	75.94
307.042	85.94
307.272	68.94
307.502	75.94
307.731	84.94
307.961	75.94
308.191	88.94
308.421	89.94
308.651	81.94
308.881	72.94
309.111	75.94
309.341	86.94
309.571	94.94
309.8	100.94
310.03	88.94
310.26	77.94
310.49	75.94
310.72	73.94
310.949	84.94
311.179	77.94
311.409	69.94
311.639	91.94
311.868	73.94
312.098	76.94
312.328	87.94
312.557	87.94
312.787	94.94
313.017	94.94
313.246	94.94
313.476	75.94
313.706	89.94
313.935	82.94
314.165	90.94
314.394	78.94
314.624	85.94
314.853	90.94
315.083	72.94
315.312	81.94
315.542	83.94
315.771	83.94
316.001	84.94
316.23	95.94
316.46	74.94
316.689	84.94
316.919	70.94
317.148	77.94
317.377	79.94
317.607	86.94
317.836	85.94
318.065	77.94
318.295	94.94
318.524	79.94
318.753	98.94
318.983	87.94
319.212	85.94
319.441	68.94
319.67	84.94
319.9	75.94
320.129	84.94
320.358	77.94
320.587	80.94
320.816	72.94
321.046	90.94
321.275	88.94
321.504	85.94
321.733	93.94
321.962	84.94
322.191	85.94
322.42	82.94
322.649	83.94
322.878	84.94
323.108	75.94
323.337	83.94
323.566	85.94
323.795	81.94
324.024	72.94
324.253	82.94
324.482	82.94
324.71	70.94
324.939	84.94
325.168	93.94
325.397	93.94
325.626	101.94
325.855	91.94
326.084	95.94
326.313	87.94
326.542	90.94
326.77	80.94
326.999	84.94
327.228	87.94
327.457	80.94
327.686	83.94
327.914	82.94
328.143	76.94
328.372	80.94
328.6	88.94
328.829	83.94
329.058	85.94
329.287	77.94
329.515	71.94
329.744	90.94
329.972	87.94
330.201	90.94
330.43	79.94
330.658	91.94
330.887	90.94
331.115	77.94
331.344	75.94
331.572	85.94
331.801	75.94
332.03	96.94
332.258	86.94
332.486	91.94
332.715	90.94
332.943	82.94
333.172	76.94
333.4	103.94
333.629	74.94
333.857	78.94
334.085	92.94
334.314	86.94
334.542	79.94
334.771	76.94
334.999	76.94
335.227	85.94
335.455	77.94
335.684	92.94
335.912	91.94
336.14	76.94
336.369	87.94
336.597	82.94
336.825	87.94
337.053	76.94
337.281	87.94
337.51	88.94
337.738	93.94
337.966	80.94
338.194	78.94
338.422	83.94
338.65	93.94
338.878	94.94
339.106	76.94
339.334	94.94
339.562	80.94
339.79	73.94
340.018	91.94
340.246	71.94
340.474	74.94
340.702	84.94
340.93	81.94
341.158	73.94
341.386	81.94
341.614	97.94
341.842	77.94
342.07	85.94
342.298	82.94
342.526	74.94
342.754	76.94
342.981	71.94
343.209	91.94
343.437	78.94
343.665	91.94
343.893	75.94
344.12	82.94
344.348	73.94
344.576	86.94
344.804	78.94
345.031	91.94
345.259	85.94
345.487	90.94
345.714	85.94
345.942	88.94
346.17	95.94
346.397	81.94
346.625	81.94
346.853	85.94
347.08	86.94
347.308	69.94
347.535	83.94
347.763	78.94
347.99	86.94
348.218	85.94
348.445	94.94
348.673	89.94
348.9	85.94
349.128	90.94
349.355	96.94
349.583	74.94
349.81	70.94
350.037	69.94
350.265	87.94
350.492	81.94
350.72	87.94
350.947	90.94
351.174	74.94
351.402	71.94
351.629	78.94
351.856	97.94
352.083	67.94
352.311	76.94
352.538	78.94
352.765	74.94
352.992	75.94
353.22	90.94
353.447	91.94
353.674	71.94
353.901	81.94
354.128	85.94
354.355	76.94
354.583	75.94
354.81	78.94
355.037	75.94
355.264	81.94
355.491	72.94
355.718	83.94
355.945	86.94
356.172	82.94
356.399	88.94
356.626	89.94
356.853	90.94
357.08	90.94
357.307	91.94
357.534	95.94
357.761	95.94
357.988	92.94
358.215	79.94
358.441	77.94
358.668	76.94
358.895	69.94
359.122	79.94
359.349	79.94
359.576	80.94
359.802	81.94
360.029	70.94
360.256	84.94
360.483	92.94
360.709	77.94
360.936	81.94
361.163	86.94
361.39	83.94
361.616	95.94
361.843	78.94
362.07	74.94
362.296	80.94
362.523	73.94
362.749	88.94
362.976	82.94
363.203	75.94
363.429	84.94
363.656	86.94
363.882	92.94
364.109	65.94
364.335	83.94
364.562	88.94
364.788	71.94
365.015	80.94
365.241	77.94
365.468	81.94
365.694	82.94
365.92	85.94
366.147	89.94
366.373	69.94
366.599	85.94
366.826	80.94
367.052	77.94
367.278	86.94
367.505	101.94
367.731	77.94
367.957	86.94
368.184	69.94
368.41	82.94
368.636	71.94
368.862	90.94
369.089	93.94
369.315	91.94
369.541	72.94
369.767	82.94
369.993	77.94
370.219	73.94
370.445	81.94
370.672	81.94
370.898	86.94
371.124	89.94
371.35	99.94
371.576	93.94
371.802	78.94
372.028	78.94
372.254	64.94
372.48	93.94
372.706	85.94
372.932	88.94
373.158	76.94
373.384	85.94
373.61	86.94
373.835	79.94
374.061	83.94
374.287	85.94
374.513	88.94
374.739	71.94
374.965	84.94
375.191	84.94
375.416	94.94
375.642	82.94
375.868	84.94
376.094	89.94
376.319	78.94
376.545	83.94
376.771	78.94
376.997	77.94
377.222	85.94
377.448	84.94
377.674	89.94
377.899	94.94
378.125	72.94
378.35	87.94
378.576	86.94
378.802	85.94
379.027	74.94
379.253	78.94
379.478	94.94
379.704	81.94
379.929	97.94
380.155	88.94
380.38	75.94
380.606	95.94
380.831	80.94
381.057	91.94
381.282	78.94
381.507	93.94
381.733	93.94
381.958	90.94
382.184	98.94
382.409	92.94
382.634	99.94
382.86	82.94
383.085	88.94
383.31	70.94
383.535	84.94
383.761	82.94
383.986	83.94
384.211	90.94
384.436	90.94
384.662	76.94
384.887	94.94
385.112	90.94
385.337	90.94
385.562	74.94
385.787	98.94
386.013	90.94
386.238	89.94
386.463	93.94
386.688	84.94
386.913	85.94
387.138	94.94
387.363	106.94
387.588	96.94
387.813	89.94
388.038	74.94
388.263	73.94
388.488	78.94
388.713	74.94
388.938	86.94
389.163	78.94
389.387	80.94
389.612	82.94
389.837	83.94
390.062	86.94
390.287	83.94
390.512	88.94
390.736	86.94
390.961	93.94
391.186	77.94
391.411	100.94
391.636	76.94
391.86	81.94
392.085	89.94
392.31	93.94
392.534	85.94
392.759	89.94
392.984	92.94
393.208	76.94
393.433	101.94
393.658	74.94
393.882	99.94
394.107	99.94
394.331	92.94
394.556	80.94
394.78	74.94
395.005	88.94
395.229	81.94
395.454	82.94
395.678	79.94
395.903	101.94
396.127	86.94
396.352	90.94
396.576	101.94
396.801	92.94
397.025	72.94
397.249	89.94
397.474	82.94
397.698	93.94
397.922	95.94
398.147	85.94
398.371	84.94
398.595	90.94
398.82	85.94
399.044	77.94
399.268	83.94
399.492	94.94
399.717	80.94
399.941	90.94
400.165	74.94
400.389	97.94
400.613	91.94
400.837	78.94
401.062	86.94
401.286	93.94
401.51	86.94
401.734	108.94
401.958	96.94
402.182	89.94
402.406	92.94
402.63	97.94
402.854	98.94
403.078	82.94
403.302	84.94
403.526	84.94
403.75	80.94
403.974	94.94
404.198	91.94
404.422	105.94
404.645	92.94
404.869	83.94
405.093	87.94
405.317	82.94
405.541	87.94
405.765	94.94
405.988	88.94
406.212	88.94
406.436	94.94
406.66	97.94
406.883	84.94
407.107	86.94
407.331	86.94
407.555	91.94
407.778	94.94
408.002	93.94
408.226	97.94
408.449	89.94
408.673	92.94
408.896	89.94
409.12	84.94
409.344	79.94
409.567	79.94
409.791	80.94
410.014	85.94
410.238	94.94
410.461	96.94
410.685	87.94
410.908	95.94
411.132	96.94
411.355	98.94
411.578	91.94
411.802	91.94
412.025	73.94
412.249	89.94
412.472	102.94
412.695	101.94
412.919	94.94
413.142	91.94
413.365	89.94
413.589	95.94
413.812	88.94
414.035	95.94
414.258	96.94
414.482	86.94
414.705	81.94
414.928	98.94
415.151	96.94
415.374	78.94
415.597	93.94
415.821	94.94
416.044	100.94
416.267	86.94
416.49	97.94
416.713	80.94
416.936	94.94
417.159	90.94
417.382	87.94
417.605	90.94
417.828	88.94
418.051	84.94
418.274	88.94
418.497	100.94
418.72	98.94
418.943	99.94
419.166	85.94
419.389	97.94
419.611	92.94
419.834	76.94
420.057	74.94
420.28	85.94
420.503	86.94
420.726	87.94
420.948	88.94
421.171	98.94
421.394	95.94
421.617	89.94
421.839	93.94
422.062	83.94
422.285	91.94
422.507	103.94
422.73	90.94
422.953	100.94
423.175	83.94
423.398	69.94
423.621	81.94
423.843	89.94
424.066	96.94
424.288	88.94
424.511	103.94
424.733	97.94
424.956	103.94
425.178	97.94
425.401	91.94
425.623	103.94
425.846	91.94
426.068	93.94
426.291	100.94
426.513	104.94
426.735	89.94
426.958	90.94
427.18	87.94
427.402	99.94
427.625	97.94
427.847	101.94
428.069	103.94
428.292	105.94
428.514	103.94
428.736	94.94
428.958	84.94
429.181	91.94
429.403	101.94
429.625	80.94
429.847	101.94
430.069	92.94
430.292	89.94
430.514	95.94
430.736	81.94
430.958	86.94
431.18	96.94
431.402	96.94
431.624	82.94
431.846	93.94
432.068	90.94
432.29	84.94
432.512	89.94
432.734	103.94
432.956	87.94
433.178	83.94
433.4	93.94
433.622	101.94
433.844	86.94
434.066	94.94
434.287	93.94
434.509	90.94
434.731	79.94
434.953	81.94
435.175	93.94
435.397	93.94
435.618	95.94
435.84	82.94
436.062	88.94
436.284	101.94
436.505	101.94
436.727	93.94
436.949	94.94
437.17	96.94
437.392	95.94
437.614	85.94
437.835	86.94
438.057	77.94
438.278	81.94
438.5	95.94
438.721	101.94
438.943	85.94
439.165	89.94
439.386	99.94
439.608	86.94
439.829	97.94
440.05	90.94
440.272	97.94
440.493	78.94
440.715	86.94
440.936	106.94
441.158	94.94
441.379	91.94
441.6	98.94
441.822	93.94
442.043	100.94
442.264	92.94
442.486	101.94
442.707	91.94
442.928	90.94
443.149	93.94
443.371	95.94
443.592	95.94
443.813	107.94
444.034	104.94
444.255	102.94
444.476	88.94
444.698	105.94
444.919	83.94
445.14	191.94
445.361	136.94
445.582	91.94
445.803	94.94
446.024	98.94
446.245	103.94
446.466	98.94
446.687	90.94
446.908	89.94
447.129	112.94
447.35	100.94
447.571	98.94
447.792	85.94
448.013	97.94
448.234	85.94
448.455	90.94
448.675	100.94
448.896	98.94
449.117	87.94
449.338	104.94
449.559	103.94
449.779	80.94
450	101.94
450.221	93.94
450.442	92.94
450.662	109.94
450.883	92.94
451.104	96.94
451.324	86.94
451.545	88.94
451.766	97.94
451.986	95.94
452.207	86.94
452.428	84.94
452.648	90.94
452.869	96.94
453.089	91.94
453.31	96.94
453.53	91.94
453.751	71.94
453.971	72.94
454.192	82.94
454.412	88.94
454.633	93.94
454.853	83.94
455.073	89.94
455.294	85.94
455.514	79.94
455.734	92.94
455.955	101.94
456.175	87.94
456.395	81.94
456.616	91.94
456.836	95.94
457.056	90.94
457.276	87.94
457.497	89.94
457.717	86.94
457.937	77.94
458.157	86.94
458.377	77.94
458.598	96.94
458.818	71.94
459.038	92.94
459.258	79.94
459.478	80.94
459.698	92.94
459.918	94.94
460.138	83.94
460.358	82.94
460.578	98.94
460.798	92.94
461.018	89.94
461.238	87.94
461.458	75.94
461.678	73.94
461.898	97.94
462.118	88.94
462.338	104.94
462.558	90.94
462.777	99.94
462.997	89.94
463.217	85.94
463.437	89.94
463.657	103.94
463.876	94.94
464.096	83.94
464.316	69.94
464.536	68.94
464.755	99.94
464.975	85.94
465.195	86.94
465.414	110.94
465.634	89.94
465.854	107.94
466.073	77.94
466.293	82.94
466.512	78.94
466.732	101.94
466.951	94.94
467.171	95.94
467.391	110.94
467.61	92.94
467.829	103.94
468.049	82.94
468.268	85.94
468.488	86.94
468.707	99.94
468.927	102.94
469.146	100.94
469.365	90.94
469.585	105.94
469.804	116.94
470.023	95.94
470.243	93.94
470.462	106.94
470.681	110.94
470.901	101.94
471.12	106.94
471.339	83.94
471.558	100.94
471.777	97.94
471.997	114.94
472.216	109.94
472.435	83.94
472.654	95.94
472.873	88.94
473.092	101.94
473.311	95.94
473.53	113.94
473.749	95.94
473.968	106.94
474.187	95.94
474.406	89.94
474.625	99.94
474.844	93.94
475.063	86.94
475.282	94.94
475.501	93.94
475.72	87.94
475.939	92.94
476.158	89.94
476.377	99.94
476.596	95.94
476.814	89.94
477.033	90.94
477.252	75.94
477.471	86.94
477.69	91.94
477.908	101.94
478.127	88.94
478.346	95.94
478.564	88.94
478.783	97.94
479.002	111.94
479.22	88.94
479.439	86.94
479.658	83.94
479.876	84.94
480.095	81.94
480.313	89.94
480.532	91.94
480.751	96.94
480.969	86.94
481.188	84.94
481.406	75.94
481.624	91.94
481.843	70.94
482.061	70.94
482.28	96.94
482.498	96.94
482.717	90.94
482.935	95.94
483.153	97.94
483.372	98.94
483.59	109.94
483.808	90.94
484.027	95.94
484.245	97.94
484.463	107.94
484.681	102.94
484.9	96.94
485.118	94.94
485.336	107.94
485.554	93.94
485.772	85.94
485.99	84.94
486.209	100.94
486.427	89.94
486.645	106.94
486.863	102.94
487.081	94.94
487.299	98.94
487.517	89.94
487.735	105.94
487.953	113.94
488.171	136.94
488.389	100.94
488.607	99.94
488.825	107.94
489.043	94.94
489.261	89.94
489.479	83.94
489.696	110.94
489.914	102.94
490.132	98.94
490.35	111.94
490.568	104.94
490.786	99.94
491.003	103.94
491.221	122.94
491.439	97.94
491.657	95.94
491.874	114.94
492.092	123.94
492.31	126.94
492.527	115.94
492.745	99.94
492.963	114.94
493.18	101.94
493.398	102.94
493.615	106.94
493.833	113.94
494.05	103.94
494.268	122.94
494.485	106.94
494.703	126.94
494.92	122.94
495.138	100.94
495.355	115.94
495.573	119.94
495.79	111.94
496.008	121.94
496.225	113.94
496.442	103.94
496.66	111.94
496.877	104.94
497.094	100.94
497.312	88.94
497.529	102.94
497.746	95.94
497.963	97.94
498.181	89.94
498.398	100.94
498.615	92.94
498.832	83.94
499.049	97.94
499.267	106.94
499.484	93.94
499.701	102.94
499.918	96.94
500.135	98.94
500.352	88.94
500.569	83.94
500.786	95.94
501.003	99.94
501.22	93.94
501.437	101.94
501.654	97.94
501.871	96.94
502.088	103.94
502.305	106.94
502.522	101.94
502.739	90.94
502.956	89.94
503.172	94.94
503.389	90.94
503.606	108.94
503.823	97.94
504.04	95.94
504.256	90.94
504.473	86.94
504.69	101.94
504.907	100.94
505.123	88.94
505.34	93.94
505.557	93.94
505.773	94.94
505.99	100.94
506.207	84.94
506.423	79.94
506.64	86.94
506.856	80.94
507.073	83.94
507.289	90.94
507.506	86.94
507.722	85.94
507.939	90.94
508.155	81.94
508.372	90.94
508.588	87.94
508.805	86.94
509.021	86.94
509.238	94.94
509.454	89.94
509.67	90.94
509.887	90.94
510.103	86.94
510.319	96.94
510.536	88.94
510.752	92.94
510.968	91.94
511.184	84.94
511.401	81.94
511.617	79.94
511.833	94.94
512.049	89.94
512.265	85.94
512.481	94.94
512.698	82.94
512.914	85.94
513.13	94.94
513.346	86.94
513.562	93.94
513.778	81.94
513.994	79.94
514.21	84.94
514.426	92.94
514.642	90.94
514.858	78.94
515.074	85.94
515.29	79.94
515.506	74.94
515.721	87.94
515.937	61.94
516.153	89.94
516.369	65.94
516.585	75.94
516.801	78.94
517.016	80.94
517.232	77.94
517.448	85.94
517.664	90.94
