Data from Location3.07152019.Energy5.Lamp.07192019.3%Agarose_HRD10591_15-18-07-270.txt Node
Date: Fri Jul 19 15:18:07 EDT 2019
User: cochatt
Spectrometer: HR+D1059
Trigger mode: 1
Integration Time (sec): 1.000000E-1
Scans to average: 1
Electric dark correction enabled: true
Nonlinearity correction enabled: false
Boxcar width: 0
XAxis mode: Wavelengths
Number of Pixels in Spectrum: 2048
>>>>>Begin Spectral Data<<<<<
223.165	-6.06
223.4	-6.06
223.635	-6.06
223.869	-20.06
224.104	-3.06
224.338	-12.06
224.573	-17.06
224.808	-14.06
225.042	-3.06
225.277	-3.06
225.511	13.94
225.746	-5.06
225.98	-4.06
226.215	13.94
226.449	7.94
226.683	7.94
226.918	6.94
227.152	36.94
227.387	28.94
227.621	43.94
227.856	33.94
228.09	29.94
228.324	58.94
228.559	61.94
228.793	52.94
229.027	72.94
229.262	61.94
229.496	69.94
229.73	64.94
229.964	72.94
230.199	66.94
230.433	75.94
230.667	79.94
230.901	83.94
231.136	90.94
231.37	71.94
231.604	52.94
231.838	82.94
232.072	68.94
232.306	77.94
232.541	75.94
232.775	99.94
233.009	86.94
233.243	79.94
233.477	92.94
233.711	66.94
233.945	95.94
234.179	72.94
234.413	88.94
234.647	88.94
234.881	88.94
235.115	88.94
235.349	74.94
235.583	63.94
235.817	69.94
236.051	72.94
236.285	73.94
236.519	68.94
236.753	79.94
236.987	73.94
237.221	82.94
237.455	77.94
237.689	74.94
237.922	74.94
238.156	74.94
238.39	74.94
238.624	79.94
238.858	73.94
239.091	71.94
239.325	85.94
239.559	82.94
239.793	66.94
240.027	81.94
240.26	71.94
240.494	92.94
240.728	88.94
240.961	58.94
241.195	87.94
241.429	74.94
241.662	72.94
241.896	66.94
242.13	68.94
242.363	81.94
242.597	71.94
242.83	71.94
243.064	70.94
243.298	77.94
243.531	65.94
243.765	72.94
243.998	73.94
244.232	64.94
244.465	81.94
244.699	78.94
244.932	83.94
245.166	76.94
245.399	71.94
245.633	62.94
245.866	80.94
246.099	65.94
246.333	65.94
246.566	77.94
246.8	87.94
247.033	83.94
247.266	80.94
247.5	87.94
247.733	66.94
247.966	78.94
248.2	70.94
248.433	69.94
248.666	87.94
248.899	81.94
249.133	79.94
249.366	80.94
249.599	74.94
249.832	74.94
250.066	90.94
250.299	75.94
250.532	76.94
250.765	69.94
250.998	78.94
251.231	86.94
251.465	73.94
251.698	86.94
251.931	74.94
252.164	83.94
252.397	82.94
252.63	79.94
252.863	92.94
253.096	86.94
253.329	70.94
253.562	80.94
253.795	85.94
254.028	88.94
254.261	75.94
254.494	74.94
254.727	78.94
254.96	81.94
255.193	66.94
255.426	80.94
255.659	75.94
255.892	97.94
256.124	77.94
256.357	75.94
256.59	81.94
256.823	82.94
257.056	81.94
257.289	75.94
257.521	68.94
257.754	74.94
257.987	75.94
258.22	84.94
258.452	74.94
258.685	74.94
258.918	56.94
259.151	64.94
259.383	84.94
259.616	80.94
259.849	91.94
260.081	86.94
260.314	83.94
260.547	72.94
260.779	84.94
261.012	65.94
261.244	70.94
261.477	92.94
261.71	75.94
261.942	85.94
262.175	84.94
262.407	79.94
262.64	83.94
262.872	98.94
263.105	74.94
263.337	80.94
263.57	81.94
263.802	79.94
264.035	74.94
264.267	77.94
264.499	78.94
264.732	86.94
264.964	89.94
265.197	86.94
265.429	83.94
265.661	81.94
265.894	82.94
266.126	85.94
266.358	89.94
266.591	85.94
266.823	92.94
267.055	86.94
267.287	76.94
267.52	93.94
267.752	81.94
267.984	78.94
268.216	81.94
268.448	80.94
268.681	79.94
268.913	68.94
269.145	79.94
269.377	71.94
269.609	74.94
269.841	76.94
270.073	88.94
270.306	73.94
270.538	76.94
270.77	80.94
271.002	80.94
271.234	86.94
271.466	88.94
271.698	74.94
271.93	76.94
272.162	76.94
272.394	87.94
272.626	86.94
272.858	80.94
273.09	88.94
273.322	76.94
273.553	79.94
273.785	94.94
274.017	75.94
274.249	76.94
274.481	73.94
274.713	65.94
274.945	77.94
275.176	82.94
275.408	78.94
275.64	93.94
275.872	84.94
276.104	89.94
276.335	84.94
276.567	70.94
276.799	72.94
277.031	76.94
277.262	91.94
277.494	99.94
277.726	85.94
277.957	82.94
278.189	73.94
278.421	78.94
278.652	93.94
278.884	86.94
279.115	83.94
279.347	80.94
279.579	66.94
279.81	72.94
280.042	77.94
280.273	87.94
280.505	86.94
280.736	96.94
280.968	78.94
281.199	74.94
281.431	101.94
281.662	92.94
281.894	91.94
282.125	70.94
282.356	74.94
282.588	82.94
282.819	92.94
283.051	92.94
283.282	88.94
283.513	85.94
283.745	79.94
283.976	83.94
284.207	85.94
284.439	73.94
284.67	87.94
284.901	79.94
285.132	82.94
285.364	75.94
285.595	85.94
285.826	73.94
286.057	92.94
286.288	76.94
286.52	76.94
286.751	80.94
286.982	74.94
287.213	82.94
287.444	74.94
287.675	81.94
287.906	88.94
288.138	94.94
288.369	73.94
288.6	83.94
288.831	72.94
289.062	87.94
289.293	83.94
289.524	74.94
289.755	81.94
289.986	78.94
290.217	96.94
290.448	72.94
290.679	95.94
290.91	81.94
291.141	75.94
291.371	85.94
291.602	78.94
291.833	76.94
292.064	88.94
292.295	83.94
292.526	87.94
292.757	77.94
292.987	67.94
293.218	76.94
293.449	83.94
293.68	78.94
293.91	76.94
294.141	83.94
294.372	66.94
294.603	93.94
294.833	83.94
295.064	88.94
295.295	77.94
295.525	78.94
295.756	66.94
295.987	65.94
296.217	93.94
296.448	70.94
296.679	75.94
296.909	80.94
297.14	81.94
297.37	87.94
297.601	81.94
297.831	83.94
298.062	81.94
298.292	94.94
298.523	89.94
298.753	89.94
298.984	93.94
299.214	81.94
299.445	100.94
299.675	78.94
299.905	82.94
300.136	76.94
300.366	72.94
300.597	101.94
300.827	105.94
301.057	79.94
301.288	85.94
301.518	87.94
301.748	87.94
301.979	90.94
302.209	95.94
302.439	84.94
302.669	82.94
302.9	72.94
303.13	85.94
303.36	92.94
303.59	78.94
303.82	100.94
304.051	90.94
304.281	75.94
304.511	86.94
304.741	83.94
304.971	80.94
305.201	92.94
305.431	81.94
305.661	94.94
305.891	72.94
306.121	87.94
306.352	90.94
306.582	87.94
306.812	70.94
307.042	85.94
307.272	81.94
307.502	79.94
307.731	81.94
307.961	82.94
308.191	82.94
308.421	80.94
308.651	83.94
308.881	73.94
309.111	84.94
309.341	75.94
309.571	77.94
309.8	89.94
310.03	72.94
310.26	74.94
310.49	74.94
310.72	78.94
310.949	80.94
311.179	95.94
311.409	104.94
311.639	96.94
311.868	76.94
312.098	92.94
312.328	82.94
312.557	85.94
312.787	72.94
313.017	87.94
313.246	80.94
313.476	88.94
313.706	87.94
313.935	92.94
314.165	83.94
314.394	86.94
314.624	79.94
314.853	83.94
315.083	94.94
315.312	88.94
315.542	84.94
315.771	85.94
316.001	93.94
316.23	79.94
316.46	76.94
316.689	84.94
316.919	81.94
317.148	79.94
317.377	101.94
317.607	100.94
317.836	83.94
318.065	82.94
318.295	94.94
318.524	80.94
318.753	87.94
318.983	96.94
319.212	85.94
319.441	80.94
319.67	83.94
319.9	73.94
320.129	79.94
320.358	79.94
320.587	84.94
320.816	81.94
321.046	76.94
321.275	88.94
321.504	89.94
321.733	94.94
321.962	90.94
322.191	80.94
322.42	76.94
322.649	87.94
322.878	88.94
323.108	93.94
323.337	86.94
323.566	81.94
323.795	90.94
324.024	100.94
324.253	95.94
324.482	71.94
324.71	70.94
324.939	82.94
325.168	76.94
325.397	83.94
325.626	87.94
325.855	82.94
326.084	86.94
326.313	79.94
326.542	72.94
326.77	69.94
326.999	89.94
327.228	84.94
327.457	77.94
327.686	95.94
327.914	72.94
328.143	83.94
328.372	76.94
328.6	88.94
328.829	70.94
329.058	78.94
329.287	80.94
329.515	96.94
329.744	100.94
329.972	81.94
330.201	99.94
330.43	80.94
330.658	77.94
330.887	71.94
331.115	93.94
331.344	77.94
331.572	86.94
331.801	78.94
332.03	81.94
332.258	90.94
332.486	69.94
332.715	81.94
332.943	72.94
333.172	80.94
333.4	78.94
333.629	74.94
333.857	85.94
334.085	88.94
334.314	82.94
334.542	84.94
334.771	81.94
334.999	84.94
335.227	82.94
335.455	85.94
335.684	88.94
335.912	79.94
336.14	86.94
336.369	93.94
336.597	83.94
336.825	74.94
337.053	79.94
337.281	83.94
337.51	95.94
337.738	85.94
337.966	77.94
338.194	86.94
338.422	93.94
338.65	80.94
338.878	82.94
339.106	86.94
339.334	87.94
339.562	73.94
339.79	70.94
340.018	96.94
340.246	89.94
340.474	81.94
340.702	82.94
340.93	86.94
341.158	82.94
341.386	76.94
341.614	73.94
341.842	96.94
342.07	73.94
342.298	77.94
342.526	84.94
342.754	86.94
342.981	79.94
343.209	73.94
343.437	94.94
343.665	62.94
343.893	72.94
344.12	89.94
344.348	87.94
344.576	81.94
344.804	86.94
345.031	88.94
345.259	72.94
345.487	75.94
345.714	95.94
345.942	63.94
346.17	72.94
346.397	81.94
346.625	85.94
346.853	81.94
347.08	79.94
347.308	85.94
347.535	71.94
347.763	81.94
347.99	82.94
348.218	100.94
348.445	89.94
348.673	73.94
348.9	82.94
349.128	82.94
349.355	82.94
349.583	81.94
349.81	72.94
350.037	86.94
350.265	74.94
350.492	83.94
350.72	77.94
350.947	87.94
351.174	92.94
351.402	78.94
351.629	79.94
351.856	86.94
352.083	77.94
352.311	99.94
352.538	81.94
352.765	82.94
352.992	86.94
353.22	85.94
353.447	86.94
353.674	100.94
353.901	74.94
354.128	98.94
354.355	93.94
354.583	90.94
354.81	69.94
355.037	72.94
355.264	85.94
355.491	78.94
355.718	79.94
355.945	81.94
356.172	81.94
356.399	88.94
356.626	87.94
356.853	88.94
357.08	83.94
357.307	71.94
357.534	81.94
357.761	85.94
357.988	95.94
358.215	84.94
358.441	79.94
358.668	102.94
358.895	85.94
359.122	88.94
359.349	84.94
359.576	90.94
359.802	78.94
360.029	86.94
360.256	84.94
360.483	88.94
360.709	89.94
360.936	100.94
361.163	84.94
361.39	87.94
361.616	83.94
361.843	74.94
362.07	83.94
362.296	88.94
362.523	86.94
362.749	79.94
362.976	82.94
363.203	85.94
363.429	76.94
363.656	88.94
363.882	86.94
364.109	90.94
364.335	82.94
364.562	76.94
364.788	84.94
365.015	81.94
365.241	76.94
365.468	96.94
365.694	78.94
365.92	87.94
366.147	81.94
366.373	90.94
366.599	78.94
366.826	84.94
367.052	81.94
367.278	70.94
367.505	82.94
367.731	84.94
367.957	94.94
368.184	79.94
368.41	89.94
368.636	91.94
368.862	83.94
369.089	68.94
369.315	98.94
369.541	85.94
369.767	95.94
369.993	65.94
370.219	71.94
370.445	68.94
370.672	72.94
370.898	74.94
371.124	82.94
371.35	74.94
371.576	79.94
371.802	73.94
372.028	81.94
372.254	80.94
372.48	70.94
372.706	79.94
372.932	74.94
373.158	86.94
373.384	81.94
373.61	75.94
373.835	85.94
374.061	87.94
374.287	87.94
374.513	99.94
374.739	84.94
374.965	69.94
375.191	83.94
375.416	90.94
375.642	73.94
375.868	90.94
376.094	76.94
376.319	93.94
376.545	82.94
376.771	75.94
376.997	88.94
377.222	80.94
377.448	90.94
377.674	74.94
377.899	78.94
378.125	80.94
378.35	75.94
378.576	90.94
378.802	85.94
379.027	96.94
379.253	86.94
379.478	67.94
379.704	98.94
379.929	83.94
380.155	67.94
380.38	73.94
380.606	86.94
380.831	84.94
381.057	75.94
381.282	90.94
381.507	90.94
381.733	83.94
381.958	82.94
382.184	88.94
382.409	78.94
382.634	89.94
382.86	86.94
383.085	88.94
383.31	89.94
383.535	92.94
383.761	77.94
383.986	89.94
384.211	81.94
384.436	96.94
384.662	86.94
384.887	77.94
385.112	70.94
385.337	72.94
385.562	99.94
385.787	77.94
386.013	93.94
386.238	73.94
386.463	80.94
386.688	93.94
386.913	72.94
387.138	75.94
387.363	88.94
387.588	73.94
387.813	81.94
388.038	88.94
388.263	80.94
388.488	79.94
388.713	94.94
388.938	82.94
389.163	81.94
389.387	81.94
389.612	95.94
389.837	89.94
390.062	106.94
390.287	99.94
390.512	87.94
390.736	84.94
390.961	73.94
391.186	78.94
391.411	101.94
391.636	87.94
391.86	86.94
392.085	87.94
392.31	79.94
392.534	95.94
392.759	103.94
392.984	89.94
393.208	101.94
393.433	78.94
393.658	90.94
393.882	91.94
394.107	94.94
394.331	85.94
394.556	89.94
394.78	77.94
395.005	73.94
395.229	92.94
395.454	89.94
395.678	75.94
395.903	83.94
396.127	83.94
396.352	82.94
396.576	89.94
396.801	95.94
397.025	92.94
397.249	83.94
397.474	80.94
397.698	84.94
397.922	84.94
398.147	82.94
398.371	86.94
398.595	93.94
398.82	84.94
399.044	86.94
399.268	88.94
399.492	90.94
399.717	90.94
399.941	103.94
400.165	93.94
400.389	85.94
400.613	94.94
400.837	99.94
401.062	105.94
401.286	86.94
401.51	89.94
401.734	89.94
401.958	73.94
402.182	90.94
402.406	87.94
402.63	79.94
402.854	90.94
403.078	78.94
403.302	94.94
403.526	86.94
403.75	78.94
403.974	92.94
404.198	84.94
404.422	92.94
404.645	91.94
404.869	97.94
405.093	76.94
405.317	86.94
405.541	100.94
405.765	92.94
405.988	92.94
406.212	87.94
406.436	94.94
406.66	88.94
406.883	91.94
407.107	74.94
407.331	80.94
407.555	112.94
407.778	80.94
408.002	102.94
408.226	78.94
408.449	99.94
408.673	86.94
408.896	80.94
409.12	87.94
409.344	103.94
409.567	97.94
409.791	103.94
410.014	103.94
410.238	77.94
410.461	83.94
410.685	89.94
410.908	97.94
411.132	101.94
411.355	88.94
411.578	79.94
411.802	84.94
412.025	95.94
412.249	106.94
412.472	96.94
412.695	78.94
412.919	74.94
413.142	87.94
413.365	73.94
413.589	78.94
413.812	85.94
414.035	105.94
414.258	95.94
414.482	113.94
414.705	87.94
414.928	100.94
415.151	99.94
415.374	93.94
415.597	88.94
415.821	86.94
416.044	89.94
416.267	88.94
416.49	87.94
416.713	96.94
416.936	100.94
417.159	97.94
417.382	89.94
417.605	81.94
417.828	93.94
418.051	79.94
418.274	98.94
418.497	105.94
418.72	97.94
418.943	98.94
419.166	98.94
419.389	94.94
419.611	100.94
419.834	98.94
420.057	98.94
420.28	95.94
420.503	94.94
420.726	80.94
420.948	97.94
421.171	81.94
421.394	88.94
421.617	95.94
421.839	87.94
422.062	102.94
422.285	101.94
422.507	94.94
422.73	93.94
422.953	82.94
423.175	86.94
423.398	93.94
423.621	97.94
423.843	89.94
424.066	102.94
424.288	108.94
424.511	104.94
424.733	92.94
424.956	94.94
425.178	102.94
425.401	101.94
425.623	94.94
425.846	88.94
426.068	90.94
426.291	87.94
426.513	94.94
426.735	77.94
426.958	100.94
427.18	99.94
427.402	94.94
427.625	88.94
427.847	98.94
428.069	94.94
428.292	86.94
428.514	82.94
428.736	87.94
428.958	95.94
429.181	95.94
429.403	87.94
429.625	92.94
429.847	97.94
430.069	94.94
430.292	81.94
430.514	100.94
430.736	94.94
430.958	83.94
431.18	87.94
431.402	89.94
431.624	96.94
431.846	94.94
432.068	88.94
432.29	94.94
432.512	105.94
432.734	86.94
432.956	96.94
433.178	98.94
433.4	96.94
433.622	88.94
433.844	108.94
434.066	90.94
434.287	83.94
434.509	98.94
434.731	82.94
434.953	89.94
435.175	85.94
435.397	92.94
435.618	92.94
435.84	92.94
436.062	85.94
436.284	79.94
436.505	88.94
436.727	105.94
436.949	96.94
437.17	70.94
437.392	91.94
437.614	81.94
437.835	106.94
438.057	96.94
438.278	91.94
438.5	86.94
438.721	98.94
438.943	97.94
439.165	96.94
439.386	93.94
439.608	97.94
439.829	93.94
440.05	93.94
440.272	88.94
440.493	88.94
440.715	98.94
440.936	85.94
441.158	92.94
441.379	100.94
441.6	87.94
441.822	105.94
442.043	93.94
442.264	104.94
442.486	109.94
442.707	96.94
442.928	104.94
443.149	88.94
443.371	90.94
443.592	96.94
443.813	92.94
444.034	96.94
444.255	95.94
444.476	95.94
444.698	97.94
444.919	100.94
445.14	178.94
445.361	130.94
445.582	101.94
445.803	105.94
446.024	102.94
446.245	104.94
446.466	120.94
446.687	104.94
446.908	116.94
447.129	109.94
447.35	85.94
447.571	98.94
447.792	98.94
448.013	87.94
448.234	95.94
448.455	100.94
448.675	99.94
448.896	89.94
449.117	95.94
449.338	92.94
449.559	106.94
449.779	87.94
450	99.94
450.221	99.94
450.442	93.94
450.662	96.94
450.883	87.94
451.104	90.94
451.324	104.94
451.545	94.94
451.766	92.94
451.986	97.94
452.207	104.94
452.428	73.94
452.648	90.94
452.869	96.94
453.089	86.94
453.31	77.94
453.53	102.94
453.751	92.94
453.971	93.94
454.192	93.94
454.412	80.94
454.633	80.94
454.853	85.94
455.073	78.94
455.294	92.94
455.514	88.94
455.734	91.94
455.955	93.94
456.175	81.94
456.395	87.94
456.616	88.94
456.836	87.94
457.056	89.94
457.276	81.94
457.497	101.94
457.717	97.94
457.937	82.94
458.157	87.94
458.377	92.94
458.598	89.94
458.818	72.94
459.038	83.94
459.258	74.94
459.478	82.94
459.698	81.94
459.918	86.94
460.138	84.94
460.358	93.94
460.578	89.94
460.798	82.94
461.018	88.94
461.238	83.94
461.458	92.94
461.678	97.94
461.898	97.94
462.118	93.94
462.338	84.94
462.558	88.94
462.777	106.94
462.997	89.94
463.217	95.94
463.437	99.94
463.657	96.94
463.876	83.94
464.096	84.94
464.316	88.94
464.536	78.94
464.755	89.94
464.975	81.94
465.195	100.94
465.414	75.94
465.634	89.94
465.854	105.94
466.073	89.94
466.293	89.94
466.512	101.94
466.732	94.94
466.951	109.94
467.171	94.94
467.391	113.94
467.61	99.94
467.829	88.94
468.049	86.94
468.268	84.94
468.488	87.94
468.707	80.94
468.927	100.94
469.146	95.94
469.365	101.94
469.585	94.94
469.804	92.94
470.023	92.94
470.243	98.94
470.462	104.94
470.681	87.94
470.901	86.94
471.12	115.94
471.339	86.94
471.558	92.94
471.777	96.94
471.997	87.94
472.216	104.94
472.435	81.94
472.654	92.94
472.873	93.94
473.092	90.94
473.311	82.94
473.53	95.94
473.749	80.94
473.968	90.94
474.187	89.94
474.406	80.94
474.625	100.94
474.844	97.94
475.063	78.94
475.282	90.94
475.501	78.94
475.72	96.94
475.939	98.94
476.158	99.94
476.377	78.94
476.596	88.94
476.814	99.94
477.033	87.94
477.252	100.94
477.471	98.94
477.69	90.94
477.908	97.94
478.127	102.94
478.346	96.94
478.564	99.94
478.783	103.94
479.002	92.94
479.22	105.94
479.439	95.94
479.658	97.94
479.876	81.94
480.095	92.94
480.313	105.94
480.532	102.94
480.751	92.94
480.969	99.94
481.188	74.94
481.406	85.94
481.624	80.94
481.843	77.94
482.061	78.94
482.28	79.94
482.498	87.94
482.717	83.94
482.935	89.94
483.153	106.94
483.372	100.94
483.59	98.94
483.808	100.94
484.027	99.94
484.245	87.94
484.463	88.94
484.681	81.94
484.9	110.94
485.118	84.94
485.336	78.94
485.554	81.94
485.772	82.94
485.99	89.94
486.209	101.94
486.427	86.94
486.645	92.94
486.863	111.94
487.081	95.94
487.299	105.94
487.517	117.94
487.735	98.94
487.953	118.94
488.171	105.94
488.389	106.94
488.607	98.94
488.825	94.94
489.043	99.94
489.261	109.94
489.479	92.94
489.696	104.94
489.914	98.94
490.132	110.94
490.35	105.94
490.568	98.94
490.786	109.94
491.003	103.94
491.221	105.94
491.439	118.94
491.657	94.94
491.874	103.94
492.092	132.94
492.31	128.94
492.527	130.94
492.745	118.94
492.963	120.94
493.18	111.94
493.398	101.94
493.615	96.94
493.833	114.94
494.05	106.94
494.268	102.94
494.485	106.94
494.703	102.94
494.92	112.94
495.138	99.94
495.355	105.94
495.573	118.94
495.79	98.94
496.008	103.94
496.225	125.94
496.442	114.94
496.66	108.94
496.877	96.94
497.094	113.94
497.312	118.94
497.529	108.94
497.746	87.94
497.963	105.94
498.181	94.94
498.398	88.94
498.615	85.94
498.832	99.94
499.049	71.94
499.267	94.94
499.484	74.94
499.701	84.94
499.918	106.94
500.135	88.94
500.352	102.94
500.569	89.94
500.786	87.94
501.003	93.94
501.22	103.94
501.437	103.94
501.654	102.94
501.871	104.94
502.088	78.94
502.305	115.94
502.522	108.94
502.739	100.94
502.956	98.94
503.172	105.94
503.389	84.94
503.606	91.94
503.823	97.94
504.04	88.94
504.256	94.94
504.473	84.94
504.69	87.94
504.907	103.94
505.123	85.94
505.34	106.94
505.557	99.94
505.773	100.94
505.99	97.94
506.207	89.94
506.423	97.94
506.64	84.94
506.856	89.94
507.073	85.94
507.289	97.94
507.506	95.94
507.722	89.94
507.939	89.94
508.155	86.94
508.372	93.94
508.588	105.94
508.805	91.94
509.021	89.94
509.238	83.94
509.454	91.94
509.67	87.94
509.887	86.94
510.103	82.94
510.319	71.94
510.536	84.94
510.752	64.94
510.968	78.94
511.184	85.94
511.401	75.94
511.617	88.94
511.833	75.94
512.049	93.94
512.265	77.94
512.481	83.94
512.698	78.94
512.914	83.94
513.13	82.94
513.346	64.94
513.562	82.94
513.778	83.94
513.994	87.94
514.21	82.94
514.426	105.94
514.642	100.94
514.858	92.94
515.074	87.94
515.29	94.94
515.506	75.94
515.721	81.94
515.937	81.94
516.153	80.94
516.369	87.94
516.585	83.94
516.801	92.94
517.016	82.94
517.232	85.94
517.448	74.94
