Data from Location3.07152019.Energy5.Lamp.07192019.3%Agarose_HRD10591_15-19-36-276.txt Node
Date: Fri Jul 19 15:19:36 EDT 2019
User: cochatt
Spectrometer: HR+D1059
Trigger mode: 1
Integration Time (sec): 1.000000E-1
Scans to average: 1
Electric dark correction enabled: true
Nonlinearity correction enabled: false
Boxcar width: 0
XAxis mode: Wavelengths
Number of Pixels in Spectrum: 2048
>>>>>Begin Spectral Data<<<<<
223.165	-12.5
223.4	-12.5
223.635	-12.5
223.869	-16.5
224.104	-19.5
224.338	-20.5
224.573	-6.5
224.808	-16.5
225.042	2.5
225.277	-9.5
225.511	-5.5
225.746	13.5
225.98	4.5
226.215	4.5
226.449	21.5
226.683	5.5
226.918	23.5
227.152	31.5
227.387	41.5
227.621	47.5
227.856	45.5
228.09	52.5
228.324	56.5
228.559	61.5
228.793	66.5
229.027	61.5
229.262	57.5
229.496	64.5
229.73	70.5
229.964	74.5
230.199	86.5
230.433	86.5
230.667	79.5
230.901	76.5
231.136	80.5
231.37	90.5
231.604	99.5
231.838	78.5
232.072	82.5
232.306	89.5
232.541	80.5
232.775	82.5
233.009	93.5
233.243	82.5
233.477	78.5
233.711	99.5
233.945	78.5
234.179	82.5
234.413	92.5
234.647	92.5
234.881	86.5
235.115	74.5
235.349	85.5
235.583	86.5
235.817	72.5
236.051	74.5
236.285	89.5
236.519	82.5
236.753	74.5
236.987	82.5
237.221	72.5
237.455	60.5
237.689	82.5
237.922	75.5
238.156	75.5
238.39	83.5
238.624	79.5
238.858	83.5
239.091	79.5
239.325	77.5
239.559	77.5
239.793	89.5
240.027	95.5
240.26	78.5
240.494	88.5
240.728	76.5
240.961	85.5
241.195	77.5
241.429	86.5
241.662	78.5
241.896	87.5
242.13	81.5
242.363	96.5
242.597	85.5
242.83	77.5
243.064	84.5
243.298	84.5
243.531	75.5
243.765	88.5
243.998	84.5
244.232	86.5
244.465	78.5
244.699	74.5
244.932	69.5
245.166	102.5
245.399	79.5
245.633	77.5
245.866	97.5
246.099	80.5
246.333	74.5
246.566	82.5
246.8	80.5
247.033	92.5
247.266	75.5
247.5	67.5
247.733	74.5
247.966	74.5
248.2	91.5
248.433	95.5
248.666	83.5
248.899	83.5
249.133	89.5
249.366	102.5
249.599	67.5
249.832	82.5
250.066	75.5
250.299	59.5
250.532	84.5
250.765	70.5
250.998	84.5
251.231	94.5
251.465	94.5
251.698	91.5
251.931	92.5
252.164	86.5
252.397	85.5
252.63	90.5
252.863	86.5
253.096	90.5
253.329	79.5
253.562	84.5
253.795	86.5
254.028	96.5
254.261	71.5
254.494	80.5
254.727	75.5
254.96	81.5
255.193	71.5
255.426	81.5
255.659	68.5
255.892	93.5
256.124	90.5
256.357	65.5
256.59	80.5
256.823	76.5
257.056	86.5
257.289	93.5
257.521	68.5
257.754	56.5
257.987	78.5
258.22	89.5
258.452	100.5
258.685	78.5
258.918	82.5
259.151	78.5
259.383	74.5
259.616	83.5
259.849	76.5
260.081	92.5
260.314	93.5
260.547	80.5
260.779	96.5
261.012	83.5
261.244	89.5
261.477	80.5
261.71	89.5
261.942	85.5
262.175	95.5
262.407	78.5
262.64	80.5
262.872	85.5
263.105	85.5
263.337	98.5
263.57	93.5
263.802	78.5
264.035	89.5
264.267	88.5
264.499	87.5
264.732	89.5
264.964	91.5
265.197	80.5
265.429	87.5
265.661	80.5
265.894	86.5
266.126	90.5
266.358	91.5
266.591	85.5
266.823	86.5
267.055	74.5
267.287	83.5
267.52	81.5
267.752	83.5
267.984	84.5
268.216	77.5
268.448	92.5
268.681	79.5
268.913	87.5
269.145	94.5
269.377	90.5
269.609	88.5
269.841	83.5
270.073	78.5
270.306	85.5
270.538	98.5
270.77	97.5
271.002	86.5
271.234	92.5
271.466	96.5
271.698	79.5
271.93	85.5
272.162	79.5
272.394	96.5
272.626	83.5
272.858	82.5
273.09	84.5
273.322	88.5
273.553	80.5
273.785	89.5
274.017	85.5
274.249	93.5
274.481	87.5
274.713	90.5
274.945	78.5
275.176	89.5
275.408	91.5
275.64	87.5
275.872	79.5
276.104	92.5
276.335	85.5
276.567	94.5
276.799	81.5
277.031	77.5
277.262	92.5
277.494	81.5
277.726	90.5
277.957	87.5
278.189	86.5
278.421	68.5
278.652	89.5
278.884	88.5
279.115	79.5
279.347	80.5
279.579	79.5
279.81	86.5
280.042	87.5
280.273	86.5
280.505	88.5
280.736	95.5
280.968	92.5
281.199	80.5
281.431	74.5
281.662	81.5
281.894	79.5
282.125	93.5
282.356	86.5
282.588	89.5
282.819	94.5
283.051	85.5
283.282	99.5
283.513	99.5
283.745	90.5
283.976	86.5
284.207	102.5
284.439	83.5
284.67	87.5
284.901	104.5
285.132	93.5
285.364	77.5
285.595	87.5
285.826	89.5
286.057	94.5
286.288	105.5
286.52	88.5
286.751	89.5
286.982	73.5
287.213	85.5
287.444	87.5
287.675	91.5
287.906	93.5
288.138	89.5
288.369	95.5
288.6	85.5
288.831	103.5
289.062	106.5
289.293	99.5
289.524	84.5
289.755	90.5
289.986	93.5
290.217	89.5
290.448	89.5
290.679	92.5
290.91	92.5
291.141	94.5
291.371	93.5
291.602	101.5
291.833	94.5
292.064	88.5
292.295	83.5
292.526	86.5
292.757	91.5
292.987	80.5
293.218	96.5
293.449	80.5
293.68	90.5
293.91	85.5
294.141	72.5
294.372	101.5
294.603	87.5
294.833	87.5
295.064	81.5
295.295	90.5
295.525	93.5
295.756	94.5
295.987	101.5
296.217	72.5
296.448	106.5
296.679	84.5
296.909	79.5
297.14	89.5
297.37	81.5
297.601	79.5
297.831	79.5
298.062	90.5
298.292	92.5
298.523	81.5
298.753	80.5
298.984	82.5
299.214	85.5
299.445	90.5
299.675	90.5
299.905	84.5
300.136	71.5
300.366	93.5
300.597	91.5
300.827	89.5
301.057	75.5
301.288	88.5
301.518	91.5
301.748	87.5
301.979	85.5
302.209	96.5
302.439	107.5
302.669	98.5
302.9	95.5
303.13	92.5
303.36	96.5
303.59	101.5
303.82	94.5
304.051	99.5
304.281	82.5
304.511	91.5
304.741	82.5
304.971	92.5
305.201	71.5
305.431	97.5
305.661	98.5
305.891	87.5
306.121	92.5
306.352	86.5
306.582	92.5
306.812	79.5
307.042	90.5
307.272	80.5
307.502	88.5
307.731	82.5
307.961	92.5
308.191	88.5
308.421	92.5
308.651	57.5
308.881	86.5
309.111	95.5
309.341	77.5
309.571	87.5
309.8	87.5
310.03	96.5
310.26	97.5
310.49	90.5
310.72	71.5
310.949	87.5
311.179	78.5
311.409	85.5
311.639	97.5
311.868	95.5
312.098	98.5
312.328	88.5
312.557	89.5
312.787	90.5
313.017	86.5
313.246	90.5
313.476	89.5
313.706	78.5
313.935	92.5
314.165	74.5
314.394	93.5
314.624	79.5
314.853	86.5
315.083	91.5
315.312	96.5
315.542	84.5
315.771	77.5
316.001	74.5
316.23	94.5
316.46	88.5
316.689	101.5
316.919	94.5
317.148	88.5
317.377	88.5
317.607	87.5
317.836	95.5
318.065	79.5
318.295	88.5
318.524	95.5
318.753	89.5
318.983	91.5
319.212	101.5
319.441	102.5
319.67	92.5
319.9	96.5
320.129	86.5
320.358	86.5
320.587	80.5
320.816	92.5
321.046	75.5
321.275	82.5
321.504	84.5
321.733	107.5
321.962	90.5
322.191	86.5
322.42	90.5
322.649	98.5
322.878	84.5
323.108	86.5
323.337	102.5
323.566	96.5
323.795	93.5
324.024	86.5
324.253	95.5
324.482	83.5
324.71	83.5
324.939	91.5
325.168	84.5
325.397	92.5
325.626	88.5
325.855	86.5
326.084	79.5
326.313	93.5
326.542	84.5
326.77	88.5
326.999	99.5
327.228	91.5
327.457	103.5
327.686	80.5
327.914	84.5
328.143	93.5
328.372	79.5
328.6	90.5
328.829	95.5
329.058	83.5
329.287	88.5
329.515	90.5
329.744	75.5
329.972	83.5
330.201	95.5
330.43	84.5
330.658	91.5
330.887	92.5
331.115	95.5
331.344	80.5
331.572	86.5
331.801	79.5
332.03	90.5
332.258	85.5
332.486	92.5
332.715	87.5
332.943	85.5
333.172	88.5
333.4	89.5
333.629	90.5
333.857	101.5
334.085	101.5
334.314	77.5
334.542	80.5
334.771	78.5
334.999	75.5
335.227	87.5
335.455	94.5
335.684	103.5
335.912	86.5
336.14	86.5
336.369	89.5
336.597	87.5
336.825	95.5
337.053	108.5
337.281	85.5
337.51	101.5
337.738	105.5
337.966	84.5
338.194	102.5
338.422	80.5
338.65	86.5
338.878	88.5
339.106	86.5
339.334	102.5
339.562	90.5
339.79	91.5
340.018	85.5
340.246	94.5
340.474	84.5
340.702	77.5
340.93	80.5
341.158	91.5
341.386	76.5
341.614	91.5
341.842	91.5
342.07	89.5
342.298	98.5
342.526	83.5
342.754	80.5
342.981	89.5
343.209	91.5
343.437	93.5
343.665	91.5
343.893	85.5
344.12	88.5
344.348	80.5
344.576	89.5
344.804	84.5
345.031	93.5
345.259	91.5
345.487	83.5
345.714	85.5
345.942	83.5
346.17	89.5
346.397	88.5
346.625	103.5
346.853	82.5
347.08	83.5
347.308	86.5
347.535	86.5
347.763	93.5
347.99	86.5
348.218	93.5
348.445	70.5
348.673	92.5
348.9	84.5
349.128	82.5
349.355	83.5
349.583	82.5
349.81	89.5
350.037	88.5
350.265	87.5
350.492	85.5
350.72	87.5
350.947	104.5
351.174	83.5
351.402	80.5
351.629	95.5
351.856	92.5
352.083	92.5
352.311	80.5
352.538	79.5
352.765	82.5
352.992	91.5
353.22	80.5
353.447	76.5
353.674	85.5
353.901	95.5
354.128	80.5
354.355	93.5
354.583	90.5
354.81	83.5
355.037	86.5
355.264	99.5
355.491	91.5
355.718	98.5
355.945	83.5
356.172	102.5
356.399	95.5
356.626	96.5
356.853	72.5
357.08	93.5
357.307	80.5
357.534	87.5
357.761	88.5
357.988	93.5
358.215	83.5
358.441	84.5
358.668	89.5
358.895	90.5
359.122	94.5
359.349	93.5
359.576	86.5
359.802	87.5
360.029	82.5
360.256	92.5
360.483	88.5
360.709	83.5
360.936	89.5
361.163	81.5
361.39	90.5
361.616	91.5
361.843	82.5
362.07	83.5
362.296	92.5
362.523	99.5
362.749	94.5
362.976	84.5
363.203	93.5
363.429	96.5
363.656	91.5
363.882	97.5
364.109	98.5
364.335	81.5
364.562	88.5
364.788	90.5
365.015	83.5
365.241	91.5
365.468	83.5
365.694	72.5
365.92	79.5
366.147	84.5
366.373	90.5
366.599	84.5
366.826	88.5
367.052	96.5
367.278	80.5
367.505	78.5
367.731	80.5
367.957	86.5
368.184	78.5
368.41	82.5
368.636	75.5
368.862	75.5
369.089	79.5
369.315	91.5
369.541	83.5
369.767	86.5
369.993	96.5
370.219	84.5
370.445	83.5
370.672	106.5
370.898	80.5
371.124	93.5
371.35	88.5
371.576	76.5
371.802	94.5
372.028	85.5
372.254	85.5
372.48	85.5
372.706	80.5
372.932	87.5
373.158	75.5
373.384	91.5
373.61	88.5
373.835	86.5
374.061	92.5
374.287	80.5
374.513	102.5
374.739	73.5
374.965	83.5
375.191	100.5
375.416	87.5
375.642	82.5
375.868	93.5
376.094	104.5
376.319	89.5
376.545	79.5
376.771	94.5
376.997	102.5
377.222	93.5
377.448	96.5
377.674	91.5
377.899	79.5
378.125	72.5
378.35	72.5
378.576	86.5
378.802	84.5
379.027	92.5
379.253	81.5
379.478	79.5
379.704	77.5
379.929	103.5
380.155	89.5
380.38	89.5
380.606	87.5
380.831	79.5
381.057	87.5
381.282	78.5
381.507	89.5
381.733	86.5
381.958	94.5
382.184	95.5
382.409	80.5
382.634	88.5
382.86	67.5
383.085	81.5
383.31	89.5
383.535	84.5
383.761	75.5
383.986	84.5
384.211	90.5
384.436	85.5
384.662	94.5
384.887	85.5
385.112	96.5
385.337	95.5
385.562	79.5
385.787	88.5
386.013	92.5
386.238	99.5
386.463	92.5
386.688	94.5
386.913	77.5
387.138	85.5
387.363	72.5
387.588	90.5
387.813	90.5
388.038	96.5
388.263	92.5
388.488	91.5
388.713	100.5
388.938	91.5
389.163	84.5
389.387	83.5
389.612	70.5
389.837	78.5
390.062	87.5
390.287	82.5
390.512	80.5
390.736	95.5
390.961	103.5
391.186	86.5
391.411	86.5
391.636	80.5
391.86	70.5
392.085	91.5
392.31	101.5
392.534	96.5
392.759	75.5
392.984	80.5
393.208	89.5
393.433	96.5
393.658	75.5
393.882	84.5
394.107	82.5
394.331	90.5
394.556	92.5
394.78	96.5
395.005	89.5
395.229	100.5
395.454	98.5
395.678	87.5
395.903	94.5
396.127	92.5
396.352	96.5
396.576	102.5
396.801	82.5
397.025	95.5
397.249	110.5
397.474	91.5
397.698	88.5
397.922	105.5
398.147	89.5
398.371	102.5
398.595	94.5
398.82	102.5
399.044	87.5
399.268	88.5
399.492	104.5
399.717	104.5
399.941	75.5
400.165	91.5
400.389	88.5
400.613	80.5
400.837	88.5
401.062	85.5
401.286	86.5
401.51	83.5
401.734	91.5
401.958	95.5
402.182	82.5
402.406	89.5
402.63	88.5
402.854	100.5
403.078	93.5
403.302	77.5
403.526	80.5
403.75	94.5
403.974	95.5
404.198	97.5
404.422	92.5
404.645	103.5
404.869	88.5
405.093	110.5
405.317	99.5
405.541	98.5
405.765	84.5
405.988	88.5
406.212	99.5
406.436	92.5
406.66	87.5
406.883	78.5
407.107	83.5
407.331	87.5
407.555	94.5
407.778	86.5
408.002	81.5
408.226	84.5
408.449	95.5
408.673	101.5
408.896	83.5
409.12	78.5
409.344	98.5
409.567	104.5
409.791	94.5
410.014	101.5
410.238	67.5
410.461	79.5
410.685	100.5
410.908	88.5
411.132	95.5
411.355	85.5
411.578	82.5
411.802	98.5
412.025	95.5
412.249	88.5
412.472	101.5
412.695	77.5
412.919	99.5
413.142	90.5
413.365	99.5
413.589	90.5
413.812	109.5
414.035	98.5
414.258	96.5
414.482	88.5
414.705	88.5
414.928	95.5
415.151	100.5
415.374	106.5
415.597	110.5
415.821	91.5
416.044	90.5
416.267	115.5
416.49	98.5
416.713	103.5
416.936	104.5
417.159	89.5
417.382	89.5
417.605	100.5
417.828	86.5
418.051	108.5
418.274	115.5
418.497	94.5
418.72	92.5
418.943	91.5
419.166	98.5
419.389	92.5
419.611	102.5
419.834	96.5
420.057	80.5
420.28	84.5
420.503	108.5
420.726	100.5
420.948	91.5
421.171	90.5
421.394	105.5
421.617	96.5
421.839	98.5
422.062	98.5
422.285	92.5
422.507	97.5
422.73	107.5
422.953	93.5
423.175	103.5
423.398	83.5
423.621	95.5
423.843	108.5
424.066	104.5
424.288	101.5
424.511	102.5
424.733	115.5
424.956	90.5
425.178	96.5
425.401	90.5
425.623	101.5
425.846	87.5
426.068	90.5
426.291	86.5
426.513	95.5
426.735	96.5
426.958	101.5
427.18	102.5
427.402	95.5
427.625	101.5
427.847	97.5
428.069	91.5
428.292	105.5
428.514	99.5
428.736	100.5
428.958	104.5
429.181	86.5
429.403	102.5
429.625	92.5
429.847	79.5
430.069	86.5
430.292	95.5
430.514	93.5
430.736	87.5
430.958	95.5
431.18	108.5
431.402	101.5
431.624	94.5
431.846	90.5
432.068	72.5
432.29	90.5
432.512	89.5
432.734	98.5
432.956	91.5
433.178	103.5
433.4	92.5
433.622	93.5
433.844	98.5
434.066	85.5
434.287	75.5
434.509	77.5
434.731	76.5
434.953	96.5
435.175	98.5
435.397	88.5
435.618	83.5
435.84	96.5
436.062	90.5
436.284	80.5
436.505	91.5
436.727	94.5
436.949	88.5
437.17	108.5
437.392	105.5
437.614	110.5
437.835	84.5
438.057	89.5
438.278	90.5
438.5	94.5
438.721	104.5
438.943	93.5
439.165	95.5
439.386	106.5
439.608	101.5
439.829	117.5
440.05	106.5
440.272	96.5
440.493	112.5
440.715	95.5
440.936	95.5
441.158	96.5
441.379	103.5
441.6	109.5
441.822	104.5
442.043	114.5
442.264	100.5
442.486	99.5
442.707	100.5
442.928	101.5
443.149	98.5
443.371	94.5
443.592	96.5
443.813	109.5
444.034	93.5
444.255	98.5
444.476	88.5
444.698	92.5
444.919	100.5
445.14	236.5
445.361	147.5
445.582	107.5
445.803	95.5
446.024	103.5
446.245	111.5
446.466	105.5
446.687	108.5
446.908	116.5
447.129	95.5
447.35	103.5
447.571	103.5
447.792	93.5
448.013	97.5
448.234	116.5
448.455	102.5
448.675	99.5
448.896	103.5
449.117	80.5
449.338	90.5
449.559	90.5
449.779	102.5
450	98.5
450.221	114.5
450.442	94.5
450.662	112.5
450.883	92.5
451.104	82.5
451.324	108.5
451.545	99.5
451.766	94.5
451.986	94.5
452.207	103.5
452.428	93.5
452.648	98.5
452.869	93.5
453.089	94.5
453.31	85.5
453.53	88.5
453.751	87.5
453.971	95.5
454.192	85.5
454.412	107.5
454.633	98.5
454.853	101.5
455.073	104.5
455.294	107.5
455.514	91.5
455.734	90.5
455.955	87.5
456.175	82.5
456.395	90.5
456.616	95.5
456.836	99.5
457.056	89.5
457.276	95.5
457.497	108.5
457.717	104.5
457.937	90.5
458.157	114.5
458.377	79.5
458.598	100.5
458.818	79.5
459.038	88.5
459.258	82.5
459.478	83.5
459.698	91.5
459.918	93.5
460.138	95.5
460.358	99.5
460.578	103.5
460.798	102.5
461.018	97.5
461.238	99.5
461.458	98.5
461.678	93.5
461.898	83.5
462.118	96.5
462.338	84.5
462.558	94.5
462.777	106.5
462.997	91.5
463.217	100.5
463.437	98.5
463.657	92.5
463.876	100.5
464.096	89.5
464.316	91.5
464.536	94.5
464.755	99.5
464.975	102.5
465.195	101.5
465.414	98.5
465.634	96.5
465.854	92.5
466.073	89.5
466.293	103.5
466.512	108.5
466.732	103.5
466.951	93.5
467.171	88.5
467.391	83.5
467.61	100.5
467.829	83.5
468.049	96.5
468.268	97.5
468.488	82.5
468.707	97.5
468.927	100.5
469.146	108.5
469.365	102.5
469.585	108.5
469.804	118.5
470.023	90.5
470.243	108.5
470.462	111.5
470.681	104.5
470.901	90.5
471.12	101.5
471.339	103.5
471.558	103.5
471.777	87.5
471.997	99.5
472.216	91.5
472.435	93.5
472.654	97.5
472.873	96.5
473.092	92.5
473.311	103.5
473.53	106.5
473.749	94.5
473.968	101.5
474.187	91.5
474.406	102.5
474.625	102.5
474.844	106.5
475.063	101.5
475.282	110.5
475.501	89.5
475.72	102.5
475.939	96.5
476.158	99.5
476.377	98.5
476.596	94.5
476.814	79.5
477.033	85.5
477.252	82.5
477.471	92.5
477.69	88.5
477.908	96.5
478.127	98.5
478.346	104.5
478.564	97.5
478.783	91.5
479.002	104.5
479.22	100.5
479.439	95.5
479.658	112.5
479.876	97.5
480.095	100.5
480.313	101.5
480.532	94.5
480.751	89.5
480.969	98.5
481.188	76.5
481.406	94.5
481.624	96.5
481.843	76.5
482.061	90.5
482.28	86.5
482.498	89.5
482.717	99.5
482.935	84.5
483.153	111.5
483.372	91.5
483.59	98.5
483.808	94.5
484.027	109.5
484.245	98.5
484.463	105.5
484.681	104.5
484.9	84.5
485.118	90.5
485.336	100.5
485.554	91.5
485.772	80.5
485.99	100.5
486.209	90.5
486.427	101.5
486.645	118.5
486.863	96.5
487.081	99.5
487.299	103.5
487.517	104.5
487.735	116.5
487.953	112.5
488.171	103.5
488.389	109.5
488.607	110.5
488.825	116.5
489.043	102.5
489.261	104.5
489.479	109.5
489.696	110.5
489.914	115.5
490.132	104.5
490.35	106.5
490.568	115.5
490.786	119.5
491.003	120.5
491.221	100.5
491.439	127.5
491.657	126.5
491.874	108.5
492.092	130.5
492.31	128.5
492.527	123.5
492.745	133.5
492.963	112.5
493.18	115.5
493.398	107.5
493.615	107.5
493.833	106.5
494.05	104.5
494.268	101.5
494.485	111.5
494.703	119.5
494.92	102.5
495.138	106.5
495.355	109.5
495.573	120.5
495.79	118.5
496.008	107.5
496.225	107.5
496.442	111.5
496.66	111.5
496.877	104.5
497.094	115.5
497.312	105.5
497.529	110.5
497.746	93.5
497.963	102.5
498.181	109.5
498.398	99.5
498.615	97.5
498.832	91.5
499.049	120.5
499.267	93.5
499.484	100.5
499.701	101.5
499.918	98.5
500.135	107.5
500.352	99.5
500.569	98.5
500.786	101.5
501.003	98.5
501.22	111.5
501.437	114.5
501.654	100.5
501.871	101.5
502.088	102.5
502.305	100.5
502.522	104.5
502.739	96.5
502.956	96.5
503.172	94.5
503.389	86.5
503.606	86.5
503.823	87.5
504.04	116.5
504.256	97.5
504.473	102.5
504.69	105.5
504.907	98.5
505.123	100.5
505.34	79.5
505.557	92.5
505.773	103.5
505.99	98.5
506.207	92.5
506.423	99.5
506.64	104.5
506.856	102.5
507.073	94.5
507.289	102.5
507.506	100.5
507.722	93.5
507.939	82.5
508.155	104.5
508.372	96.5
508.588	95.5
508.805	102.5
509.021	104.5
509.238	90.5
509.454	86.5
509.67	90.5
509.887	89.5
510.103	99.5
510.319	87.5
510.536	96.5
510.752	94.5
510.968	84.5
511.184	87.5
511.401	91.5
511.617	83.5
511.833	75.5
512.049	87.5
512.265	104.5
512.481	96.5
512.698	87.5
512.914	90.5
513.13	71.5
513.346	94.5
513.562	96.5
513.778	87.5
513.994	87.5
514.21	83.5
514.426	99.5
514.642	88.5
514.858	78.5
515.074	93.5
515.29	99.5
515.506	91.5
515.721	94.5
515.937	94.5
516.153	88.5
516.369	109.5
516.585	84.5
516.801	72.5
517.016	81.5
517.232	81.5
517.448	84.5
517.664	89.5
517.879	84.5
518.095	98.5
518.311	95.5
518.527	86.5
518.742	89.5
518.958	95.5
519.173	98.5
519.389	102.5
519.605	89.5
519.82	94.5
520.036	99.5
520.251	91.5
520.467	85.5
520.682	85.5
520.898	90.5
521.113	86.5
521.329	86.5
521.544	88.5
521.76	99.5
521.975	91.5
522.19	91.5
522.406	83.5
522.621	80.5
522.836	96.5
523.052	98.5
523.267	83.5
523.482	83.5
523.698	100.5
523.913	96.5
524.128	105.5
524.343	99.5
524.559	92.5
524.774	102.5
524.989	93.5
525.204	94.5
525.419	99.5
525.634	81.5
525.849	100.5
526.064	88.5
526.28	100.5
526.495	79.5
526.71	84.5
526.925	83.5
527.14	85.5
527.355	83.5
527.57	94.5
527.785	65.5
527.999	88.5
528.214	100.5
528.429	96.5
528.644	105.5
528.859	95.5
529.074	96.5
529.289	115.5
529.503	106.5
529.718	93.5
529.933	87.5
530.148	101.5
530.363	87.5
530.577	87.5
530.792	95.5
531.007	100.5
531.221	98.5
531.436	85.5
531.651	81.5
531.865	77.5
532.08	103.5
532.295	89.5
532.509	88.5
532.724	90.5
532.938	92.5
533.153	111.5
533.367	100.5
533.582	103.5
533.796	121.5
534.011	100.5
534.225	98.5
534.44	82.5
534.654	95.5
534.868	88.5
535.083	90.5
535.297	89.5
535.511	84.5
535.726	93.5
