Data from Location3.07152019.Energy5.Lamp.07192019.3%Agarose_HRD10591_15-18-39-269.txt Node
Date: Fri Jul 19 15:18:39 EDT 2019
User: cochatt
Spectrometer: HR+D1059
Trigger mode: 1
Integration Time (sec): 1.000000E-1
Scans to average: 1
Electric dark correction enabled: true
Nonlinearity correction enabled: false
Boxcar width: 0
XAxis mode: Wavelengths
Number of Pixels in Spectrum: 2048
>>>>>Begin Spectral Data<<<<<
223.165	-9.88
223.4	-9.88
223.635	-9.88
223.869	-24.88
224.104	-18.88
224.338	-2.88
224.573	-22.88
224.808	-8.88
225.042	6.12
225.277	1.12
225.511	10.12
225.746	-1.88
225.98	2.12
226.215	2.12
226.449	9.12
226.683	21.12
226.918	12.12
227.152	26.12
227.387	39.12
227.621	42.12
227.856	38.12
228.09	51.12
228.324	50.12
228.559	43.12
228.793	58.12
229.027	75.12
229.262	64.12
229.496	73.12
229.73	68.12
229.964	61.12
230.199	70.12
230.433	68.12
230.667	80.12
230.901	83.12
231.136	74.12
231.37	74.12
231.604	100.12
231.838	92.12
232.072	83.12
232.306	82.12
232.541	92.12
232.775	87.12
233.009	68.12
233.243	60.12
233.477	74.12
233.711	86.12
233.945	78.12
234.179	80.12
234.413	71.12
234.647	83.12
234.881	84.12
235.115	79.12
235.349	57.12
235.583	71.12
235.817	72.12
236.051	73.12
236.285	70.12
236.519	79.12
236.753	67.12
236.987	83.12
237.221	86.12
237.455	80.12
237.689	86.12
237.922	66.12
238.156	78.12
238.39	73.12
238.624	72.12
238.858	78.12
239.091	81.12
239.325	77.12
239.559	75.12
239.793	68.12
240.027	85.12
240.26	75.12
240.494	79.12
240.728	72.12
240.961	72.12
241.195	85.12
241.429	75.12
241.662	76.12
241.896	88.12
242.13	75.12
242.363	81.12
242.597	74.12
242.83	92.12
243.064	79.12
243.298	75.12
243.531	79.12
243.765	78.12
243.998	71.12
244.232	75.12
244.465	85.12
244.699	62.12
244.932	73.12
245.166	67.12
245.399	66.12
245.633	81.12
245.866	75.12
246.099	75.12
246.333	76.12
246.566	76.12
246.8	71.12
247.033	81.12
247.266	69.12
247.5	67.12
247.733	74.12
247.966	79.12
248.2	72.12
248.433	75.12
248.666	84.12
248.899	73.12
249.133	83.12
249.366	77.12
249.599	88.12
249.832	75.12
250.066	83.12
250.299	68.12
250.532	83.12
250.765	75.12
250.998	78.12
251.231	76.12
251.465	76.12
251.698	95.12
251.931	83.12
252.164	89.12
252.397	94.12
252.63	79.12
252.863	77.12
253.096	59.12
253.329	90.12
253.562	75.12
253.795	75.12
254.028	75.12
254.261	88.12
254.494	90.12
254.727	81.12
254.96	71.12
255.193	82.12
255.426	84.12
255.659	85.12
255.892	87.12
256.124	74.12
256.357	83.12
256.59	70.12
256.823	87.12
257.056	96.12
257.289	84.12
257.521	64.12
257.754	79.12
257.987	91.12
258.22	74.12
258.452	75.12
258.685	74.12
258.918	79.12
259.151	73.12
259.383	77.12
259.616	90.12
259.849	94.12
260.081	85.12
260.314	76.12
260.547	74.12
260.779	76.12
261.012	71.12
261.244	74.12
261.477	81.12
261.71	83.12
261.942	68.12
262.175	71.12
262.407	83.12
262.64	78.12
262.872	80.12
263.105	71.12
263.337	89.12
263.57	75.12
263.802	82.12
264.035	81.12
264.267	86.12
264.499	94.12
264.732	97.12
264.964	68.12
265.197	82.12
265.429	87.12
265.661	78.12
265.894	82.12
266.126	74.12
266.358	100.12
266.591	89.12
266.823	73.12
267.055	85.12
267.287	82.12
267.52	74.12
267.752	83.12
267.984	82.12
268.216	87.12
268.448	78.12
268.681	79.12
268.913	101.12
269.145	82.12
269.377	76.12
269.609	83.12
269.841	81.12
270.073	92.12
270.306	80.12
270.538	91.12
270.77	74.12
271.002	80.12
271.234	87.12
271.466	71.12
271.698	78.12
271.93	93.12
272.162	85.12
272.394	87.12
272.626	70.12
272.858	76.12
273.09	97.12
273.322	81.12
273.553	86.12
273.785	76.12
274.017	86.12
274.249	73.12
274.481	70.12
274.713	72.12
274.945	74.12
275.176	85.12
275.408	93.12
275.64	98.12
275.872	81.12
276.104	76.12
276.335	76.12
276.567	76.12
276.799	75.12
277.031	81.12
277.262	89.12
277.494	86.12
277.726	76.12
277.957	78.12
278.189	80.12
278.421	75.12
278.652	88.12
278.884	74.12
279.115	91.12
279.347	71.12
279.579	87.12
279.81	87.12
280.042	75.12
280.273	81.12
280.505	86.12
280.736	84.12
280.968	93.12
281.199	77.12
281.431	76.12
281.662	88.12
281.894	96.12
282.125	89.12
282.356	74.12
282.588	77.12
282.819	90.12
283.051	85.12
283.282	86.12
283.513	80.12
283.745	75.12
283.976	61.12
284.207	80.12
284.439	84.12
284.67	84.12
284.901	84.12
285.132	98.12
285.364	88.12
285.595	83.12
285.826	94.12
286.057	93.12
286.288	88.12
286.52	71.12
286.751	77.12
286.982	76.12
287.213	84.12
287.444	78.12
287.675	94.12
287.906	92.12
288.138	84.12
288.369	82.12
288.6	82.12
288.831	80.12
289.062	97.12
289.293	73.12
289.524	83.12
289.755	83.12
289.986	89.12
290.217	97.12
290.448	86.12
290.679	87.12
290.91	80.12
291.141	78.12
291.371	83.12
291.602	78.12
291.833	76.12
292.064	76.12
292.295	92.12
292.526	66.12
292.757	70.12
292.987	74.12
293.218	72.12
293.449	103.12
293.68	75.12
293.91	88.12
294.141	75.12
294.372	64.12
294.603	92.12
294.833	87.12
295.064	86.12
295.295	102.12
295.525	96.12
295.756	81.12
295.987	82.12
296.217	71.12
296.448	74.12
296.679	81.12
296.909	69.12
297.14	93.12
297.37	80.12
297.601	67.12
297.831	86.12
298.062	95.12
298.292	101.12
298.523	82.12
298.753	79.12
298.984	91.12
299.214	79.12
299.445	76.12
299.675	73.12
299.905	75.12
300.136	86.12
300.366	90.12
300.597	87.12
300.827	91.12
301.057	84.12
301.288	67.12
301.518	95.12
301.748	89.12
301.979	88.12
302.209	89.12
302.439	79.12
302.669	83.12
302.9	74.12
303.13	88.12
303.36	87.12
303.59	77.12
303.82	92.12
304.051	72.12
304.281	79.12
304.511	76.12
304.741	85.12
304.971	106.12
305.201	96.12
305.431	82.12
305.661	78.12
305.891	86.12
306.121	82.12
306.352	93.12
306.582	83.12
306.812	79.12
307.042	82.12
307.272	74.12
307.502	75.12
307.731	84.12
307.961	79.12
308.191	83.12
308.421	97.12
308.651	86.12
308.881	87.12
309.111	74.12
309.341	88.12
309.571	90.12
309.8	82.12
310.03	74.12
310.26	78.12
310.49	85.12
310.72	83.12
310.949	85.12
311.179	76.12
311.409	76.12
311.639	88.12
311.868	78.12
312.098	82.12
312.328	95.12
312.557	110.12
312.787	81.12
313.017	84.12
313.246	86.12
313.476	84.12
313.706	79.12
313.935	65.12
314.165	76.12
314.394	86.12
314.624	72.12
314.853	85.12
315.083	84.12
315.312	80.12
315.542	90.12
315.771	93.12
316.001	86.12
316.23	82.12
316.46	81.12
316.689	74.12
316.919	99.12
317.148	76.12
317.377	91.12
317.607	90.12
317.836	65.12
318.065	80.12
318.295	82.12
318.524	83.12
318.753	91.12
318.983	78.12
319.212	89.12
319.441	90.12
319.67	96.12
319.9	76.12
320.129	86.12
320.358	78.12
320.587	84.12
320.816	94.12
321.046	85.12
321.275	97.12
321.504	84.12
321.733	95.12
321.962	85.12
322.191	79.12
322.42	77.12
322.649	74.12
322.878	90.12
323.108	74.12
323.337	76.12
323.566	84.12
323.795	92.12
324.024	87.12
324.253	84.12
324.482	82.12
324.71	73.12
324.939	88.12
325.168	78.12
325.397	86.12
325.626	85.12
325.855	82.12
326.084	77.12
326.313	101.12
326.542	76.12
326.77	86.12
326.999	82.12
327.228	82.12
327.457	75.12
327.686	99.12
327.914	84.12
328.143	85.12
328.372	69.12
328.6	88.12
328.829	76.12
329.058	88.12
329.287	82.12
329.515	87.12
329.744	87.12
329.972	89.12
330.201	78.12
330.43	74.12
330.658	95.12
330.887	93.12
331.115	84.12
331.344	83.12
331.572	90.12
331.801	88.12
332.03	75.12
332.258	83.12
332.486	95.12
332.715	82.12
332.943	89.12
333.172	82.12
333.4	82.12
333.629	88.12
333.857	103.12
334.085	74.12
334.314	71.12
334.542	84.12
334.771	76.12
334.999	87.12
335.227	84.12
335.455	80.12
335.684	74.12
335.912	72.12
336.14	96.12
336.369	88.12
336.597	79.12
336.825	77.12
337.053	92.12
337.281	80.12
337.51	86.12
337.738	88.12
337.966	89.12
338.194	74.12
338.422	79.12
338.65	80.12
338.878	89.12
339.106	90.12
339.334	88.12
339.562	80.12
339.79	91.12
340.018	80.12
340.246	57.12
340.474	84.12
340.702	85.12
340.93	83.12
341.158	88.12
341.386	87.12
341.614	89.12
341.842	98.12
342.07	81.12
342.298	92.12
342.526	78.12
342.754	80.12
342.981	88.12
343.209	76.12
343.437	90.12
343.665	81.12
343.893	88.12
344.12	93.12
344.348	80.12
344.576	85.12
344.804	83.12
345.031	93.12
345.259	83.12
345.487	75.12
345.714	84.12
345.942	92.12
346.17	90.12
346.397	83.12
346.625	76.12
346.853	68.12
347.08	92.12
347.308	89.12
347.535	82.12
347.763	86.12
347.99	98.12
348.218	86.12
348.445	87.12
348.673	71.12
348.9	94.12
349.128	84.12
349.355	96.12
349.583	86.12
349.81	64.12
350.037	60.12
350.265	87.12
350.492	75.12
350.72	72.12
350.947	95.12
351.174	92.12
351.402	87.12
351.629	77.12
351.856	74.12
352.083	85.12
352.311	82.12
352.538	78.12
352.765	82.12
352.992	88.12
353.22	91.12
353.447	87.12
353.674	82.12
353.901	79.12
354.128	75.12
354.355	92.12
354.583	74.12
354.81	91.12
355.037	92.12
355.264	76.12
355.491	81.12
355.718	80.12
355.945	73.12
356.172	78.12
356.399	68.12
356.626	95.12
356.853	78.12
357.08	79.12
357.307	81.12
357.534	82.12
357.761	86.12
357.988	89.12
358.215	90.12
358.441	86.12
358.668	85.12
358.895	72.12
359.122	87.12
359.349	84.12
359.576	79.12
359.802	83.12
360.029	80.12
360.256	83.12
360.483	79.12
360.709	85.12
360.936	84.12
361.163	84.12
361.39	89.12
361.616	86.12
361.843	85.12
362.07	81.12
362.296	84.12
362.523	91.12
362.749	83.12
362.976	69.12
363.203	102.12
363.429	91.12
363.656	90.12
363.882	90.12
364.109	89.12
364.335	73.12
364.562	90.12
364.788	83.12
365.015	94.12
365.241	86.12
365.468	75.12
365.694	85.12
365.92	88.12
366.147	86.12
366.373	83.12
366.599	77.12
366.826	87.12
367.052	81.12
367.278	87.12
367.505	86.12
367.731	95.12
367.957	89.12
368.184	74.12
368.41	87.12
368.636	73.12
368.862	83.12
369.089	102.12
369.315	79.12
369.541	94.12
369.767	80.12
369.993	87.12
370.219	88.12
370.445	80.12
370.672	89.12
370.898	90.12
371.124	81.12
371.35	84.12
371.576	82.12
371.802	84.12
372.028	89.12
372.254	84.12
372.48	90.12
372.706	88.12
372.932	84.12
373.158	92.12
373.384	90.12
373.61	84.12
373.835	78.12
374.061	75.12
374.287	86.12
374.513	87.12
374.739	72.12
374.965	81.12
375.191	84.12
375.416	80.12
375.642	78.12
375.868	93.12
376.094	94.12
376.319	79.12
376.545	86.12
376.771	94.12
376.997	83.12
377.222	100.12
377.448	87.12
377.674	91.12
377.899	81.12
378.125	78.12
378.35	67.12
378.576	74.12
378.802	88.12
379.027	86.12
379.253	74.12
379.478	101.12
379.704	83.12
379.929	88.12
380.155	96.12
380.38	85.12
380.606	76.12
380.831	78.12
381.057	89.12
381.282	90.12
381.507	94.12
381.733	98.12
381.958	78.12
382.184	85.12
382.409	79.12
382.634	102.12
382.86	93.12
383.085	70.12
383.31	92.12
383.535	97.12
383.761	88.12
383.986	88.12
384.211	83.12
384.436	75.12
384.662	79.12
384.887	91.12
385.112	78.12
385.337	88.12
385.562	91.12
385.787	85.12
386.013	104.12
386.238	82.12
386.463	74.12
386.688	95.12
386.913	96.12
387.138	83.12
387.363	80.12
387.588	78.12
387.813	84.12
388.038	91.12
388.263	99.12
388.488	85.12
388.713	94.12
388.938	89.12
389.163	97.12
389.387	99.12
389.612	89.12
389.837	84.12
390.062	94.12
390.287	82.12
390.512	99.12
390.736	86.12
390.961	95.12
391.186	102.12
391.411	80.12
391.636	97.12
391.86	83.12
392.085	76.12
392.31	103.12
392.534	86.12
392.759	89.12
392.984	94.12
393.208	86.12
393.433	77.12
393.658	89.12
393.882	86.12
394.107	100.12
394.331	78.12
394.556	74.12
394.78	78.12
395.005	91.12
395.229	87.12
395.454	88.12
395.678	95.12
395.903	89.12
396.127	92.12
396.352	89.12
396.576	87.12
396.801	88.12
397.025	80.12
397.249	76.12
397.474	71.12
397.698	83.12
397.922	82.12
398.147	98.12
398.371	83.12
398.595	76.12
398.82	88.12
399.044	83.12
399.268	99.12
399.492	89.12
399.717	92.12
399.941	89.12
400.165	96.12
400.389	91.12
400.613	90.12
400.837	80.12
401.062	79.12
401.286	92.12
401.51	85.12
401.734	84.12
401.958	89.12
402.182	95.12
402.406	97.12
402.63	85.12
402.854	84.12
403.078	77.12
403.302	102.12
403.526	95.12
403.75	86.12
403.974	109.12
404.198	86.12
404.422	91.12
404.645	82.12
404.869	85.12
405.093	90.12
405.317	81.12
405.541	96.12
405.765	88.12
405.988	104.12
406.212	94.12
406.436	89.12
406.66	103.12
406.883	93.12
407.107	95.12
407.331	82.12
407.555	78.12
407.778	84.12
408.002	85.12
408.226	112.12
408.449	98.12
408.673	85.12
408.896	80.12
409.12	90.12
409.344	91.12
409.567	99.12
409.791	86.12
410.014	84.12
410.238	72.12
410.461	76.12
410.685	93.12
410.908	90.12
411.132	96.12
411.355	86.12
411.578	92.12
411.802	94.12
412.025	96.12
412.249	82.12
412.472	81.12
412.695	92.12
412.919	102.12
413.142	101.12
413.365	86.12
413.589	95.12
413.812	90.12
414.035	100.12
414.258	93.12
414.482	99.12
414.705	92.12
414.928	78.12
415.151	92.12
415.374	86.12
415.597	81.12
415.821	87.12
416.044	98.12
416.267	87.12
416.49	85.12
416.713	99.12
416.936	83.12
417.159	96.12
417.382	93.12
417.605	91.12
417.828	103.12
418.051	85.12
418.274	90.12
418.497	90.12
418.72	107.12
418.943	97.12
419.166	95.12
419.389	102.12
419.611	99.12
419.834	110.12
420.057	104.12
420.28	114.12
420.503	87.12
420.726	93.12
420.948	93.12
421.171	108.12
421.394	93.12
421.617	90.12
421.839	89.12
422.062	97.12
422.285	106.12
422.507	95.12
422.73	98.12
422.953	88.12
423.175	102.12
423.398	86.12
423.621	93.12
423.843	96.12
424.066	89.12
424.288	98.12
424.511	99.12
424.733	98.12
424.956	100.12
425.178	91.12
425.401	102.12
425.623	87.12
425.846	102.12
426.068	80.12
426.291	110.12
426.513	88.12
426.735	110.12
426.958	101.12
427.18	76.12
427.402	101.12
427.625	107.12
427.847	121.12
428.069	92.12
428.292	85.12
428.514	98.12
428.736	105.12
428.958	90.12
429.181	97.12
429.403	98.12
429.625	102.12
429.847	98.12
430.069	98.12
430.292	99.12
430.514	110.12
430.736	82.12
430.958	89.12
431.18	82.12
431.402	100.12
431.624	81.12
431.846	79.12
432.068	78.12
432.29	83.12
432.512	96.12
432.734	91.12
432.956	87.12
433.178	77.12
433.4	83.12
433.622	98.12
433.844	87.12
434.066	102.12
434.287	96.12
434.509	88.12
434.731	95.12
434.953	82.12
435.175	94.12
435.397	85.12
435.618	84.12
435.84	84.12
436.062	91.12
436.284	97.12
436.505	95.12
436.727	96.12
436.949	81.12
437.17	84.12
437.392	91.12
437.614	92.12
437.835	99.12
438.057	85.12
438.278	82.12
438.5	86.12
438.721	93.12
438.943	100.12
439.165	113.12
439.386	102.12
439.608	95.12
439.829	85.12
440.05	104.12
440.272	91.12
440.493	83.12
440.715	97.12
440.936	103.12
441.158	90.12
441.379	98.12
441.6	111.12
441.822	94.12
442.043	108.12
442.264	101.12
442.486	94.12
442.707	97.12
442.928	95.12
443.149	96.12
443.371	93.12
443.592	101.12
443.813	98.12
444.034	91.12
444.255	112.12
444.476	98.12
444.698	114.12
444.919	97.12
445.14	217.12
445.361	148.12
445.582	107.12
445.803	99.12
446.024	94.12
446.245	102.12
446.466	92.12
446.687	96.12
446.908	96.12
447.129	91.12
447.35	95.12
447.571	101.12
447.792	116.12
448.013	99.12
448.234	94.12
448.455	96.12
448.675	103.12
448.896	106.12
449.117	90.12
449.338	83.12
449.559	99.12
449.779	103.12
450	83.12
450.221	97.12
450.442	98.12
450.662	91.12
450.883	84.12
451.104	87.12
451.324	102.12
451.545	81.12
451.766	95.12
451.986	103.12
452.207	95.12
452.428	94.12
452.648	84.12
452.869	92.12
453.089	80.12
453.31	88.12
453.53	89.12
453.751	88.12
453.971	73.12
454.192	89.12
454.412	99.12
454.633	80.12
454.853	94.12
455.073	83.12
455.294	95.12
455.514	89.12
455.734	92.12
455.955	94.12
456.175	84.12
456.395	84.12
456.616	74.12
456.836	83.12
457.056	83.12
457.276	100.12
457.497	81.12
457.717	94.12
457.937	83.12
458.157	95.12
458.377	78.12
458.598	86.12
458.818	94.12
459.038	99.12
459.258	95.12
459.478	72.12
459.698	86.12
459.918	90.12
460.138	82.12
460.358	87.12
460.578	93.12
460.798	110.12
461.018	99.12
461.238	103.12
461.458	96.12
461.678	87.12
461.898	89.12
462.118	75.12
462.338	87.12
462.558	76.12
462.777	87.12
462.997	83.12
463.217	98.12
463.437	81.12
463.657	79.12
463.876	83.12
464.096	89.12
464.316	90.12
464.536	80.12
464.755	93.12
464.975	75.12
465.195	93.12
465.414	91.12
465.634	85.12
465.854	90.12
466.073	88.12
466.293	89.12
466.512	90.12
466.732	99.12
466.951	97.12
467.171	107.12
467.391	90.12
467.61	99.12
467.829	95.12
468.049	89.12
468.268	90.12
468.488	100.12
468.707	102.12
468.927	96.12
469.146	96.12
469.365	110.12
469.585	89.12
469.804	91.12
470.023	98.12
470.243	98.12
470.462	101.12
470.681	94.12
470.901	100.12
471.12	103.12
471.339	106.12
471.558	108.12
471.777	102.12
471.997	113.12
472.216	90.12
472.435	80.12
472.654	86.12
472.873	98.12
473.092	95.12
473.311	95.12
473.53	96.12
473.749	93.12
473.968	105.12
474.187	114.12
474.406	99.12
474.625	99.12
474.844	105.12
475.063	89.12
475.282	89.12
475.501	95.12
475.72	99.12
475.939	79.12
476.158	87.12
476.377	101.12
476.596	99.12
476.814	90.12
477.033	82.12
477.252	84.12
477.471	97.12
477.69	89.12
477.908	93.12
478.127	87.12
478.346	100.12
478.564	91.12
478.783	100.12
479.002	104.12
479.22	98.12
479.439	88.12
479.658	89.12
479.876	75.12
480.095	78.12
480.313	88.12
480.532	95.12
480.751	92.12
480.969	84.12
481.188	91.12
481.406	90.12
481.624	84.12
481.843	84.12
482.061	94.12
482.28	91.12
482.498	81.12
482.717	105.12
482.935	98.12
483.153	106.12
483.372	86.12
483.59	96.12
483.808	92.12
484.027	95.12
484.245	100.12
484.463	102.12
484.681	108.12
484.9	99.12
485.118	86.12
485.336	95.12
485.554	93.12
485.772	82.12
485.99	84.12
486.209	85.12
486.427	86.12
486.645	91.12
486.863	90.12
487.081	101.12
487.299	100.12
487.517	91.12
487.735	107.12
487.953	105.12
488.171	105.12
488.389	97.12
488.607	101.12
488.825	99.12
489.043	89.12
489.261	105.12
489.479	99.12
489.696	97.12
489.914	104.12
490.132	103.12
490.35	107.12
490.568	100.12
490.786	101.12
491.003	101.12
491.221	108.12
491.439	124.12
491.657	111.12
491.874	116.12
492.092	108.12
492.31	119.12
492.527	122.12
492.745	123.12
492.963	127.12
493.18	117.12
493.398	115.12
493.615	98.12
493.833	120.12
494.05	108.12
494.268	115.12
494.485	105.12
494.703	98.12
494.92	98.12
495.138	122.12
495.355	111.12
495.573	110.12
495.79	99.12
496.008	110.12
496.225	115.12
496.442	114.12
496.66	108.12
496.877	107.12
497.094	104.12
497.312	92.12
497.529	103.12
497.746	109.12
497.963	98.12
498.181	101.12
498.398	99.12
498.615	74.12
498.832	88.12
499.049	100.12
499.267	98.12
499.484	103.12
499.701	105.12
499.918	94.12
500.135	100.12
500.352	83.12
500.569	99.12
500.786	103.12
501.003	94.12
501.22	99.12
501.437	101.12
501.654	99.12
501.871	115.12
502.088	105.12
502.305	102.12
502.522	91.12
502.739	100.12
502.956	92.12
503.172	90.12
503.389	90.12
503.606	79.12
503.823	94.12
504.04	96.12
504.256	87.12
504.473	92.12
504.69	110.12
504.907	78.12
505.123	82.12
505.34	92.12
505.557	86.12
505.773	97.12
505.99	106.12
506.207	97.12
506.423	81.12
506.64	85.12
506.856	95.12
507.073	93.12
507.289	90.12
507.506	79.12
507.722	84.12
507.939	107.12
508.155	96.12
508.372	88.12
508.588	95.12
508.805	87.12
509.021	93.12
509.238	97.12
509.454	88.12
509.67	102.12
509.887	82.12
510.103	84.12
510.319	83.12
510.536	90.12
510.752	74.12
510.968	95.12
511.184	94.12
511.401	93.12
511.617	86.12
511.833	86.12
512.049	100.12
512.265	96.12
512.481	74.12
512.698	87.12
512.914	78.12
513.13	85.12
513.346	90.12
513.562	99.12
513.778	65.12
513.994	84.12
514.21	91.12
514.426	80.12
514.642	89.12
514.858	90.12
515.074	89.12
515.29	82.12
515.506	94.12
515.721	84.12
515.937	86.12
516.153	86.12
516.369	72.12
516.585	76.12
516.801	87.12
517.016	88.12
517.232	72.12
517.448	85.12
