Data from Location3.07152019.Energy5.Lamp.07192019.3%Agarose_HRD10591_15-19-31-270.txt Node
Date: Fri Jul 19 15:19:31 EDT 2019
User: cochatt
Spectrometer: HR+D1059
Trigger mode: 1
Integration Time (sec): 1.000000E-1
Scans to average: 1
Electric dark correction enabled: true
Nonlinearity correction enabled: false
Boxcar width: 0
XAxis mode: Wavelengths
Number of Pixels in Spectrum: 2048
>>>>>Begin Spectral Data<<<<<
223.165	-3.19
223.4	-3.19
223.635	-3.19
223.869	-14.19
224.104	-18.19
224.338	-14.19
224.573	-17.19
224.808	-20.19
225.042	-11.19
225.277	1.81
225.511	-2.19
225.746	1.81
225.98	-1.19
226.215	18.81
226.449	14.81
226.683	13.81
226.918	24.81
227.152	25.81
227.387	31.81
227.621	47.81
227.856	36.81
228.09	44.81
228.324	53.81
228.559	66.81
228.793	58.81
229.027	55.81
229.262	55.81
229.496	70.81
229.73	68.81
229.964	67.81
230.199	69.81
230.433	67.81
230.667	75.81
230.901	77.81
231.136	87.81
231.37	90.81
231.604	74.81
231.838	78.81
232.072	85.81
232.306	90.81
232.541	61.81
232.775	76.81
233.009	83.81
233.243	84.81
233.477	84.81
233.711	76.81
233.945	75.81
234.179	89.81
234.413	69.81
234.647	90.81
234.881	79.81
235.115	81.81
235.349	87.81
235.583	88.81
235.817	70.81
236.051	81.81
236.285	70.81
236.519	81.81
236.753	77.81
236.987	89.81
237.221	82.81
237.455	84.81
237.689	89.81
237.922	78.81
238.156	86.81
238.39	83.81
238.624	75.81
238.858	64.81
239.091	80.81
239.325	84.81
239.559	76.81
239.793	87.81
240.027	75.81
240.26	69.81
240.494	76.81
240.728	75.81
240.961	77.81
241.195	80.81
241.429	84.81
241.662	91.81
241.896	85.81
242.13	71.81
242.363	65.81
242.597	82.81
242.83	80.81
243.064	74.81
243.298	95.81
243.531	79.81
243.765	65.81
243.998	76.81
244.232	77.81
244.465	83.81
244.699	77.81
244.932	70.81
245.166	66.81
245.399	97.81
245.633	70.81
245.866	83.81
246.099	89.81
246.333	81.81
246.566	75.81
246.8	75.81
247.033	81.81
247.266	77.81
247.5	71.81
247.733	80.81
247.966	77.81
248.2	73.81
248.433	70.81
248.666	72.81
248.899	78.81
249.133	65.81
249.366	82.81
249.599	92.81
249.832	91.81
250.066	80.81
250.299	75.81
250.532	73.81
250.765	85.81
250.998	96.81
251.231	75.81
251.465	78.81
251.698	82.81
251.931	87.81
252.164	75.81
252.397	80.81
252.63	92.81
252.863	86.81
253.096	91.81
253.329	91.81
253.562	90.81
253.795	82.81
254.028	85.81
254.261	100.81
254.494	88.81
254.727	83.81
254.96	76.81
255.193	80.81
255.426	63.81
255.659	84.81
255.892	85.81
256.124	55.81
256.357	82.81
256.59	86.81
256.823	85.81
257.056	78.81
257.289	81.81
257.521	78.81
257.754	83.81
257.987	73.81
258.22	88.81
258.452	94.81
258.685	83.81
258.918	90.81
259.151	79.81
259.383	71.81
259.616	83.81
259.849	90.81
260.081	66.81
260.314	92.81
260.547	81.81
260.779	88.81
261.012	84.81
261.244	72.81
261.477	82.81
261.71	92.81
261.942	89.81
262.175	88.81
262.407	86.81
262.64	74.81
262.872	86.81
263.105	74.81
263.337	69.81
263.57	76.81
263.802	82.81
264.035	85.81
264.267	78.81
264.499	86.81
264.732	88.81
264.964	77.81
265.197	81.81
265.429	85.81
265.661	84.81
265.894	85.81
266.126	83.81
266.358	68.81
266.591	80.81
266.823	68.81
267.055	71.81
267.287	77.81
267.52	69.81
267.752	84.81
267.984	84.81
268.216	83.81
268.448	84.81
268.681	77.81
268.913	78.81
269.145	85.81
269.377	100.81
269.609	100.81
269.841	88.81
270.073	88.81
270.306	84.81
270.538	74.81
270.77	75.81
271.002	74.81
271.234	76.81
271.466	70.81
271.698	88.81
271.93	77.81
272.162	85.81
272.394	74.81
272.626	91.81
272.858	89.81
273.09	91.81
273.322	83.81
273.553	83.81
273.785	78.81
274.017	76.81
274.249	88.81
274.481	84.81
274.713	77.81
274.945	101.81
275.176	73.81
275.408	81.81
275.64	90.81
275.872	70.81
276.104	76.81
276.335	89.81
276.567	84.81
276.799	83.81
277.031	87.81
277.262	80.81
277.494	83.81
277.726	88.81
277.957	90.81
278.189	87.81
278.421	85.81
278.652	75.81
278.884	79.81
279.115	82.81
279.347	87.81
279.579	84.81
279.81	92.81
280.042	82.81
280.273	93.81
280.505	88.81
280.736	87.81
280.968	89.81
281.199	87.81
281.431	85.81
281.662	89.81
281.894	85.81
282.125	87.81
282.356	79.81
282.588	93.81
282.819	105.81
283.051	92.81
283.282	95.81
283.513	83.81
283.745	87.81
283.976	75.81
284.207	80.81
284.439	86.81
284.67	83.81
284.901	91.81
285.132	90.81
285.364	95.81
285.595	85.81
285.826	80.81
286.057	87.81
286.288	85.81
286.52	55.81
286.751	87.81
286.982	90.81
287.213	103.81
287.444	101.81
287.675	70.81
287.906	87.81
288.138	93.81
288.369	81.81
288.6	78.81
288.831	84.81
289.062	81.81
289.293	89.81
289.524	83.81
289.755	86.81
289.986	72.81
290.217	80.81
290.448	86.81
290.679	77.81
290.91	80.81
291.141	85.81
291.371	89.81
291.602	91.81
291.833	83.81
292.064	89.81
292.295	78.81
292.526	87.81
292.757	83.81
292.987	79.81
293.218	86.81
293.449	89.81
293.68	74.81
293.91	83.81
294.141	92.81
294.372	89.81
294.603	77.81
294.833	96.81
295.064	91.81
295.295	96.81
295.525	85.81
295.756	84.81
295.987	59.81
296.217	94.81
296.448	73.81
296.679	85.81
296.909	81.81
297.14	90.81
297.37	77.81
297.601	68.81
297.831	67.81
298.062	93.81
298.292	96.81
298.523	85.81
298.753	89.81
298.984	75.81
299.214	84.81
299.445	98.81
299.675	79.81
299.905	81.81
300.136	83.81
300.366	94.81
300.597	81.81
300.827	76.81
301.057	92.81
301.288	81.81
301.518	79.81
301.748	94.81
301.979	82.81
302.209	89.81
302.439	72.81
302.669	93.81
302.9	88.81
303.13	94.81
303.36	86.81
303.59	86.81
303.82	90.81
304.051	92.81
304.281	85.81
304.511	83.81
304.741	86.81
304.971	76.81
305.201	88.81
305.431	83.81
305.661	92.81
305.891	88.81
306.121	81.81
306.352	76.81
306.582	71.81
306.812	88.81
307.042	91.81
307.272	88.81
307.502	65.81
307.731	98.81
307.961	103.81
308.191	87.81
308.421	85.81
308.651	87.81
308.881	92.81
309.111	83.81
309.341	86.81
309.571	85.81
309.8	107.81
310.03	95.81
310.26	82.81
310.49	88.81
310.72	89.81
310.949	89.81
311.179	78.81
311.409	63.81
311.639	78.81
311.868	88.81
312.098	81.81
312.328	92.81
312.557	77.81
312.787	92.81
313.017	95.81
313.246	90.81
313.476	86.81
313.706	76.81
313.935	98.81
314.165	82.81
314.394	83.81
314.624	93.81
314.853	89.81
315.083	93.81
315.312	92.81
315.542	84.81
315.771	73.81
316.001	85.81
316.23	83.81
316.46	80.81
316.689	93.81
316.919	83.81
317.148	83.81
317.377	87.81
317.607	91.81
317.836	88.81
318.065	89.81
318.295	84.81
318.524	77.81
318.753	91.81
318.983	90.81
319.212	95.81
319.441	81.81
319.67	93.81
319.9	86.81
320.129	77.81
320.358	83.81
320.587	80.81
320.816	81.81
321.046	87.81
321.275	100.81
321.504	76.81
321.733	80.81
321.962	83.81
322.191	74.81
322.42	94.81
322.649	80.81
322.878	91.81
323.108	83.81
323.337	94.81
323.566	88.81
323.795	85.81
324.024	80.81
324.253	70.81
324.482	85.81
324.71	67.81
324.939	81.81
325.168	83.81
325.397	84.81
325.626	85.81
325.855	86.81
326.084	72.81
326.313	80.81
326.542	85.81
326.77	84.81
326.999	92.81
327.228	93.81
327.457	67.81
327.686	77.81
327.914	77.81
328.143	84.81
328.372	92.81
328.6	77.81
328.829	77.81
329.058	87.81
329.287	100.81
329.515	88.81
329.744	78.81
329.972	92.81
330.201	81.81
330.43	86.81
330.658	83.81
330.887	87.81
331.115	85.81
331.344	86.81
331.572	83.81
331.801	87.81
332.03	83.81
332.258	88.81
332.486	85.81
332.715	89.81
332.943	84.81
333.172	80.81
333.4	88.81
333.629	93.81
333.857	86.81
334.085	81.81
334.314	93.81
334.542	82.81
334.771	99.81
334.999	93.81
335.227	83.81
335.455	68.81
335.684	84.81
335.912	82.81
336.14	76.81
336.369	84.81
336.597	85.81
336.825	85.81
337.053	81.81
337.281	81.81
337.51	96.81
337.738	79.81
337.966	88.81
338.194	79.81
338.422	88.81
338.65	85.81
338.878	89.81
339.106	81.81
339.334	83.81
339.562	95.81
339.79	82.81
340.018	82.81
340.246	92.81
340.474	75.81
340.702	77.81
340.93	79.81
341.158	85.81
341.386	84.81
341.614	89.81
341.842	79.81
342.07	81.81
342.298	91.81
342.526	81.81
342.754	84.81
342.981	80.81
343.209	80.81
343.437	87.81
343.665	64.81
343.893	79.81
344.12	77.81
344.348	73.81
344.576	84.81
344.804	96.81
345.031	87.81
345.259	75.81
345.487	90.81
345.714	70.81
345.942	78.81
346.17	75.81
346.397	91.81
346.625	80.81
346.853	97.81
347.08	79.81
347.308	71.81
347.535	88.81
347.763	84.81
347.99	85.81
348.218	91.81
348.445	84.81
348.673	88.81
348.9	90.81
349.128	76.81
349.355	70.81
349.583	79.81
349.81	72.81
350.037	78.81
350.265	90.81
350.492	82.81
350.72	68.81
350.947	82.81
351.174	94.81
351.402	78.81
351.629	82.81
351.856	83.81
352.083	85.81
352.311	86.81
352.538	85.81
352.765	78.81
352.992	80.81
353.22	80.81
353.447	89.81
353.674	85.81
353.901	83.81
354.128	76.81
354.355	92.81
354.583	99.81
354.81	67.81
355.037	88.81
355.264	87.81
355.491	88.81
355.718	77.81
355.945	81.81
356.172	82.81
356.399	89.81
356.626	90.81
356.853	76.81
357.08	87.81
357.307	81.81
357.534	90.81
357.761	87.81
357.988	80.81
358.215	82.81
358.441	84.81
358.668	84.81
358.895	68.81
359.122	96.81
359.349	68.81
359.576	93.81
359.802	83.81
360.029	80.81
360.256	82.81
360.483	80.81
360.709	84.81
360.936	106.81
361.163	81.81
361.39	79.81
361.616	84.81
361.843	83.81
362.07	92.81
362.296	84.81
362.523	86.81
362.749	69.81
362.976	84.81
363.203	88.81
363.429	74.81
363.656	87.81
363.882	81.81
364.109	80.81
364.335	92.81
364.562	77.81
364.788	83.81
365.015	75.81
365.241	87.81
365.468	88.81
365.694	70.81
365.92	77.81
366.147	81.81
366.373	83.81
366.599	82.81
366.826	79.81
367.052	95.81
367.278	83.81
367.505	71.81
367.731	76.81
367.957	81.81
368.184	73.81
368.41	75.81
368.636	92.81
368.862	81.81
369.089	90.81
369.315	93.81
369.541	85.81
369.767	88.81
369.993	69.81
370.219	83.81
370.445	77.81
370.672	85.81
370.898	83.81
371.124	86.81
371.35	85.81
371.576	83.81
371.802	81.81
372.028	90.81
372.254	85.81
372.48	86.81
372.706	91.81
372.932	99.81
373.158	85.81
373.384	93.81
373.61	83.81
373.835	81.81
374.061	72.81
374.287	76.81
374.513	91.81
374.739	84.81
374.965	80.81
375.191	69.81
375.416	76.81
375.642	88.81
375.868	81.81
376.094	92.81
376.319	87.81
376.545	87.81
376.771	81.81
376.997	86.81
377.222	86.81
377.448	100.81
377.674	97.81
377.899	102.81
378.125	85.81
378.35	74.81
378.576	94.81
378.802	96.81
379.027	100.81
379.253	84.81
379.478	75.81
379.704	82.81
379.929	80.81
380.155	90.81
380.38	82.81
380.606	84.81
380.831	78.81
381.057	98.81
381.282	87.81
381.507	79.81
381.733	95.81
381.958	79.81
382.184	73.81
382.409	92.81
382.634	103.81
382.86	74.81
383.085	87.81
383.31	89.81
383.535	84.81
383.761	101.81
383.986	67.81
384.211	85.81
384.436	88.81
384.662	103.81
384.887	81.81
385.112	84.81
385.337	97.81
385.562	101.81
385.787	82.81
386.013	70.81
386.238	83.81
386.463	77.81
386.688	89.81
386.913	89.81
387.138	92.81
387.363	86.81
387.588	88.81
387.813	84.81
388.038	77.81
388.263	89.81
388.488	96.81
388.713	80.81
388.938	82.81
389.163	81.81
389.387	90.81
389.612	81.81
389.837	84.81
390.062	76.81
390.287	88.81
390.512	79.81
390.736	90.81
390.961	75.81
391.186	88.81
391.411	83.81
391.636	86.81
391.86	81.81
392.085	80.81
392.31	84.81
392.534	81.81
392.759	87.81
392.984	67.81
393.208	90.81
393.433	91.81
393.658	77.81
393.882	79.81
394.107	83.81
394.331	91.81
394.556	79.81
394.78	74.81
395.005	81.81
395.229	88.81
395.454	105.81
395.678	96.81
395.903	96.81
396.127	87.81
396.352	88.81
396.576	83.81
396.801	77.81
397.025	71.81
397.249	90.81
397.474	102.81
397.698	85.81
397.922	88.81
398.147	81.81
398.371	83.81
398.595	81.81
398.82	76.81
399.044	82.81
399.268	88.81
399.492	90.81
399.717	91.81
399.941	95.81
400.165	77.81
400.389	82.81
400.613	86.81
400.837	78.81
401.062	96.81
401.286	82.81
401.51	98.81
401.734	95.81
401.958	91.81
402.182	97.81
402.406	81.81
402.63	92.81
402.854	98.81
403.078	95.81
403.302	103.81
403.526	94.81
403.75	84.81
403.974	97.81
404.198	86.81
404.422	91.81
404.645	96.81
404.869	80.81
405.093	87.81
405.317	84.81
405.541	93.81
405.765	81.81
405.988	74.81
406.212	100.81
406.436	86.81
406.66	93.81
406.883	88.81
407.107	101.81
407.331	99.81
407.555	97.81
407.778	70.81
408.002	90.81
408.226	98.81
408.449	83.81
408.673	85.81
408.896	81.81
409.12	82.81
409.344	96.81
409.567	98.81
409.791	89.81
410.014	86.81
410.238	86.81
410.461	98.81
410.685	92.81
410.908	96.81
411.132	87.81
411.355	95.81
411.578	79.81
411.802	80.81
412.025	92.81
412.249	95.81
412.472	88.81
412.695	85.81
412.919	90.81
413.142	96.81
413.365	100.81
413.589	91.81
413.812	89.81
414.035	97.81
414.258	107.81
414.482	97.81
414.705	104.81
414.928	92.81
415.151	85.81
415.374	109.81
415.597	96.81
415.821	82.81
416.044	80.81
416.267	101.81
416.49	88.81
416.713	89.81
416.936	98.81
417.159	96.81
417.382	105.81
417.605	100.81
417.828	99.81
418.051	89.81
418.274	101.81
418.497	91.81
418.72	112.81
418.943	88.81
419.166	86.81
419.389	93.81
419.611	74.81
419.834	87.81
420.057	96.81
420.28	95.81
420.503	86.81
420.726	86.81
420.948	99.81
421.171	93.81
421.394	94.81
421.617	103.81
421.839	89.81
422.062	102.81
422.285	100.81
422.507	92.81
422.73	94.81
422.953	94.81
423.175	97.81
423.398	100.81
423.621	85.81
423.843	103.81
424.066	85.81
424.288	86.81
424.511	98.81
424.733	87.81
424.956	108.81
425.178	111.81
425.401	115.81
425.623	98.81
425.846	95.81
426.068	83.81
426.291	104.81
426.513	96.81
426.735	100.81
426.958	90.81
427.18	93.81
427.402	74.81
427.625	101.81
427.847	88.81
428.069	100.81
428.292	96.81
428.514	106.81
428.736	108.81
428.958	88.81
429.181	97.81
429.403	99.81
429.625	106.81
429.847	102.81
430.069	103.81
430.292	93.81
430.514	94.81
430.736	91.81
430.958	97.81
431.18	99.81
431.402	108.81
431.624	90.81
431.846	95.81
432.068	96.81
432.29	90.81
432.512	87.81
432.734	85.81
432.956	82.81
433.178	94.81
433.4	84.81
433.622	91.81
433.844	92.81
434.066	101.81
434.287	85.81
434.509	101.81
434.731	78.81
434.953	83.81
435.175	101.81
435.397	71.81
435.618	98.81
435.84	93.81
436.062	88.81
436.284	101.81
436.505	97.81
436.727	98.81
436.949	99.81
437.17	92.81
437.392	102.81
437.614	88.81
437.835	92.81
438.057	93.81
438.278	96.81
438.5	105.81
438.721	103.81
438.943	102.81
439.165	85.81
439.386	94.81
439.608	88.81
439.829	107.81
440.05	91.81
440.272	95.81
440.493	99.81
440.715	109.81
440.936	106.81
441.158	101.81
441.379	93.81
441.6	91.81
441.822	101.81
442.043	88.81
442.264	95.81
442.486	94.81
442.707	103.81
442.928	95.81
443.149	104.81
443.371	105.81
443.592	91.81
443.813	90.81
444.034	99.81
444.255	103.81
444.476	98.81
444.698	105.81
444.919	105.81
445.14	225.81
445.361	145.81
445.582	107.81
445.803	98.81
446.024	82.81
446.245	107.81
446.466	102.81
446.687	99.81
446.908	117.81
447.129	101.81
447.35	96.81
447.571	88.81
447.792	108.81
448.013	97.81
448.234	95.81
448.455	89.81
448.675	95.81
448.896	98.81
449.117	94.81
449.338	98.81
449.559	99.81
449.779	105.81
450	87.81
450.221	92.81
450.442	104.81
450.662	87.81
450.883	104.81
451.104	103.81
451.324	87.81
451.545	100.81
451.766	75.81
451.986	95.81
452.207	96.81
452.428	101.81
452.648	102.81
452.869	85.81
453.089	98.81
453.31	93.81
453.53	103.81
453.751	95.81
453.971	80.81
454.192	98.81
454.412	87.81
454.633	96.81
454.853	99.81
455.073	84.81
455.294	104.81
455.514	83.81
455.734	85.81
455.955	87.81
456.175	95.81
456.395	86.81
456.616	72.81
456.836	83.81
457.056	90.81
457.276	101.81
457.497	103.81
457.717	92.81
457.937	94.81
458.157	92.81
458.377	102.81
458.598	82.81
458.818	81.81
459.038	92.81
459.258	83.81
459.478	80.81
459.698	85.81
459.918	82.81
460.138	93.81
460.358	89.81
460.578	93.81
460.798	86.81
461.018	93.81
461.238	90.81
461.458	89.81
461.678	91.81
461.898	96.81
462.118	109.81
462.338	92.81
462.558	97.81
462.777	101.81
462.997	93.81
463.217	90.81
463.437	82.81
463.657	84.81
463.876	87.81
464.096	80.81
464.316	82.81
464.536	87.81
464.755	104.81
464.975	89.81
465.195	86.81
465.414	91.81
465.634	105.81
465.854	103.81
466.073	101.81
466.293	108.81
466.512	72.81
466.732	84.81
466.951	89.81
467.171	96.81
467.391	102.81
467.61	103.81
467.829	96.81
468.049	98.81
468.268	90.81
468.488	120.81
468.707	96.81
468.927	101.81
469.146	92.81
469.365	100.81
469.585	101.81
469.804	93.81
470.023	97.81
470.243	107.81
470.462	108.81
470.681	98.81
470.901	92.81
471.12	98.81
471.339	92.81
471.558	107.81
471.777	97.81
471.997	83.81
472.216	104.81
472.435	95.81
472.654	95.81
472.873	84.81
473.092	82.81
473.311	108.81
473.53	85.81
473.749	96.81
473.968	95.81
474.187	87.81
474.406	104.81
474.625	84.81
474.844	94.81
475.063	77.81
475.282	103.81
475.501	97.81
475.72	102.81
475.939	85.81
476.158	93.81
476.377	95.81
476.596	114.81
476.814	86.81
477.033	96.81
477.252	83.81
477.471	83.81
477.69	101.81
477.908	97.81
478.127	109.81
478.346	91.81
478.564	91.81
478.783	86.81
479.002	96.81
479.22	104.81
479.439	113.81
479.658	95.81
479.876	94.81
480.095	104.81
480.313	94.81
480.532	93.81
480.751	101.81
480.969	74.81
481.188	97.81
481.406	77.81
481.624	89.81
481.843	90.81
482.061	97.81
482.28	84.81
482.498	87.81
482.717	84.81
482.935	103.81
483.153	95.81
483.372	96.81
483.59	101.81
483.808	101.81
484.027	86.81
484.245	106.81
484.463	109.81
484.681	109.81
484.9	114.81
485.118	102.81
485.336	96.81
485.554	102.81
485.772	84.81
485.99	91.81
486.209	100.81
486.427	76.81
486.645	91.81
486.863	103.81
487.081	95.81
487.299	99.81
487.517	89.81
487.735	114.81
487.953	108.81
488.171	104.81
488.389	101.81
488.607	105.81
488.825	98.81
489.043	98.81
489.261	101.81
489.479	96.81
489.696	113.81
489.914	110.81
490.132	102.81
490.35	111.81
490.568	104.81
490.786	113.81
491.003	115.81
491.221	117.81
491.439	123.81
491.657	112.81
491.874	115.81
492.092	124.81
492.31	136.81
492.527	136.81
492.745	121.81
492.963	122.81
493.18	103.81
493.398	115.81
493.615	121.81
493.833	112.81
494.05	107.81
494.268	105.81
494.485	120.81
494.703	101.81
494.92	104.81
495.138	118.81
495.355	115.81
495.573	103.81
495.79	113.81
496.008	111.81
496.225	117.81
496.442	100.81
496.66	106.81
496.877	111.81
497.094	107.81
497.312	121.81
497.529	108.81
497.746	91.81
497.963	95.81
498.181	96.81
498.398	89.81
498.615	92.81
498.832	91.81
499.049	84.81
499.267	97.81
499.484	111.81
499.701	103.81
499.918	102.81
500.135	95.81
500.352	102.81
500.569	114.81
500.786	111.81
501.003	102.81
501.22	97.81
501.437	106.81
501.654	95.81
501.871	106.81
502.088	90.81
502.305	105.81
502.522	103.81
502.739	94.81
502.956	101.81
503.172	103.81
503.389	91.81
503.606	108.81
503.823	105.81
504.04	101.81
504.256	104.81
504.473	94.81
504.69	94.81
504.907	104.81
505.123	92.81
505.34	103.81
505.557	83.81
505.773	86.81
505.99	96.81
506.207	113.81
506.423	104.81
506.64	88.81
506.856	93.81
507.073	85.81
507.289	101.81
507.506	115.81
507.722	94.81
507.939	103.81
508.155	95.81
508.372	93.81
508.588	98.81
508.805	89.81
509.021	90.81
509.238	91.81
509.454	72.81
509.67	94.81
509.887	90.81
510.103	78.81
510.319	79.81
510.536	87.81
510.752	89.81
510.968	82.81
511.184	78.81
511.401	93.81
511.617	91.81
511.833	74.81
512.049	89.81
512.265	94.81
512.481	92.81
512.698	80.81
512.914	88.81
513.13	73.81
513.346	71.81
513.562	89.81
513.778	87.81
513.994	89.81
514.21	93.81
514.426	99.81
514.642	70.81
514.858	87.81
515.074	85.81
515.29	85.81
515.506	94.81
515.721	86.81
515.937	94.81
516.153	82.81
516.369	89.81
516.585	76.81
516.801	101.81
