Data from Location3.07152019.Energy5.Lamp.07192019.3%Agarose_HRD10591_15-19-25-270.txt Node
Date: Fri Jul 19 15:19:25 EDT 2019
User: cochatt
Spectrometer: HR+D1059
Trigger mode: 1
Integration Time (sec): 1.000000E-1
Scans to average: 1
Electric dark correction enabled: true
Nonlinearity correction enabled: false
Boxcar width: 0
XAxis mode: Wavelengths
Number of Pixels in Spectrum: 2048
>>>>>Begin Spectral Data<<<<<
223.165	-25.25
223.4	-25.25
223.635	-25.25
223.869	-13.25
224.104	-40.25
224.338	-26.25
224.573	-14.25
224.808	-6.25
225.042	-16.25
225.277	4.75
225.511	-13.25
225.746	1.75
225.98	5.75
226.215	28.75
226.449	13.75
226.683	33.75
226.918	30.75
227.152	35.75
227.387	34.75
227.621	49.75
227.856	37.75
228.09	50.75
228.324	44.75
228.559	51.75
228.793	28.75
229.027	57.75
229.262	60.75
229.496	68.75
229.73	71.75
229.964	69.75
230.199	65.75
230.433	74.75
230.667	77.75
230.901	72.75
231.136	83.75
231.37	82.75
231.604	70.75
231.838	76.75
232.072	75.75
232.306	88.75
232.541	98.75
232.775	80.75
233.009	83.75
233.243	84.75
233.477	89.75
233.711	69.75
233.945	72.75
234.179	81.75
234.413	84.75
234.647	72.75
234.881	92.75
235.115	90.75
235.349	79.75
235.583	83.75
235.817	81.75
236.051	71.75
236.285	68.75
236.519	78.75
236.753	70.75
236.987	82.75
237.221	81.75
237.455	80.75
237.689	80.75
237.922	94.75
238.156	68.75
238.39	76.75
238.624	60.75
238.858	76.75
239.091	79.75
239.325	67.75
239.559	76.75
239.793	64.75
240.027	64.75
240.26	72.75
240.494	86.75
240.728	84.75
240.961	65.75
241.195	64.75
241.429	71.75
241.662	83.75
241.896	66.75
242.13	85.75
242.363	78.75
242.597	73.75
242.83	73.75
243.064	73.75
243.298	71.75
243.531	82.75
243.765	79.75
243.998	75.75
244.232	69.75
244.465	78.75
244.699	71.75
244.932	81.75
245.166	78.75
245.399	72.75
245.633	69.75
245.866	76.75
246.099	76.75
246.333	71.75
246.566	57.75
246.8	71.75
247.033	72.75
247.266	85.75
247.5	85.75
247.733	87.75
247.966	80.75
248.2	78.75
248.433	69.75
248.666	75.75
248.899	66.75
249.133	70.75
249.366	86.75
249.599	87.75
249.832	83.75
250.066	85.75
250.299	74.75
250.532	66.75
250.765	71.75
250.998	89.75
251.231	80.75
251.465	83.75
251.698	69.75
251.931	75.75
252.164	82.75
252.397	90.75
252.63	79.75
252.863	81.75
253.096	70.75
253.329	72.75
253.562	65.75
253.795	73.75
254.028	97.75
254.261	73.75
254.494	70.75
254.727	77.75
254.96	77.75
255.193	69.75
255.426	70.75
255.659	72.75
255.892	81.75
256.124	81.75
256.357	92.75
256.59	78.75
256.823	77.75
257.056	91.75
257.289	76.75
257.521	69.75
257.754	80.75
257.987	74.75
258.22	78.75
258.452	76.75
258.685	76.75
258.918	91.75
259.151	88.75
259.383	81.75
259.616	88.75
259.849	69.75
260.081	74.75
260.314	70.75
260.547	74.75
260.779	84.75
261.012	87.75
261.244	72.75
261.477	81.75
261.71	92.75
261.942	98.75
262.175	67.75
262.407	90.75
262.64	76.75
262.872	76.75
263.105	83.75
263.337	74.75
263.57	74.75
263.802	74.75
264.035	65.75
264.267	67.75
264.499	94.75
264.732	74.75
264.964	81.75
265.197	81.75
265.429	80.75
265.661	96.75
265.894	76.75
266.126	84.75
266.358	85.75
266.591	71.75
266.823	74.75
267.055	80.75
267.287	89.75
267.52	86.75
267.752	83.75
267.984	94.75
268.216	80.75
268.448	81.75
268.681	78.75
268.913	81.75
269.145	84.75
269.377	84.75
269.609	72.75
269.841	78.75
270.073	78.75
270.306	81.75
270.538	84.75
270.77	78.75
271.002	82.75
271.234	77.75
271.466	84.75
271.698	73.75
271.93	59.75
272.162	78.75
272.394	69.75
272.626	71.75
272.858	80.75
273.09	86.75
273.322	82.75
273.553	87.75
273.785	82.75
274.017	81.75
274.249	85.75
274.481	81.75
274.713	76.75
274.945	87.75
275.176	86.75
275.408	82.75
275.64	87.75
275.872	82.75
276.104	86.75
276.335	83.75
276.567	84.75
276.799	72.75
277.031	77.75
277.262	84.75
277.494	88.75
277.726	87.75
277.957	83.75
278.189	77.75
278.421	84.75
278.652	72.75
278.884	81.75
279.115	80.75
279.347	79.75
279.579	81.75
279.81	85.75
280.042	79.75
280.273	85.75
280.505	79.75
280.736	83.75
280.968	77.75
281.199	88.75
281.431	80.75
281.662	97.75
281.894	97.75
282.125	75.75
282.356	84.75
282.588	77.75
282.819	86.75
283.051	85.75
283.282	88.75
283.513	89.75
283.745	78.75
283.976	66.75
284.207	82.75
284.439	79.75
284.67	92.75
284.901	84.75
285.132	92.75
285.364	81.75
285.595	89.75
285.826	88.75
286.057	92.75
286.288	83.75
286.52	94.75
286.751	67.75
286.982	81.75
287.213	96.75
287.444	93.75
287.675	87.75
287.906	79.75
288.138	89.75
288.369	82.75
288.6	91.75
288.831	74.75
289.062	88.75
289.293	86.75
289.524	84.75
289.755	94.75
289.986	97.75
290.217	86.75
290.448	77.75
290.679	82.75
290.91	68.75
291.141	97.75
291.371	79.75
291.602	80.75
291.833	96.75
292.064	89.75
292.295	86.75
292.526	86.75
292.757	90.75
292.987	89.75
293.218	74.75
293.449	79.75
293.68	81.75
293.91	90.75
294.141	83.75
294.372	76.75
294.603	80.75
294.833	97.75
295.064	85.75
295.295	80.75
295.525	86.75
295.756	87.75
295.987	87.75
296.217	82.75
296.448	85.75
296.679	83.75
296.909	79.75
297.14	74.75
297.37	82.75
297.601	79.75
297.831	87.75
298.062	85.75
298.292	70.75
298.523	89.75
298.753	80.75
298.984	83.75
299.214	82.75
299.445	84.75
299.675	75.75
299.905	70.75
300.136	92.75
300.366	89.75
300.597	84.75
300.827	93.75
301.057	83.75
301.288	85.75
301.518	82.75
301.748	85.75
301.979	81.75
302.209	77.75
302.439	85.75
302.669	84.75
302.9	77.75
303.13	79.75
303.36	86.75
303.59	77.75
303.82	74.75
304.051	87.75
304.281	93.75
304.511	90.75
304.741	81.75
304.971	83.75
305.201	94.75
305.431	81.75
305.661	89.75
305.891	77.75
306.121	91.75
306.352	79.75
306.582	101.75
306.812	85.75
307.042	63.75
307.272	92.75
307.502	72.75
307.731	85.75
307.961	85.75
308.191	82.75
308.421	78.75
308.651	84.75
308.881	86.75
309.111	85.75
309.341	79.75
309.571	84.75
309.8	84.75
310.03	86.75
310.26	93.75
310.49	84.75
310.72	87.75
310.949	74.75
311.179	86.75
311.409	78.75
311.639	102.75
311.868	85.75
312.098	84.75
312.328	86.75
312.557	91.75
312.787	69.75
313.017	72.75
313.246	82.75
313.476	79.75
313.706	90.75
313.935	83.75
314.165	76.75
314.394	93.75
314.624	78.75
314.853	88.75
315.083	91.75
315.312	80.75
315.542	81.75
315.771	76.75
316.001	66.75
316.23	73.75
316.46	87.75
316.689	84.75
316.919	76.75
317.148	79.75
317.377	72.75
317.607	81.75
317.836	92.75
318.065	80.75
318.295	74.75
318.524	86.75
318.753	80.75
318.983	111.75
319.212	93.75
319.441	77.75
319.67	90.75
319.9	87.75
320.129	85.75
320.358	78.75
320.587	92.75
320.816	71.75
321.046	76.75
321.275	94.75
321.504	80.75
321.733	90.75
321.962	93.75
322.191	80.75
322.42	85.75
322.649	91.75
322.878	88.75
323.108	81.75
323.337	103.75
323.566	82.75
323.795	80.75
324.024	74.75
324.253	88.75
324.482	101.75
324.71	92.75
324.939	93.75
325.168	80.75
325.397	95.75
325.626	88.75
325.855	96.75
326.084	71.75
326.313	63.75
326.542	73.75
326.77	75.75
326.999	86.75
327.228	84.75
327.457	83.75
327.686	77.75
327.914	78.75
328.143	95.75
328.372	76.75
328.6	78.75
328.829	62.75
329.058	82.75
329.287	77.75
329.515	70.75
329.744	85.75
329.972	79.75
330.201	69.75
330.43	89.75
330.658	82.75
330.887	92.75
331.115	80.75
331.344	93.75
331.572	83.75
331.801	80.75
332.03	83.75
332.258	88.75
332.486	80.75
332.715	91.75
332.943	77.75
333.172	80.75
333.4	84.75
333.629	81.75
333.857	86.75
334.085	80.75
334.314	80.75
334.542	91.75
334.771	83.75
334.999	80.75
335.227	82.75
335.455	77.75
335.684	66.75
335.912	67.75
336.14	69.75
336.369	74.75
336.597	83.75
336.825	76.75
337.053	75.75
337.281	73.75
337.51	89.75
337.738	77.75
337.966	66.75
338.194	90.75
338.422	78.75
338.65	84.75
338.878	84.75
339.106	86.75
339.334	71.75
339.562	80.75
339.79	80.75
340.018	79.75
340.246	79.75
340.474	87.75
340.702	78.75
340.93	80.75
341.158	78.75
341.386	79.75
341.614	85.75
341.842	90.75
342.07	90.75
342.298	93.75
342.526	83.75
342.754	73.75
342.981	69.75
343.209	92.75
343.437	66.75
343.665	87.75
343.893	68.75
344.12	87.75
344.348	71.75
344.576	58.75
344.804	76.75
345.031	85.75
345.259	79.75
345.487	83.75
345.714	72.75
345.942	74.75
346.17	87.75
346.397	82.75
346.625	68.75
346.853	84.75
347.08	69.75
347.308	68.75
347.535	74.75
347.763	67.75
347.99	75.75
348.218	79.75
348.445	72.75
348.673	74.75
348.9	109.75
349.128	75.75
349.355	85.75
349.583	73.75
349.81	79.75
350.037	101.75
350.265	89.75
350.492	97.75
350.72	91.75
350.947	73.75
351.174	85.75
351.402	90.75
351.629	81.75
351.856	80.75
352.083	79.75
352.311	68.75
352.538	82.75
352.765	74.75
352.992	77.75
353.22	94.75
353.447	71.75
353.674	74.75
353.901	77.75
354.128	82.75
354.355	71.75
354.583	76.75
354.81	84.75
355.037	74.75
355.264	79.75
355.491	80.75
355.718	79.75
355.945	75.75
356.172	82.75
356.399	84.75
356.626	75.75
356.853	80.75
357.08	76.75
357.307	88.75
357.534	92.75
357.761	78.75
357.988	74.75
358.215	76.75
358.441	92.75
358.668	84.75
358.895	77.75
359.122	82.75
359.349	80.75
359.576	86.75
359.802	82.75
360.029	85.75
360.256	71.75
360.483	70.75
360.709	74.75
360.936	78.75
361.163	84.75
361.39	81.75
361.616	78.75
361.843	80.75
362.07	93.75
362.296	100.75
362.523	97.75
362.749	80.75
362.976	82.75
363.203	82.75
363.429	79.75
363.656	76.75
363.882	90.75
364.109	86.75
364.335	76.75
364.562	87.75
364.788	85.75
365.015	89.75
365.241	84.75
365.468	74.75
365.694	79.75
365.92	79.75
366.147	86.75
366.373	79.75
366.599	79.75
366.826	78.75
367.052	80.75
367.278	75.75
367.505	82.75
367.731	86.75
367.957	84.75
368.184	80.75
368.41	94.75
368.636	89.75
368.862	74.75
369.089	97.75
369.315	80.75
369.541	74.75
369.767	80.75
369.993	79.75
370.219	81.75
370.445	80.75
370.672	68.75
370.898	93.75
371.124	97.75
371.35	90.75
371.576	83.75
371.802	77.75
372.028	84.75
372.254	96.75
372.48	68.75
372.706	82.75
372.932	81.75
373.158	75.75
373.384	83.75
373.61	85.75
373.835	93.75
374.061	81.75
374.287	84.75
374.513	78.75
374.739	95.75
374.965	87.75
375.191	75.75
375.416	80.75
375.642	63.75
375.868	70.75
376.094	82.75
376.319	95.75
376.545	80.75
376.771	72.75
376.997	84.75
377.222	85.75
377.448	87.75
377.674	87.75
377.899	94.75
378.125	79.75
378.35	79.75
378.576	92.75
378.802	82.75
379.027	86.75
379.253	90.75
379.478	88.75
379.704	85.75
379.929	81.75
380.155	63.75
380.38	85.75
380.606	97.75
380.831	101.75
381.057	78.75
381.282	99.75
381.507	88.75
381.733	73.75
381.958	65.75
382.184	72.75
382.409	96.75
382.634	86.75
382.86	83.75
383.085	79.75
383.31	106.75
383.535	76.75
383.761	84.75
383.986	99.75
384.211	91.75
384.436	78.75
384.662	91.75
384.887	77.75
385.112	86.75
385.337	80.75
385.562	88.75
385.787	92.75
386.013	109.75
386.238	87.75
386.463	76.75
386.688	81.75
386.913	70.75
387.138	76.75
387.363	78.75
387.588	95.75
387.813	77.75
388.038	76.75
388.263	83.75
388.488	97.75
388.713	69.75
388.938	88.75
389.163	80.75
389.387	83.75
389.612	81.75
389.837	79.75
390.062	85.75
390.287	97.75
390.512	102.75
390.736	79.75
390.961	85.75
391.186	85.75
391.411	71.75
391.636	83.75
391.86	80.75
392.085	82.75
392.31	77.75
392.534	82.75
392.759	80.75
392.984	94.75
393.208	72.75
393.433	92.75
393.658	81.75
393.882	73.75
394.107	74.75
394.331	95.75
394.556	98.75
394.78	90.75
395.005	80.75
395.229	85.75
395.454	94.75
395.678	81.75
395.903	88.75
396.127	87.75
396.352	88.75
396.576	81.75
396.801	80.75
397.025	93.75
397.249	78.75
397.474	88.75
397.698	79.75
397.922	90.75
398.147	87.75
398.371	85.75
398.595	82.75
398.82	99.75
399.044	81.75
399.268	86.75
399.492	85.75
399.717	72.75
399.941	92.75
400.165	78.75
400.389	83.75
400.613	81.75
400.837	80.75
401.062	80.75
401.286	89.75
401.51	93.75
401.734	70.75
401.958	93.75
402.182	80.75
402.406	98.75
402.63	86.75
402.854	83.75
403.078	73.75
403.302	79.75
403.526	90.75
403.75	93.75
403.974	72.75
404.198	78.75
404.422	89.75
404.645	94.75
404.869	94.75
405.093	91.75
405.317	90.75
405.541	81.75
405.765	96.75
405.988	79.75
406.212	70.75
406.436	99.75
406.66	86.75
406.883	89.75
407.107	84.75
407.331	96.75
407.555	77.75
407.778	84.75
408.002	69.75
408.226	90.75
408.449	91.75
408.673	92.75
408.896	87.75
409.12	87.75
409.344	91.75
409.567	90.75
409.791	78.75
410.014	85.75
410.238	93.75
410.461	81.75
410.685	85.75
410.908	85.75
411.132	85.75
411.355	89.75
411.578	96.75
411.802	102.75
412.025	77.75
412.249	87.75
412.472	100.75
412.695	90.75
412.919	88.75
413.142	74.75
413.365	77.75
413.589	80.75
413.812	93.75
414.035	93.75
414.258	82.75
414.482	99.75
414.705	94.75
414.928	91.75
415.151	89.75
415.374	78.75
415.597	92.75
415.821	92.75
416.044	80.75
416.267	80.75
416.49	94.75
416.713	85.75
416.936	99.75
417.159	93.75
417.382	81.75
417.605	95.75
417.828	89.75
418.051	80.75
418.274	90.75
418.497	85.75
418.72	95.75
418.943	98.75
419.166	99.75
419.389	84.75
419.611	83.75
419.834	100.75
420.057	89.75
420.28	91.75
420.503	98.75
420.726	98.75
420.948	90.75
421.171	90.75
421.394	97.75
421.617	95.75
421.839	96.75
422.062	100.75
422.285	89.75
422.507	98.75
422.73	88.75
422.953	103.75
423.175	99.75
423.398	89.75
423.621	92.75
423.843	104.75
424.066	77.75
424.288	100.75
424.511	78.75
424.733	105.75
424.956	80.75
425.178	93.75
425.401	89.75
425.623	96.75
425.846	90.75
426.068	89.75
426.291	77.75
426.513	100.75
426.735	82.75
426.958	95.75
427.18	70.75
427.402	95.75
427.625	70.75
427.847	87.75
428.069	102.75
428.292	101.75
428.514	89.75
428.736	88.75
428.958	82.75
429.181	85.75
429.403	87.75
429.625	90.75
429.847	94.75
430.069	90.75
430.292	86.75
430.514	84.75
430.736	85.75
430.958	94.75
431.18	77.75
431.402	76.75
431.624	88.75
431.846	88.75
432.068	79.75
432.29	73.75
432.512	85.75
432.734	98.75
432.956	91.75
433.178	108.75
433.4	80.75
433.622	74.75
433.844	89.75
434.066	86.75
434.287	86.75
434.509	90.75
434.731	78.75
434.953	70.75
435.175	95.75
435.397	100.75
435.618	88.75
435.84	95.75
436.062	91.75
436.284	77.75
436.505	77.75
436.727	104.75
436.949	95.75
437.17	102.75
437.392	86.75
437.614	108.75
437.835	80.75
438.057	78.75
438.278	72.75
438.5	96.75
438.721	89.75
438.943	93.75
439.165	103.75
439.386	103.75
439.608	82.75
439.829	89.75
440.05	92.75
440.272	94.75
440.493	89.75
440.715	106.75
440.936	97.75
441.158	88.75
441.379	89.75
441.6	86.75
441.822	105.75
442.043	97.75
442.264	104.75
442.486	80.75
442.707	97.75
442.928	98.75
443.149	86.75
443.371	88.75
443.592	108.75
443.813	89.75
444.034	93.75
444.255	96.75
444.476	96.75
444.698	83.75
444.919	91.75
445.14	221.75
445.361	151.75
445.582	95.75
445.803	100.75
446.024	97.75
446.245	101.75
446.466	104.75
446.687	96.75
446.908	109.75
447.129	103.75
447.35	109.75
447.571	102.75
447.792	102.75
448.013	101.75
448.234	103.75
448.455	97.75
448.675	89.75
448.896	92.75
449.117	85.75
449.338	87.75
449.559	87.75
449.779	106.75
450	103.75
450.221	98.75
450.442	84.75
450.662	97.75
450.883	81.75
451.104	108.75
451.324	75.75
451.545	102.75
451.766	90.75
451.986	88.75
452.207	92.75
452.428	86.75
452.648	93.75
452.869	95.75
453.089	91.75
453.31	77.75
453.53	90.75
453.751	92.75
453.971	80.75
454.192	85.75
454.412	78.75
454.633	89.75
454.853	91.75
455.073	85.75
455.294	86.75
455.514	97.75
455.734	86.75
455.955	81.75
456.175	95.75
456.395	78.75
456.616	103.75
456.836	92.75
457.056	81.75
457.276	95.75
457.497	86.75
457.717	94.75
457.937	89.75
458.157	89.75
458.377	89.75
458.598	89.75
458.818	81.75
459.038	68.75
459.258	73.75
459.478	89.75
459.698	78.75
459.918	72.75
460.138	92.75
460.358	92.75
460.578	91.75
460.798	80.75
461.018	93.75
461.238	84.75
461.458	89.75
461.678	85.75
461.898	85.75
462.118	98.75
462.338	93.75
462.558	84.75
462.777	66.75
462.997	70.75
463.217	92.75
463.437	96.75
463.657	84.75
463.876	88.75
464.096	88.75
464.316	82.75
464.536	75.75
464.755	93.75
464.975	89.75
465.195	89.75
465.414	96.75
465.634	93.75
465.854	88.75
466.073	87.75
466.293	78.75
466.512	76.75
466.732	100.75
466.951	90.75
467.171	102.75
467.391	96.75
467.61	96.75
467.829	89.75
468.049	96.75
468.268	86.75
468.488	92.75
468.707	105.75
468.927	88.75
469.146	99.75
469.365	106.75
469.585	101.75
469.804	96.75
470.023	102.75
470.243	107.75
470.462	93.75
470.681	97.75
470.901	100.75
471.12	100.75
471.339	97.75
471.558	95.75
471.777	80.75
471.997	105.75
472.216	85.75
472.435	75.75
472.654	81.75
472.873	81.75
473.092	102.75
473.311	69.75
473.53	94.75
473.749	83.75
473.968	92.75
474.187	109.75
474.406	88.75
474.625	92.75
474.844	97.75
475.063	89.75
475.282	94.75
475.501	89.75
475.72	92.75
475.939	95.75
476.158	90.75
476.377	81.75
476.596	86.75
476.814	97.75
477.033	96.75
477.252	87.75
477.471	85.75
477.69	95.75
477.908	85.75
478.127	103.75
478.346	98.75
478.564	99.75
478.783	111.75
479.002	100.75
479.22	79.75
479.439	102.75
479.658	84.75
479.876	95.75
480.095	79.75
480.313	91.75
480.532	93.75
480.751	86.75
480.969	82.75
481.188	73.75
481.406	78.75
481.624	71.75
481.843	77.75
482.061	81.75
482.28	83.75
482.498	90.75
482.717	86.75
482.935	82.75
483.153	99.75
483.372	102.75
483.59	99.75
483.808	105.75
484.027	93.75
484.245	83.75
484.463	103.75
484.681	97.75
484.9	90.75
485.118	105.75
485.336	90.75
485.554	85.75
485.772	79.75
485.99	93.75
486.209	89.75
486.427	88.75
486.645	78.75
486.863	82.75
487.081	97.75
487.299	91.75
487.517	92.75
487.735	91.75
487.953	119.75
488.171	112.75
488.389	115.75
488.607	96.75
488.825	113.75
489.043	105.75
489.261	85.75
489.479	100.75
489.696	103.75
489.914	94.75
490.132	96.75
490.35	97.75
490.568	108.75
490.786	100.75
491.003	113.75
491.221	111.75
491.439	118.75
491.657	109.75
491.874	118.75
492.092	120.75
492.31	123.75
492.527	126.75
492.745	129.75
492.963	120.75
493.18	112.75
493.398	110.75
493.615	110.75
493.833	111.75
494.05	109.75
494.268	116.75
494.485	100.75
494.703	118.75
494.92	108.75
495.138	103.75
495.355	113.75
495.573	112.75
495.79	118.75
496.008	114.75
496.225	105.75
496.442	103.75
496.66	109.75
496.877	98.75
497.094	108.75
497.312	106.75
497.529	88.75
497.746	115.75
497.963	91.75
498.181	103.75
498.398	92.75
498.615	103.75
498.832	83.75
499.049	95.75
499.267	101.75
499.484	82.75
499.701	102.75
499.918	89.75
500.135	104.75
500.352	84.75
500.569	108.75
500.786	105.75
501.003	93.75
501.22	92.75
501.437	95.75
501.654	84.75
501.871	102.75
502.088	94.75
502.305	98.75
502.522	110.75
502.739	99.75
502.956	85.75
503.172	88.75
503.389	87.75
503.606	86.75
503.823	86.75
504.04	87.75
504.256	88.75
504.473	89.75
504.69	98.75
504.907	99.75
505.123	96.75
505.34	78.75
505.557	99.75
505.773	110.75
505.99	96.75
506.207	89.75
506.423	92.75
506.64	78.75
506.856	85.75
507.073	93.75
507.289	80.75
507.506	85.75
507.722	84.75
507.939	105.75
508.155	83.75
508.372	92.75
508.588	82.75
508.805	99.75
509.021	89.75
509.238	93.75
509.454	74.75
509.67	86.75
509.887	86.75
510.103	82.75
510.319	67.75
510.536	73.75
510.752	79.75
510.968	84.75
511.184	72.75
511.401	97.75
511.617	78.75
511.833	82.75
512.049	88.75
512.265	90.75
512.481	98.75
512.698	73.75
512.914	82.75
513.13	78.75
513.346	99.75
513.562	76.75
513.778	85.75
513.994	81.75
514.21	84.75
514.426	72.75
514.642	78.75
514.858	83.75
515.074	88.75
515.29	90.75
515.506	77.75
515.721	73.75
515.937	73.75
516.153	80.75
516.369	79.75
516.585	78.75
516.801	82.75
517.016	79.75
517.232	87.75
517.448	92.75
517.664	73.75
517.879	57.75
