Data from Location3.07152019.Energy5.Lamp.07192019.3%Agarose_HRD10591_15-18-21-269.txt Node
Date: Fri Jul 19 15:18:21 EDT 2019
User: cochatt
Spectrometer: HR+D1059
Trigger mode: 1
Integration Time (sec): 1.000000E-1
Scans to average: 1
Electric dark correction enabled: true
Nonlinearity correction enabled: false
Boxcar width: 0
XAxis mode: Wavelengths
Number of Pixels in Spectrum: 2048
>>>>>Begin Spectral Data<<<<<
223.165	-3.75
223.4	-3.75
223.635	-3.75
223.869	-5.75
224.104	-7.75
224.338	-25.75
224.573	-7.75
224.808	-8.75
225.042	-5.75
225.277	6.25
225.511	-8.75
225.746	-0.75
225.98	-5.75
226.215	6.25
226.449	9.25
226.683	2.25
226.918	22.25
227.152	34.25
227.387	41.25
227.621	27.25
227.856	46.25
228.09	45.25
228.324	59.25
228.559	59.25
228.793	54.25
229.027	55.25
229.262	54.25
229.496	71.25
229.73	80.25
229.964	76.25
230.199	72.25
230.433	76.25
230.667	78.25
230.901	83.25
231.136	77.25
231.37	62.25
231.604	75.25
231.838	82.25
232.072	74.25
232.306	94.25
232.541	98.25
232.775	84.25
233.009	85.25
233.243	94.25
233.477	82.25
233.711	81.25
233.945	77.25
234.179	90.25
234.413	84.25
234.647	69.25
234.881	60.25
235.115	85.25
235.349	95.25
235.583	82.25
235.817	67.25
236.051	69.25
236.285	76.25
236.519	69.25
236.753	74.25
236.987	81.25
237.221	73.25
237.455	82.25
237.689	65.25
237.922	84.25
238.156	67.25
238.39	78.25
238.624	74.25
238.858	79.25
239.091	71.25
239.325	84.25
239.559	78.25
239.793	78.25
240.027	68.25
240.26	77.25
240.494	63.25
240.728	80.25
240.961	83.25
241.195	75.25
241.429	70.25
241.662	78.25
241.896	78.25
242.13	85.25
242.363	70.25
242.597	80.25
242.83	75.25
243.064	63.25
243.298	79.25
243.531	80.25
243.765	82.25
243.998	68.25
244.232	70.25
244.465	84.25
244.699	87.25
244.932	83.25
245.166	72.25
245.399	89.25
245.633	67.25
245.866	70.25
246.099	69.25
246.333	73.25
246.566	84.25
246.8	67.25
247.033	76.25
247.266	93.25
247.5	79.25
247.733	79.25
247.966	76.25
248.2	91.25
248.433	83.25
248.666	75.25
248.899	93.25
249.133	92.25
249.366	84.25
249.599	94.25
249.832	72.25
250.066	76.25
250.299	74.25
250.532	82.25
250.765	70.25
250.998	68.25
251.231	80.25
251.465	83.25
251.698	98.25
251.931	67.25
252.164	82.25
252.397	76.25
252.63	78.25
252.863	86.25
253.096	82.25
253.329	89.25
253.562	72.25
253.795	83.25
254.028	85.25
254.261	72.25
254.494	72.25
254.727	81.25
254.96	83.25
255.193	90.25
255.426	79.25
255.659	84.25
255.892	83.25
256.124	73.25
256.357	103.25
256.59	72.25
256.823	70.25
257.056	83.25
257.289	73.25
257.521	93.25
257.754	77.25
257.987	91.25
258.22	87.25
258.452	90.25
258.685	75.25
258.918	89.25
259.151	93.25
259.383	84.25
259.616	73.25
259.849	86.25
260.081	92.25
260.314	74.25
260.547	71.25
260.779	80.25
261.012	97.25
261.244	71.25
261.477	72.25
261.71	73.25
261.942	74.25
262.175	100.25
262.407	88.25
262.64	84.25
262.872	77.25
263.105	77.25
263.337	81.25
263.57	83.25
263.802	73.25
264.035	86.25
264.267	89.25
264.499	79.25
264.732	79.25
264.964	83.25
265.197	71.25
265.429	76.25
265.661	82.25
265.894	77.25
266.126	88.25
266.358	84.25
266.591	84.25
266.823	81.25
267.055	76.25
267.287	74.25
267.52	82.25
267.752	95.25
267.984	79.25
268.216	92.25
268.448	93.25
268.681	76.25
268.913	88.25
269.145	83.25
269.377	87.25
269.609	85.25
269.841	87.25
270.073	84.25
270.306	84.25
270.538	85.25
270.77	72.25
271.002	76.25
271.234	77.25
271.466	84.25
271.698	93.25
271.93	92.25
272.162	83.25
272.394	86.25
272.626	68.25
272.858	87.25
273.09	75.25
273.322	75.25
273.553	80.25
273.785	83.25
274.017	86.25
274.249	88.25
274.481	82.25
274.713	81.25
274.945	83.25
275.176	76.25
275.408	81.25
275.64	95.25
275.872	79.25
276.104	91.25
276.335	74.25
276.567	91.25
276.799	65.25
277.031	84.25
277.262	81.25
277.494	92.25
277.726	83.25
277.957	94.25
278.189	95.25
278.421	79.25
278.652	71.25
278.884	73.25
279.115	80.25
279.347	81.25
279.579	86.25
279.81	95.25
280.042	86.25
280.273	85.25
280.505	80.25
280.736	94.25
280.968	88.25
281.199	89.25
281.431	91.25
281.662	82.25
281.894	90.25
282.125	94.25
282.356	84.25
282.588	86.25
282.819	84.25
283.051	80.25
283.282	82.25
283.513	92.25
283.745	96.25
283.976	89.25
284.207	91.25
284.439	86.25
284.67	80.25
284.901	81.25
285.132	74.25
285.364	93.25
285.595	79.25
285.826	94.25
286.057	88.25
286.288	84.25
286.52	78.25
286.751	70.25
286.982	87.25
287.213	95.25
287.444	100.25
287.675	100.25
287.906	84.25
288.138	91.25
288.369	97.25
288.6	78.25
288.831	85.25
289.062	95.25
289.293	81.25
289.524	71.25
289.755	89.25
289.986	78.25
290.217	86.25
290.448	99.25
290.679	93.25
290.91	75.25
291.141	81.25
291.371	87.25
291.602	94.25
291.833	88.25
292.064	84.25
292.295	84.25
292.526	88.25
292.757	94.25
292.987	64.25
293.218	94.25
293.449	71.25
293.68	79.25
293.91	83.25
294.141	86.25
294.372	84.25
294.603	90.25
294.833	83.25
295.064	87.25
295.295	89.25
295.525	67.25
295.756	75.25
295.987	87.25
296.217	79.25
296.448	83.25
296.679	74.25
296.909	84.25
297.14	87.25
297.37	101.25
297.601	91.25
297.831	82.25
298.062	75.25
298.292	83.25
298.523	90.25
298.753	90.25
298.984	83.25
299.214	91.25
299.445	91.25
299.675	91.25
299.905	78.25
300.136	88.25
300.366	96.25
300.597	89.25
300.827	82.25
301.057	87.25
301.288	79.25
301.518	82.25
301.748	74.25
301.979	89.25
302.209	69.25
302.439	94.25
302.669	80.25
302.9	94.25
303.13	79.25
303.36	86.25
303.59	84.25
303.82	77.25
304.051	96.25
304.281	92.25
304.511	80.25
304.741	85.25
304.971	81.25
305.201	82.25
305.431	74.25
305.661	93.25
305.891	89.25
306.121	88.25
306.352	97.25
306.582	86.25
306.812	87.25
307.042	92.25
307.272	73.25
307.502	72.25
307.731	86.25
307.961	90.25
308.191	95.25
308.421	93.25
308.651	74.25
308.881	91.25
309.111	85.25
309.341	84.25
309.571	71.25
309.8	89.25
310.03	88.25
310.26	94.25
310.49	95.25
310.72	84.25
310.949	79.25
311.179	97.25
311.409	74.25
311.639	86.25
311.868	68.25
312.098	75.25
312.328	88.25
312.557	70.25
312.787	99.25
313.017	84.25
313.246	103.25
313.476	80.25
313.706	70.25
313.935	83.25
314.165	91.25
314.394	83.25
314.624	88.25
314.853	77.25
315.083	67.25
315.312	75.25
315.542	86.25
315.771	84.25
316.001	99.25
316.23	86.25
316.46	85.25
316.689	76.25
316.919	100.25
317.148	83.25
317.377	75.25
317.607	84.25
317.836	84.25
318.065	84.25
318.295	84.25
318.524	74.25
318.753	84.25
318.983	73.25
319.212	95.25
319.441	105.25
319.67	80.25
319.9	85.25
320.129	92.25
320.358	95.25
320.587	91.25
320.816	81.25
321.046	63.25
321.275	82.25
321.504	80.25
321.733	81.25
321.962	69.25
322.191	70.25
322.42	82.25
322.649	80.25
322.878	83.25
323.108	72.25
323.337	84.25
323.566	91.25
323.795	83.25
324.024	85.25
324.253	82.25
324.482	70.25
324.71	83.25
324.939	95.25
325.168	89.25
325.397	89.25
325.626	86.25
325.855	87.25
326.084	80.25
326.313	88.25
326.542	88.25
326.77	86.25
326.999	82.25
327.228	97.25
327.457	87.25
327.686	69.25
327.914	98.25
328.143	72.25
328.372	69.25
328.6	91.25
328.829	93.25
329.058	96.25
329.287	88.25
329.515	88.25
329.744	73.25
329.972	80.25
330.201	75.25
330.43	71.25
330.658	80.25
330.887	100.25
331.115	92.25
331.344	89.25
331.572	74.25
331.801	76.25
332.03	90.25
332.258	96.25
332.486	74.25
332.715	83.25
332.943	85.25
333.172	76.25
333.4	74.25
333.629	88.25
333.857	89.25
334.085	84.25
334.314	76.25
334.542	89.25
334.771	87.25
334.999	78.25
335.227	84.25
335.455	86.25
335.684	81.25
335.912	92.25
336.14	84.25
336.369	80.25
336.597	85.25
336.825	74.25
337.053	86.25
337.281	82.25
337.51	93.25
337.738	84.25
337.966	95.25
338.194	86.25
338.422	89.25
338.65	72.25
338.878	89.25
339.106	83.25
339.334	95.25
339.562	77.25
339.79	81.25
340.018	87.25
340.246	81.25
340.474	78.25
340.702	89.25
340.93	80.25
341.158	75.25
341.386	72.25
341.614	76.25
341.842	87.25
342.07	71.25
342.298	75.25
342.526	96.25
342.754	87.25
342.981	86.25
343.209	95.25
343.437	89.25
343.665	84.25
343.893	86.25
344.12	77.25
344.348	95.25
344.576	102.25
344.804	86.25
345.031	69.25
345.259	82.25
345.487	91.25
345.714	93.25
345.942	67.25
346.17	87.25
346.397	71.25
346.625	91.25
346.853	81.25
347.08	88.25
347.308	91.25
347.535	75.25
347.763	91.25
347.99	84.25
348.218	92.25
348.445	89.25
348.673	75.25
348.9	86.25
349.128	78.25
349.355	86.25
349.583	85.25
349.81	76.25
350.037	82.25
350.265	84.25
350.492	90.25
350.72	82.25
350.947	83.25
351.174	81.25
351.402	76.25
351.629	86.25
351.856	88.25
352.083	90.25
352.311	74.25
352.538	84.25
352.765	96.25
352.992	83.25
353.22	92.25
353.447	92.25
353.674	88.25
353.901	87.25
354.128	96.25
354.355	82.25
354.583	85.25
354.81	83.25
355.037	68.25
355.264	82.25
355.491	80.25
355.718	79.25
355.945	81.25
356.172	83.25
356.399	84.25
356.626	87.25
356.853	89.25
357.08	82.25
357.307	79.25
357.534	78.25
357.761	76.25
357.988	85.25
358.215	91.25
358.441	89.25
358.668	85.25
358.895	99.25
359.122	94.25
359.349	84.25
359.576	80.25
359.802	93.25
360.029	83.25
360.256	81.25
360.483	84.25
360.709	85.25
360.936	100.25
361.163	72.25
361.39	91.25
361.616	82.25
361.843	90.25
362.07	92.25
362.296	85.25
362.523	77.25
362.749	85.25
362.976	70.25
363.203	83.25
363.429	81.25
363.656	66.25
363.882	79.25
364.109	94.25
364.335	76.25
364.562	95.25
364.788	83.25
365.015	86.25
365.241	91.25
365.468	87.25
365.694	85.25
365.92	88.25
366.147	72.25
366.373	78.25
366.599	77.25
366.826	81.25
367.052	85.25
367.278	83.25
367.505	80.25
367.731	83.25
367.957	79.25
368.184	67.25
368.41	88.25
368.636	91.25
368.862	100.25
369.089	91.25
369.315	85.25
369.541	89.25
369.767	78.25
369.993	93.25
370.219	89.25
370.445	94.25
370.672	81.25
370.898	85.25
371.124	92.25
371.35	86.25
371.576	80.25
371.802	80.25
372.028	86.25
372.254	73.25
372.48	89.25
372.706	72.25
372.932	63.25
373.158	89.25
373.384	72.25
373.61	74.25
373.835	97.25
374.061	92.25
374.287	82.25
374.513	90.25
374.739	77.25
374.965	90.25
375.191	87.25
375.416	88.25
375.642	93.25
375.868	93.25
376.094	79.25
376.319	80.25
376.545	91.25
376.771	68.25
376.997	94.25
377.222	69.25
377.448	94.25
377.674	73.25
377.899	73.25
378.125	87.25
378.35	83.25
378.576	81.25
378.802	88.25
379.027	88.25
379.253	80.25
379.478	88.25
379.704	79.25
379.929	88.25
380.155	96.25
380.38	76.25
380.606	91.25
380.831	90.25
381.057	91.25
381.282	80.25
381.507	90.25
381.733	92.25
381.958	78.25
382.184	87.25
382.409	91.25
382.634	82.25
382.86	73.25
383.085	99.25
383.31	83.25
383.535	92.25
383.761	66.25
383.986	73.25
384.211	95.25
384.436	86.25
384.662	80.25
384.887	82.25
385.112	81.25
385.337	91.25
385.562	97.25
385.787	73.25
386.013	83.25
386.238	95.25
386.463	75.25
386.688	101.25
386.913	93.25
387.138	103.25
387.363	87.25
387.588	91.25
387.813	91.25
388.038	88.25
388.263	84.25
388.488	79.25
388.713	70.25
388.938	76.25
389.163	92.25
389.387	90.25
389.612	87.25
389.837	96.25
390.062	94.25
390.287	92.25
390.512	87.25
390.736	69.25
390.961	72.25
391.186	90.25
391.411	79.25
391.636	86.25
391.86	86.25
392.085	87.25
392.31	83.25
392.534	83.25
392.759	76.25
392.984	90.25
393.208	87.25
393.433	91.25
393.658	75.25
393.882	84.25
394.107	81.25
394.331	95.25
394.556	82.25
394.78	78.25
395.005	68.25
395.229	83.25
395.454	89.25
395.678	92.25
395.903	101.25
396.127	73.25
396.352	83.25
396.576	79.25
396.801	85.25
397.025	77.25
397.249	74.25
397.474	87.25
397.698	86.25
397.922	84.25
398.147	87.25
398.371	87.25
398.595	86.25
398.82	96.25
399.044	93.25
399.268	79.25
399.492	82.25
399.717	81.25
399.941	99.25
400.165	78.25
400.389	88.25
400.613	86.25
400.837	89.25
401.062	83.25
401.286	85.25
401.51	87.25
401.734	100.25
401.958	88.25
402.182	90.25
402.406	91.25
402.63	83.25
402.854	82.25
403.078	95.25
403.302	91.25
403.526	92.25
403.75	96.25
403.974	89.25
404.198	74.25
404.422	83.25
404.645	81.25
404.869	95.25
405.093	91.25
405.317	89.25
405.541	85.25
405.765	81.25
405.988	93.25
406.212	81.25
406.436	101.25
406.66	83.25
406.883	98.25
407.107	81.25
407.331	96.25
407.555	83.25
407.778	82.25
408.002	96.25
408.226	94.25
408.449	87.25
408.673	95.25
408.896	97.25
409.12	87.25
409.344	81.25
409.567	89.25
409.791	95.25
410.014	98.25
410.238	77.25
410.461	98.25
410.685	90.25
410.908	111.25
411.132	94.25
411.355	92.25
411.578	94.25
411.802	99.25
412.025	88.25
412.249	97.25
412.472	86.25
412.695	88.25
412.919	100.25
413.142	76.25
413.365	105.25
413.589	99.25
413.812	76.25
414.035	110.25
414.258	103.25
414.482	86.25
414.705	90.25
414.928	96.25
415.151	91.25
415.374	99.25
415.597	83.25
415.821	98.25
416.044	102.25
416.267	91.25
416.49	90.25
416.713	92.25
416.936	84.25
417.159	84.25
417.382	89.25
417.605	80.25
417.828	88.25
418.051	83.25
418.274	109.25
418.497	94.25
418.72	94.25
418.943	87.25
419.166	98.25
419.389	103.25
419.611	82.25
419.834	94.25
420.057	103.25
420.28	88.25
420.503	80.25
420.726	90.25
420.948	92.25
421.171	111.25
421.394	96.25
421.617	93.25
421.839	86.25
422.062	87.25
422.285	88.25
422.507	95.25
422.73	82.25
422.953	79.25
423.175	100.25
423.398	96.25
423.621	88.25
423.843	99.25
424.066	105.25
424.288	99.25
424.511	91.25
424.733	103.25
424.956	95.25
425.178	106.25
425.401	94.25
425.623	91.25
425.846	98.25
426.068	96.25
426.291	87.25
426.513	96.25
426.735	87.25
426.958	105.25
427.18	88.25
427.402	90.25
427.625	94.25
427.847	90.25
428.069	103.25
428.292	65.25
428.514	90.25
428.736	78.25
428.958	94.25
429.181	103.25
429.403	101.25
429.625	106.25
429.847	97.25
430.069	95.25
430.292	88.25
430.514	101.25
430.736	86.25
430.958	110.25
431.18	89.25
431.402	97.25
431.624	93.25
431.846	82.25
432.068	90.25
432.29	79.25
432.512	89.25
432.734	86.25
432.956	91.25
433.178	85.25
433.4	99.25
433.622	106.25
433.844	82.25
434.066	101.25
434.287	83.25
434.509	89.25
434.731	76.25
434.953	82.25
435.175	95.25
435.397	110.25
435.618	86.25
435.84	89.25
436.062	76.25
436.284	90.25
436.505	87.25
436.727	84.25
436.949	102.25
437.17	100.25
437.392	94.25
437.614	88.25
437.835	87.25
438.057	89.25
438.278	98.25
438.5	87.25
438.721	88.25
438.943	108.25
439.165	105.25
439.386	101.25
439.608	101.25
439.829	82.25
440.05	105.25
440.272	97.25
440.493	99.25
440.715	86.25
440.936	90.25
441.158	112.25
441.379	90.25
441.6	91.25
441.822	91.25
442.043	98.25
442.264	87.25
442.486	97.25
442.707	94.25
442.928	96.25
443.149	104.25
443.371	104.25
443.592	94.25
443.813	111.25
444.034	99.25
444.255	96.25
444.476	108.25
444.698	123.25
444.919	109.25
445.14	209.25
445.361	137.25
445.582	99.25
445.803	103.25
446.024	118.25
446.245	110.25
446.466	98.25
446.687	91.25
446.908	112.25
447.129	122.25
447.35	101.25
447.571	97.25
447.792	103.25
448.013	87.25
448.234	104.25
448.455	105.25
448.675	107.25
448.896	97.25
449.117	88.25
449.338	104.25
449.559	98.25
449.779	97.25
450	84.25
450.221	91.25
450.442	94.25
450.662	91.25
450.883	87.25
451.104	91.25
451.324	90.25
451.545	102.25
451.766	98.25
451.986	93.25
452.207	98.25
452.428	91.25
452.648	95.25
452.869	90.25
453.089	90.25
453.31	99.25
453.53	86.25
453.751	83.25
453.971	85.25
454.192	102.25
454.412	90.25
454.633	99.25
454.853	99.25
455.073	95.25
455.294	87.25
455.514	81.25
455.734	90.25
455.955	89.25
456.175	93.25
456.395	78.25
456.616	83.25
456.836	95.25
457.056	85.25
457.276	94.25
457.497	89.25
457.717	100.25
457.937	93.25
458.157	96.25
458.377	74.25
458.598	90.25
458.818	79.25
459.038	75.25
459.258	70.25
459.478	75.25
459.698	80.25
459.918	103.25
460.138	87.25
460.358	90.25
460.578	99.25
460.798	92.25
461.018	78.25
461.238	90.25
461.458	99.25
461.678	86.25
461.898	89.25
462.118	95.25
462.338	94.25
462.558	87.25
462.777	80.25
462.997	78.25
463.217	82.25
463.437	92.25
463.657	101.25
463.876	90.25
464.096	81.25
464.316	91.25
464.536	90.25
464.755	96.25
464.975	87.25
465.195	89.25
465.414	87.25
465.634	71.25
465.854	99.25
466.073	88.25
466.293	75.25
466.512	93.25
466.732	84.25
466.951	100.25
467.171	83.25
467.391	94.25
467.61	94.25
467.829	110.25
468.049	91.25
468.268	102.25
468.488	95.25
468.707	92.25
468.927	96.25
469.146	85.25
469.365	83.25
469.585	100.25
469.804	101.25
470.023	93.25
470.243	95.25
470.462	104.25
470.681	103.25
470.901	96.25
471.12	94.25
471.339	117.25
471.558	102.25
471.777	100.25
471.997	95.25
472.216	96.25
472.435	90.25
472.654	88.25
472.873	79.25
473.092	81.25
473.311	99.25
473.53	98.25
473.749	104.25
473.968	95.25
474.187	87.25
474.406	84.25
474.625	99.25
474.844	100.25
475.063	87.25
475.282	92.25
475.501	93.25
475.72	95.25
475.939	105.25
476.158	79.25
476.377	102.25
476.596	93.25
476.814	85.25
477.033	82.25
477.252	86.25
477.471	90.25
477.69	99.25
477.908	100.25
478.127	97.25
478.346	101.25
478.564	92.25
478.783	105.25
479.002	98.25
479.22	98.25
479.439	93.25
479.658	101.25
479.876	90.25
480.095	93.25
480.313	90.25
480.532	85.25
480.751	91.25
480.969	85.25
481.188	92.25
481.406	84.25
481.624	91.25
481.843	82.25
482.061	95.25
482.28	91.25
482.498	88.25
482.717	76.25
482.935	81.25
483.153	98.25
483.372	116.25
483.59	112.25
483.808	98.25
484.027	103.25
484.245	110.25
484.463	92.25
484.681	112.25
484.9	97.25
485.118	98.25
485.336	91.25
485.554	95.25
485.772	86.25
485.99	92.25
486.209	91.25
486.427	86.25
486.645	92.25
486.863	107.25
487.081	108.25
487.299	97.25
487.517	100.25
487.735	112.25
487.953	97.25
488.171	102.25
488.389	112.25
488.607	97.25
488.825	106.25
489.043	95.25
489.261	84.25
489.479	102.25
489.696	110.25
489.914	99.25
490.132	93.25
490.35	102.25
490.568	116.25
490.786	116.25
491.003	118.25
491.221	111.25
491.439	115.25
491.657	107.25
491.874	111.25
492.092	114.25
492.31	139.25
492.527	134.25
492.745	119.25
492.963	108.25
493.18	104.25
493.398	123.25
493.615	105.25
493.833	118.25
494.05	112.25
494.268	111.25
494.485	112.25
494.703	118.25
494.92	106.25
495.138	112.25
495.355	107.25
495.573	108.25
495.79	110.25
496.008	105.25
496.225	99.25
496.442	110.25
496.66	118.25
496.877	117.25
497.094	108.25
497.312	107.25
497.529	100.25
497.746	111.25
497.963	98.25
498.181	90.25
498.398	88.25
498.615	95.25
498.832	100.25
499.049	103.25
499.267	91.25
499.484	82.25
499.701	87.25
499.918	99.25
500.135	111.25
500.352	101.25
500.569	109.25
500.786	114.25
501.003	110.25
501.22	87.25
501.437	104.25
501.654	119.25
501.871	96.25
502.088	107.25
502.305	99.25
502.522	115.25
502.739	99.25
502.956	103.25
503.172	89.25
503.389	102.25
503.606	94.25
503.823	88.25
504.04	87.25
504.256	98.25
504.473	92.25
504.69	93.25
504.907	102.25
505.123	98.25
505.34	89.25
505.557	90.25
505.773	89.25
505.99	96.25
506.207	89.25
506.423	107.25
506.64	97.25
506.856	86.25
507.073	101.25
507.289	92.25
507.506	90.25
507.722	103.25
507.939	82.25
508.155	99.25
508.372	100.25
508.588	89.25
508.805	89.25
509.021	95.25
509.238	104.25
509.454	74.25
509.67	82.25
509.887	84.25
510.103	79.25
510.319	81.25
510.536	86.25
510.752	90.25
510.968	85.25
511.184	66.25
511.401	86.25
511.617	87.25
511.833	86.25
512.049	73.25
512.265	96.25
512.481	102.25
512.698	95.25
512.914	78.25
513.13	92.25
513.346	67.25
513.562	78.25
513.778	88.25
513.994	84.25
514.21	71.25
514.426	87.25
514.642	89.25
514.858	89.25
515.074	82.25
515.29	99.25
515.506	80.25
515.721	97.25
515.937	96.25
516.153	98.25
516.369	80.25
516.585	91.25
516.801	63.25
517.016	86.25
517.232	98.25
517.448	92.25
