Data from Location3.07152019.Energy5.Lamp.07192019.3%Agarose_HRD10591_15-18-49-269.txt Node
Date: Fri Jul 19 15:18:49 EDT 2019
User: cochatt
Spectrometer: HR+D1059
Trigger mode: 1
Integration Time (sec): 1.000000E-1
Scans to average: 1
Electric dark correction enabled: true
Nonlinearity correction enabled: false
Boxcar width: 0
XAxis mode: Wavelengths
Number of Pixels in Spectrum: 2048
>>>>>Begin Spectral Data<<<<<
223.165	-11.69
223.4	-11.69
223.635	-11.69
223.869	-25.69
224.104	-10.69
224.338	-24.69
224.573	-27.69
224.808	-18.69
225.042	-19.69
225.277	-7.69
225.511	4.31
225.746	21.31
225.98	12.31
226.215	10.31
226.449	19.31
226.683	26.31
226.918	19.31
227.152	33.31
227.387	36.31
227.621	34.31
227.856	59.31
228.09	55.31
228.324	49.31
228.559	55.31
228.793	62.31
229.027	60.31
229.262	77.31
229.496	55.31
229.73	70.31
229.964	66.31
230.199	73.31
230.433	67.31
230.667	75.31
230.901	73.31
231.136	87.31
231.37	78.31
231.604	81.31
231.838	86.31
232.072	79.31
232.306	79.31
232.541	87.31
232.775	71.31
233.009	84.31
233.243	78.31
233.477	75.31
233.711	94.31
233.945	74.31
234.179	88.31
234.413	95.31
234.647	82.31
234.881	89.31
235.115	79.31
235.349	84.31
235.583	83.31
235.817	84.31
236.051	74.31
236.285	67.31
236.519	90.31
236.753	74.31
236.987	65.31
237.221	69.31
237.455	83.31
237.689	62.31
237.922	83.31
238.156	76.31
238.39	78.31
238.624	77.31
238.858	83.31
239.091	80.31
239.325	85.31
239.559	78.31
239.793	63.31
240.027	79.31
240.26	62.31
240.494	67.31
240.728	74.31
240.961	76.31
241.195	83.31
241.429	81.31
241.662	71.31
241.896	84.31
242.13	82.31
242.363	88.31
242.597	71.31
242.83	75.31
243.064	82.31
243.298	83.31
243.531	74.31
243.765	78.31
243.998	72.31
244.232	72.31
244.465	95.31
244.699	70.31
244.932	66.31
245.166	83.31
245.399	98.31
245.633	74.31
245.866	65.31
246.099	88.31
246.333	80.31
246.566	64.31
246.8	81.31
247.033	90.31
247.266	99.31
247.5	83.31
247.733	82.31
247.966	76.31
248.2	75.31
248.433	71.31
248.666	75.31
248.899	84.31
249.133	68.31
249.366	86.31
249.599	75.31
249.832	90.31
250.066	73.31
250.299	76.31
250.532	91.31
250.765	80.31
250.998	70.31
251.231	86.31
251.465	79.31
251.698	79.31
251.931	77.31
252.164	82.31
252.397	92.31
252.63	92.31
252.863	92.31
253.096	84.31
253.329	90.31
253.562	88.31
253.795	75.31
254.028	97.31
254.261	74.31
254.494	88.31
254.727	78.31
254.96	76.31
255.193	88.31
255.426	76.31
255.659	91.31
255.892	79.31
256.124	85.31
256.357	92.31
256.59	77.31
256.823	92.31
257.056	86.31
257.289	82.31
257.521	92.31
257.754	71.31
257.987	78.31
258.22	78.31
258.452	84.31
258.685	99.31
258.918	93.31
259.151	71.31
259.383	86.31
259.616	88.31
259.849	77.31
260.081	96.31
260.314	90.31
260.547	77.31
260.779	67.31
261.012	76.31
261.244	79.31
261.477	85.31
261.71	81.31
261.942	80.31
262.175	81.31
262.407	88.31
262.64	75.31
262.872	66.31
263.105	74.31
263.337	83.31
263.57	79.31
263.802	98.31
264.035	82.31
264.267	94.31
264.499	79.31
264.732	90.31
264.964	71.31
265.197	83.31
265.429	77.31
265.661	93.31
265.894	80.31
266.126	85.31
266.358	89.31
266.591	80.31
266.823	93.31
267.055	80.31
267.287	75.31
267.52	91.31
267.752	78.31
267.984	88.31
268.216	94.31
268.448	87.31
268.681	78.31
268.913	100.31
269.145	80.31
269.377	83.31
269.609	93.31
269.841	76.31
270.073	81.31
270.306	77.31
270.538	91.31
270.77	69.31
271.002	76.31
271.234	72.31
271.466	96.31
271.698	82.31
271.93	76.31
272.162	88.31
272.394	79.31
272.626	93.31
272.858	94.31
273.09	75.31
273.322	81.31
273.553	64.31
273.785	94.31
274.017	86.31
274.249	79.31
274.481	80.31
274.713	75.31
274.945	86.31
275.176	94.31
275.408	77.31
275.64	85.31
275.872	68.31
276.104	97.31
276.335	71.31
276.567	85.31
276.799	96.31
277.031	78.31
277.262	86.31
277.494	92.31
277.726	88.31
277.957	80.31
278.189	89.31
278.421	82.31
278.652	79.31
278.884	85.31
279.115	84.31
279.347	87.31
279.579	72.31
279.81	71.31
280.042	83.31
280.273	73.31
280.505	90.31
280.736	86.31
280.968	80.31
281.199	92.31
281.431	76.31
281.662	76.31
281.894	83.31
282.125	85.31
282.356	80.31
282.588	85.31
282.819	97.31
283.051	98.31
283.282	80.31
283.513	87.31
283.745	81.31
283.976	89.31
284.207	98.31
284.439	92.31
284.67	92.31
284.901	109.31
285.132	93.31
285.364	85.31
285.595	97.31
285.826	87.31
286.057	93.31
286.288	75.31
286.52	90.31
286.751	83.31
286.982	83.31
287.213	89.31
287.444	79.31
287.675	88.31
287.906	99.31
288.138	78.31
288.369	75.31
288.6	75.31
288.831	79.31
289.062	92.31
289.293	89.31
289.524	84.31
289.755	76.31
289.986	80.31
290.217	85.31
290.448	89.31
290.679	82.31
290.91	97.31
291.141	71.31
291.371	86.31
291.602	84.31
291.833	98.31
292.064	80.31
292.295	91.31
292.526	83.31
292.757	80.31
292.987	103.31
293.218	71.31
293.449	89.31
293.68	92.31
293.91	84.31
294.141	94.31
294.372	81.31
294.603	88.31
294.833	78.31
295.064	76.31
295.295	94.31
295.525	92.31
295.756	91.31
295.987	85.31
296.217	80.31
296.448	88.31
296.679	97.31
296.909	81.31
297.14	94.31
297.37	104.31
297.601	83.31
297.831	82.31
298.062	77.31
298.292	76.31
298.523	89.31
298.753	93.31
298.984	82.31
299.214	82.31
299.445	90.31
299.675	85.31
299.905	82.31
300.136	85.31
300.366	88.31
300.597	80.31
300.827	77.31
301.057	79.31
301.288	86.31
301.518	92.31
301.748	102.31
301.979	81.31
302.209	102.31
302.439	85.31
302.669	87.31
302.9	89.31
303.13	79.31
303.36	83.31
303.59	81.31
303.82	88.31
304.051	92.31
304.281	82.31
304.511	91.31
304.741	72.31
304.971	88.31
305.201	94.31
305.431	86.31
305.661	103.31
305.891	93.31
306.121	79.31
306.352	87.31
306.582	75.31
306.812	80.31
307.042	88.31
307.272	103.31
307.502	81.31
307.731	80.31
307.961	94.31
308.191	86.31
308.421	79.31
308.651	75.31
308.881	75.31
309.111	94.31
309.341	88.31
309.571	95.31
309.8	96.31
310.03	99.31
310.26	102.31
310.49	88.31
310.72	87.31
310.949	92.31
311.179	98.31
311.409	79.31
311.639	79.31
311.868	88.31
312.098	87.31
312.328	95.31
312.557	79.31
312.787	97.31
313.017	95.31
313.246	93.31
313.476	83.31
313.706	92.31
313.935	81.31
314.165	73.31
314.394	83.31
314.624	83.31
314.853	91.31
315.083	79.31
315.312	91.31
315.542	90.31
315.771	84.31
316.001	82.31
316.23	71.31
316.46	82.31
316.689	85.31
316.919	109.31
317.148	88.31
317.377	84.31
317.607	102.31
317.836	83.31
318.065	90.31
318.295	88.31
318.524	87.31
318.753	85.31
318.983	70.31
319.212	83.31
319.441	82.31
319.67	88.31
319.9	93.31
320.129	69.31
320.358	85.31
320.587	97.31
320.816	89.31
321.046	82.31
321.275	93.31
321.504	84.31
321.733	86.31
321.962	82.31
322.191	83.31
322.42	83.31
322.649	79.31
322.878	79.31
323.108	83.31
323.337	84.31
323.566	98.31
323.795	82.31
324.024	89.31
324.253	89.31
324.482	88.31
324.71	96.31
324.939	91.31
325.168	103.31
325.397	94.31
325.626	81.31
325.855	86.31
326.084	88.31
326.313	101.31
326.542	92.31
326.77	76.31
326.999	76.31
327.228	88.31
327.457	86.31
327.686	90.31
327.914	85.31
328.143	97.31
328.372	84.31
328.6	79.31
328.829	90.31
329.058	86.31
329.287	79.31
329.515	89.31
329.744	93.31
329.972	74.31
330.201	83.31
330.43	85.31
330.658	87.31
330.887	86.31
331.115	88.31
331.344	82.31
331.572	94.31
331.801	92.31
332.03	88.31
332.258	72.31
332.486	73.31
332.715	91.31
332.943	82.31
333.172	75.31
333.4	91.31
333.629	76.31
333.857	83.31
334.085	88.31
334.314	79.31
334.542	71.31
334.771	90.31
334.999	82.31
335.227	79.31
335.455	86.31
335.684	86.31
335.912	80.31
336.14	76.31
336.369	95.31
336.597	80.31
336.825	86.31
337.053	85.31
337.281	85.31
337.51	92.31
337.738	74.31
337.966	86.31
338.194	94.31
338.422	95.31
338.65	98.31
338.878	90.31
339.106	84.31
339.334	95.31
339.562	85.31
339.79	88.31
340.018	98.31
340.246	90.31
340.474	91.31
340.702	85.31
340.93	90.31
341.158	95.31
341.386	100.31
341.614	74.31
341.842	87.31
342.07	77.31
342.298	76.31
342.526	92.31
342.754	96.31
342.981	85.31
343.209	104.31
343.437	95.31
343.665	83.31
343.893	81.31
344.12	74.31
344.348	96.31
344.576	86.31
344.804	78.31
345.031	91.31
345.259	91.31
345.487	81.31
345.714	80.31
345.942	78.31
346.17	89.31
346.397	92.31
346.625	85.31
346.853	75.31
347.08	91.31
347.308	85.31
347.535	84.31
347.763	102.31
347.99	76.31
348.218	106.31
348.445	83.31
348.673	82.31
348.9	86.31
349.128	86.31
349.355	75.31
349.583	89.31
349.81	86.31
350.037	81.31
350.265	85.31
350.492	88.31
350.72	105.31
350.947	91.31
351.174	84.31
351.402	85.31
351.629	91.31
351.856	96.31
352.083	90.31
352.311	91.31
352.538	74.31
352.765	85.31
352.992	98.31
353.22	82.31
353.447	81.31
353.674	81.31
353.901	83.31
354.128	75.31
354.355	77.31
354.583	92.31
354.81	105.31
355.037	92.31
355.264	104.31
355.491	72.31
355.718	79.31
355.945	75.31
356.172	81.31
356.399	85.31
356.626	86.31
356.853	80.31
357.08	88.31
357.307	79.31
357.534	85.31
357.761	87.31
357.988	81.31
358.215	91.31
358.441	84.31
358.668	83.31
358.895	82.31
359.122	100.31
359.349	94.31
359.576	83.31
359.802	90.31
360.029	101.31
360.256	99.31
360.483	85.31
360.709	83.31
360.936	91.31
361.163	87.31
361.39	82.31
361.616	90.31
361.843	91.31
362.07	79.31
362.296	82.31
362.523	88.31
362.749	68.31
362.976	99.31
363.203	68.31
363.429	83.31
363.656	80.31
363.882	72.31
364.109	87.31
364.335	92.31
364.562	86.31
364.788	81.31
365.015	92.31
365.241	84.31
365.468	86.31
365.694	87.31
365.92	80.31
366.147	85.31
366.373	71.31
366.599	88.31
366.826	84.31
367.052	73.31
367.278	90.31
367.505	79.31
367.731	75.31
367.957	87.31
368.184	85.31
368.41	77.31
368.636	84.31
368.862	72.31
369.089	93.31
369.315	95.31
369.541	75.31
369.767	81.31
369.993	90.31
370.219	76.31
370.445	74.31
370.672	88.31
370.898	83.31
371.124	89.31
371.35	91.31
371.576	79.31
371.802	78.31
372.028	88.31
372.254	82.31
372.48	73.31
372.706	84.31
372.932	90.31
373.158	89.31
373.384	87.31
373.61	87.31
373.835	86.31
374.061	72.31
374.287	90.31
374.513	97.31
374.739	86.31
374.965	71.31
375.191	80.31
375.416	85.31
375.642	86.31
375.868	87.31
376.094	90.31
376.319	98.31
376.545	101.31
376.771	86.31
376.997	82.31
377.222	92.31
377.448	82.31
377.674	72.31
377.899	74.31
378.125	78.31
378.35	91.31
378.576	78.31
378.802	76.31
379.027	81.31
379.253	94.31
379.478	91.31
379.704	81.31
379.929	79.31
380.155	86.31
380.38	86.31
380.606	88.31
380.831	79.31
381.057	102.31
381.282	85.31
381.507	92.31
381.733	73.31
381.958	95.31
382.184	98.31
382.409	84.31
382.634	95.31
382.86	79.31
383.085	81.31
383.31	82.31
383.535	89.31
383.761	100.31
383.986	94.31
384.211	96.31
384.436	86.31
384.662	87.31
384.887	92.31
385.112	92.31
385.337	80.31
385.562	94.31
385.787	81.31
386.013	90.31
386.238	92.31
386.463	98.31
386.688	78.31
386.913	92.31
387.138	99.31
387.363	80.31
387.588	77.31
387.813	57.31
388.038	87.31
388.263	86.31
388.488	81.31
388.713	106.31
388.938	84.31
389.163	82.31
389.387	93.31
389.612	88.31
389.837	94.31
390.062	98.31
390.287	91.31
390.512	82.31
390.736	87.31
390.961	72.31
391.186	80.31
391.411	74.31
391.636	81.31
391.86	78.31
392.085	86.31
392.31	89.31
392.534	84.31
392.759	97.31
392.984	88.31
393.208	88.31
393.433	94.31
393.658	93.31
393.882	84.31
394.107	96.31
394.331	71.31
394.556	82.31
394.78	81.31
395.005	73.31
395.229	96.31
395.454	87.31
395.678	84.31
395.903	96.31
396.127	91.31
396.352	95.31
396.576	97.31
396.801	95.31
397.025	83.31
397.249	94.31
397.474	81.31
397.698	98.31
397.922	91.31
398.147	83.31
398.371	97.31
398.595	88.31
398.82	88.31
399.044	90.31
399.268	96.31
399.492	86.31
399.717	100.31
399.941	82.31
400.165	92.31
400.389	92.31
400.613	88.31
400.837	87.31
401.062	81.31
401.286	98.31
401.51	98.31
401.734	82.31
401.958	81.31
402.182	89.31
402.406	80.31
402.63	104.31
402.854	86.31
403.078	89.31
403.302	90.31
403.526	90.31
403.75	94.31
403.974	96.31
404.198	85.31
404.422	72.31
404.645	89.31
404.869	95.31
405.093	104.31
405.317	89.31
405.541	99.31
405.765	98.31
405.988	88.31
406.212	98.31
406.436	106.31
406.66	86.31
406.883	83.31
407.107	75.31
407.331	101.31
407.555	93.31
407.778	102.31
408.002	98.31
408.226	91.31
408.449	100.31
408.673	95.31
408.896	99.31
409.12	100.31
409.344	90.31
409.567	86.31
409.791	79.31
410.014	86.31
410.238	76.31
410.461	81.31
410.685	88.31
410.908	81.31
411.132	109.31
411.355	78.31
411.578	85.31
411.802	86.31
412.025	83.31
412.249	91.31
412.472	98.31
412.695	94.31
412.919	88.31
413.142	89.31
413.365	97.31
413.589	89.31
413.812	98.31
414.035	82.31
414.258	97.31
414.482	98.31
414.705	92.31
414.928	99.31
415.151	99.31
415.374	75.31
415.597	85.31
415.821	92.31
416.044	89.31
416.267	96.31
416.49	94.31
416.713	86.31
416.936	99.31
417.159	87.31
417.382	97.31
417.605	90.31
417.828	88.31
418.051	95.31
418.274	110.31
418.497	98.31
418.72	104.31
418.943	111.31
419.166	96.31
419.389	102.31
419.611	87.31
419.834	100.31
420.057	89.31
420.28	86.31
420.503	100.31
420.726	106.31
420.948	91.31
421.171	86.31
421.394	97.31
421.617	94.31
421.839	91.31
422.062	92.31
422.285	104.31
422.507	91.31
422.73	105.31
422.953	98.31
423.175	104.31
423.398	100.31
423.621	111.31
423.843	87.31
424.066	105.31
424.288	107.31
424.511	89.31
424.733	100.31
424.956	103.31
425.178	91.31
425.401	106.31
425.623	92.31
425.846	88.31
426.068	78.31
426.291	101.31
426.513	100.31
426.735	87.31
426.958	99.31
427.18	101.31
427.402	96.31
427.625	79.31
427.847	96.31
428.069	93.31
428.292	104.31
428.514	93.31
428.736	86.31
428.958	103.31
429.181	108.31
429.403	93.31
429.625	102.31
429.847	119.31
430.069	94.31
430.292	93.31
430.514	87.31
430.736	95.31
430.958	103.31
431.18	89.31
431.402	82.31
431.624	99.31
431.846	90.31
432.068	91.31
432.29	93.31
432.512	86.31
432.734	76.31
432.956	110.31
433.178	92.31
433.4	98.31
433.622	92.31
433.844	96.31
434.066	71.31
434.287	91.31
434.509	75.31
434.731	95.31
434.953	98.31
435.175	87.31
435.397	92.31
435.618	92.31
435.84	94.31
436.062	92.31
436.284	92.31
436.505	87.31
436.727	88.31
436.949	95.31
437.17	103.31
437.392	82.31
437.614	92.31
437.835	90.31
438.057	86.31
438.278	89.31
438.5	89.31
438.721	89.31
438.943	106.31
439.165	89.31
439.386	101.31
439.608	101.31
439.829	99.31
440.05	112.31
440.272	83.31
440.493	90.31
440.715	96.31
440.936	89.31
441.158	98.31
441.379	97.31
441.6	97.31
441.822	98.31
442.043	89.31
442.264	88.31
442.486	110.31
442.707	107.31
442.928	83.31
443.149	81.31
443.371	99.31
443.592	95.31
443.813	97.31
444.034	95.31
444.255	91.31
444.476	111.31
444.698	91.31
444.919	90.31
445.14	247.31
445.361	144.31
445.582	105.31
445.803	110.31
446.024	105.31
446.245	112.31
446.466	107.31
446.687	92.31
446.908	94.31
447.129	107.31
447.35	103.31
447.571	83.31
447.792	101.31
448.013	79.31
448.234	104.31
448.455	95.31
448.675	83.31
448.896	92.31
449.117	98.31
449.338	105.31
449.559	99.31
449.779	79.31
450	105.31
450.221	98.31
450.442	95.31
450.662	83.31
450.883	98.31
451.104	103.31
451.324	98.31
451.545	100.31
451.766	91.31
451.986	101.31
452.207	82.31
452.428	97.31
452.648	101.31
452.869	107.31
453.089	95.31
453.31	84.31
453.53	91.31
453.751	94.31
453.971	92.31
454.192	91.31
454.412	89.31
454.633	99.31
454.853	100.31
455.073	90.31
455.294	97.31
455.514	105.31
455.734	79.31
455.955	102.31
456.175	88.31
456.395	85.31
456.616	78.31
456.836	68.31
457.056	94.31
457.276	97.31
457.497	88.31
457.717	87.31
457.937	76.31
458.157	95.31
458.377	75.31
458.598	89.31
458.818	94.31
459.038	87.31
459.258	88.31
459.478	84.31
459.698	90.31
459.918	86.31
460.138	85.31
460.358	79.31
460.578	101.31
460.798	90.31
461.018	82.31
461.238	86.31
461.458	98.31
461.678	86.31
461.898	90.31
462.118	98.31
462.338	76.31
462.558	98.31
462.777	96.31
462.997	90.31
463.217	92.31
463.437	96.31
463.657	86.31
463.876	84.31
464.096	104.31
464.316	86.31
464.536	89.31
464.755	102.31
464.975	86.31
465.195	94.31
465.414	103.31
465.634	107.31
465.854	74.31
466.073	96.31
466.293	95.31
466.512	100.31
466.732	103.31
466.951	90.31
467.171	94.31
467.391	97.31
467.61	107.31
467.829	82.31
468.049	91.31
468.268	94.31
468.488	97.31
468.707	101.31
468.927	94.31
469.146	100.31
469.365	116.31
469.585	84.31
469.804	107.31
470.023	89.31
470.243	105.31
470.462	108.31
470.681	107.31
470.901	100.31
471.12	93.31
471.339	111.31
471.558	98.31
471.777	106.31
471.997	92.31
472.216	95.31
472.435	103.31
472.654	93.31
472.873	88.31
473.092	87.31
473.311	88.31
473.53	88.31
473.749	89.31
473.968	103.31
474.187	99.31
474.406	97.31
474.625	94.31
474.844	108.31
475.063	88.31
475.282	96.31
475.501	87.31
475.72	89.31
475.939	79.31
476.158	98.31
476.377	81.31
476.596	98.31
476.814	79.31
477.033	84.31
477.252	77.31
477.471	95.31
477.69	102.31
477.908	91.31
478.127	88.31
478.346	110.31
478.564	102.31
478.783	91.31
479.002	98.31
479.22	91.31
479.439	101.31
479.658	90.31
479.876	86.31
480.095	98.31
480.313	96.31
480.532	87.31
480.751	93.31
480.969	94.31
481.188	85.31
481.406	89.31
481.624	82.31
481.843	97.31
482.061	74.31
482.28	94.31
482.498	80.31
482.717	97.31
482.935	91.31
483.153	122.31
483.372	107.31
483.59	88.31
483.808	110.31
484.027	101.31
484.245	111.31
484.463	106.31
484.681	116.31
484.9	110.31
485.118	99.31
485.336	82.31
485.554	83.31
485.772	98.31
485.99	89.31
486.209	81.31
486.427	90.31
486.645	107.31
486.863	104.31
487.081	97.31
487.299	117.31
487.517	92.31
487.735	106.31
487.953	104.31
488.171	112.31
488.389	103.31
488.607	107.31
488.825	87.31
489.043	77.31
489.261	85.31
489.479	86.31
489.696	114.31
489.914	89.31
490.132	108.31
490.35	95.31
490.568	102.31
490.786	120.31
491.003	112.31
491.221	114.31
491.439	123.31
491.657	111.31
491.874	115.31
492.092	118.31
492.31	126.31
492.527	112.31
492.745	111.31
492.963	124.31
493.18	123.31
493.398	104.31
493.615	120.31
493.833	119.31
494.05	104.31
494.268	107.31
494.485	107.31
494.703	118.31
494.92	112.31
495.138	118.31
495.355	114.31
495.573	111.31
495.79	114.31
496.008	102.31
496.225	98.31
496.442	100.31
496.66	96.31
496.877	113.31
497.094	105.31
497.312	104.31
497.529	119.31
497.746	123.31
497.963	102.31
498.181	94.31
498.398	98.31
498.615	92.31
498.832	101.31
499.049	100.31
499.267	97.31
499.484	108.31
499.701	102.31
499.918	91.31
500.135	105.31
500.352	97.31
500.569	97.31
500.786	87.31
501.003	100.31
501.22	88.31
501.437	116.31
501.654	98.31
501.871	85.31
502.088	94.31
502.305	108.31
502.522	93.31
502.739	103.31
502.956	100.31
503.172	92.31
503.389	85.31
503.606	101.31
503.823	81.31
504.04	99.31
504.256	94.31
504.473	88.31
504.69	94.31
504.907	100.31
505.123	94.31
505.34	86.31
505.557	106.31
505.773	77.31
505.99	91.31
506.207	79.31
506.423	86.31
506.64	95.31
506.856	97.31
507.073	90.31
507.289	108.31
507.506	102.31
507.722	108.31
507.939	98.31
508.155	91.31
508.372	97.31
508.588	94.31
508.805	91.31
509.021	89.31
509.238	91.31
509.454	76.31
509.67	90.31
509.887	84.31
510.103	99.31
510.319	103.31
510.536	89.31
510.752	88.31
510.968	91.31
511.184	77.31
511.401	82.31
511.617	69.31
511.833	75.31
512.049	89.31
512.265	88.31
512.481	81.31
512.698	80.31
512.914	82.31
513.13	81.31
513.346	79.31
513.562	84.31
513.778	95.31
513.994	85.31
514.21	103.31
514.426	88.31
514.642	86.31
514.858	88.31
515.074	87.31
515.29	87.31
515.506	80.31
515.721	83.31
515.937	93.31
516.153	86.31
516.369	89.31
516.585	98.31
516.801	90.31
