Data from Location3.07152019.Energy5.Lamp.07192019.3%Agarose_HRD10591_15-17-06-271.txt Node
Date: Fri Jul 19 15:17:06 EDT 2019
User: cochatt
Spectrometer: HR+D1059
Trigger mode: 1
Integration Time (sec): 1.000000E-1
Scans to average: 1
Electric dark correction enabled: true
Nonlinearity correction enabled: false
Boxcar width: 0
XAxis mode: Wavelengths
Number of Pixels in Spectrum: 2048
>>>>>Begin Spectral Data<<<<<
223.165	-14.44
223.4	-14.44
223.635	-14.44
223.869	-25.44
224.104	-8.44
224.338	-17.44
224.573	-19.44
224.808	-25.44
225.042	-9.44
225.277	-6.44
225.511	-8.44
225.746	19.56
225.98	6.56
226.215	20.56
226.449	20.56
226.683	13.56
226.918	18.56
227.152	35.56
227.387	35.56
227.621	25.56
227.856	29.56
228.09	54.56
228.324	63.56
228.559	60.56
228.793	54.56
229.027	68.56
229.262	77.56
229.496	65.56
229.73	71.56
229.964	77.56
230.199	69.56
230.433	74.56
230.667	76.56
230.901	73.56
231.136	77.56
231.37	84.56
231.604	77.56
231.838	80.56
232.072	77.56
232.306	70.56
232.541	79.56
232.775	78.56
233.009	86.56
233.243	79.56
233.477	88.56
233.711	90.56
233.945	72.56
234.179	70.56
234.413	70.56
234.647	82.56
234.881	84.56
235.115	81.56
235.349	77.56
235.583	81.56
235.817	89.56
236.051	93.56
236.285	72.56
236.519	84.56
236.753	88.56
236.987	89.56
237.221	58.56
237.455	83.56
237.689	82.56
237.922	90.56
238.156	82.56
238.39	78.56
238.624	69.56
238.858	88.56
239.091	78.56
239.325	74.56
239.559	83.56
239.793	75.56
240.027	81.56
240.26	84.56
240.494	89.56
240.728	72.56
240.961	78.56
241.195	98.56
241.429	87.56
241.662	72.56
241.896	75.56
242.13	90.56
242.363	80.56
242.597	80.56
242.83	94.56
243.064	61.56
243.298	70.56
243.531	74.56
243.765	76.56
243.998	85.56
244.232	71.56
244.465	80.56
244.699	84.56
244.932	66.56
245.166	69.56
245.399	67.56
245.633	75.56
245.866	74.56
246.099	82.56
246.333	81.56
246.566	85.56
246.8	83.56
247.033	74.56
247.266	76.56
247.5	83.56
247.733	79.56
247.966	69.56
248.2	84.56
248.433	78.56
248.666	82.56
248.899	93.56
249.133	94.56
249.366	94.56
249.599	73.56
249.832	78.56
250.066	73.56
250.299	81.56
250.532	78.56
250.765	85.56
250.998	93.56
251.231	88.56
251.465	85.56
251.698	80.56
251.931	82.56
252.164	76.56
252.397	88.56
252.63	78.56
252.863	82.56
253.096	70.56
253.329	84.56
253.562	97.56
253.795	80.56
254.028	86.56
254.261	60.56
254.494	79.56
254.727	90.56
254.96	88.56
255.193	74.56
255.426	88.56
255.659	72.56
255.892	80.56
256.124	89.56
256.357	79.56
256.59	77.56
256.823	84.56
257.056	92.56
257.289	76.56
257.521	83.56
257.754	88.56
257.987	70.56
258.22	84.56
258.452	74.56
258.685	84.56
258.918	82.56
259.151	90.56
259.383	91.56
259.616	82.56
259.849	72.56
260.081	81.56
260.314	86.56
260.547	87.56
260.779	74.56
261.012	75.56
261.244	94.56
261.477	86.56
261.71	89.56
261.942	83.56
262.175	75.56
262.407	67.56
262.64	87.56
262.872	80.56
263.105	82.56
263.337	90.56
263.57	91.56
263.802	90.56
264.035	95.56
264.267	78.56
264.499	85.56
264.732	95.56
264.964	86.56
265.197	87.56
265.429	90.56
265.661	85.56
265.894	81.56
266.126	80.56
266.358	81.56
266.591	80.56
266.823	90.56
267.055	79.56
267.287	98.56
267.52	90.56
267.752	73.56
267.984	88.56
268.216	98.56
268.448	82.56
268.681	86.56
268.913	84.56
269.145	82.56
269.377	84.56
269.609	82.56
269.841	81.56
270.073	81.56
270.306	91.56
270.538	88.56
270.77	87.56
271.002	84.56
271.234	90.56
271.466	78.56
271.698	76.56
271.93	73.56
272.162	76.56
272.394	91.56
272.626	86.56
272.858	91.56
273.09	69.56
273.322	83.56
273.553	91.56
273.785	83.56
274.017	90.56
274.249	78.56
274.481	72.56
274.713	99.56
274.945	73.56
275.176	75.56
275.408	72.56
275.64	71.56
275.872	81.56
276.104	73.56
276.335	87.56
276.567	96.56
276.799	75.56
277.031	84.56
277.262	84.56
277.494	86.56
277.726	79.56
277.957	91.56
278.189	76.56
278.421	75.56
278.652	84.56
278.884	86.56
279.115	75.56
279.347	82.56
279.579	92.56
279.81	84.56
280.042	84.56
280.273	72.56
280.505	82.56
280.736	79.56
280.968	80.56
281.199	78.56
281.431	72.56
281.662	73.56
281.894	92.56
282.125	103.56
282.356	87.56
282.588	89.56
282.819	93.56
283.051	80.56
283.282	85.56
283.513	73.56
283.745	79.56
283.976	75.56
284.207	73.56
284.439	87.56
284.67	91.56
284.901	82.56
285.132	85.56
285.364	88.56
285.595	81.56
285.826	89.56
286.057	96.56
286.288	88.56
286.52	86.56
286.751	77.56
286.982	85.56
287.213	79.56
287.444	82.56
287.675	80.56
287.906	84.56
288.138	72.56
288.369	79.56
288.6	75.56
288.831	84.56
289.062	86.56
289.293	92.56
289.524	75.56
289.755	77.56
289.986	72.56
290.217	83.56
290.448	86.56
290.679	78.56
290.91	90.56
291.141	102.56
291.371	83.56
291.602	86.56
291.833	101.56
292.064	90.56
292.295	97.56
292.526	97.56
292.757	91.56
292.987	102.56
293.218	89.56
293.449	87.56
293.68	101.56
293.91	74.56
294.141	93.56
294.372	86.56
294.603	89.56
294.833	75.56
295.064	84.56
295.295	104.56
295.525	87.56
295.756	79.56
295.987	93.56
296.217	82.56
296.448	88.56
296.679	77.56
296.909	86.56
297.14	82.56
297.37	75.56
297.601	85.56
297.831	96.56
298.062	96.56
298.292	98.56
298.523	82.56
298.753	94.56
298.984	88.56
299.214	85.56
299.445	68.56
299.675	81.56
299.905	88.56
300.136	91.56
300.366	94.56
300.597	86.56
300.827	94.56
301.057	87.56
301.288	88.56
301.518	86.56
301.748	88.56
301.979	93.56
302.209	76.56
302.439	63.56
302.669	84.56
302.9	78.56
303.13	83.56
303.36	81.56
303.59	88.56
303.82	75.56
304.051	78.56
304.281	88.56
304.511	85.56
304.741	85.56
304.971	75.56
305.201	87.56
305.431	88.56
305.661	86.56
305.891	85.56
306.121	84.56
306.352	98.56
306.582	82.56
306.812	85.56
307.042	71.56
307.272	76.56
307.502	86.56
307.731	94.56
307.961	81.56
308.191	97.56
308.421	97.56
308.651	98.56
308.881	83.56
309.111	87.56
309.341	94.56
309.571	79.56
309.8	78.56
310.03	83.56
310.26	62.56
310.49	80.56
310.72	72.56
310.949	78.56
311.179	76.56
311.409	87.56
311.639	83.56
311.868	82.56
312.098	90.56
312.328	75.56
312.557	79.56
312.787	79.56
313.017	88.56
313.246	90.56
313.476	83.56
313.706	96.56
313.935	96.56
314.165	79.56
314.394	71.56
314.624	82.56
314.853	77.56
315.083	91.56
315.312	80.56
315.542	76.56
315.771	85.56
316.001	84.56
316.23	77.56
316.46	107.56
316.689	105.56
316.919	94.56
317.148	77.56
317.377	94.56
317.607	73.56
317.836	84.56
318.065	99.56
318.295	87.56
318.524	90.56
318.753	90.56
318.983	91.56
319.212	90.56
319.441	93.56
319.67	83.56
319.9	83.56
320.129	75.56
320.358	77.56
320.587	83.56
320.816	75.56
321.046	82.56
321.275	85.56
321.504	90.56
321.733	83.56
321.962	76.56
322.191	82.56
322.42	88.56
322.649	102.56
322.878	85.56
323.108	89.56
323.337	78.56
323.566	87.56
323.795	82.56
324.024	98.56
324.253	99.56
324.482	85.56
324.71	90.56
324.939	93.56
325.168	94.56
325.397	95.56
325.626	92.56
325.855	89.56
326.084	70.56
326.313	84.56
326.542	77.56
326.77	85.56
326.999	90.56
327.228	99.56
327.457	77.56
327.686	81.56
327.914	95.56
328.143	90.56
328.372	84.56
328.6	87.56
328.829	84.56
329.058	92.56
329.287	93.56
329.515	89.56
329.744	87.56
329.972	90.56
330.201	69.56
330.43	79.56
330.658	76.56
330.887	83.56
331.115	86.56
331.344	90.56
331.572	85.56
331.801	93.56
332.03	96.56
332.258	105.56
332.486	101.56
332.715	88.56
332.943	87.56
333.172	84.56
333.4	85.56
333.629	85.56
333.857	97.56
334.085	88.56
334.314	99.56
334.542	99.56
334.771	86.56
334.999	84.56
335.227	83.56
335.455	88.56
335.684	85.56
335.912	96.56
336.14	77.56
336.369	98.56
336.597	76.56
336.825	78.56
337.053	81.56
337.281	84.56
337.51	78.56
337.738	82.56
337.966	82.56
338.194	100.56
338.422	76.56
338.65	92.56
338.878	91.56
339.106	84.56
339.334	84.56
339.562	97.56
339.79	78.56
340.018	84.56
340.246	81.56
340.474	82.56
340.702	77.56
340.93	77.56
341.158	85.56
341.386	89.56
341.614	97.56
341.842	85.56
342.07	88.56
342.298	92.56
342.526	110.56
342.754	98.56
342.981	84.56
343.209	85.56
343.437	90.56
343.665	91.56
343.893	91.56
344.12	96.56
344.348	78.56
344.576	89.56
344.804	80.56
345.031	87.56
345.259	81.56
345.487	85.56
345.714	77.56
345.942	78.56
346.17	94.56
346.397	86.56
346.625	79.56
346.853	93.56
347.08	82.56
347.308	84.56
347.535	82.56
347.763	84.56
347.99	90.56
348.218	80.56
348.445	85.56
348.673	75.56
348.9	86.56
349.128	100.56
349.355	87.56
349.583	74.56
349.81	96.56
350.037	82.56
350.265	85.56
350.492	87.56
350.72	91.56
350.947	78.56
351.174	91.56
351.402	80.56
351.629	91.56
351.856	81.56
352.083	88.56
352.311	81.56
352.538	97.56
352.765	87.56
352.992	84.56
353.22	81.56
353.447	85.56
353.674	93.56
353.901	94.56
354.128	97.56
354.355	91.56
354.583	75.56
354.81	81.56
355.037	94.56
355.264	83.56
355.491	88.56
355.718	72.56
355.945	74.56
356.172	85.56
356.399	61.56
356.626	90.56
356.853	85.56
357.08	80.56
357.307	83.56
357.534	77.56
357.761	75.56
357.988	89.56
358.215	100.56
358.441	98.56
358.668	80.56
358.895	85.56
359.122	94.56
359.349	92.56
359.576	86.56
359.802	85.56
360.029	90.56
360.256	83.56
360.483	89.56
360.709	79.56
360.936	91.56
361.163	93.56
361.39	80.56
361.616	84.56
361.843	92.56
362.07	85.56
362.296	77.56
362.523	89.56
362.749	86.56
362.976	86.56
363.203	83.56
363.429	97.56
363.656	97.56
363.882	81.56
364.109	86.56
364.335	95.56
364.562	89.56
364.788	77.56
365.015	99.56
365.241	73.56
365.468	84.56
365.694	96.56
365.92	73.56
366.147	93.56
366.373	71.56
366.599	64.56
366.826	78.56
367.052	94.56
367.278	84.56
367.505	71.56
367.731	77.56
367.957	80.56
368.184	85.56
368.41	100.56
368.636	88.56
368.862	96.56
369.089	84.56
369.315	96.56
369.541	94.56
369.767	75.56
369.993	84.56
370.219	82.56
370.445	88.56
370.672	77.56
370.898	86.56
371.124	88.56
371.35	75.56
371.576	99.56
371.802	103.56
372.028	88.56
372.254	88.56
372.48	87.56
372.706	83.56
372.932	97.56
373.158	83.56
373.384	97.56
373.61	93.56
373.835	89.56
374.061	88.56
374.287	95.56
374.513	86.56
374.739	85.56
374.965	94.56
375.191	87.56
375.416	92.56
375.642	93.56
375.868	87.56
376.094	87.56
376.319	91.56
376.545	85.56
376.771	86.56
376.997	85.56
377.222	83.56
377.448	102.56
377.674	82.56
377.899	99.56
378.125	100.56
378.35	75.56
378.576	87.56
378.802	91.56
379.027	91.56
379.253	84.56
379.478	81.56
379.704	95.56
379.929	104.56
380.155	87.56
380.38	90.56
380.606	85.56
380.831	96.56
381.057	88.56
381.282	83.56
381.507	93.56
381.733	82.56
381.958	68.56
382.184	73.56
382.409	100.56
382.634	90.56
382.86	85.56
383.085	75.56
383.31	92.56
383.535	90.56
383.761	97.56
383.986	78.56
384.211	65.56
384.436	101.56
384.662	70.56
384.887	87.56
385.112	73.56
385.337	84.56
385.562	90.56
385.787	81.56
386.013	88.56
386.238	98.56
386.463	88.56
386.688	83.56
386.913	84.56
387.138	97.56
387.363	81.56
387.588	92.56
387.813	96.56
388.038	92.56
388.263	97.56
388.488	84.56
388.713	77.56
388.938	95.56
389.163	78.56
389.387	77.56
389.612	89.56
389.837	87.56
390.062	90.56
390.287	86.56
390.512	89.56
390.736	81.56
390.961	93.56
391.186	91.56
391.411	84.56
391.636	83.56
391.86	84.56
392.085	93.56
392.31	87.56
392.534	83.56
392.759	89.56
392.984	80.56
393.208	87.56
393.433	97.56
393.658	93.56
393.882	84.56
394.107	83.56
394.331	91.56
394.556	109.56
394.78	83.56
395.005	89.56
395.229	64.56
395.454	88.56
395.678	88.56
395.903	88.56
396.127	91.56
396.352	92.56
396.576	93.56
396.801	90.56
397.025	102.56
397.249	81.56
397.474	93.56
397.698	81.56
397.922	90.56
398.147	94.56
398.371	84.56
398.595	83.56
398.82	90.56
399.044	80.56
399.268	92.56
399.492	94.56
399.717	86.56
399.941	96.56
400.165	92.56
400.389	97.56
400.613	87.56
400.837	101.56
401.062	108.56
401.286	91.56
401.51	101.56
401.734	93.56
401.958	98.56
402.182	100.56
402.406	89.56
402.63	90.56
402.854	85.56
403.078	92.56
403.302	100.56
403.526	99.56
403.75	87.56
403.974	92.56
404.198	92.56
404.422	83.56
404.645	86.56
404.869	97.56
405.093	88.56
405.317	98.56
405.541	75.56
405.765	98.56
405.988	87.56
406.212	87.56
406.436	102.56
406.66	82.56
406.883	93.56
407.107	90.56
407.331	92.56
407.555	82.56
407.778	94.56
408.002	92.56
408.226	97.56
408.449	90.56
408.673	94.56
408.896	99.56
409.12	108.56
409.344	82.56
409.567	113.56
409.791	115.56
410.014	101.56
410.238	98.56
410.461	88.56
410.685	87.56
410.908	97.56
411.132	98.56
411.355	93.56
411.578	93.56
411.802	88.56
412.025	85.56
412.249	104.56
412.472	97.56
412.695	88.56
412.919	100.56
413.142	97.56
413.365	103.56
413.589	96.56
413.812	95.56
414.035	92.56
414.258	101.56
414.482	92.56
414.705	82.56
414.928	94.56
415.151	75.56
415.374	87.56
415.597	76.56
415.821	89.56
416.044	98.56
416.267	93.56
416.49	80.56
416.713	97.56
416.936	88.56
417.159	100.56
417.382	93.56
417.605	91.56
417.828	102.56
418.051	117.56
418.274	106.56
418.497	92.56
418.72	97.56
418.943	110.56
419.166	99.56
419.389	92.56
419.611	98.56
419.834	97.56
420.057	93.56
420.28	93.56
420.503	101.56
420.726	99.56
420.948	101.56
421.171	98.56
421.394	120.56
421.617	92.56
421.839	93.56
422.062	112.56
422.285	100.56
422.507	96.56
422.73	92.56
422.953	91.56
423.175	91.56
423.398	100.56
423.621	110.56
423.843	89.56
424.066	95.56
424.288	108.56
424.511	102.56
424.733	97.56
424.956	108.56
425.178	81.56
425.401	94.56
425.623	93.56
425.846	87.56
426.068	97.56
426.291	114.56
426.513	91.56
426.735	93.56
426.958	107.56
427.18	90.56
427.402	92.56
427.625	99.56
427.847	100.56
428.069	93.56
428.292	93.56
428.514	97.56
428.736	95.56
428.958	92.56
429.181	101.56
429.403	90.56
429.625	91.56
429.847	93.56
430.069	107.56
430.292	96.56
430.514	91.56
430.736	91.56
430.958	83.56
431.18	101.56
431.402	99.56
431.624	90.56
431.846	87.56
432.068	85.56
432.29	95.56
432.512	102.56
432.734	80.56
432.956	95.56
433.178	96.56
433.4	98.56
433.622	109.56
433.844	97.56
434.066	87.56
434.287	89.56
434.509	85.56
434.731	97.56
434.953	91.56
435.175	89.56
435.397	104.56
435.618	97.56
435.84	91.56
436.062	98.56
436.284	93.56
436.505	89.56
436.727	84.56
436.949	93.56
437.17	81.56
437.392	79.56
437.614	106.56
437.835	92.56
438.057	90.56
438.278	108.56
438.5	116.56
438.721	115.56
438.943	87.56
439.165	90.56
439.386	99.56
439.608	101.56
439.829	92.56
440.05	103.56
440.272	100.56
440.493	88.56
440.715	109.56
440.936	124.56
441.158	109.56
441.379	105.56
441.6	94.56
441.822	101.56
442.043	100.56
442.264	100.56
442.486	102.56
442.707	97.56
442.928	98.56
443.149	106.56
443.371	104.56
443.592	103.56
443.813	98.56
444.034	107.56
444.255	94.56
444.476	96.56
444.698	110.56
444.919	98.56
445.14	224.56
445.361	149.56
445.582	111.56
445.803	104.56
446.024	92.56
446.245	105.56
446.466	102.56
446.687	113.56
446.908	105.56
447.129	101.56
447.35	94.56
447.571	104.56
447.792	99.56
448.013	103.56
448.234	96.56
448.455	109.56
448.675	104.56
448.896	97.56
449.117	93.56
449.338	101.56
449.559	90.56
449.779	98.56
450	95.56
450.221	92.56
450.442	105.56
450.662	86.56
450.883	101.56
451.104	106.56
451.324	109.56
451.545	96.56
451.766	103.56
451.986	90.56
452.207	84.56
452.428	93.56
452.648	83.56
452.869	80.56
453.089	86.56
453.31	80.56
453.53	80.56
453.751	86.56
453.971	96.56
454.192	96.56
454.412	88.56
454.633	91.56
454.853	88.56
455.073	86.56
455.294	92.56
455.514	94.56
455.734	105.56
455.955	106.56
456.175	94.56
456.395	89.56
456.616	96.56
456.836	87.56
457.056	76.56
457.276	92.56
457.497	93.56
457.717	91.56
457.937	86.56
458.157	88.56
458.377	85.56
458.598	97.56
458.818	75.56
459.038	75.56
459.258	85.56
459.478	88.56
459.698	79.56
459.918	78.56
460.138	79.56
460.358	87.56
460.578	97.56
460.798	94.56
461.018	92.56
461.238	102.56
461.458	92.56
461.678	96.56
461.898	78.56
462.118	87.56
462.338	96.56
462.558	89.56
462.777	96.56
462.997	94.56
463.217	79.56
463.437	93.56
463.657	89.56
463.876	95.56
464.096	82.56
464.316	95.56
464.536	88.56
464.755	87.56
464.975	96.56
465.195	93.56
465.414	96.56
465.634	87.56
465.854	82.56
466.073	89.56
466.293	96.56
466.512	84.56
466.732	100.56
466.951	118.56
467.171	92.56
467.391	102.56
467.61	89.56
467.829	84.56
468.049	113.56
468.268	93.56
468.488	96.56
468.707	98.56
468.927	86.56
469.146	88.56
469.365	114.56
469.585	103.56
469.804	91.56
470.023	113.56
470.243	87.56
470.462	104.56
470.681	87.56
470.901	85.56
471.12	94.56
471.339	110.56
471.558	97.56
471.777	96.56
471.997	101.56
472.216	88.56
472.435	86.56
472.654	92.56
472.873	93.56
473.092	81.56
473.311	89.56
473.53	106.56
473.749	97.56
473.968	121.56
474.187	101.56
474.406	86.56
474.625	106.56
474.844	114.56
475.063	98.56
475.282	82.56
475.501	93.56
475.72	109.56
475.939	98.56
476.158	91.56
476.377	88.56
476.596	87.56
476.814	83.56
477.033	93.56
477.252	86.56
477.471	96.56
477.69	88.56
477.908	104.56
478.127	104.56
478.346	99.56
478.564	100.56
478.783	94.56
479.002	109.56
479.22	98.56
479.439	101.56
479.658	103.56
479.876	99.56
480.095	93.56
480.313	98.56
480.532	74.56
480.751	92.56
480.969	98.56
481.188	59.56
481.406	94.56
481.624	88.56
481.843	94.56
482.061	94.56
482.28	103.56
482.498	93.56
482.717	86.56
482.935	85.56
483.153	103.56
483.372	98.56
483.59	105.56
483.808	96.56
484.027	82.56
484.245	99.56
484.463	103.56
484.681	113.56
484.9	114.56
485.118	100.56
485.336	95.56
485.554	79.56
485.772	97.56
485.99	93.56
486.209	92.56
486.427	97.56
486.645	101.56
486.863	100.56
487.081	90.56
487.299	99.56
487.517	91.56
487.735	116.56
487.953	115.56
488.171	113.56
488.389	106.56
488.607	101.56
488.825	106.56
489.043	120.56
489.261	99.56
489.479	102.56
489.696	122.56
489.914	108.56
490.132	108.56
490.35	107.56
490.568	108.56
490.786	104.56
491.003	123.56
491.221	114.56
491.439	118.56
491.657	104.56
491.874	124.56
492.092	120.56
492.31	130.56
492.527	131.56
492.745	118.56
492.963	130.56
493.18	118.56
493.398	121.56
493.615	112.56
493.833	106.56
494.05	120.56
494.268	98.56
494.485	104.56
494.703	108.56
494.92	108.56
495.138	124.56
495.355	104.56
495.573	113.56
495.79	106.56
496.008	106.56
496.225	108.56
496.442	106.56
496.66	101.56
496.877	107.56
497.094	125.56
497.312	108.56
497.529	110.56
497.746	101.56
497.963	101.56
498.181	92.56
498.398	101.56
498.615	90.56
498.832	82.56
499.049	79.56
499.267	103.56
499.484	96.56
499.701	94.56
499.918	107.56
500.135	112.56
500.352	108.56
500.569	114.56
500.786	114.56
501.003	102.56
501.22	113.56
501.437	111.56
501.654	102.56
501.871	117.56
502.088	96.56
502.305	92.56
502.522	94.56
502.739	95.56
502.956	110.56
503.172	103.56
503.389	97.56
503.606	97.56
503.823	92.56
504.04	102.56
504.256	83.56
504.473	92.56
504.69	91.56
504.907	97.56
505.123	110.56
505.34	106.56
505.557	94.56
505.773	94.56
505.99	100.56
506.207	96.56
506.423	99.56
506.64	92.56
506.856	100.56
507.073	101.56
507.289	87.56
507.506	116.56
507.722	101.56
507.939	95.56
508.155	108.56
508.372	81.56
508.588	108.56
508.805	105.56
509.021	96.56
509.238	88.56
509.454	89.56
509.67	81.56
509.887	91.56
510.103	95.56
510.319	81.56
510.536	92.56
510.752	90.56
510.968	71.56
511.184	96.56
511.401	79.56
511.617	76.56
511.833	88.56
512.049	84.56
512.265	102.56
512.481	86.56
512.698	93.56
512.914	92.56
513.13	98.56
513.346	88.56
513.562	87.56
513.778	82.56
513.994	88.56
514.21	87.56
514.426	87.56
514.642	78.56
514.858	81.56
515.074	101.56
515.29	94.56
515.506	105.56
515.721	80.56
515.937	99.56
516.153	82.56
516.369	91.56
516.585	98.56
