Data from Location3.07152019.Energy5.Lamp.07192019.3%Agarose_HRD10591_15-17-51-269.txt Node
Date: Fri Jul 19 15:17:51 EDT 2019
User: cochatt
Spectrometer: HR+D1059
Trigger mode: 1
Integration Time (sec): 1.000000E-1
Scans to average: 1
Electric dark correction enabled: true
Nonlinearity correction enabled: false
Boxcar width: 0
XAxis mode: Wavelengths
Number of Pixels in Spectrum: 2048
>>>>>Begin Spectral Data<<<<<
223.165	-31.25
223.4	-31.25
223.635	-31.25
223.869	-28.25
224.104	-22.25
224.338	-6.25
224.573	-18.25
224.808	-3.25
225.042	-15.25
225.277	-0.25
225.511	4.75
225.746	8.75
225.98	4.75
226.215	9.75
226.449	23.75
226.683	22.75
226.918	25.75
227.152	24.75
227.387	21.75
227.621	31.75
227.856	43.75
228.09	41.75
228.324	41.75
228.559	35.75
228.793	72.75
229.027	53.75
229.262	62.75
229.496	60.75
229.73	58.75
229.964	70.75
230.199	80.75
230.433	68.75
230.667	59.75
230.901	63.75
231.136	78.75
231.37	92.75
231.604	91.75
231.838	70.75
232.072	78.75
232.306	85.75
232.541	81.75
232.775	74.75
233.009	84.75
233.243	81.75
233.477	77.75
233.711	80.75
233.945	65.75
234.179	83.75
234.413	81.75
234.647	80.75
234.881	83.75
235.115	76.75
235.349	68.75
235.583	71.75
235.817	86.75
236.051	75.75
236.285	63.75
236.519	78.75
236.753	64.75
236.987	82.75
237.221	87.75
237.455	75.75
237.689	79.75
237.922	78.75
238.156	94.75
238.39	77.75
238.624	67.75
238.858	71.75
239.091	79.75
239.325	69.75
239.559	92.75
239.793	81.75
240.027	90.75
240.26	74.75
240.494	74.75
240.728	80.75
240.961	78.75
241.195	62.75
241.429	78.75
241.662	76.75
241.896	83.75
242.13	78.75
242.363	74.75
242.597	77.75
242.83	58.75
243.064	66.75
243.298	77.75
243.531	65.75
243.765	73.75
243.998	68.75
244.232	62.75
244.465	82.75
244.699	79.75
244.932	71.75
245.166	77.75
245.399	68.75
245.633	75.75
245.866	68.75
246.099	58.75
246.333	85.75
246.566	77.75
246.8	76.75
247.033	74.75
247.266	77.75
247.5	77.75
247.733	67.75
247.966	73.75
248.2	73.75
248.433	85.75
248.666	71.75
248.899	78.75
249.133	73.75
249.366	75.75
249.599	71.75
249.832	68.75
250.066	81.75
250.299	78.75
250.532	88.75
250.765	77.75
250.998	77.75
251.231	72.75
251.465	86.75
251.698	79.75
251.931	63.75
252.164	72.75
252.397	84.75
252.63	79.75
252.863	68.75
253.096	81.75
253.329	86.75
253.562	91.75
253.795	79.75
254.028	79.75
254.261	87.75
254.494	75.75
254.727	71.75
254.96	70.75
255.193	73.75
255.426	77.75
255.659	65.75
255.892	80.75
256.124	69.75
256.357	81.75
256.59	67.75
256.823	99.75
257.056	79.75
257.289	60.75
257.521	68.75
257.754	79.75
257.987	83.75
258.22	86.75
258.452	69.75
258.685	75.75
258.918	81.75
259.151	66.75
259.383	101.75
259.616	89.75
259.849	69.75
260.081	89.75
260.314	93.75
260.547	84.75
260.779	79.75
261.012	78.75
261.244	64.75
261.477	81.75
261.71	73.75
261.942	70.75
262.175	93.75
262.407	75.75
262.64	88.75
262.872	86.75
263.105	93.75
263.337	66.75
263.57	72.75
263.802	67.75
264.035	66.75
264.267	74.75
264.499	81.75
264.732	83.75
264.964	79.75
265.197	77.75
265.429	72.75
265.661	70.75
265.894	68.75
266.126	87.75
266.358	74.75
266.591	67.75
266.823	57.75
267.055	69.75
267.287	74.75
267.52	82.75
267.752	78.75
267.984	76.75
268.216	85.75
268.448	81.75
268.681	73.75
268.913	71.75
269.145	66.75
269.377	67.75
269.609	75.75
269.841	94.75
270.073	83.75
270.306	79.75
270.538	85.75
270.77	80.75
271.002	77.75
271.234	77.75
271.466	71.75
271.698	89.75
271.93	80.75
272.162	63.75
272.394	81.75
272.626	82.75
272.858	66.75
273.09	77.75
273.322	75.75
273.553	76.75
273.785	77.75
274.017	66.75
274.249	86.75
274.481	87.75
274.713	72.75
274.945	89.75
275.176	87.75
275.408	90.75
275.64	74.75
275.872	74.75
276.104	82.75
276.335	82.75
276.567	85.75
276.799	82.75
277.031	72.75
277.262	80.75
277.494	81.75
277.726	63.75
277.957	72.75
278.189	82.75
278.421	82.75
278.652	84.75
278.884	86.75
279.115	88.75
279.347	80.75
279.579	76.75
279.81	67.75
280.042	87.75
280.273	64.75
280.505	67.75
280.736	68.75
280.968	94.75
281.199	75.75
281.431	64.75
281.662	83.75
281.894	75.75
282.125	89.75
282.356	79.75
282.588	75.75
282.819	81.75
283.051	72.75
283.282	83.75
283.513	89.75
283.745	97.75
283.976	82.75
284.207	83.75
284.439	84.75
284.67	82.75
284.901	81.75
285.132	70.75
285.364	74.75
285.595	78.75
285.826	90.75
286.057	82.75
286.288	74.75
286.52	79.75
286.751	80.75
286.982	73.75
287.213	62.75
287.444	69.75
287.675	101.75
287.906	85.75
288.138	93.75
288.369	86.75
288.6	82.75
288.831	70.75
289.062	78.75
289.293	63.75
289.524	83.75
289.755	84.75
289.986	78.75
290.217	83.75
290.448	81.75
290.679	76.75
290.91	84.75
291.141	78.75
291.371	65.75
291.602	83.75
291.833	92.75
292.064	81.75
292.295	76.75
292.526	80.75
292.757	85.75
292.987	86.75
293.218	72.75
293.449	87.75
293.68	79.75
293.91	89.75
294.141	87.75
294.372	75.75
294.603	81.75
294.833	84.75
295.064	79.75
295.295	86.75
295.525	86.75
295.756	91.75
295.987	65.75
296.217	84.75
296.448	65.75
296.679	72.75
296.909	77.75
297.14	82.75
297.37	77.75
297.601	83.75
297.831	84.75
298.062	77.75
298.292	77.75
298.523	73.75
298.753	75.75
298.984	91.75
299.214	82.75
299.445	87.75
299.675	79.75
299.905	74.75
300.136	87.75
300.366	78.75
300.597	82.75
300.827	84.75
301.057	65.75
301.288	64.75
301.518	75.75
301.748	79.75
301.979	84.75
302.209	86.75
302.439	80.75
302.669	78.75
302.9	78.75
303.13	72.75
303.36	82.75
303.59	79.75
303.82	87.75
304.051	74.75
304.281	76.75
304.511	81.75
304.741	83.75
304.971	92.75
305.201	91.75
305.431	83.75
305.661	82.75
305.891	78.75
306.121	80.75
306.352	85.75
306.582	90.75
306.812	80.75
307.042	68.75
307.272	76.75
307.502	84.75
307.731	84.75
307.961	94.75
308.191	94.75
308.421	79.75
308.651	92.75
308.881	62.75
309.111	75.75
309.341	81.75
309.571	78.75
309.8	70.75
310.03	82.75
310.26	82.75
310.49	79.75
310.72	75.75
310.949	101.75
311.179	96.75
311.409	81.75
311.639	76.75
311.868	70.75
312.098	66.75
312.328	71.75
312.557	90.75
312.787	80.75
313.017	77.75
313.246	68.75
313.476	89.75
313.706	67.75
313.935	65.75
314.165	78.75
314.394	79.75
314.624	86.75
314.853	84.75
315.083	84.75
315.312	73.75
315.542	76.75
315.771	69.75
316.001	73.75
316.23	78.75
316.46	66.75
316.689	75.75
316.919	85.75
317.148	73.75
317.377	69.75
317.607	92.75
317.836	75.75
318.065	80.75
318.295	81.75
318.524	84.75
318.753	81.75
318.983	82.75
319.212	83.75
319.441	90.75
319.67	86.75
319.9	74.75
320.129	76.75
320.358	82.75
320.587	84.75
320.816	59.75
321.046	69.75
321.275	76.75
321.504	105.75
321.733	77.75
321.962	63.75
322.191	81.75
322.42	88.75
322.649	79.75
322.878	70.75
323.108	89.75
323.337	72.75
323.566	85.75
323.795	75.75
324.024	78.75
324.253	85.75
324.482	89.75
324.71	76.75
324.939	85.75
325.168	79.75
325.397	75.75
325.626	81.75
325.855	84.75
326.084	74.75
326.313	63.75
326.542	68.75
326.77	85.75
326.999	79.75
327.228	88.75
327.457	92.75
327.686	85.75
327.914	83.75
328.143	87.75
328.372	70.75
328.6	86.75
328.829	76.75
329.058	88.75
329.287	78.75
329.515	83.75
329.744	74.75
329.972	64.75
330.201	73.75
330.43	81.75
330.658	88.75
330.887	90.75
331.115	88.75
331.344	82.75
331.572	78.75
331.801	65.75
332.03	79.75
332.258	78.75
332.486	68.75
332.715	75.75
332.943	70.75
333.172	84.75
333.4	74.75
333.629	86.75
333.857	70.75
334.085	71.75
334.314	73.75
334.542	85.75
334.771	73.75
334.999	84.75
335.227	83.75
335.455	86.75
335.684	94.75
335.912	75.75
336.14	71.75
336.369	86.75
336.597	69.75
336.825	64.75
337.053	69.75
337.281	72.75
337.51	65.75
337.738	79.75
337.966	76.75
338.194	73.75
338.422	60.75
338.65	83.75
338.878	87.75
339.106	77.75
339.334	71.75
339.562	62.75
339.79	82.75
340.018	93.75
340.246	88.75
340.474	79.75
340.702	77.75
340.93	90.75
341.158	86.75
341.386	69.75
341.614	75.75
341.842	76.75
342.07	76.75
342.298	67.75
342.526	76.75
342.754	78.75
342.981	70.75
343.209	83.75
343.437	87.75
343.665	84.75
343.893	79.75
344.12	97.75
344.348	85.75
344.576	83.75
344.804	88.75
345.031	75.75
345.259	87.75
345.487	72.75
345.714	71.75
345.942	79.75
346.17	86.75
346.397	84.75
346.625	80.75
346.853	79.75
347.08	67.75
347.308	85.75
347.535	81.75
347.763	87.75
347.99	80.75
348.218	95.75
348.445	71.75
348.673	80.75
348.9	76.75
349.128	75.75
349.355	80.75
349.583	85.75
349.81	85.75
350.037	89.75
350.265	83.75
350.492	83.75
350.72	74.75
350.947	69.75
351.174	66.75
351.402	71.75
351.629	69.75
351.856	86.75
352.083	82.75
352.311	75.75
352.538	78.75
352.765	65.75
352.992	86.75
353.22	88.75
353.447	73.75
353.674	73.75
353.901	69.75
354.128	85.75
354.355	75.75
354.583	70.75
354.81	66.75
355.037	74.75
355.264	63.75
355.491	75.75
355.718	77.75
355.945	83.75
356.172	85.75
356.399	81.75
356.626	74.75
356.853	84.75
357.08	75.75
357.307	75.75
357.534	77.75
357.761	50.75
357.988	73.75
358.215	73.75
358.441	74.75
358.668	92.75
358.895	66.75
359.122	81.75
359.349	77.75
359.576	67.75
359.802	91.75
360.029	76.75
360.256	93.75
360.483	91.75
360.709	70.75
360.936	72.75
361.163	73.75
361.39	77.75
361.616	94.75
361.843	69.75
362.07	75.75
362.296	69.75
362.523	69.75
362.749	86.75
362.976	79.75
363.203	83.75
363.429	89.75
363.656	86.75
363.882	76.75
364.109	78.75
364.335	79.75
364.562	74.75
364.788	91.75
365.015	84.75
365.241	81.75
365.468	74.75
365.694	76.75
365.92	76.75
366.147	78.75
366.373	73.75
366.599	82.75
366.826	87.75
367.052	69.75
367.278	81.75
367.505	73.75
367.731	89.75
367.957	98.75
368.184	91.75
368.41	83.75
368.636	70.75
368.862	81.75
369.089	75.75
369.315	82.75
369.541	89.75
369.767	57.75
369.993	91.75
370.219	71.75
370.445	66.75
370.672	83.75
370.898	84.75
371.124	62.75
371.35	62.75
371.576	78.75
371.802	82.75
372.028	72.75
372.254	71.75
372.48	65.75
372.706	77.75
372.932	79.75
373.158	91.75
373.384	75.75
373.61	80.75
373.835	80.75
374.061	76.75
374.287	61.75
374.513	78.75
374.739	86.75
374.965	81.75
375.191	83.75
375.416	88.75
375.642	80.75
375.868	70.75
376.094	76.75
376.319	78.75
376.545	83.75
376.771	81.75
376.997	82.75
377.222	66.75
377.448	89.75
377.674	89.75
377.899	93.75
378.125	80.75
378.35	82.75
378.576	85.75
378.802	78.75
379.027	83.75
379.253	86.75
379.478	83.75
379.704	75.75
379.929	83.75
380.155	73.75
380.38	70.75
380.606	81.75
380.831	77.75
381.057	82.75
381.282	79.75
381.507	79.75
381.733	73.75
381.958	91.75
382.184	66.75
382.409	83.75
382.634	70.75
382.86	91.75
383.085	84.75
383.31	83.75
383.535	82.75
383.761	81.75
383.986	81.75
384.211	82.75
384.436	82.75
384.662	72.75
384.887	70.75
385.112	74.75
385.337	98.75
385.562	87.75
385.787	94.75
386.013	85.75
386.238	82.75
386.463	83.75
386.688	87.75
386.913	79.75
387.138	78.75
387.363	77.75
387.588	82.75
387.813	73.75
388.038	77.75
388.263	93.75
388.488	80.75
388.713	62.75
388.938	71.75
389.163	82.75
389.387	65.75
389.612	71.75
389.837	65.75
390.062	87.75
390.287	70.75
390.512	95.75
390.736	80.75
390.961	86.75
391.186	55.75
391.411	87.75
391.636	77.75
391.86	78.75
392.085	89.75
392.31	82.75
392.534	81.75
392.759	92.75
392.984	88.75
393.208	82.75
393.433	85.75
393.658	90.75
393.882	82.75
394.107	84.75
394.331	77.75
394.556	74.75
394.78	84.75
395.005	75.75
395.229	79.75
395.454	69.75
395.678	81.75
395.903	73.75
396.127	79.75
396.352	79.75
396.576	75.75
396.801	82.75
397.025	76.75
397.249	87.75
397.474	81.75
397.698	63.75
397.922	71.75
398.147	75.75
398.371	84.75
398.595	82.75
398.82	80.75
399.044	59.75
399.268	89.75
399.492	86.75
399.717	81.75
399.941	82.75
400.165	86.75
400.389	78.75
400.613	90.75
400.837	94.75
401.062	86.75
401.286	91.75
401.51	93.75
401.734	80.75
401.958	93.75
402.182	71.75
402.406	75.75
402.63	78.75
402.854	87.75
403.078	93.75
403.302	75.75
403.526	86.75
403.75	86.75
403.974	74.75
404.198	85.75
404.422	82.75
404.645	81.75
404.869	66.75
405.093	90.75
405.317	82.75
405.541	78.75
405.765	79.75
405.988	76.75
406.212	89.75
406.436	92.75
406.66	66.75
406.883	71.75
407.107	71.75
407.331	87.75
407.555	86.75
407.778	92.75
408.002	79.75
408.226	74.75
408.449	77.75
408.673	81.75
408.896	95.75
409.12	94.75
409.344	80.75
409.567	87.75
409.791	83.75
410.014	86.75
410.238	83.75
410.461	95.75
410.685	90.75
410.908	92.75
411.132	77.75
411.355	85.75
411.578	90.75
411.802	97.75
412.025	102.75
412.249	98.75
412.472	84.75
412.695	77.75
412.919	78.75
413.142	94.75
413.365	99.75
413.589	87.75
413.812	80.75
414.035	95.75
414.258	79.75
414.482	83.75
414.705	77.75
414.928	89.75
415.151	89.75
415.374	89.75
415.597	89.75
415.821	77.75
416.044	79.75
416.267	85.75
416.49	100.75
416.713	78.75
416.936	81.75
417.159	73.75
417.382	75.75
417.605	91.75
417.828	88.75
418.051	76.75
418.274	91.75
418.497	92.75
418.72	105.75
418.943	82.75
419.166	87.75
419.389	88.75
419.611	91.75
419.834	99.75
420.057	92.75
420.28	86.75
420.503	74.75
420.726	82.75
420.948	86.75
421.171	83.75
421.394	82.75
421.617	86.75
421.839	105.75
422.062	86.75
422.285	100.75
422.507	83.75
422.73	99.75
422.953	92.75
423.175	72.75
423.398	93.75
423.621	75.75
423.843	87.75
424.066	83.75
424.288	106.75
424.511	102.75
424.733	89.75
424.956	86.75
425.178	100.75
425.401	79.75
425.623	91.75
425.846	90.75
426.068	90.75
426.291	94.75
426.513	85.75
426.735	103.75
426.958	99.75
427.18	82.75
427.402	98.75
427.625	89.75
427.847	92.75
428.069	101.75
428.292	85.75
428.514	86.75
428.736	100.75
428.958	85.75
429.181	94.75
429.403	96.75
429.625	107.75
429.847	85.75
430.069	87.75
430.292	89.75
430.514	94.75
430.736	74.75
430.958	77.75
431.18	99.75
431.402	91.75
431.624	82.75
431.846	96.75
432.068	94.75
432.29	73.75
432.512	75.75
432.734	73.75
432.956	65.75
433.178	100.75
433.4	87.75
433.622	101.75
433.844	107.75
434.066	81.75
434.287	92.75
434.509	75.75
434.731	85.75
434.953	83.75
435.175	83.75
435.397	98.75
435.618	87.75
435.84	89.75
436.062	85.75
436.284	82.75
436.505	81.75
436.727	96.75
436.949	89.75
437.17	77.75
437.392	67.75
437.614	87.75
437.835	70.75
438.057	85.75
438.278	95.75
438.5	88.75
438.721	102.75
438.943	99.75
439.165	86.75
439.386	86.75
439.608	96.75
439.829	74.75
440.05	96.75
440.272	84.75
440.493	89.75
440.715	81.75
440.936	102.75
441.158	95.75
441.379	83.75
441.6	100.75
441.822	88.75
442.043	86.75
442.264	102.75
442.486	90.75
442.707	98.75
442.928	97.75
443.149	100.75
443.371	104.75
443.592	88.75
443.813	78.75
444.034	88.75
444.255	98.75
444.476	83.75
444.698	102.75
444.919	102.75
445.14	173.75
445.361	131.75
445.582	87.75
445.803	87.75
446.024	92.75
446.245	97.75
446.466	96.75
446.687	100.75
446.908	99.75
447.129	109.75
447.35	83.75
447.571	89.75
447.792	83.75
448.013	80.75
448.234	85.75
448.455	79.75
448.675	86.75
448.896	89.75
449.117	109.75
449.338	95.75
449.559	97.75
449.779	89.75
450	86.75
450.221	91.75
450.442	78.75
450.662	89.75
450.883	89.75
451.104	108.75
451.324	86.75
451.545	84.75
451.766	85.75
451.986	107.75
452.207	94.75
452.428	97.75
452.648	77.75
452.869	81.75
453.089	81.75
453.31	69.75
453.53	80.75
453.751	86.75
453.971	71.75
454.192	80.75
454.412	77.75
454.633	76.75
454.853	87.75
455.073	78.75
455.294	94.75
455.514	90.75
455.734	80.75
455.955	90.75
456.175	86.75
456.395	87.75
456.616	74.75
456.836	82.75
457.056	86.75
457.276	83.75
457.497	83.75
457.717	79.75
457.937	74.75
458.157	84.75
458.377	79.75
458.598	82.75
458.818	92.75
459.038	89.75
459.258	85.75
459.478	77.75
459.698	78.75
459.918	86.75
460.138	81.75
460.358	78.75
460.578	80.75
460.798	84.75
461.018	85.75
461.238	87.75
461.458	89.75
461.678	82.75
461.898	82.75
462.118	81.75
462.338	74.75
462.558	90.75
462.777	65.75
462.997	77.75
463.217	76.75
463.437	87.75
463.657	98.75
463.876	69.75
464.096	105.75
464.316	78.75
464.536	89.75
464.755	93.75
464.975	93.75
465.195	94.75
465.414	82.75
465.634	82.75
465.854	82.75
466.073	79.75
466.293	95.75
466.512	91.75
466.732	88.75
466.951	93.75
467.171	82.75
467.391	102.75
467.61	90.75
467.829	93.75
468.049	99.75
468.268	79.75
468.488	94.75
468.707	96.75
468.927	105.75
469.146	96.75
469.365	100.75
469.585	102.75
469.804	93.75
470.023	100.75
470.243	94.75
470.462	93.75
470.681	101.75
470.901	86.75
471.12	87.75
471.339	94.75
471.558	88.75
471.777	85.75
471.997	105.75
472.216	85.75
472.435	100.75
472.654	77.75
472.873	66.75
473.092	72.75
473.311	94.75
473.53	88.75
473.749	88.75
473.968	95.75
474.187	95.75
474.406	101.75
474.625	96.75
474.844	89.75
475.063	83.75
475.282	97.75
475.501	77.75
475.72	74.75
475.939	90.75
476.158	86.75
476.377	101.75
476.596	78.75
476.814	75.75
477.033	71.75
477.252	85.75
477.471	102.75
477.69	77.75
477.908	92.75
478.127	101.75
478.346	91.75
478.564	89.75
478.783	77.75
479.002	77.75
479.22	85.75
479.439	99.75
479.658	95.75
479.876	89.75
480.095	90.75
480.313	88.75
480.532	88.75
480.751	76.75
480.969	75.75
481.188	77.75
481.406	76.75
481.624	75.75
481.843	85.75
482.061	88.75
482.28	71.75
482.498	98.75
482.717	82.75
482.935	79.75
483.153	109.75
483.372	93.75
483.59	85.75
483.808	98.75
484.027	98.75
484.245	102.75
484.463	107.75
484.681	100.75
484.9	109.75
485.118	83.75
485.336	99.75
485.554	86.75
485.772	81.75
485.99	89.75
486.209	78.75
486.427	81.75
486.645	86.75
486.863	94.75
487.081	91.75
487.299	85.75
487.517	88.75
487.735	97.75
487.953	108.75
488.171	119.75
488.389	110.75
488.607	86.75
488.825	108.75
489.043	78.75
489.261	95.75
489.479	92.75
489.696	91.75
489.914	98.75
490.132	116.75
490.35	97.75
490.568	91.75
490.786	90.75
491.003	92.75
491.221	115.75
491.439	115.75
491.657	111.75
491.874	105.75
492.092	110.75
492.31	125.75
492.527	123.75
492.745	123.75
492.963	101.75
493.18	107.75
493.398	94.75
493.615	107.75
493.833	102.75
494.05	88.75
494.268	107.75
494.485	114.75
494.703	113.75
494.92	110.75
495.138	109.75
495.355	105.75
495.573	112.75
495.79	102.75
496.008	111.75
496.225	105.75
496.442	101.75
496.66	99.75
496.877	92.75
497.094	85.75
497.312	107.75
497.529	105.75
497.746	79.75
497.963	77.75
498.181	95.75
498.398	97.75
498.615	79.75
498.832	85.75
499.049	96.75
499.267	98.75
499.484	83.75
499.701	82.75
499.918	99.75
500.135	76.75
500.352	96.75
500.569	96.75
500.786	105.75
501.003	92.75
501.22	105.75
501.437	89.75
501.654	93.75
501.871	79.75
502.088	92.75
502.305	83.75
502.522	84.75
502.739	82.75
502.956	94.75
503.172	86.75
503.389	99.75
503.606	81.75
503.823	77.75
504.04	96.75
504.256	85.75
504.473	90.75
504.69	80.75
504.907	89.75
505.123	94.75
505.34	89.75
505.557	90.75
505.773	90.75
505.99	94.75
506.207	96.75
506.423	77.75
506.64	86.75
506.856	92.75
507.073	84.75
507.289	99.75
507.506	100.75
507.722	94.75
507.939	87.75
508.155	85.75
508.372	90.75
508.588	99.75
508.805	85.75
509.021	90.75
509.238	76.75
509.454	78.75
509.67	81.75
509.887	83.75
510.103	89.75
510.319	71.75
510.536	86.75
510.752	77.75
510.968	73.75
511.184	74.75
511.401	85.75
511.617	93.75
511.833	79.75
512.049	67.75
512.265	79.75
512.481	84.75
512.698	79.75
512.914	81.75
513.13	80.75
513.346	74.75
513.562	81.75
513.778	79.75
513.994	78.75
514.21	93.75
514.426	77.75
514.642	83.75
514.858	90.75
515.074	81.75
515.29	73.75
515.506	68.75
515.721	70.75
515.937	85.75
516.153	73.75
516.369	74.75
516.585	81.75
516.801	70.75
517.016	78.75
517.232	91.75
517.448	84.75
517.664	62.75
517.879	85.75
518.095	88.75
518.311	85.75
