Data from Location4.07152019.Energy5.Lamp.07192019.3%Agarose_HRD10591_16-20-49-926.txt Node
Date: Fri Jul 19 16:20:49 EDT 2019
User: cochatt
Spectrometer: HR+D1059
Trigger mode: 1
Integration Time (sec): 1.000000E-1
Scans to average: 1
Electric dark correction enabled: true
Nonlinearity correction enabled: false
Boxcar width: 0
XAxis mode: Wavelengths
Number of Pixels in Spectrum: 2048
>>>>>Begin Spectral Data<<<<<
223.165	-7.69
223.4	-7.69
223.635	-7.69
223.869	-12.69
224.104	-27.69
224.338	-11.69
224.573	-9.69
224.808	-3.69
225.042	-2.69
225.277	-21.69
225.511	-7.69
225.746	4.31
225.98	4.31
226.215	21.31
226.449	8.31
226.683	21.31
226.918	33.31
227.152	12.31
227.387	39.31
227.621	58.31
227.856	27.31
228.09	39.31
228.324	56.31
228.559	51.31
228.793	60.31
229.027	62.31
229.262	66.31
229.496	74.31
229.73	77.31
229.964	72.31
230.199	71.31
230.433	76.31
230.667	71.31
230.901	77.31
231.136	69.31
231.37	66.31
231.604	79.31
231.838	76.31
232.072	75.31
232.306	71.31
232.541	79.31
232.775	95.31
233.009	84.31
233.243	78.31
233.477	104.31
233.711	75.31
233.945	74.31
234.179	72.31
234.413	87.31
234.647	84.31
234.881	76.31
235.115	71.31
235.349	83.31
235.583	95.31
235.817	83.31
236.051	82.31
236.285	101.31
236.519	71.31
236.753	80.31
236.987	80.31
237.221	94.31
237.455	80.31
237.689	70.31
237.922	88.31
238.156	71.31
238.39	82.31
238.624	81.31
238.858	79.31
239.091	87.31
239.325	76.31
239.559	74.31
239.793	84.31
240.027	84.31
240.26	76.31
240.494	67.31
240.728	82.31
240.961	88.31
241.195	84.31
241.429	82.31
241.662	72.31
241.896	68.31
242.13	74.31
242.363	67.31
242.597	83.31
242.83	75.31
243.064	75.31
243.298	72.31
243.531	76.31
243.765	89.31
243.998	77.31
244.232	78.31
244.465	79.31
244.699	72.31
244.932	74.31
245.166	82.31
245.399	78.31
245.633	78.31
245.866	80.31
246.099	84.31
246.333	88.31
246.566	90.31
246.8	69.31
247.033	88.31
247.266	90.31
247.5	83.31
247.733	67.31
247.966	83.31
248.2	90.31
248.433	80.31
248.666	69.31
248.899	77.31
249.133	86.31
249.366	86.31
249.599	68.31
249.832	75.31
250.066	80.31
250.299	79.31
250.532	80.31
250.765	97.31
250.998	84.31
251.231	87.31
251.465	81.31
251.698	86.31
251.931	75.31
252.164	80.31
252.397	82.31
252.63	77.31
252.863	79.31
253.096	86.31
253.329	74.31
253.562	74.31
253.795	87.31
254.028	70.31
254.261	76.31
254.494	87.31
254.727	92.31
254.96	77.31
255.193	68.31
255.426	78.31
255.659	83.31
255.892	95.31
256.124	86.31
256.357	73.31
256.59	66.31
256.823	84.31
257.056	80.31
257.289	77.31
257.521	71.31
257.754	85.31
257.987	82.31
258.22	97.31
258.452	87.31
258.685	71.31
258.918	71.31
259.151	78.31
259.383	85.31
259.616	73.31
259.849	88.31
260.081	77.31
260.314	80.31
260.547	87.31
260.779	83.31
261.012	90.31
261.244	88.31
261.477	90.31
261.71	87.31
261.942	95.31
262.175	80.31
262.407	90.31
262.64	81.31
262.872	70.31
263.105	77.31
263.337	76.31
263.57	80.31
263.802	71.31
264.035	73.31
264.267	101.31
264.499	84.31
264.732	81.31
264.964	84.31
265.197	100.31
265.429	87.31
265.661	96.31
265.894	88.31
266.126	76.31
266.358	77.31
266.591	79.31
266.823	83.31
267.055	83.31
267.287	84.31
267.52	72.31
267.752	79.31
267.984	93.31
268.216	79.31
268.448	90.31
268.681	87.31
268.913	93.31
269.145	77.31
269.377	81.31
269.609	88.31
269.841	84.31
270.073	93.31
270.306	89.31
270.538	87.31
270.77	84.31
271.002	82.31
271.234	78.31
271.466	79.31
271.698	86.31
271.93	98.31
272.162	92.31
272.394	86.31
272.626	73.31
272.858	90.31
273.09	79.31
273.322	97.31
273.553	75.31
273.785	91.31
274.017	80.31
274.249	92.31
274.481	86.31
274.713	75.31
274.945	88.31
275.176	87.31
275.408	87.31
275.64	91.31
275.872	75.31
276.104	86.31
276.335	86.31
276.567	78.31
276.799	80.31
277.031	86.31
277.262	82.31
277.494	85.31
277.726	84.31
277.957	74.31
278.189	87.31
278.421	88.31
278.652	91.31
278.884	75.31
279.115	80.31
279.347	83.31
279.579	84.31
279.81	83.31
280.042	93.31
280.273	87.31
280.505	75.31
280.736	77.31
280.968	80.31
281.199	87.31
281.431	83.31
281.662	86.31
281.894	79.31
282.125	68.31
282.356	83.31
282.588	86.31
282.819	81.31
283.051	91.31
283.282	91.31
283.513	101.31
283.745	81.31
283.976	81.31
284.207	71.31
284.439	71.31
284.67	78.31
284.901	93.31
285.132	90.31
285.364	93.31
285.595	96.31
285.826	83.31
286.057	93.31
286.288	79.31
286.52	78.31
286.751	78.31
286.982	88.31
287.213	80.31
287.444	75.31
287.675	88.31
287.906	95.31
288.138	82.31
288.369	98.31
288.6	86.31
288.831	93.31
289.062	83.31
289.293	84.31
289.524	73.31
289.755	80.31
289.986	70.31
290.217	80.31
290.448	85.31
290.679	86.31
290.91	82.31
291.141	77.31
291.371	93.31
291.602	80.31
291.833	86.31
292.064	97.31
292.295	93.31
292.526	83.31
292.757	85.31
292.987	90.31
293.218	84.31
293.449	91.31
293.68	88.31
293.91	87.31
294.141	95.31
294.372	86.31
294.603	88.31
294.833	89.31
295.064	87.31
295.295	76.31
295.525	82.31
295.756	88.31
295.987	92.31
296.217	101.31
296.448	84.31
296.679	77.31
296.909	86.31
297.14	75.31
297.37	88.31
297.601	84.31
297.831	68.31
298.062	98.31
298.292	84.31
298.523	96.31
298.753	77.31
298.984	90.31
299.214	70.31
299.445	87.31
299.675	84.31
299.905	97.31
300.136	79.31
300.366	89.31
300.597	86.31
300.827	89.31
301.057	70.31
301.288	89.31
301.518	82.31
301.748	83.31
301.979	91.31
302.209	90.31
302.439	78.31
302.669	80.31
302.9	100.31
303.13	86.31
303.36	68.31
303.59	96.31
303.82	75.31
304.051	74.31
304.281	75.31
304.511	92.31
304.741	86.31
304.971	92.31
305.201	86.31
305.431	88.31
305.661	90.31
305.891	76.31
306.121	95.31
306.352	95.31
306.582	96.31
306.812	94.31
307.042	80.31
307.272	100.31
307.502	75.31
307.731	106.31
307.961	98.31
308.191	81.31
308.421	82.31
308.651	84.31
308.881	79.31
309.111	86.31
309.341	84.31
309.571	86.31
309.8	83.31
310.03	92.31
310.26	88.31
310.49	84.31
310.72	91.31
310.949	87.31
311.179	78.31
311.409	88.31
311.639	79.31
311.868	87.31
312.098	84.31
312.328	71.31
312.557	77.31
312.787	88.31
313.017	91.31
313.246	82.31
313.476	73.31
313.706	85.31
313.935	86.31
314.165	83.31
314.394	92.31
314.624	81.31
314.853	98.31
315.083	89.31
315.312	90.31
315.542	83.31
315.771	77.31
316.001	88.31
316.23	89.31
316.46	69.31
316.689	99.31
316.919	93.31
317.148	101.31
317.377	98.31
317.607	91.31
317.836	85.31
318.065	98.31
318.295	93.31
318.524	90.31
318.753	79.31
318.983	86.31
319.212	86.31
319.441	90.31
319.67	86.31
319.9	86.31
320.129	89.31
320.358	96.31
320.587	85.31
320.816	72.31
321.046	91.31
321.275	105.31
321.504	95.31
321.733	93.31
321.962	91.31
322.191	86.31
322.42	75.31
322.649	82.31
322.878	76.31
323.108	87.31
323.337	87.31
323.566	101.31
323.795	90.31
324.024	79.31
324.253	70.31
324.482	84.31
324.71	92.31
324.939	100.31
325.168	95.31
325.397	84.31
325.626	92.31
325.855	90.31
326.084	72.31
326.313	91.31
326.542	88.31
326.77	90.31
326.999	93.31
327.228	78.31
327.457	93.31
327.686	90.31
327.914	92.31
328.143	85.31
328.372	86.31
328.6	103.31
328.829	96.31
329.058	78.31
329.287	91.31
329.515	92.31
329.744	79.31
329.972	84.31
330.201	92.31
330.43	93.31
330.658	86.31
330.887	86.31
331.115	89.31
331.344	90.31
331.572	98.31
331.801	82.31
332.03	85.31
332.258	86.31
332.486	79.31
332.715	95.31
332.943	90.31
333.172	81.31
333.4	88.31
333.629	89.31
333.857	80.31
334.085	96.31
334.314	91.31
334.542	78.31
334.771	80.31
334.999	100.31
335.227	87.31
335.455	81.31
335.684	93.31
335.912	86.31
336.14	81.31
336.369	91.31
336.597	69.31
336.825	85.31
337.053	83.31
337.281	92.31
337.51	81.31
337.738	92.31
337.966	79.31
338.194	98.31
338.422	102.31
338.65	96.31
338.878	92.31
339.106	88.31
339.334	86.31
339.562	95.31
339.79	78.31
340.018	75.31
340.246	90.31
340.474	83.31
340.702	72.31
340.93	92.31
341.158	94.31
341.386	84.31
341.614	92.31
341.842	79.31
342.07	98.31
342.298	94.31
342.526	84.31
342.754	98.31
342.981	94.31
343.209	78.31
343.437	95.31
343.665	80.31
343.893	100.31
344.12	100.31
344.348	86.31
344.576	85.31
344.804	78.31
345.031	76.31
345.259	85.31
345.487	95.31
345.714	91.31
345.942	83.31
346.17	95.31
346.397	89.31
346.625	86.31
346.853	81.31
347.08	83.31
347.308	86.31
347.535	94.31
347.763	87.31
347.99	92.31
348.218	75.31
348.445	88.31
348.673	88.31
348.9	89.31
349.128	92.31
349.355	91.31
349.583	87.31
349.81	93.31
350.037	84.31
350.265	83.31
350.492	78.31
350.72	85.31
350.947	79.31
351.174	76.31
351.402	101.31
351.629	84.31
351.856	85.31
352.083	75.31
352.311	84.31
352.538	82.31
352.765	75.31
352.992	95.31
353.22	74.31
353.447	83.31
353.674	102.31
353.901	78.31
354.128	83.31
354.355	86.31
354.583	103.31
354.81	92.31
355.037	75.31
355.264	88.31
355.491	89.31
355.718	89.31
355.945	96.31
356.172	92.31
356.399	89.31
356.626	76.31
356.853	82.31
357.08	91.31
357.307	91.31
357.534	87.31
357.761	86.31
357.988	91.31
358.215	91.31
358.441	80.31
358.668	97.31
358.895	88.31
359.122	83.31
359.349	74.31
359.576	78.31
359.802	86.31
360.029	98.31
360.256	95.31
360.483	82.31
360.709	88.31
360.936	89.31
361.163	83.31
361.39	94.31
361.616	99.31
361.843	78.31
362.07	84.31
362.296	77.31
362.523	79.31
362.749	87.31
362.976	95.31
363.203	87.31
363.429	75.31
363.656	90.31
363.882	79.31
364.109	94.31
364.335	83.31
364.562	92.31
364.788	102.31
365.015	87.31
365.241	106.31
365.468	91.31
365.694	92.31
365.92	88.31
366.147	87.31
366.373	91.31
366.599	99.31
366.826	88.31
367.052	91.31
367.278	63.31
367.505	83.31
367.731	96.31
367.957	80.31
368.184	91.31
368.41	95.31
368.636	100.31
368.862	86.31
369.089	86.31
369.315	96.31
369.541	94.31
369.767	89.31
369.993	98.31
370.219	89.31
370.445	99.31
370.672	85.31
370.898	106.31
371.124	94.31
371.35	92.31
371.576	89.31
371.802	106.31
372.028	104.31
372.254	99.31
372.48	79.31
372.706	103.31
372.932	99.31
373.158	78.31
373.384	102.31
373.61	94.31
373.835	92.31
374.061	91.31
374.287	96.31
374.513	91.31
374.739	111.31
374.965	104.31
375.191	104.31
375.416	105.31
375.642	88.31
375.868	99.31
376.094	99.31
376.319	88.31
376.545	95.31
376.771	98.31
376.997	76.31
377.222	85.31
377.448	95.31
377.674	88.31
377.899	103.31
378.125	105.31
378.35	110.31
378.576	102.31
378.802	88.31
379.027	85.31
379.253	110.31
379.478	89.31
379.704	99.31
379.929	99.31
380.155	88.31
380.38	78.31
380.606	80.31
380.831	91.31
381.057	111.31
381.282	95.31
381.507	89.31
381.733	95.31
381.958	94.31
382.184	105.31
382.409	110.31
382.634	97.31
382.86	100.31
383.085	107.31
383.31	94.31
383.535	105.31
383.761	105.31
383.986	93.31
384.211	94.31
384.436	102.31
384.662	101.31
384.887	92.31
385.112	111.31
385.337	95.31
385.562	95.31
385.787	104.31
386.013	98.31
386.238	94.31
386.463	107.31
386.688	90.31
386.913	88.31
387.138	111.31
387.363	100.31
387.588	101.31
387.813	106.31
388.038	105.31
388.263	100.31
388.488	107.31
388.713	104.31
388.938	98.31
389.163	105.31
389.387	94.31
389.612	90.31
389.837	91.31
390.062	124.31
390.287	105.31
390.512	99.31
390.736	101.31
390.961	117.31
391.186	117.31
391.411	108.31
391.636	94.31
391.86	99.31
392.085	100.31
392.31	100.31
392.534	98.31
392.759	100.31
392.984	110.31
393.208	100.31
393.433	96.31
393.658	92.31
393.882	102.31
394.107	115.31
394.331	100.31
394.556	95.31
394.78	105.31
395.005	110.31
395.229	94.31
395.454	97.31
395.678	94.31
395.903	109.31
396.127	114.31
396.352	118.31
396.576	103.31
396.801	108.31
397.025	98.31
397.249	116.31
397.474	109.31
397.698	120.31
397.922	111.31
398.147	111.31
398.371	110.31
398.595	108.31
398.82	118.31
399.044	110.31
399.268	124.31
399.492	128.31
399.717	116.31
399.941	103.31
400.165	118.31
400.389	104.31
400.613	113.31
400.837	102.31
401.062	114.31
401.286	113.31
401.51	120.31
401.734	106.31
401.958	109.31
402.182	111.31
402.406	128.31
402.63	102.31
402.854	107.31
403.078	108.31
403.302	118.31
403.526	108.31
403.75	116.31
403.974	127.31
404.198	105.31
404.422	102.31
404.645	108.31
404.869	126.31
405.093	125.31
405.317	120.31
405.541	116.31
405.765	129.31
405.988	100.31
406.212	127.31
406.436	125.31
406.66	120.31
406.883	119.31
407.107	122.31
407.331	122.31
407.555	118.31
407.778	119.31
408.002	122.31
408.226	115.31
408.449	116.31
408.673	110.31
408.896	132.31
409.12	138.31
409.344	129.31
409.567	114.31
409.791	111.31
410.014	101.31
410.238	119.31
410.461	107.31
410.685	114.31
410.908	123.31
411.132	130.31
411.355	110.31
411.578	124.31
411.802	107.31
412.025	120.31
412.249	120.31
412.472	118.31
412.695	127.31
412.919	130.31
413.142	121.31
413.365	118.31
413.589	128.31
413.812	120.31
414.035	113.31
414.258	128.31
414.482	136.31
414.705	125.31
414.928	117.31
415.151	125.31
415.374	131.31
415.597	119.31
415.821	122.31
416.044	124.31
416.267	133.31
416.49	134.31
416.713	124.31
416.936	135.31
417.159	130.31
417.382	116.31
417.605	124.31
417.828	157.31
418.051	146.31
418.274	138.31
418.497	145.31
418.72	134.31
418.943	131.31
419.166	135.31
419.389	134.31
419.611	131.31
419.834	133.31
420.057	136.31
420.28	129.31
420.503	130.31
420.726	140.31
420.948	136.31
421.171	123.31
421.394	130.31
421.617	138.31
421.839	137.31
422.062	125.31
422.285	126.31
422.507	132.31
422.73	119.31
422.953	134.31
423.175	127.31
423.398	112.31
423.621	134.31
423.843	126.31
424.066	136.31
424.288	139.31
424.511	129.31
424.733	142.31
424.956	135.31
425.178	132.31
425.401	139.31
425.623	143.31
425.846	157.31
426.068	126.31
426.291	128.31
426.513	122.31
426.735	136.31
426.958	130.31
427.18	124.31
427.402	129.31
427.625	138.31
427.847	114.31
428.069	123.31
428.292	127.31
428.514	126.31
428.736	140.31
428.958	138.31
429.181	120.31
429.403	123.31
429.625	123.31
429.847	117.31
430.069	125.31
430.292	134.31
430.514	115.31
430.736	148.31
430.958	120.31
431.18	131.31
431.402	130.31
431.624	118.31
431.846	108.31
432.068	114.31
432.29	90.31
432.512	112.31
432.734	125.31
432.956	136.31
433.178	145.31
433.4	146.31
433.622	144.31
433.844	140.31
434.066	122.31
434.287	102.31
434.509	89.31
434.731	94.31
434.953	115.31
435.175	110.31
435.397	124.31
435.618	122.31
435.84	100.31
436.062	107.31
436.284	125.31
436.505	119.31
436.727	128.31
436.949	140.31
437.17	125.31
437.392	137.31
437.614	109.31
437.835	120.31
438.057	122.31
438.278	118.31
438.5	120.31
438.721	117.31
438.943	154.31
439.165	135.31
439.386	136.31
439.608	146.31
439.829	136.31
440.05	140.31
440.272	148.31
440.493	142.31
440.715	141.31
440.936	148.31
441.158	166.31
441.379	144.31
441.6	151.31
441.822	148.31
442.043	154.31
442.264	152.31
442.486	150.31
442.707	145.31
442.928	138.31
443.149	140.31
443.371	142.31
443.592	133.31
443.813	126.31
444.034	134.31
444.255	137.31
444.476	146.31
444.698	122.31
444.919	144.31
445.14	263.31
445.361	216.31
445.582	144.31
445.803	144.31
446.024	145.31
446.245	136.31
446.466	160.31
446.687	160.31
446.908	155.31
447.129	155.31
447.35	149.31
447.571	165.31
447.792	134.31
448.013	138.31
448.234	130.31
448.455	128.31
448.675	148.31
448.896	142.31
449.117	138.31
449.338	132.31
449.559	124.31
449.779	117.31
450	122.31
450.221	141.31
450.442	140.31
450.662	130.31
450.883	138.31
451.104	138.31
451.324	136.31
451.545	134.31
451.766	133.31
451.986	124.31
452.207	131.31
452.428	119.31
452.648	142.31
452.869	124.31
453.089	109.31
453.31	120.31
453.53	124.31
453.751	110.31
453.971	100.31
454.192	105.31
454.412	95.31
454.633	102.31
454.853	127.31
455.073	108.31
455.294	124.31
455.514	126.31
455.734	117.31
455.955	120.31
456.175	110.31
456.395	111.31
456.616	101.31
456.836	106.31
457.056	107.31
457.276	105.31
457.497	101.31
457.717	105.31
457.937	101.31
458.157	106.31
458.377	104.31
458.598	112.31
458.818	94.31
459.038	91.31
459.258	81.31
459.478	95.31
459.698	89.31
459.918	86.31
460.138	113.31
460.358	117.31
460.578	109.31
460.798	119.31
461.018	123.31
461.238	118.31
461.458	132.31
461.678	123.31
461.898	121.31
462.118	126.31
462.338	102.31
462.558	98.31
462.777	113.31
462.997	115.31
463.217	105.31
463.437	95.31
463.657	95.31
463.876	112.31
464.096	101.31
464.316	96.31
464.536	120.31
464.755	126.31
464.975	108.31
465.195	120.31
465.414	123.31
465.634	108.31
465.854	114.31
466.073	120.31
466.293	119.31
466.512	118.31
466.732	127.31
466.951	134.31
467.171	125.31
467.391	150.31
467.61	131.31
467.829	128.31
468.049	148.31
468.268	148.31
468.488	141.31
468.707	128.31
468.927	148.31
469.146	134.31
469.365	142.31
469.585	129.31
469.804	149.31
470.023	130.31
470.243	146.31
470.462	155.31
470.681	148.31
470.901	141.31
471.12	136.31
471.339	154.31
471.558	126.31
471.777	139.31
471.997	123.31
472.216	119.31
472.435	119.31
472.654	118.31
472.873	121.31
473.092	124.31
473.311	118.31
473.53	131.31
473.749	125.31
473.968	123.31
474.187	145.31
474.406	127.31
474.625	121.31
474.844	134.31
475.063	138.31
475.282	134.31
475.501	127.31
475.72	130.31
475.939	120.31
476.158	138.31
476.377	130.31
476.596	125.31
476.814	129.31
477.033	103.31
477.252	97.31
477.471	125.31
477.69	128.31
477.908	137.31
478.127	130.31
478.346	130.31
478.564	128.31
478.783	124.31
479.002	147.31
479.22	130.31
479.439	128.31
479.658	125.31
479.876	110.31
480.095	127.31
480.313	110.31
480.532	111.31
480.751	107.31
480.969	102.31
481.188	104.31
481.406	94.31
481.624	91.31
481.843	102.31
482.061	90.31
482.28	115.31
482.498	116.31
482.717	105.31
482.935	140.31
483.153	136.31
483.372	144.31
483.59	152.31
483.808	129.31
484.027	124.31
484.245	149.31
484.463	136.31
484.681	158.31
484.9	141.31
485.118	142.31
485.336	123.31
485.554	112.31
485.772	111.31
485.99	114.31
486.209	116.31
486.427	111.31
486.645	125.31
486.863	137.31
487.081	140.31
487.299	133.31
487.517	136.31
487.735	170.31
487.953	191.31
488.171	190.31
488.389	173.31
488.607	160.31
488.825	149.31
489.043	130.31
489.261	148.31
489.479	134.31
489.696	143.31
489.914	131.31
490.132	143.31
490.35	152.31
490.568	160.31
490.786	166.31
491.003	154.31
491.221	175.31
491.439	168.31
491.657	186.31
491.874	199.31
492.092	216.31
492.31	236.31
492.527	210.31
492.745	207.31
492.963	190.31
493.18	190.31
493.398	189.31
493.615	190.31
493.833	167.31
494.05	168.31
494.268	170.31
494.485	171.31
494.703	179.31
494.92	168.31
495.138	171.31
495.355	157.31
495.573	174.31
495.79	189.31
496.008	157.31
496.225	159.31
496.442	164.31
496.66	160.31
496.877	159.31
497.094	158.31
497.312	147.31
497.529	165.31
497.746	156.31
497.963	144.31
498.181	134.31
498.398	127.31
498.615	150.31
498.832	130.31
499.049	128.31
499.267	133.31
499.484	125.31
499.701	132.31
499.918	132.31
500.135	134.31
500.352	144.31
500.569	148.31
500.786	143.31
501.003	135.31
501.22	143.31
501.437	139.31
501.654	137.31
501.871	140.31
502.088	130.31
502.305	128.31
502.522	140.31
502.739	131.31
502.956	114.31
503.172	117.31
503.389	118.31
503.606	123.31
503.823	126.31
504.04	116.31
504.256	119.31
504.473	106.31
504.69	113.31
504.907	127.31
505.123	123.31
505.34	129.31
505.557	132.31
505.773	122.31
505.99	129.31
506.207	116.31
506.423	128.31
506.64	134.31
506.856	107.31
507.073	118.31
507.289	118.31
507.506	125.31
507.722	119.31
507.939	123.31
508.155	116.31
508.372	109.31
508.588	119.31
508.805	122.31
509.021	107.31
509.238	110.31
509.454	113.31
509.67	106.31
509.887	103.31
510.103	102.31
510.319	100.31
510.536	94.31
510.752	86.31
510.968	97.31
511.184	97.31
