Data from Location4.07152019.Energy5.Lamp.07192019.3%Agarose_HRD10591_16-19-13-925.txt Node
Date: Fri Jul 19 16:19:13 EDT 2019
User: cochatt
Spectrometer: HR+D1059
Trigger mode: 1
Integration Time (sec): 1.000000E-1
Scans to average: 1
Electric dark correction enabled: true
Nonlinearity correction enabled: false
Boxcar width: 0
XAxis mode: Wavelengths
Number of Pixels in Spectrum: 2048
>>>>>Begin Spectral Data<<<<<
223.165	-18
223.4	-18
223.635	-18
223.869	-11
224.104	-13
224.338	2
224.573	-5
224.808	-18
225.042	5
225.277	-1
225.511	-10
225.746	1
225.98	17
226.215	15
226.449	7
226.683	10
226.918	-6
227.152	25
227.387	37
227.621	43
227.856	24
228.09	46
228.324	57
228.559	49
228.793	55
229.027	46
229.262	55
229.496	78
229.73	57
229.964	65
230.199	56
230.433	65
230.667	72
230.901	75
231.136	60
231.37	70
231.604	83
231.838	71
232.072	83
232.306	89
232.541	76
232.775	82
233.009	80
233.243	70
233.477	91
233.711	78
233.945	94
234.179	80
234.413	86
234.647	82
234.881	77
235.115	86
235.349	75
235.583	77
235.817	70
236.051	73
236.285	79
236.519	80
236.753	71
236.987	83
237.221	62
237.455	79
237.689	70
237.922	75
238.156	76
238.39	86
238.624	68
238.858	81
239.091	80
239.325	70
239.559	69
239.793	72
240.027	73
240.26	62
240.494	59
240.728	71
240.961	61
241.195	66
241.429	59
241.662	64
241.896	74
242.13	60
242.363	70
242.597	77
242.83	86
243.064	92
243.298	54
243.531	79
243.765	81
243.998	72
244.232	73
244.465	67
244.699	65
244.932	65
245.166	76
245.399	74
245.633	90
245.866	72
246.099	72
246.333	58
246.566	67
246.8	71
247.033	75
247.266	90
247.5	74
247.733	87
247.966	74
248.2	83
248.433	69
248.666	71
248.899	73
249.133	83
249.366	68
249.599	81
249.832	87
250.066	83
250.299	97
250.532	78
250.765	81
250.998	75
251.231	63
251.465	90
251.698	77
251.931	77
252.164	76
252.397	78
252.63	85
252.863	70
253.096	83
253.329	69
253.562	79
253.795	67
254.028	85
254.261	61
254.494	75
254.727	63
254.96	75
255.193	74
255.426	80
255.659	79
255.892	72
256.124	63
256.357	77
256.59	70
256.823	68
257.056	86
257.289	67
257.521	66
257.754	81
257.987	80
258.22	78
258.452	79
258.685	93
258.918	78
259.151	85
259.383	86
259.616	79
259.849	78
260.081	79
260.314	73
260.547	81
260.779	95
261.012	73
261.244	81
261.477	84
261.71	74
261.942	80
262.175	71
262.407	75
262.64	81
262.872	75
263.105	71
263.337	79
263.57	77
263.802	81
264.035	87
264.267	76
264.499	74
264.732	86
264.964	86
265.197	73
265.429	67
265.661	67
265.894	91
266.126	79
266.358	86
266.591	73
266.823	73
267.055	81
267.287	81
267.52	88
267.752	65
267.984	73
268.216	59
268.448	87
268.681	93
268.913	89
269.145	69
269.377	72
269.609	80
269.841	71
270.073	78
270.306	73
270.538	79
270.77	81
271.002	75
271.234	82
271.466	71
271.698	74
271.93	81
272.162	83
272.394	84
272.626	80
272.858	94
273.09	89
273.322	59
273.553	79
273.785	81
274.017	76
274.249	76
274.481	82
274.713	81
274.945	91
275.176	87
275.408	70
275.64	68
275.872	82
276.104	83
276.335	82
276.567	81
276.799	74
277.031	79
277.262	69
277.494	84
277.726	95
277.957	75
278.189	76
278.421	89
278.652	60
278.884	86
279.115	74
279.347	85
279.579	88
279.81	80
280.042	75
280.273	95
280.505	77
280.736	79
280.968	80
281.199	81
281.431	78
281.662	71
281.894	81
282.125	74
282.356	98
282.588	80
282.819	84
283.051	79
283.282	66
283.513	91
283.745	78
283.976	89
284.207	82
284.439	88
284.67	63
284.901	89
285.132	70
285.364	75
285.595	93
285.826	72
286.057	88
286.288	78
286.52	85
286.751	75
286.982	85
287.213	87
287.444	82
287.675	70
287.906	74
288.138	85
288.369	81
288.6	68
288.831	96
289.062	85
289.293	81
289.524	86
289.755	91
289.986	77
290.217	94
290.448	57
290.679	75
290.91	81
291.141	79
291.371	97
291.602	79
291.833	77
292.064	70
292.295	88
292.526	72
292.757	80
292.987	79
293.218	76
293.449	68
293.68	92
293.91	90
294.141	90
294.372	70
294.603	78
294.833	72
295.064	77
295.295	75
295.525	74
295.756	63
295.987	90
296.217	75
296.448	77
296.679	88
296.909	88
297.14	74
297.37	86
297.601	72
297.831	84
298.062	80
298.292	88
298.523	70
298.753	67
298.984	83
299.214	81
299.445	79
299.675	87
299.905	79
300.136	86
300.366	80
300.597	82
300.827	80
301.057	72
301.288	69
301.518	88
301.748	83
301.979	76
302.209	91
302.439	83
302.669	79
302.9	70
303.13	88
303.36	73
303.59	97
303.82	77
304.051	87
304.281	81
304.511	82
304.741	78
304.971	72
305.201	86
305.431	76
305.661	76
305.891	77
306.121	93
306.352	76
306.582	80
306.812	79
307.042	87
307.272	87
307.502	80
307.731	80
307.961	88
308.191	71
308.421	72
308.651	76
308.881	76
309.111	80
309.341	84
309.571	93
309.8	83
310.03	90
310.26	85
310.49	89
310.72	77
310.949	71
311.179	85
311.409	76
311.639	75
311.868	88
312.098	68
312.328	100
312.557	81
312.787	74
313.017	84
313.246	88
313.476	83
313.706	79
313.935	85
314.165	78
314.394	77
314.624	63
314.853	79
315.083	85
315.312	90
315.542	75
315.771	76
316.001	85
316.23	83
316.46	75
316.689	88
316.919	91
317.148	85
317.377	68
317.607	80
317.836	90
318.065	83
318.295	80
318.524	81
318.753	94
318.983	89
319.212	76
319.441	92
319.67	73
319.9	94
320.129	91
320.358	71
320.587	83
320.816	76
321.046	81
321.275	74
321.504	86
321.733	79
321.962	90
322.191	84
322.42	76
322.649	94
322.878	91
323.108	99
323.337	85
323.566	82
323.795	81
324.024	88
324.253	74
324.482	88
324.71	71
324.939	79
325.168	90
325.397	87
325.626	85
325.855	94
326.084	78
326.313	73
326.542	83
326.77	85
326.999	90
327.228	85
327.457	76
327.686	71
327.914	77
328.143	89
328.372	80
328.6	80
328.829	65
329.058	72
329.287	76
329.515	68
329.744	71
329.972	79
330.201	77
330.43	79
330.658	79
330.887	78
331.115	79
331.344	70
331.572	71
331.801	77
332.03	79
332.258	80
332.486	80
332.715	88
332.943	73
333.172	84
333.4	89
333.629	95
333.857	81
334.085	80
334.314	66
334.542	89
334.771	83
334.999	90
335.227	82
335.455	78
335.684	75
335.912	87
336.14	90
336.369	65
336.597	89
336.825	85
337.053	91
337.281	75
337.51	91
337.738	87
337.966	74
338.194	87
338.422	84
338.65	82
338.878	90
339.106	78
339.334	86
339.562	80
339.79	73
340.018	79
340.246	89
340.474	83
340.702	73
340.93	89
341.158	87
341.386	79
341.614	75
341.842	81
342.07	71
342.298	75
342.526	74
342.754	78
342.981	90
343.209	89
343.437	82
343.665	83
343.893	97
344.12	74
344.348	77
344.576	85
344.804	75
345.031	91
345.259	82
345.487	88
345.714	82
345.942	93
346.17	87
346.397	80
346.625	94
346.853	76
347.08	86
347.308	89
347.535	77
347.763	84
347.99	85
348.218	95
348.445	79
348.673	78
348.9	83
349.128	77
349.355	75
349.583	97
349.81	81
350.037	83
350.265	91
350.492	96
350.72	81
350.947	97
351.174	70
351.402	76
351.629	85
351.856	86
352.083	79
352.311	86
352.538	84
352.765	83
352.992	79
353.22	77
353.447	78
353.674	75
353.901	90
354.128	77
354.355	72
354.583	80
354.81	73
355.037	79
355.264	87
355.491	88
355.718	62
355.945	88
356.172	78
356.399	77
356.626	84
356.853	89
357.08	80
357.307	90
357.534	89
357.761	94
357.988	83
358.215	84
358.441	79
358.668	85
358.895	74
359.122	96
359.349	80
359.576	72
359.802	69
360.029	82
360.256	85
360.483	83
360.709	85
360.936	82
361.163	85
361.39	79
361.616	68
361.843	91
362.07	81
362.296	88
362.523	86
362.749	73
362.976	88
363.203	98
363.429	83
363.656	84
363.882	73
364.109	80
364.335	70
364.562	93
364.788	61
365.015	85
365.241	94
365.468	86
365.694	89
365.92	97
366.147	80
366.373	88
366.599	75
366.826	65
367.052	102
367.278	91
367.505	91
367.731	100
367.957	79
368.184	80
368.41	79
368.636	88
368.862	85
369.089	95
369.315	68
369.541	79
369.767	82
369.993	83
370.219	91
370.445	100
370.672	86
370.898	98
371.124	80
371.35	91
371.576	79
371.802	83
372.028	89
372.254	93
372.48	90
372.706	90
372.932	76
373.158	89
373.384	81
373.61	73
373.835	93
374.061	87
374.287	73
374.513	82
374.739	88
374.965	100
375.191	96
375.416	88
375.642	78
375.868	96
376.094	103
376.319	98
376.545	87
376.771	95
376.997	100
377.222	83
377.448	92
377.674	96
377.899	94
378.125	97
378.35	75
378.576	86
378.802	90
379.027	90
379.253	95
379.478	96
379.704	89
379.929	90
380.155	91
380.38	96
380.606	95
380.831	94
381.057	104
381.282	97
381.507	96
381.733	105
381.958	89
382.184	87
382.409	91
382.634	74
382.86	85
383.085	109
383.31	101
383.535	96
383.761	70
383.986	85
384.211	97
384.436	95
384.662	80
384.887	105
385.112	90
385.337	94
385.562	97
385.787	84
386.013	101
386.238	95
386.463	93
386.688	89
386.913	111
387.138	93
387.363	82
387.588	91
387.813	82
388.038	92
388.263	101
388.488	81
388.713	88
388.938	117
389.163	88
389.387	110
389.612	95
389.837	106
390.062	97
390.287	118
390.512	88
390.736	110
390.961	111
391.186	101
391.411	103
391.636	93
391.86	105
392.085	102
392.31	109
392.534	96
392.759	109
392.984	104
393.208	101
393.433	106
393.658	98
393.882	84
394.107	105
394.331	89
394.556	107
394.78	78
395.005	94
395.229	99
395.454	91
395.678	93
395.903	98
396.127	102
396.352	101
396.576	98
396.801	94
397.025	100
397.249	103
397.474	98
397.698	107
397.922	98
398.147	115
398.371	101
398.595	104
398.82	91
399.044	102
399.268	112
399.492	104
399.717	109
399.941	105
400.165	107
400.389	108
400.613	101
400.837	121
401.062	100
401.286	106
401.51	111
401.734	106
401.958	107
402.182	113
402.406	95
402.63	97
402.854	103
403.078	93
403.302	92
403.526	105
403.75	114
403.974	115
404.198	102
404.422	102
404.645	118
404.869	101
405.093	123
405.317	125
405.541	120
405.765	119
405.988	109
406.212	129
406.436	131
406.66	102
406.883	113
407.107	115
407.331	118
407.555	113
407.778	119
408.002	106
408.226	111
408.449	102
408.673	121
408.896	112
409.12	130
409.344	120
409.567	110
409.791	112
410.014	114
410.238	121
410.461	130
410.685	111
410.908	121
411.132	133
411.355	131
411.578	124
411.802	109
412.025	103
412.249	121
412.472	120
412.695	129
412.919	131
413.142	118
413.365	132
413.589	130
413.812	114
414.035	123
414.258	116
414.482	110
414.705	134
414.928	134
415.151	119
415.374	118
415.597	130
415.821	123
416.044	120
416.267	113
416.49	107
416.713	119
416.936	125
417.159	113
417.382	116
417.605	113
417.828	131
418.051	125
418.274	108
418.497	135
418.72	130
418.943	131
419.166	129
419.389	142
419.611	107
419.834	116
420.057	116
420.28	128
420.503	139
420.726	117
420.948	135
421.171	128
421.394	127
421.617	127
421.839	148
422.062	136
422.285	133
422.507	123
422.73	132
422.953	122
423.175	122
423.398	118
423.621	119
423.843	121
424.066	130
424.288	121
424.511	147
424.733	144
424.956	135
425.178	122
425.401	125
425.623	133
425.846	148
426.068	134
426.291	137
426.513	129
426.735	128
426.958	129
427.18	112
427.402	122
427.625	129
427.847	114
428.069	130
428.292	123
428.514	124
428.736	119
428.958	131
429.181	121
429.403	135
429.625	121
429.847	124
430.069	114
430.292	133
430.514	121
430.736	132
430.958	131
431.18	114
431.402	129
431.624	120
431.846	114
432.068	97
432.29	89
432.512	98
432.734	113
432.956	133
433.178	123
433.4	129
433.622	133
433.844	138
434.066	113
434.287	100
434.509	97
434.731	90
434.953	112
435.175	129
435.397	107
435.618	111
435.84	106
436.062	111
436.284	109
436.505	104
436.727	125
436.949	123
437.17	113
437.392	121
437.614	121
437.835	109
438.057	110
438.278	119
438.5	111
438.721	128
438.943	147
439.165	127
439.386	145
439.608	136
439.829	135
440.05	145
440.272	138
440.493	140
440.715	145
440.936	142
441.158	143
441.379	119
441.6	133
441.822	145
442.043	135
442.264	144
442.486	123
442.707	129
442.928	128
443.149	147
443.371	136
443.592	131
443.813	126
444.034	137
444.255	138
444.476	140
444.698	133
444.919	129
445.14	282
445.361	214
445.582	159
445.803	137
446.024	155
446.245	133
446.466	146
446.687	140
446.908	139
447.129	155
447.35	156
447.571	152
447.792	153
448.013	132
448.234	138
448.455	138
448.675	151
448.896	132
449.117	131
449.338	136
449.559	146
449.779	133
450	107
450.221	128
450.442	131
450.662	136
450.883	144
451.104	136
451.324	123
451.545	126
451.766	124
451.986	133
452.207	119
452.428	125
452.648	122
452.869	127
453.089	121
453.31	120
453.53	107
453.751	99
453.971	98
454.192	111
454.412	118
454.633	109
454.853	131
455.073	131
455.294	116
455.514	121
455.734	130
455.955	104
456.175	103
456.395	103
456.616	101
456.836	116
457.056	108
457.276	103
457.497	111
457.717	87
457.937	112
458.157	105
458.377	116
458.598	93
458.818	80
459.038	78
459.258	77
459.478	74
459.698	95
459.918	97
460.138	104
460.358	114
460.578	121
460.798	111
461.018	91
461.238	109
461.458	121
461.678	114
461.898	106
462.118	100
462.338	118
462.558	120
462.777	117
462.997	99
463.217	121
463.437	115
463.657	112
463.876	103
464.096	92
464.316	88
464.536	104
464.755	121
464.975	119
465.195	102
465.414	105
465.634	108
465.854	113
466.073	117
466.293	120
466.512	135
466.732	130
466.951	129
467.171	120
467.391	137
467.61	128
467.829	145
468.049	118
468.268	133
468.488	138
468.707	136
468.927	123
469.146	126
469.365	130
469.585	117
469.804	137
470.023	126
470.243	151
470.462	155
470.681	140
470.901	133
471.12	133
471.339	139
471.558	141
471.777	120
471.997	107
472.216	116
472.435	97
472.654	109
472.873	101
473.092	113
473.311	117
473.53	131
473.749	118
473.968	128
474.187	119
474.406	113
474.625	122
474.844	121
475.063	122
475.282	119
475.501	111
475.72	102
475.939	129
476.158	130
476.377	114
476.596	105
476.814	111
477.033	115
477.252	118
477.471	124
477.69	138
477.908	117
478.127	132
478.346	122
478.564	137
478.783	139
479.002	134
479.22	140
479.439	111
479.658	115
479.876	112
480.095	118
480.313	109
480.532	125
480.751	96
480.969	101
481.188	100
481.406	78
481.624	65
481.843	80
482.061	90
482.28	106
482.498	117
482.717	101
482.935	119
483.153	126
483.372	134
483.59	145
483.808	139
484.027	147
484.245	133
484.463	150
484.681	147
484.9	143
485.118	142
485.336	130
485.554	116
485.772	99
485.99	101
486.209	106
486.427	125
486.645	117
486.863	137
487.081	130
487.299	135
487.517	145
487.735	172
487.953	177
488.171	181
488.389	169
488.607	145
488.825	129
489.043	141
489.261	136
489.479	129
489.696	130
489.914	156
490.132	135
490.35	140
490.568	153
490.786	165
491.003	165
491.221	190
491.439	186
491.657	167
491.874	185
492.092	191
492.31	234
492.527	218
492.745	202
492.963	192
493.18	181
493.398	187
493.615	177
493.833	161
494.05	168
494.268	165
494.485	167
494.703	159
494.92	169
495.138	150
495.355	155
495.573	185
495.79	171
496.008	173
496.225	149
496.442	164
496.66	156
496.877	167
497.094	166
497.312	152
497.529	172
497.746	155
497.963	144
498.181	138
498.398	129
498.615	126
498.832	117
499.049	102
499.267	119
499.484	136
499.701	120
499.918	135
500.135	147
500.352	128
500.569	124
500.786	140
501.003	138
501.22	122
501.437	131
501.654	120
501.871	122
502.088	121
502.305	128
502.522	133
502.739	123
502.956	126
503.172	131
503.389	113
503.606	117
503.823	119
504.04	117
504.256	120
504.473	120
504.69	112
504.907	122
505.123	122
505.34	122
505.557	107
505.773	113
505.99	118
506.207	119
506.423	117
506.64	112
506.856	121
507.073	115
507.289	128
507.506	121
507.722	107
507.939	110
508.155	121
508.372	117
508.588	111
508.805	113
509.021	102
509.238	104
509.454	105
509.67	87
509.887	107
510.103	100
510.319	92
510.536	78
510.752	90
510.968	87
511.184	81
511.401	75
511.617	74
511.833	83
512.049	79
512.265	89
512.481	90
512.698	94
512.914	90
513.13	97
513.346	87
513.562	84
513.778	88
513.994	99
514.21	98
514.426	94
514.642	89
514.858	98
515.074	89
515.29	86
515.506	75
515.721	75
515.937	90
516.153	82
516.369	85
516.585	92
516.801	93
517.016	78
517.232	94
517.448	95
517.664	90
517.879	85
518.095	81
518.311	96
518.527	99
518.742	93
518.958	98
519.173	97
519.389	115
519.605	114
519.82	128
520.036	101
520.251	97
520.467	96
520.682	90
520.898	101
521.113	95
521.329	77
521.544	83
521.76	90
521.975	101
522.19	102
522.406	93
522.621	98
522.836	113
523.052	101
523.267	103
523.482	109
523.698	91
523.913	109
524.128	92
524.343	109
524.559	118
524.774	109
524.989	118
525.204	112
525.419	114
525.634	109
525.849	99
526.064	116
526.28	103
526.495	77
526.71	78
526.925	63
527.14	98
527.355	76
527.57	72
527.785	90
527.999	88
528.214	95
528.429	97
528.644	117
528.859	148
529.074	138
529.289	154
529.503	147
529.718	136
529.933	123
530.148	78
530.363	86
530.577	80
530.792	75
531.007	80
531.221	85
531.436	83
531.651	79
531.865	69
532.08	88
532.295	83
532.509	87
532.724	91
532.938	82
533.153	89
533.367	105
533.582	112
533.796	113
534.011	113
534.225	87
534.44	89
534.654	81
534.868	78
535.083	73
535.297	99
535.511	108
535.726	104
535.94	117
536.154	97
536.369	94
536.583	86
536.797	78
537.011	86
537.225	90
537.44	76
537.654	93
537.868	93
538.082	83
538.296	97
538.51	124
538.724	110
538.938	111
539.153	134
539.367	118
539.581	102
539.795	110
540.009	103
540.222	90
540.436	99
540.65	118
540.864	111
541.078	122
541.292	142
541.506	159
541.72	157
541.934	187
542.147	183
542.361	178
542.575	154
542.789	147
543.002	125
543.216	120
543.43	118
543.644	118
543.857	137
544.071	153
544.285	174
544.498	157
544.712	151
544.925	139
545.139	151
545.352	149
545.566	143
545.779	157
545.993	154
546.206	147
546.42	160
546.633	171
546.847	168
547.06	165
547.274	157
547.487	159
547.7	174
547.914	169
548.127	157
548.34	154
548.554	145
548.767	147
548.98	148
549.193	141
549.407	163
549.62	142
549.833	131
550.046	158
550.259	141
550.473	143
550.686	155
550.899	143
551.112	138
551.325	143
551.538	144
551.751	125
551.964	111
552.177	125
552.39	121
552.603	147
552.816	133
553.029	145
553.242	165
553.455	143
553.667	147
553.88	138
554.093	145
554.306	157
554.519	140
554.732	151
554.944	147
555.157	143
555.37	148
555.583	136
555.795	154
556.008	129
556.221	137
556.433	137
556.646	148
556.859	129
557.071	119
557.284	134
557.496	139
557.709	125
557.921	135
558.134	144
558.346	127
558.559	135
558.771	131
558.984	115
559.196	130
559.409	133
559.621	135
559.833	113
560.046	121
560.258	121
560.47	131
560.683	122
560.895	126
561.107	129
561.32	121
561.532	139
561.744	125
561.956	130
562.168	133
562.381	125
562.593	134
562.805	127
563.017	126
563.229	117
563.441	128
563.653	119
563.865	131
564.077	113
564.289	123
564.501	115
564.713	119
564.925	123
565.137	123
565.349	114
565.561	122
565.773	134
565.985	120
566.197	106
566.408	106
566.62	116
566.832	122
567.044	113
567.255	119
567.467	114
567.679	116
567.891	94
568.102	93
568.314	104
568.526	109
568.737	89
568.949	86
569.161	69
569.372	69
569.584	97
569.795	85
570.007	90
570.218	95
570.43	84
570.641	93
570.853	102
571.064	102
571.276	95
571.487	101
571.698	92
571.91	89
572.121	96
572.333	105
572.544	93
572.755	110
572.966	79
573.178	86
573.389	95
573.6	84
573.811	78
574.023	79
574.234	88
574.445	94
574.656	93
574.867	81
575.078	87
575.289	100
575.501	95
575.712	86
575.923	74
576.134	104
576.345	96
576.556	81
576.767	104
576.978	95
577.188	104
577.399	86
577.61	86
577.821	95
