Data from Location4.07152019.Energy5.Lamp.07192019.3%Agarose_HRD10591_16-20-27-925.txt Node
Date: Fri Jul 19 16:20:27 EDT 2019
User: cochatt
Spectrometer: HR+D1059
Trigger mode: 1
Integration Time (sec): 1.000000E-1
Scans to average: 1
Electric dark correction enabled: true
Nonlinearity correction enabled: false
Boxcar width: 0
XAxis mode: Wavelengths
Number of Pixels in Spectrum: 2048
>>>>>Begin Spectral Data<<<<<
223.165	-10.62
223.4	-10.62
223.635	-10.62
223.869	-11.62
224.104	-21.62
224.338	-11.62
224.573	-5.62
224.808	-11.62
225.042	2.38
225.277	-14.62
225.511	-14.62
225.746	6.38
225.98	9.38
226.215	17.38
226.449	5.38
226.683	5.38
226.918	28.38
227.152	27.38
227.387	24.38
227.621	27.38
227.856	38.38
228.09	52.38
228.324	50.38
228.559	44.38
228.793	59.38
229.027	64.38
229.262	56.38
229.496	52.38
229.73	66.38
229.964	69.38
230.199	84.38
230.433	75.38
230.667	87.38
230.901	92.38
231.136	81.38
231.37	78.38
231.604	78.38
231.838	94.38
232.072	82.38
232.306	74.38
232.541	84.38
232.775	77.38
233.009	88.38
233.243	66.38
233.477	74.38
233.711	86.38
233.945	80.38
234.179	89.38
234.413	79.38
234.647	73.38
234.881	94.38
235.115	82.38
235.349	89.38
235.583	87.38
235.817	75.38
236.051	71.38
236.285	86.38
236.519	61.38
236.753	69.38
236.987	78.38
237.221	65.38
237.455	61.38
237.689	84.38
237.922	73.38
238.156	77.38
238.39	84.38
238.624	61.38
238.858	77.38
239.091	87.38
239.325	78.38
239.559	73.38
239.793	61.38
240.027	72.38
240.26	71.38
240.494	71.38
240.728	87.38
240.961	63.38
241.195	68.38
241.429	84.38
241.662	88.38
241.896	74.38
242.13	62.38
242.363	85.38
242.597	76.38
242.83	70.38
243.064	89.38
243.298	70.38
243.531	77.38
243.765	86.38
243.998	93.38
244.232	89.38
244.465	78.38
244.699	84.38
244.932	87.38
245.166	73.38
245.399	77.38
245.633	98.38
245.866	86.38
246.099	74.38
246.333	80.38
246.566	67.38
246.8	73.38
247.033	78.38
247.266	75.38
247.5	62.38
247.733	76.38
247.966	74.38
248.2	73.38
248.433	78.38
248.666	80.38
248.899	75.38
249.133	76.38
249.366	75.38
249.599	90.38
249.832	81.38
250.066	86.38
250.299	84.38
250.532	80.38
250.765	76.38
250.998	89.38
251.231	83.38
251.465	72.38
251.698	77.38
251.931	68.38
252.164	77.38
252.397	92.38
252.63	78.38
252.863	75.38
253.096	80.38
253.329	72.38
253.562	74.38
253.795	84.38
254.028	86.38
254.261	90.38
254.494	82.38
254.727	90.38
254.96	76.38
255.193	68.38
255.426	77.38
255.659	71.38
255.892	75.38
256.124	66.38
256.357	84.38
256.59	79.38
256.823	77.38
257.056	89.38
257.289	89.38
257.521	84.38
257.754	75.38
257.987	90.38
258.22	78.38
258.452	72.38
258.685	72.38
258.918	72.38
259.151	71.38
259.383	84.38
259.616	88.38
259.849	89.38
260.081	82.38
260.314	90.38
260.547	77.38
260.779	87.38
261.012	80.38
261.244	63.38
261.477	79.38
261.71	84.38
261.942	77.38
262.175	90.38
262.407	76.38
262.64	86.38
262.872	82.38
263.105	92.38
263.337	96.38
263.57	88.38
263.802	75.38
264.035	70.38
264.267	66.38
264.499	75.38
264.732	89.38
264.964	84.38
265.197	84.38
265.429	73.38
265.661	89.38
265.894	81.38
266.126	71.38
266.358	86.38
266.591	80.38
266.823	100.38
267.055	85.38
267.287	90.38
267.52	87.38
267.752	79.38
267.984	80.38
268.216	82.38
268.448	80.38
268.681	93.38
268.913	86.38
269.145	88.38
269.377	81.38
269.609	72.38
269.841	75.38
270.073	93.38
270.306	79.38
270.538	78.38
270.77	78.38
271.002	93.38
271.234	70.38
271.466	91.38
271.698	84.38
271.93	88.38
272.162	85.38
272.394	86.38
272.626	91.38
272.858	81.38
273.09	86.38
273.322	74.38
273.553	75.38
273.785	94.38
274.017	87.38
274.249	87.38
274.481	87.38
274.713	81.38
274.945	84.38
275.176	77.38
275.408	89.38
275.64	84.38
275.872	78.38
276.104	91.38
276.335	76.38
276.567	84.38
276.799	84.38
277.031	83.38
277.262	92.38
277.494	73.38
277.726	78.38
277.957	96.38
278.189	103.38
278.421	82.38
278.652	78.38
278.884	76.38
279.115	90.38
279.347	78.38
279.579	80.38
279.81	84.38
280.042	64.38
280.273	88.38
280.505	92.38
280.736	86.38
280.968	95.38
281.199	99.38
281.431	88.38
281.662	72.38
281.894	86.38
282.125	82.38
282.356	82.38
282.588	92.38
282.819	95.38
283.051	79.38
283.282	98.38
283.513	90.38
283.745	86.38
283.976	81.38
284.207	90.38
284.439	85.38
284.67	87.38
284.901	84.38
285.132	96.38
285.364	85.38
285.595	79.38
285.826	100.38
286.057	88.38
286.288	90.38
286.52	78.38
286.751	88.38
286.982	77.38
287.213	75.38
287.444	82.38
287.675	72.38
287.906	89.38
288.138	83.38
288.369	88.38
288.6	78.38
288.831	81.38
289.062	78.38
289.293	71.38
289.524	66.38
289.755	84.38
289.986	76.38
290.217	82.38
290.448	86.38
290.679	79.38
290.91	95.38
291.141	80.38
291.371	82.38
291.602	78.38
291.833	82.38
292.064	78.38
292.295	72.38
292.526	77.38
292.757	73.38
292.987	98.38
293.218	72.38
293.449	82.38
293.68	78.38
293.91	83.38
294.141	84.38
294.372	101.38
294.603	90.38
294.833	73.38
295.064	89.38
295.295	82.38
295.525	89.38
295.756	81.38
295.987	76.38
296.217	80.38
296.448	76.38
296.679	80.38
296.909	80.38
297.14	85.38
297.37	90.38
297.601	87.38
297.831	87.38
298.062	84.38
298.292	72.38
298.523	88.38
298.753	82.38
298.984	80.38
299.214	90.38
299.445	103.38
299.675	70.38
299.905	75.38
300.136	101.38
300.366	82.38
300.597	82.38
300.827	88.38
301.057	83.38
301.288	81.38
301.518	84.38
301.748	86.38
301.979	78.38
302.209	81.38
302.439	80.38
302.669	79.38
302.9	75.38
303.13	82.38
303.36	80.38
303.59	74.38
303.82	82.38
304.051	100.38
304.281	86.38
304.511	97.38
304.741	80.38
304.971	98.38
305.201	83.38
305.431	93.38
305.661	79.38
305.891	92.38
306.121	77.38
306.352	81.38
306.582	78.38
306.812	77.38
307.042	87.38
307.272	82.38
307.502	93.38
307.731	88.38
307.961	73.38
308.191	81.38
308.421	88.38
308.651	99.38
308.881	85.38
309.111	70.38
309.341	80.38
309.571	90.38
309.8	77.38
310.03	86.38
310.26	90.38
310.49	87.38
310.72	90.38
310.949	90.38
311.179	94.38
311.409	95.38
311.639	83.38
311.868	81.38
312.098	88.38
312.328	90.38
312.557	93.38
312.787	87.38
313.017	76.38
313.246	87.38
313.476	78.38
313.706	86.38
313.935	86.38
314.165	86.38
314.394	68.38
314.624	78.38
314.853	89.38
315.083	96.38
315.312	88.38
315.542	74.38
315.771	90.38
316.001	91.38
316.23	90.38
316.46	95.38
316.689	74.38
316.919	85.38
317.148	96.38
317.377	99.38
317.607	74.38
317.836	74.38
318.065	98.38
318.295	75.38
318.524	81.38
318.753	78.38
318.983	95.38
319.212	93.38
319.441	91.38
319.67	90.38
319.9	90.38
320.129	96.38
320.358	95.38
320.587	74.38
320.816	92.38
321.046	86.38
321.275	80.38
321.504	64.38
321.733	102.38
321.962	88.38
322.191	91.38
322.42	77.38
322.649	87.38
322.878	100.38
323.108	93.38
323.337	103.38
323.566	84.38
323.795	79.38
324.024	80.38
324.253	85.38
324.482	94.38
324.71	82.38
324.939	83.38
325.168	85.38
325.397	76.38
325.626	94.38
325.855	88.38
326.084	98.38
326.313	87.38
326.542	87.38
326.77	95.38
326.999	82.38
327.228	93.38
327.457	91.38
327.686	93.38
327.914	97.38
328.143	95.38
328.372	92.38
328.6	84.38
328.829	78.38
329.058	90.38
329.287	80.38
329.515	85.38
329.744	85.38
329.972	72.38
330.201	73.38
330.43	87.38
330.658	75.38
330.887	85.38
331.115	94.38
331.344	94.38
331.572	85.38
331.801	81.38
332.03	86.38
332.258	85.38
332.486	85.38
332.715	78.38
332.943	86.38
333.172	93.38
333.4	85.38
333.629	91.38
333.857	95.38
334.085	92.38
334.314	86.38
334.542	77.38
334.771	69.38
334.999	79.38
335.227	91.38
335.455	83.38
335.684	98.38
335.912	94.38
336.14	101.38
336.369	86.38
336.597	78.38
336.825	82.38
337.053	76.38
337.281	90.38
337.51	95.38
337.738	88.38
337.966	71.38
338.194	92.38
338.422	88.38
338.65	80.38
338.878	89.38
339.106	83.38
339.334	75.38
339.562	95.38
339.79	83.38
340.018	87.38
340.246	87.38
340.474	69.38
340.702	90.38
340.93	87.38
341.158	87.38
341.386	76.38
341.614	94.38
341.842	93.38
342.07	82.38
342.298	94.38
342.526	84.38
342.754	85.38
342.981	88.38
343.209	93.38
343.437	82.38
343.665	86.38
343.893	86.38
344.12	81.38
344.348	96.38
344.576	82.38
344.804	81.38
345.031	92.38
345.259	99.38
345.487	105.38
345.714	110.38
345.942	95.38
346.17	88.38
346.397	85.38
346.625	96.38
346.853	101.38
347.08	92.38
347.308	83.38
347.535	88.38
347.763	82.38
347.99	92.38
348.218	85.38
348.445	75.38
348.673	84.38
348.9	80.38
349.128	92.38
349.355	80.38
349.583	74.38
349.81	88.38
350.037	85.38
350.265	89.38
350.492	81.38
350.72	95.38
350.947	77.38
351.174	81.38
351.402	86.38
351.629	79.38
351.856	84.38
352.083	83.38
352.311	77.38
352.538	78.38
352.765	85.38
352.992	90.38
353.22	80.38
353.447	92.38
353.674	102.38
353.901	84.38
354.128	79.38
354.355	87.38
354.583	84.38
354.81	96.38
355.037	78.38
355.264	82.38
355.491	89.38
355.718	86.38
355.945	88.38
356.172	91.38
356.399	89.38
356.626	89.38
356.853	80.38
357.08	90.38
357.307	99.38
357.534	86.38
357.761	84.38
357.988	90.38
358.215	90.38
358.441	75.38
358.668	94.38
358.895	97.38
359.122	87.38
359.349	101.38
359.576	94.38
359.802	88.38
360.029	86.38
360.256	69.38
360.483	92.38
360.709	84.38
360.936	109.38
361.163	88.38
361.39	89.38
361.616	96.38
361.843	84.38
362.07	85.38
362.296	96.38
362.523	90.38
362.749	84.38
362.976	95.38
363.203	80.38
363.429	85.38
363.656	74.38
363.882	99.38
364.109	89.38
364.335	82.38
364.562	75.38
364.788	86.38
365.015	89.38
365.241	78.38
365.468	80.38
365.694	96.38
365.92	92.38
366.147	69.38
366.373	77.38
366.599	91.38
366.826	92.38
367.052	75.38
367.278	97.38
367.505	78.38
367.731	86.38
367.957	90.38
368.184	99.38
368.41	90.38
368.636	92.38
368.862	99.38
369.089	103.38
369.315	81.38
369.541	93.38
369.767	90.38
369.993	95.38
370.219	84.38
370.445	86.38
370.672	89.38
370.898	91.38
371.124	90.38
371.35	99.38
371.576	100.38
371.802	99.38
372.028	92.38
372.254	102.38
372.48	96.38
372.706	88.38
372.932	85.38
373.158	71.38
373.384	88.38
373.61	83.38
373.835	95.38
374.061	85.38
374.287	88.38
374.513	82.38
374.739	94.38
374.965	85.38
375.191	101.38
375.416	80.38
375.642	83.38
375.868	93.38
376.094	101.38
376.319	80.38
376.545	104.38
376.771	91.38
376.997	92.38
377.222	111.38
377.448	106.38
377.674	106.38
377.899	99.38
378.125	110.38
378.35	90.38
378.576	82.38
378.802	100.38
379.027	94.38
379.253	98.38
379.478	96.38
379.704	85.38
379.929	92.38
380.155	97.38
380.38	98.38
380.606	107.38
380.831	107.38
381.057	104.38
381.282	96.38
381.507	100.38
381.733	101.38
381.958	95.38
382.184	87.38
382.409	85.38
382.634	95.38
382.86	96.38
383.085	106.38
383.31	99.38
383.535	100.38
383.761	97.38
383.986	95.38
384.211	96.38
384.436	92.38
384.662	100.38
384.887	98.38
385.112	101.38
385.337	82.38
385.562	97.38
385.787	86.38
386.013	110.38
386.238	101.38
386.463	85.38
386.688	100.38
386.913	94.38
387.138	105.38
387.363	100.38
387.588	100.38
387.813	99.38
388.038	106.38
388.263	102.38
388.488	92.38
388.713	108.38
388.938	103.38
389.163	107.38
389.387	107.38
389.612	115.38
389.837	117.38
390.062	113.38
390.287	105.38
390.512	110.38
390.736	103.38
390.961	101.38
391.186	102.38
391.411	107.38
391.636	96.38
391.86	81.38
392.085	100.38
392.31	98.38
392.534	102.38
392.759	102.38
392.984	96.38
393.208	89.38
393.433	120.38
393.658	108.38
393.882	105.38
394.107	101.38
394.331	101.38
394.556	99.38
394.78	123.38
395.005	112.38
395.229	108.38
395.454	111.38
395.678	114.38
395.903	108.38
396.127	112.38
396.352	112.38
396.576	104.38
396.801	98.38
397.025	99.38
397.249	110.38
397.474	124.38
397.698	86.38
397.922	107.38
398.147	104.38
398.371	107.38
398.595	113.38
398.82	112.38
399.044	82.38
399.268	104.38
399.492	108.38
399.717	123.38
399.941	102.38
400.165	113.38
400.389	121.38
400.613	105.38
400.837	102.38
401.062	107.38
401.286	99.38
401.51	96.38
401.734	105.38
401.958	113.38
402.182	115.38
402.406	113.38
402.63	109.38
402.854	115.38
403.078	112.38
403.302	105.38
403.526	114.38
403.75	101.38
403.974	104.38
404.198	121.38
404.422	128.38
404.645	109.38
404.869	105.38
405.093	102.38
405.317	102.38
405.541	110.38
405.765	107.38
405.988	117.38
406.212	125.38
406.436	137.38
406.66	132.38
406.883	114.38
407.107	124.38
407.331	129.38
407.555	126.38
407.778	116.38
408.002	123.38
408.226	116.38
408.449	134.38
408.673	113.38
408.896	122.38
409.12	126.38
409.344	120.38
409.567	122.38
409.791	124.38
410.014	121.38
410.238	124.38
410.461	114.38
410.685	124.38
410.908	123.38
411.132	117.38
411.355	126.38
411.578	127.38
411.802	107.38
412.025	116.38
412.249	122.38
412.472	117.38
412.695	118.38
412.919	129.38
413.142	103.38
413.365	108.38
413.589	121.38
413.812	122.38
414.035	126.38
414.258	115.38
414.482	117.38
414.705	132.38
414.928	138.38
415.151	119.38
415.374	124.38
415.597	113.38
415.821	136.38
416.044	134.38
416.267	118.38
416.49	122.38
416.713	132.38
416.936	136.38
417.159	119.38
417.382	109.38
417.605	120.38
417.828	125.38
418.051	141.38
418.274	129.38
418.497	141.38
418.72	114.38
418.943	134.38
419.166	128.38
419.389	138.38
419.611	136.38
419.834	136.38
420.057	153.38
420.28	139.38
420.503	132.38
420.726	131.38
420.948	133.38
421.171	128.38
421.394	138.38
421.617	132.38
421.839	141.38
422.062	125.38
422.285	125.38
422.507	124.38
422.73	132.38
422.953	139.38
423.175	145.38
423.398	120.38
423.621	116.38
423.843	129.38
424.066	131.38
424.288	135.38
424.511	134.38
424.733	142.38
424.956	146.38
425.178	128.38
425.401	139.38
425.623	144.38
425.846	120.38
426.068	129.38
426.291	138.38
426.513	121.38
426.735	131.38
426.958	125.38
427.18	123.38
427.402	128.38
427.625	120.38
427.847	138.38
428.069	134.38
428.292	119.38
428.514	121.38
428.736	123.38
428.958	118.38
429.181	121.38
429.403	146.38
429.625	112.38
429.847	130.38
430.069	137.38
430.292	126.38
430.514	124.38
430.736	138.38
430.958	121.38
431.18	126.38
431.402	117.38
431.624	122.38
431.846	113.38
432.068	106.38
432.29	92.38
432.512	108.38
432.734	123.38
432.956	118.38
433.178	150.38
433.4	148.38
433.622	138.38
433.844	128.38
434.066	105.38
434.287	110.38
434.509	101.38
434.731	106.38
434.953	118.38
435.175	120.38
435.397	110.38
435.618	119.38
435.84	114.38
436.062	117.38
436.284	113.38
436.505	121.38
436.727	126.38
436.949	120.38
437.17	137.38
437.392	120.38
437.614	130.38
437.835	117.38
438.057	117.38
438.278	124.38
438.5	127.38
438.721	132.38
438.943	141.38
439.165	142.38
439.386	141.38
439.608	140.38
439.829	148.38
440.05	137.38
440.272	131.38
440.493	146.38
440.715	148.38
440.936	152.38
441.158	136.38
441.379	130.38
441.6	158.38
441.822	130.38
442.043	140.38
442.264	152.38
442.486	136.38
442.707	141.38
442.928	152.38
443.149	143.38
443.371	140.38
443.592	144.38
443.813	138.38
444.034	145.38
444.255	134.38
444.476	144.38
444.698	147.38
444.919	134.38
445.14	278.38
445.361	208.38
445.582	164.38
445.803	158.38
446.024	135.38
446.245	137.38
446.466	152.38
446.687	150.38
446.908	153.38
447.129	163.38
447.35	142.38
447.571	145.38
447.792	148.38
448.013	136.38
448.234	137.38
448.455	140.38
448.675	134.38
448.896	141.38
449.117	144.38
449.338	124.38
449.559	128.38
449.779	142.38
450	126.38
450.221	129.38
450.442	133.38
450.662	136.38
450.883	144.38
451.104	147.38
451.324	132.38
451.545	119.38
451.766	122.38
451.986	132.38
452.207	124.38
452.428	116.38
452.648	134.38
452.869	116.38
453.089	104.38
453.31	115.38
453.53	118.38
453.751	103.38
453.971	116.38
454.192	127.38
454.412	98.38
454.633	128.38
454.853	120.38
455.073	117.38
455.294	100.38
455.514	110.38
455.734	123.38
455.955	124.38
456.175	134.38
456.395	104.38
456.616	99.38
456.836	123.38
457.056	106.38
457.276	103.38
457.497	107.38
457.717	93.38
457.937	116.38
458.157	116.38
458.377	117.38
458.598	128.38
458.818	91.38
459.038	104.38
459.258	93.38
459.478	90.38
459.698	94.38
459.918	86.38
460.138	111.38
460.358	109.38
460.578	125.38
460.798	90.38
461.018	116.38
461.238	112.38
461.458	117.38
461.678	121.38
461.898	116.38
462.118	115.38
462.338	127.38
462.558	130.38
462.777	101.38
462.997	104.38
463.217	105.38
463.437	109.38
463.657	110.38
463.876	114.38
464.096	110.38
464.316	112.38
464.536	118.38
464.755	113.38
464.975	96.38
465.195	114.38
465.414	122.38
465.634	119.38
465.854	124.38
466.073	122.38
466.293	134.38
466.512	115.38
466.732	130.38
466.951	122.38
467.171	139.38
467.391	153.38
467.61	132.38
467.829	138.38
468.049	134.38
468.268	131.38
468.488	118.38
468.707	130.38
468.927	120.38
469.146	132.38
469.365	124.38
469.585	131.38
469.804	137.38
470.023	141.38
470.243	149.38
470.462	144.38
470.681	142.38
470.901	150.38
471.12	128.38
471.339	144.38
471.558	136.38
471.777	154.38
471.997	141.38
472.216	119.38
472.435	116.38
472.654	113.38
472.873	102.38
473.092	120.38
473.311	118.38
473.53	123.38
473.749	130.38
473.968	128.38
474.187	120.38
474.406	116.38
474.625	129.38
474.844	121.38
475.063	127.38
475.282	128.38
475.501	126.38
475.72	129.38
475.939	132.38
476.158	133.38
476.377	116.38
476.596	116.38
476.814	125.38
477.033	112.38
477.252	120.38
477.471	129.38
477.69	140.38
477.908	124.38
478.127	136.38
478.346	146.38
478.564	132.38
478.783	140.38
479.002	155.38
479.22	152.38
479.439	129.38
479.658	120.38
479.876	123.38
480.095	109.38
480.313	117.38
480.532	108.38
480.751	115.38
480.969	95.38
481.188	100.38
481.406	88.38
481.624	87.38
481.843	97.38
482.061	109.38
482.28	111.38
482.498	114.38
482.717	96.38
482.935	117.38
483.153	136.38
483.372	142.38
483.59	152.38
483.808	148.38
484.027	142.38
484.245	144.38
484.463	149.38
484.681	179.38
484.9	155.38
485.118	133.38
485.336	126.38
485.554	121.38
485.772	101.38
485.99	96.38
486.209	123.38
486.427	112.38
486.645	117.38
486.863	130.38
487.081	137.38
487.299	133.38
487.517	140.38
487.735	160.38
487.953	171.38
488.171	182.38
488.389	166.38
488.607	152.38
488.825	150.38
489.043	125.38
489.261	139.38
489.479	131.38
489.696	136.38
489.914	139.38
490.132	156.38
490.35	139.38
490.568	140.38
490.786	166.38
491.003	167.38
491.221	168.38
491.439	157.38
491.657	178.38
491.874	209.38
492.092	224.38
492.31	243.38
492.527	234.38
492.745	206.38
492.963	204.38
493.18	188.38
493.398	173.38
493.615	176.38
493.833	166.38
494.05	164.38
494.268	165.38
494.485	160.38
494.703	165.38
494.92	165.38
495.138	173.38
495.355	163.38
495.573	162.38
495.79	150.38
496.008	160.38
496.225	162.38
496.442	147.38
496.66	153.38
496.877	136.38
497.094	160.38
497.312	150.38
497.529	145.38
497.746	138.38
497.963	132.38
498.181	134.38
498.398	140.38
498.615	132.38
498.832	101.38
499.049	120.38
499.267	122.38
499.484	121.38
499.701	134.38
499.918	137.38
500.135	134.38
500.352	137.38
500.569	129.38
500.786	154.38
501.003	138.38
501.22	137.38
501.437	142.38
501.654	125.38
501.871	134.38
502.088	143.38
502.305	130.38
502.522	134.38
502.739	124.38
502.956	125.38
503.172	129.38
503.389	122.38
503.606	120.38
503.823	127.38
504.04	120.38
504.256	116.38
504.473	114.38
504.69	113.38
504.907	126.38
505.123	139.38
505.34	127.38
505.557	124.38
505.773	116.38
505.99	123.38
506.207	115.38
506.423	136.38
506.64	116.38
506.856	117.38
507.073	133.38
507.289	133.38
507.506	116.38
507.722	110.38
507.939	115.38
508.155	120.38
508.372	113.38
508.588	110.38
508.805	109.38
509.021	97.38
509.238	99.38
509.454	94.38
509.67	99.38
509.887	101.38
510.103	97.38
510.319	79.38
510.536	90.38
510.752	95.38
510.968	93.38
511.184	97.38
511.401	91.38
