Data from Location4.07152019.Energy5.Lamp.07192019.3%Agarose_HRD10591_16-19-01-932.txt Node
Date: Fri Jul 19 16:19:01 EDT 2019
User: cochatt
Spectrometer: HR+D1059
Trigger mode: 1
Integration Time (sec): 1.000000E-1
Scans to average: 1
Electric dark correction enabled: true
Nonlinearity correction enabled: false
Boxcar width: 0
XAxis mode: Wavelengths
Number of Pixels in Spectrum: 2048
>>>>>Begin Spectral Data<<<<<
223.165	-14.81
223.4	-14.81
223.635	-14.81
223.869	-13.81
224.104	-12.81
224.338	-13.81
224.573	-3.81
224.808	-11.81
225.042	-13.81
225.277	-7.81
225.511	-2.81
225.746	-11.81
225.98	11.19
226.215	26.19
226.449	4.19
226.683	16.19
226.918	21.19
227.152	28.19
227.387	29.19
227.621	48.19
227.856	31.19
228.09	58.19
228.324	56.19
228.559	53.19
228.793	70.19
229.027	72.19
229.262	69.19
229.496	61.19
229.73	68.19
229.964	59.19
230.199	79.19
230.433	84.19
230.667	75.19
230.901	78.19
231.136	78.19
231.37	74.19
231.604	90.19
231.838	82.19
232.072	84.19
232.306	66.19
232.541	88.19
232.775	78.19
233.009	81.19
233.243	83.19
233.477	80.19
233.711	81.19
233.945	73.19
234.179	78.19
234.413	86.19
234.647	85.19
234.881	74.19
235.115	88.19
235.349	84.19
235.583	88.19
235.817	86.19
236.051	65.19
236.285	73.19
236.519	69.19
236.753	76.19
236.987	71.19
237.221	78.19
237.455	74.19
237.689	90.19
237.922	83.19
238.156	68.19
238.39	67.19
238.624	84.19
238.858	80.19
239.091	86.19
239.325	74.19
239.559	75.19
239.793	58.19
240.027	93.19
240.26	87.19
240.494	66.19
240.728	73.19
240.961	59.19
241.195	82.19
241.429	80.19
241.662	67.19
241.896	74.19
242.13	68.19
242.363	66.19
242.597	75.19
242.83	78.19
243.064	78.19
243.298	85.19
243.531	67.19
243.765	76.19
243.998	85.19
244.232	76.19
244.465	70.19
244.699	68.19
244.932	69.19
245.166	66.19
245.399	82.19
245.633	69.19
245.866	69.19
246.099	92.19
246.333	84.19
246.566	90.19
246.8	88.19
247.033	76.19
247.266	71.19
247.5	75.19
247.733	79.19
247.966	72.19
248.2	91.19
248.433	84.19
248.666	73.19
248.899	78.19
249.133	66.19
249.366	66.19
249.599	84.19
249.832	85.19
250.066	86.19
250.299	77.19
250.532	62.19
250.765	78.19
250.998	82.19
251.231	68.19
251.465	75.19
251.698	81.19
251.931	78.19
252.164	86.19
252.397	77.19
252.63	67.19
252.863	76.19
253.096	77.19
253.329	78.19
253.562	91.19
253.795	87.19
254.028	78.19
254.261	84.19
254.494	93.19
254.727	86.19
254.96	96.19
255.193	67.19
255.426	81.19
255.659	90.19
255.892	75.19
256.124	73.19
256.357	79.19
256.59	68.19
256.823	83.19
257.056	92.19
257.289	76.19
257.521	87.19
257.754	94.19
257.987	89.19
258.22	82.19
258.452	96.19
258.685	82.19
258.918	78.19
259.151	72.19
259.383	89.19
259.616	76.19
259.849	83.19
260.081	70.19
260.314	74.19
260.547	70.19
260.779	78.19
261.012	89.19
261.244	89.19
261.477	84.19
261.71	83.19
261.942	89.19
262.175	78.19
262.407	79.19
262.64	87.19
262.872	85.19
263.105	71.19
263.337	82.19
263.57	101.19
263.802	82.19
264.035	85.19
264.267	73.19
264.499	75.19
264.732	84.19
264.964	84.19
265.197	60.19
265.429	88.19
265.661	86.19
265.894	72.19
266.126	76.19
266.358	74.19
266.591	74.19
266.823	80.19
267.055	81.19
267.287	64.19
267.52	70.19
267.752	72.19
267.984	85.19
268.216	85.19
268.448	76.19
268.681	88.19
268.913	82.19
269.145	89.19
269.377	76.19
269.609	84.19
269.841	76.19
270.073	83.19
270.306	78.19
270.538	92.19
270.77	88.19
271.002	81.19
271.234	76.19
271.466	95.19
271.698	81.19
271.93	76.19
272.162	67.19
272.394	83.19
272.626	82.19
272.858	93.19
273.09	86.19
273.322	79.19
273.553	82.19
273.785	90.19
274.017	78.19
274.249	92.19
274.481	78.19
274.713	82.19
274.945	81.19
275.176	84.19
275.408	91.19
275.64	83.19
275.872	93.19
276.104	81.19
276.335	85.19
276.567	73.19
276.799	90.19
277.031	87.19
277.262	85.19
277.494	75.19
277.726	92.19
277.957	83.19
278.189	98.19
278.421	90.19
278.652	67.19
278.884	71.19
279.115	77.19
279.347	89.19
279.579	78.19
279.81	88.19
280.042	79.19
280.273	85.19
280.505	61.19
280.736	82.19
280.968	92.19
281.199	82.19
281.431	91.19
281.662	82.19
281.894	73.19
282.125	78.19
282.356	73.19
282.588	87.19
282.819	88.19
283.051	83.19
283.282	85.19
283.513	86.19
283.745	78.19
283.976	88.19
284.207	81.19
284.439	81.19
284.67	84.19
284.901	89.19
285.132	80.19
285.364	83.19
285.595	85.19
285.826	96.19
286.057	73.19
286.288	92.19
286.52	97.19
286.751	89.19
286.982	112.19
287.213	68.19
287.444	88.19
287.675	80.19
287.906	90.19
288.138	85.19
288.369	85.19
288.6	84.19
288.831	89.19
289.062	100.19
289.293	82.19
289.524	89.19
289.755	85.19
289.986	74.19
290.217	82.19
290.448	73.19
290.679	84.19
290.91	94.19
291.141	80.19
291.371	84.19
291.602	91.19
291.833	73.19
292.064	83.19
292.295	85.19
292.526	59.19
292.757	88.19
292.987	79.19
293.218	85.19
293.449	85.19
293.68	87.19
293.91	93.19
294.141	91.19
294.372	79.19
294.603	78.19
294.833	86.19
295.064	85.19
295.295	91.19
295.525	77.19
295.756	72.19
295.987	82.19
296.217	90.19
296.448	70.19
296.679	82.19
296.909	73.19
297.14	85.19
297.37	73.19
297.601	76.19
297.831	76.19
298.062	78.19
298.292	84.19
298.523	87.19
298.753	89.19
298.984	77.19
299.214	97.19
299.445	96.19
299.675	76.19
299.905	84.19
300.136	74.19
300.366	95.19
300.597	88.19
300.827	83.19
301.057	89.19
301.288	77.19
301.518	83.19
301.748	85.19
301.979	78.19
302.209	86.19
302.439	80.19
302.669	90.19
302.9	74.19
303.13	87.19
303.36	97.19
303.59	89.19
303.82	80.19
304.051	81.19
304.281	94.19
304.511	87.19
304.741	89.19
304.971	82.19
305.201	88.19
305.431	91.19
305.661	82.19
305.891	95.19
306.121	100.19
306.352	88.19
306.582	92.19
306.812	70.19
307.042	80.19
307.272	71.19
307.502	81.19
307.731	93.19
307.961	81.19
308.191	85.19
308.421	82.19
308.651	76.19
308.881	89.19
309.111	68.19
309.341	82.19
309.571	85.19
309.8	94.19
310.03	87.19
310.26	101.19
310.49	97.19
310.72	92.19
310.949	85.19
311.179	90.19
311.409	78.19
311.639	95.19
311.868	91.19
312.098	82.19
312.328	95.19
312.557	81.19
312.787	87.19
313.017	85.19
313.246	99.19
313.476	91.19
313.706	81.19
313.935	99.19
314.165	73.19
314.394	88.19
314.624	98.19
314.853	93.19
315.083	77.19
315.312	91.19
315.542	72.19
315.771	91.19
316.001	89.19
316.23	81.19
316.46	92.19
316.689	83.19
316.919	96.19
317.148	83.19
317.377	89.19
317.607	72.19
317.836	85.19
318.065	97.19
318.295	83.19
318.524	92.19
318.753	85.19
318.983	86.19
319.212	78.19
319.441	81.19
319.67	75.19
319.9	95.19
320.129	78.19
320.358	93.19
320.587	82.19
320.816	86.19
321.046	78.19
321.275	84.19
321.504	82.19
321.733	86.19
321.962	74.19
322.191	84.19
322.42	84.19
322.649	85.19
322.878	85.19
323.108	86.19
323.337	87.19
323.566	88.19
323.795	96.19
324.024	96.19
324.253	64.19
324.482	72.19
324.71	81.19
324.939	88.19
325.168	87.19
325.397	77.19
325.626	84.19
325.855	77.19
326.084	90.19
326.313	80.19
326.542	94.19
326.77	75.19
326.999	88.19
327.228	91.19
327.457	92.19
327.686	94.19
327.914	94.19
328.143	86.19
328.372	78.19
328.6	82.19
328.829	79.19
329.058	90.19
329.287	85.19
329.515	79.19
329.744	82.19
329.972	72.19
330.201	97.19
330.43	90.19
330.658	92.19
330.887	79.19
331.115	92.19
331.344	95.19
331.572	94.19
331.801	82.19
332.03	77.19
332.258	75.19
332.486	74.19
332.715	78.19
332.943	79.19
333.172	96.19
333.4	83.19
333.629	95.19
333.857	84.19
334.085	87.19
334.314	81.19
334.542	82.19
334.771	83.19
334.999	82.19
335.227	72.19
335.455	77.19
335.684	89.19
335.912	82.19
336.14	85.19
336.369	87.19
336.597	75.19
336.825	92.19
337.053	78.19
337.281	74.19
337.51	89.19
337.738	70.19
337.966	79.19
338.194	80.19
338.422	95.19
338.65	82.19
338.878	81.19
339.106	93.19
339.334	88.19
339.562	91.19
339.79	94.19
340.018	74.19
340.246	79.19
340.474	89.19
340.702	82.19
340.93	83.19
341.158	82.19
341.386	76.19
341.614	84.19
341.842	73.19
342.07	87.19
342.298	85.19
342.526	80.19
342.754	91.19
342.981	78.19
343.209	83.19
343.437	93.19
343.665	86.19
343.893	71.19
344.12	90.19
344.348	87.19
344.576	81.19
344.804	80.19
345.031	81.19
345.259	83.19
345.487	98.19
345.714	82.19
345.942	72.19
346.17	90.19
346.397	84.19
346.625	72.19
346.853	89.19
347.08	87.19
347.308	79.19
347.535	93.19
347.763	85.19
347.99	80.19
348.218	77.19
348.445	80.19
348.673	81.19
348.9	93.19
349.128	71.19
349.355	87.19
349.583	85.19
349.81	70.19
350.037	72.19
350.265	100.19
350.492	88.19
350.72	88.19
350.947	69.19
351.174	70.19
351.402	98.19
351.629	69.19
351.856	71.19
352.083	74.19
352.311	82.19
352.538	87.19
352.765	86.19
352.992	89.19
353.22	87.19
353.447	96.19
353.674	82.19
353.901	71.19
354.128	76.19
354.355	79.19
354.583	93.19
354.81	76.19
355.037	79.19
355.264	76.19
355.491	93.19
355.718	91.19
355.945	78.19
356.172	84.19
356.399	68.19
356.626	86.19
356.853	80.19
357.08	80.19
357.307	95.19
357.534	84.19
357.761	79.19
357.988	78.19
358.215	78.19
358.441	90.19
358.668	85.19
358.895	81.19
359.122	94.19
359.349	86.19
359.576	81.19
359.802	70.19
360.029	82.19
360.256	88.19
360.483	96.19
360.709	82.19
360.936	87.19
361.163	87.19
361.39	84.19
361.616	86.19
361.843	76.19
362.07	97.19
362.296	85.19
362.523	81.19
362.749	103.19
362.976	68.19
363.203	88.19
363.429	90.19
363.656	96.19
363.882	83.19
364.109	86.19
364.335	90.19
364.562	84.19
364.788	77.19
365.015	89.19
365.241	85.19
365.468	90.19
365.694	81.19
365.92	81.19
366.147	86.19
366.373	85.19
366.599	75.19
366.826	97.19
367.052	80.19
367.278	71.19
367.505	98.19
367.731	89.19
367.957	96.19
368.184	87.19
368.41	69.19
368.636	88.19
368.862	90.19
369.089	80.19
369.315	91.19
369.541	91.19
369.767	95.19
369.993	77.19
370.219	83.19
370.445	86.19
370.672	77.19
370.898	91.19
371.124	82.19
371.35	81.19
371.576	84.19
371.802	94.19
372.028	101.19
372.254	92.19
372.48	89.19
372.706	89.19
372.932	87.19
373.158	89.19
373.384	94.19
373.61	87.19
373.835	100.19
374.061	93.19
374.287	99.19
374.513	99.19
374.739	91.19
374.965	85.19
375.191	94.19
375.416	99.19
375.642	91.19
375.868	101.19
376.094	88.19
376.319	96.19
376.545	84.19
376.771	84.19
376.997	103.19
377.222	100.19
377.448	94.19
377.674	89.19
377.899	100.19
378.125	89.19
378.35	90.19
378.576	104.19
378.802	84.19
379.027	94.19
379.253	99.19
379.478	94.19
379.704	99.19
379.929	99.19
380.155	103.19
380.38	85.19
380.606	80.19
380.831	92.19
381.057	99.19
381.282	94.19
381.507	98.19
381.733	89.19
381.958	89.19
382.184	85.19
382.409	98.19
382.634	81.19
382.86	94.19
383.085	105.19
383.31	88.19
383.535	88.19
383.761	95.19
383.986	99.19
384.211	82.19
384.436	98.19
384.662	96.19
384.887	91.19
385.112	93.19
385.337	91.19
385.562	92.19
385.787	109.19
386.013	105.19
386.238	111.19
386.463	84.19
386.688	102.19
386.913	94.19
387.138	108.19
387.363	94.19
387.588	107.19
387.813	107.19
388.038	92.19
388.263	96.19
388.488	78.19
388.713	106.19
388.938	96.19
389.163	92.19
389.387	103.19
389.612	103.19
389.837	91.19
390.062	102.19
390.287	88.19
390.512	104.19
390.736	89.19
390.961	99.19
391.186	101.19
391.411	92.19
391.636	98.19
391.86	98.19
392.085	105.19
392.31	111.19
392.534	114.19
392.759	94.19
392.984	90.19
393.208	105.19
393.433	105.19
393.658	102.19
393.882	124.19
394.107	109.19
394.331	101.19
394.556	91.19
394.78	109.19
395.005	99.19
395.229	120.19
395.454	116.19
395.678	114.19
395.903	107.19
396.127	104.19
396.352	102.19
396.576	109.19
396.801	93.19
397.025	94.19
397.249	99.19
397.474	125.19
397.698	107.19
397.922	98.19
398.147	105.19
398.371	105.19
398.595	104.19
398.82	89.19
399.044	109.19
399.268	118.19
399.492	106.19
399.717	129.19
399.941	104.19
400.165	102.19
400.389	106.19
400.613	113.19
400.837	120.19
401.062	117.19
401.286	102.19
401.51	110.19
401.734	98.19
401.958	97.19
402.182	103.19
402.406	116.19
402.63	108.19
402.854	118.19
403.078	108.19
403.302	105.19
403.526	126.19
403.75	122.19
403.974	128.19
404.198	116.19
404.422	107.19
404.645	107.19
404.869	116.19
405.093	120.19
405.317	114.19
405.541	122.19
405.765	116.19
405.988	121.19
406.212	113.19
406.436	106.19
406.66	115.19
406.883	110.19
407.107	115.19
407.331	116.19
407.555	111.19
407.778	118.19
408.002	114.19
408.226	122.19
408.449	126.19
408.673	123.19
408.896	121.19
409.12	115.19
409.344	109.19
409.567	121.19
409.791	124.19
410.014	130.19
410.238	117.19
410.461	122.19
410.685	114.19
410.908	115.19
411.132	114.19
411.355	123.19
411.578	120.19
411.802	133.19
412.025	128.19
412.249	126.19
412.472	114.19
412.695	114.19
412.919	121.19
413.142	118.19
413.365	128.19
413.589	112.19
413.812	120.19
414.035	126.19
414.258	113.19
414.482	121.19
414.705	119.19
414.928	112.19
415.151	118.19
415.374	127.19
415.597	126.19
415.821	126.19
416.044	135.19
416.267	113.19
416.49	120.19
416.713	118.19
416.936	116.19
417.159	125.19
417.382	123.19
417.605	110.19
417.828	125.19
418.051	126.19
418.274	131.19
418.497	146.19
418.72	111.19
418.943	124.19
419.166	130.19
419.389	123.19
419.611	136.19
419.834	127.19
420.057	137.19
420.28	126.19
420.503	125.19
420.726	129.19
420.948	123.19
421.171	141.19
421.394	130.19
421.617	148.19
421.839	136.19
422.062	134.19
422.285	153.19
422.507	120.19
422.73	126.19
422.953	128.19
423.175	130.19
423.398	134.19
423.621	132.19
423.843	138.19
424.066	124.19
424.288	152.19
424.511	148.19
424.733	148.19
424.956	140.19
425.178	130.19
425.401	123.19
425.623	124.19
425.846	132.19
426.068	137.19
426.291	124.19
426.513	124.19
426.735	142.19
426.958	122.19
427.18	137.19
427.402	120.19
427.625	124.19
427.847	122.19
428.069	126.19
428.292	122.19
428.514	127.19
428.736	114.19
428.958	108.19
429.181	128.19
429.403	123.19
429.625	120.19
429.847	138.19
430.069	124.19
430.292	125.19
430.514	128.19
430.736	125.19
430.958	137.19
431.18	115.19
431.402	132.19
431.624	116.19
431.846	111.19
432.068	88.19
432.29	89.19
432.512	109.19
432.734	125.19
432.956	123.19
433.178	122.19
433.4	140.19
433.622	136.19
433.844	135.19
434.066	130.19
434.287	107.19
434.509	96.19
434.731	98.19
434.953	136.19
435.175	122.19
435.397	126.19
435.618	125.19
435.84	110.19
436.062	104.19
436.284	130.19
436.505	124.19
436.727	126.19
436.949	135.19
437.17	126.19
437.392	109.19
437.614	134.19
437.835	114.19
438.057	100.19
438.278	118.19
438.5	121.19
438.721	128.19
438.943	127.19
439.165	134.19
439.386	130.19
439.608	147.19
439.829	134.19
440.05	140.19
440.272	146.19
440.493	137.19
440.715	140.19
440.936	157.19
441.158	133.19
441.379	146.19
441.6	155.19
441.822	144.19
442.043	143.19
442.264	148.19
442.486	150.19
442.707	154.19
442.928	156.19
443.149	156.19
443.371	153.19
443.592	148.19
443.813	146.19
444.034	138.19
444.255	139.19
444.476	130.19
444.698	134.19
444.919	143.19
445.14	260.19
445.361	208.19
445.582	148.19
445.803	136.19
446.024	152.19
446.245	131.19
446.466	148.19
446.687	152.19
446.908	170.19
447.129	146.19
447.35	153.19
447.571	153.19
447.792	147.19
448.013	141.19
448.234	135.19
448.455	142.19
448.675	145.19
448.896	149.19
449.117	130.19
449.338	125.19
449.559	133.19
449.779	144.19
450	144.19
450.221	129.19
450.442	144.19
450.662	132.19
450.883	129.19
451.104	129.19
451.324	124.19
451.545	130.19
451.766	128.19
451.986	125.19
452.207	128.19
452.428	128.19
452.648	124.19
452.869	122.19
453.089	112.19
453.31	106.19
453.53	105.19
453.751	107.19
453.971	106.19
454.192	108.19
454.412	118.19
454.633	124.19
454.853	115.19
455.073	108.19
455.294	126.19
455.514	126.19
455.734	96.19
455.955	128.19
456.175	115.19
456.395	92.19
456.616	114.19
456.836	106.19
457.056	101.19
457.276	125.19
457.497	105.19
457.717	121.19
457.937	114.19
458.157	109.19
458.377	105.19
458.598	107.19
458.818	94.19
459.038	102.19
459.258	90.19
459.478	88.19
459.698	97.19
459.918	93.19
460.138	104.19
460.358	108.19
460.578	119.19
460.798	118.19
461.018	112.19
461.238	122.19
461.458	117.19
461.678	116.19
461.898	108.19
462.118	110.19
462.338	121.19
462.558	119.19
462.777	108.19
462.997	102.19
463.217	108.19
463.437	110.19
463.657	100.19
463.876	86.19
464.096	110.19
464.316	107.19
464.536	110.19
464.755	116.19
464.975	112.19
465.195	106.19
465.414	123.19
465.634	107.19
465.854	118.19
466.073	118.19
466.293	135.19
466.512	136.19
466.732	132.19
466.951	133.19
467.171	134.19
467.391	133.19
467.61	125.19
467.829	133.19
468.049	130.19
468.268	142.19
468.488	131.19
468.707	123.19
468.927	138.19
469.146	136.19
469.365	151.19
469.585	150.19
469.804	140.19
470.023	142.19
470.243	132.19
470.462	147.19
470.681	142.19
470.901	144.19
471.12	136.19
471.339	139.19
471.558	146.19
471.777	143.19
471.997	148.19
472.216	137.19
472.435	130.19
472.654	123.19
472.873	126.19
473.092	121.19
473.311	97.19
473.53	104.19
473.749	135.19
473.968	133.19
474.187	125.19
474.406	115.19
474.625	135.19
474.844	125.19
475.063	130.19
475.282	130.19
475.501	113.19
475.72	136.19
475.939	118.19
476.158	113.19
476.377	120.19
476.596	119.19
476.814	121.19
477.033	112.19
477.252	120.19
477.471	117.19
477.69	132.19
477.908	123.19
478.127	139.19
478.346	157.19
478.564	134.19
478.783	138.19
479.002	146.19
479.22	139.19
479.439	137.19
479.658	101.19
479.876	117.19
480.095	106.19
480.313	106.19
480.532	112.19
480.751	116.19
480.969	91.19
481.188	95.19
481.406	101.19
481.624	90.19
481.843	98.19
482.061	98.19
482.28	101.19
482.498	109.19
482.717	99.19
482.935	137.19
483.153	140.19
483.372	140.19
483.59	147.19
483.808	144.19
484.027	128.19
484.245	136.19
484.463	155.19
484.681	153.19
484.9	140.19
485.118	121.19
485.336	134.19
485.554	116.19
485.772	108.19
485.99	93.19
486.209	101.19
486.427	95.19
486.645	119.19
486.863	132.19
487.081	136.19
487.299	134.19
487.517	140.19
487.735	162.19
487.953	179.19
488.171	169.19
488.389	165.19
488.607	162.19
488.825	145.19
489.043	133.19
489.261	132.19
489.479	133.19
489.696	141.19
489.914	150.19
490.132	143.19
490.35	147.19
490.568	165.19
490.786	166.19
491.003	167.19
491.221	166.19
491.439	175.19
491.657	173.19
491.874	190.19
492.092	211.19
492.31	246.19
492.527	222.19
492.745	196.19
492.963	195.19
493.18	176.19
493.398	177.19
493.615	164.19
493.833	178.19
494.05	185.19
494.268	170.19
494.485	167.19
494.703	148.19
494.92	172.19
495.138	158.19
495.355	170.19
495.573	178.19
495.79	148.19
496.008	170.19
496.225	180.19
496.442	158.19
496.66	166.19
496.877	161.19
497.094	184.19
497.312	154.19
497.529	149.19
497.746	156.19
497.963	146.19
498.181	126.19
498.398	116.19
498.615	122.19
498.832	104.19
499.049	112.19
499.267	113.19
499.484	122.19
499.701	123.19
499.918	132.19
500.135	140.19
500.352	153.19
500.569	142.19
500.786	131.19
501.003	146.19
501.22	137.19
501.437	120.19
501.654	121.19
501.871	125.19
502.088	141.19
502.305	132.19
502.522	112.19
502.739	137.19
502.956	124.19
503.172	118.19
503.389	124.19
503.606	122.19
503.823	122.19
504.04	121.19
504.256	123.19
504.473	118.19
504.69	112.19
504.907	123.19
505.123	130.19
505.34	133.19
505.557	123.19
505.773	122.19
505.99	114.19
506.207	113.19
506.423	121.19
506.64	127.19
506.856	126.19
507.073	125.19
507.289	113.19
507.506	126.19
507.722	126.19
507.939	129.19
508.155	125.19
508.372	99.19
508.588	121.19
508.805	115.19
509.021	118.19
509.238	101.19
509.454	113.19
509.67	88.19
509.887	96.19
510.103	98.19
510.319	101.19
510.536	103.19
510.752	94.19
510.968	82.19
511.184	84.19
511.401	92.19
511.617	86.19
511.833	86.19
