Data from Location4.07152019.Energy5.Lamp.07192019.3%Agarose_HRD10591_16-18-22-928.txt Node
Date: Fri Jul 19 16:18:22 EDT 2019
User: cochatt
Spectrometer: HR+D1059
Trigger mode: 1
Integration Time (sec): 1.000000E-1
Scans to average: 1
Electric dark correction enabled: true
Nonlinearity correction enabled: false
Boxcar width: 0
XAxis mode: Wavelengths
Number of Pixels in Spectrum: 2048
>>>>>Begin Spectral Data<<<<<
223.165	-27.06
223.4	-27.06
223.635	-27.06
223.869	-15.06
224.104	-27.06
224.338	-23.06
224.573	-5.06
224.808	-3.06
225.042	-11.06
225.277	-11.06
225.511	-4.06
225.746	-0.06
225.98	8.94
226.215	12.94
226.449	18.94
226.683	24.94
226.918	19.94
227.152	40.94
227.387	38.94
227.621	49.94
227.856	54.94
228.09	37.94
228.324	45.94
228.559	66.94
228.793	49.94
229.027	61.94
229.262	54.94
229.496	58.94
229.73	62.94
229.964	81.94
230.199	77.94
230.433	95.94
230.667	80.94
230.901	72.94
231.136	79.94
231.37	74.94
231.604	75.94
231.838	77.94
232.072	85.94
232.306	75.94
232.541	90.94
232.775	82.94
233.009	83.94
233.243	82.94
233.477	78.94
233.711	94.94
233.945	94.94
234.179	72.94
234.413	72.94
234.647	91.94
234.881	77.94
235.115	83.94
235.349	107.94
235.583	84.94
235.817	61.94
236.051	76.94
236.285	88.94
236.519	82.94
236.753	70.94
236.987	69.94
237.221	76.94
237.455	89.94
237.689	70.94
237.922	70.94
238.156	85.94
238.39	88.94
238.624	66.94
238.858	75.94
239.091	82.94
239.325	86.94
239.559	82.94
239.793	70.94
240.027	85.94
240.26	78.94
240.494	84.94
240.728	83.94
240.961	62.94
241.195	68.94
241.429	83.94
241.662	60.94
241.896	80.94
242.13	80.94
242.363	62.94
242.597	75.94
242.83	78.94
243.064	70.94
243.298	78.94
243.531	74.94
243.765	89.94
243.998	81.94
244.232	89.94
244.465	83.94
244.699	83.94
244.932	84.94
245.166	74.94
245.399	74.94
245.633	79.94
245.866	64.94
246.099	68.94
246.333	76.94
246.566	73.94
246.8	78.94
247.033	81.94
247.266	67.94
247.5	88.94
247.733	63.94
247.966	68.94
248.2	73.94
248.433	78.94
248.666	88.94
248.899	81.94
249.133	68.94
249.366	82.94
249.599	78.94
249.832	94.94
250.066	78.94
250.299	88.94
250.532	77.94
250.765	73.94
250.998	74.94
251.231	74.94
251.465	73.94
251.698	81.94
251.931	86.94
252.164	76.94
252.397	84.94
252.63	92.94
252.863	72.94
253.096	88.94
253.329	85.94
253.562	77.94
253.795	84.94
254.028	78.94
254.261	73.94
254.494	87.94
254.727	91.94
254.96	84.94
255.193	67.94
255.426	84.94
255.659	79.94
255.892	76.94
256.124	81.94
256.357	74.94
256.59	67.94
256.823	73.94
257.056	73.94
257.289	73.94
257.521	75.94
257.754	73.94
257.987	74.94
258.22	86.94
258.452	81.94
258.685	82.94
258.918	82.94
259.151	90.94
259.383	88.94
259.616	89.94
259.849	94.94
260.081	92.94
260.314	92.94
260.547	77.94
260.779	71.94
261.012	85.94
261.244	64.94
261.477	90.94
261.71	77.94
261.942	88.94
262.175	84.94
262.407	77.94
262.64	73.94
262.872	72.94
263.105	84.94
263.337	90.94
263.57	88.94
263.802	75.94
264.035	97.94
264.267	87.94
264.499	80.94
264.732	76.94
264.964	81.94
265.197	82.94
265.429	80.94
265.661	94.94
265.894	90.94
266.126	76.94
266.358	80.94
266.591	89.94
266.823	73.94
267.055	89.94
267.287	92.94
267.52	73.94
267.752	76.94
267.984	83.94
268.216	96.94
268.448	86.94
268.681	77.94
268.913	90.94
269.145	80.94
269.377	81.94
269.609	77.94
269.841	91.94
270.073	80.94
270.306	77.94
270.538	89.94
270.77	80.94
271.002	83.94
271.234	88.94
271.466	84.94
271.698	93.94
271.93	88.94
272.162	82.94
272.394	88.94
272.626	79.94
272.858	84.94
273.09	77.94
273.322	92.94
273.553	72.94
273.785	78.94
274.017	88.94
274.249	85.94
274.481	82.94
274.713	77.94
274.945	90.94
275.176	86.94
275.408	94.94
275.64	79.94
275.872	85.94
276.104	78.94
276.335	77.94
276.567	92.94
276.799	86.94
277.031	75.94
277.262	96.94
277.494	90.94
277.726	89.94
277.957	91.94
278.189	71.94
278.421	81.94
278.652	78.94
278.884	83.94
279.115	82.94
279.347	85.94
279.579	85.94
279.81	88.94
280.042	93.94
280.273	69.94
280.505	83.94
280.736	92.94
280.968	85.94
281.199	93.94
281.431	93.94
281.662	92.94
281.894	76.94
282.125	75.94
282.356	76.94
282.588	83.94
282.819	87.94
283.051	92.94
283.282	88.94
283.513	76.94
283.745	82.94
283.976	85.94
284.207	79.94
284.439	85.94
284.67	79.94
284.901	78.94
285.132	89.94
285.364	88.94
285.595	92.94
285.826	79.94
286.057	97.94
286.288	88.94
286.52	86.94
286.751	101.94
286.982	81.94
287.213	98.94
287.444	73.94
287.675	88.94
287.906	82.94
288.138	83.94
288.369	74.94
288.6	96.94
288.831	78.94
289.062	90.94
289.293	80.94
289.524	77.94
289.755	80.94
289.986	92.94
290.217	97.94
290.448	72.94
290.679	86.94
290.91	79.94
291.141	97.94
291.371	90.94
291.602	78.94
291.833	92.94
292.064	74.94
292.295	85.94
292.526	101.94
292.757	73.94
292.987	86.94
293.218	80.94
293.449	81.94
293.68	80.94
293.91	81.94
294.141	81.94
294.372	82.94
294.603	93.94
294.833	97.94
295.064	90.94
295.295	88.94
295.525	84.94
295.756	86.94
295.987	96.94
296.217	83.94
296.448	84.94
296.679	87.94
296.909	81.94
297.14	100.94
297.37	85.94
297.601	92.94
297.831	90.94
298.062	77.94
298.292	67.94
298.523	76.94
298.753	88.94
298.984	77.94
299.214	87.94
299.445	78.94
299.675	76.94
299.905	90.94
300.136	80.94
300.366	96.94
300.597	89.94
300.827	78.94
301.057	75.94
301.288	85.94
301.518	86.94
301.748	85.94
301.979	78.94
302.209	83.94
302.439	76.94
302.669	85.94
302.9	80.94
303.13	81.94
303.36	75.94
303.59	82.94
303.82	78.94
304.051	105.94
304.281	83.94
304.511	88.94
304.741	78.94
304.971	89.94
305.201	89.94
305.431	88.94
305.661	93.94
305.891	91.94
306.121	90.94
306.352	84.94
306.582	84.94
306.812	95.94
307.042	83.94
307.272	82.94
307.502	70.94
307.731	78.94
307.961	82.94
308.191	85.94
308.421	86.94
308.651	79.94
308.881	84.94
309.111	84.94
309.341	83.94
309.571	89.94
309.8	83.94
310.03	93.94
310.26	85.94
310.49	86.94
310.72	84.94
310.949	81.94
311.179	80.94
311.409	83.94
311.639	80.94
311.868	83.94
312.098	89.94
312.328	77.94
312.557	89.94
312.787	86.94
313.017	96.94
313.246	74.94
313.476	86.94
313.706	78.94
313.935	96.94
314.165	105.94
314.394	86.94
314.624	75.94
314.853	88.94
315.083	82.94
315.312	89.94
315.542	81.94
315.771	74.94
316.001	96.94
316.23	88.94
316.46	88.94
316.689	96.94
316.919	81.94
317.148	77.94
317.377	74.94
317.607	91.94
317.836	98.94
318.065	80.94
318.295	82.94
318.524	82.94
318.753	87.94
318.983	92.94
319.212	93.94
319.441	84.94
319.67	64.94
319.9	92.94
320.129	86.94
320.358	89.94
320.587	74.94
320.816	82.94
321.046	91.94
321.275	97.94
321.504	99.94
321.733	90.94
321.962	90.94
322.191	77.94
322.42	70.94
322.649	76.94
322.878	82.94
323.108	95.94
323.337	77.94
323.566	83.94
323.795	87.94
324.024	87.94
324.253	97.94
324.482	87.94
324.71	82.94
324.939	88.94
325.168	80.94
325.397	78.94
325.626	76.94
325.855	76.94
326.084	86.94
326.313	97.94
326.542	81.94
326.77	91.94
326.999	89.94
327.228	84.94
327.457	88.94
327.686	88.94
327.914	84.94
328.143	104.94
328.372	91.94
328.6	94.94
328.829	74.94
329.058	83.94
329.287	92.94
329.515	99.94
329.744	92.94
329.972	80.94
330.201	92.94
330.43	91.94
330.658	92.94
330.887	90.94
331.115	85.94
331.344	65.94
331.572	83.94
331.801	91.94
332.03	86.94
332.258	89.94
332.486	77.94
332.715	73.94
332.943	87.94
333.172	70.94
333.4	78.94
333.629	89.94
333.857	82.94
334.085	82.94
334.314	87.94
334.542	82.94
334.771	77.94
334.999	91.94
335.227	92.94
335.455	78.94
335.684	88.94
335.912	98.94
336.14	91.94
336.369	80.94
336.597	80.94
336.825	78.94
337.053	66.94
337.281	77.94
337.51	95.94
337.738	78.94
337.966	77.94
338.194	96.94
338.422	99.94
338.65	106.94
338.878	92.94
339.106	76.94
339.334	83.94
339.562	102.94
339.79	92.94
340.018	83.94
340.246	92.94
340.474	88.94
340.702	84.94
340.93	84.94
341.158	93.94
341.386	90.94
341.614	92.94
341.842	84.94
342.07	94.94
342.298	85.94
342.526	87.94
342.754	83.94
342.981	69.94
343.209	83.94
343.437	77.94
343.665	78.94
343.893	82.94
344.12	72.94
344.348	76.94
344.576	94.94
344.804	86.94
345.031	82.94
345.259	85.94
345.487	90.94
345.714	83.94
345.942	93.94
346.17	79.94
346.397	80.94
346.625	93.94
346.853	88.94
347.08	73.94
347.308	82.94
347.535	82.94
347.763	83.94
347.99	97.94
348.218	72.94
348.445	74.94
348.673	78.94
348.9	85.94
349.128	85.94
349.355	90.94
349.583	93.94
349.81	82.94
350.037	89.94
350.265	79.94
350.492	96.94
350.72	92.94
350.947	94.94
351.174	93.94
351.402	90.94
351.629	90.94
351.856	88.94
352.083	92.94
352.311	77.94
352.538	74.94
352.765	95.94
352.992	69.94
353.22	73.94
353.447	93.94
353.674	93.94
353.901	87.94
354.128	85.94
354.355	78.94
354.583	77.94
354.81	86.94
355.037	87.94
355.264	73.94
355.491	69.94
355.718	87.94
355.945	72.94
356.172	76.94
356.399	82.94
356.626	82.94
356.853	87.94
357.08	67.94
357.307	86.94
357.534	94.94
357.761	90.94
357.988	87.94
358.215	86.94
358.441	99.94
358.668	89.94
358.895	72.94
359.122	77.94
359.349	93.94
359.576	75.94
359.802	92.94
360.029	81.94
360.256	106.94
360.483	99.94
360.709	73.94
360.936	86.94
361.163	82.94
361.39	81.94
361.616	85.94
361.843	85.94
362.07	89.94
362.296	87.94
362.523	86.94
362.749	79.94
362.976	86.94
363.203	97.94
363.429	78.94
363.656	88.94
363.882	80.94
364.109	69.94
364.335	90.94
364.562	92.94
364.788	91.94
365.015	92.94
365.241	86.94
365.468	86.94
365.694	89.94
365.92	82.94
366.147	86.94
366.373	78.94
366.599	89.94
366.826	77.94
367.052	81.94
367.278	90.94
367.505	80.94
367.731	91.94
367.957	95.94
368.184	92.94
368.41	80.94
368.636	86.94
368.862	100.94
369.089	97.94
369.315	101.94
369.541	99.94
369.767	93.94
369.993	89.94
370.219	94.94
370.445	82.94
370.672	101.94
370.898	87.94
371.124	81.94
371.35	88.94
371.576	86.94
371.802	81.94
372.028	87.94
372.254	88.94
372.48	91.94
372.706	98.94
372.932	96.94
373.158	100.94
373.384	99.94
373.61	101.94
373.835	89.94
374.061	104.94
374.287	90.94
374.513	98.94
374.739	93.94
374.965	96.94
375.191	87.94
375.416	98.94
375.642	75.94
375.868	100.94
376.094	100.94
376.319	88.94
376.545	90.94
376.771	103.94
376.997	89.94
377.222	98.94
377.448	100.94
377.674	89.94
377.899	97.94
378.125	103.94
378.35	88.94
378.576	100.94
378.802	101.94
379.027	82.94
379.253	118.94
379.478	104.94
379.704	111.94
379.929	72.94
380.155	97.94
380.38	90.94
380.606	88.94
380.831	76.94
381.057	96.94
381.282	92.94
381.507	82.94
381.733	90.94
381.958	92.94
382.184	103.94
382.409	96.94
382.634	93.94
382.86	93.94
383.085	103.94
383.31	106.94
383.535	104.94
383.761	94.94
383.986	100.94
384.211	106.94
384.436	93.94
384.662	86.94
384.887	100.94
385.112	94.94
385.337	94.94
385.562	96.94
385.787	95.94
386.013	107.94
386.238	101.94
386.463	106.94
386.688	107.94
386.913	97.94
387.138	95.94
387.363	100.94
387.588	113.94
387.813	97.94
388.038	100.94
388.263	90.94
388.488	79.94
388.713	98.94
388.938	92.94
389.163	111.94
389.387	99.94
389.612	103.94
389.837	94.94
390.062	107.94
390.287	102.94
390.512	96.94
390.736	100.94
390.961	102.94
391.186	95.94
391.411	91.94
391.636	110.94
391.86	88.94
392.085	101.94
392.31	113.94
392.534	94.94
392.759	101.94
392.984	102.94
393.208	94.94
393.433	103.94
393.658	104.94
393.882	106.94
394.107	98.94
394.331	105.94
394.556	119.94
394.78	103.94
395.005	101.94
395.229	102.94
395.454	113.94
395.678	101.94
395.903	115.94
396.127	115.94
396.352	104.94
396.576	97.94
396.801	121.94
397.025	112.94
397.249	121.94
397.474	89.94
397.698	120.94
397.922	92.94
398.147	99.94
398.371	125.94
398.595	125.94
398.82	114.94
399.044	138.94
399.268	108.94
399.492	115.94
399.717	119.94
399.941	115.94
400.165	122.94
400.389	109.94
400.613	93.94
400.837	96.94
401.062	106.94
401.286	127.94
401.51	109.94
401.734	116.94
401.958	118.94
402.182	109.94
402.406	105.94
402.63	125.94
402.854	104.94
403.078	116.94
403.302	117.94
403.526	133.94
403.75	108.94
403.974	101.94
404.198	112.94
404.422	109.94
404.645	116.94
404.869	103.94
405.093	124.94
405.317	122.94
405.541	117.94
405.765	129.94
405.988	117.94
406.212	116.94
406.436	112.94
406.66	108.94
406.883	112.94
407.107	112.94
407.331	102.94
407.555	105.94
407.778	125.94
408.002	118.94
408.226	132.94
408.449	113.94
408.673	107.94
408.896	102.94
409.12	109.94
409.344	123.94
409.567	121.94
409.791	108.94
410.014	126.94
410.238	125.94
410.461	122.94
410.685	122.94
410.908	117.94
411.132	129.94
411.355	114.94
411.578	114.94
411.802	103.94
412.025	124.94
412.249	132.94
412.472	125.94
412.695	120.94
412.919	104.94
413.142	120.94
413.365	127.94
413.589	132.94
413.812	121.94
414.035	130.94
414.258	124.94
414.482	119.94
414.705	119.94
414.928	113.94
415.151	122.94
415.374	117.94
415.597	116.94
415.821	105.94
416.044	120.94
416.267	148.94
416.49	144.94
416.713	127.94
416.936	123.94
417.159	126.94
417.382	118.94
417.605	122.94
417.828	122.94
418.051	122.94
418.274	133.94
418.497	128.94
418.72	144.94
418.943	132.94
419.166	122.94
419.389	120.94
419.611	129.94
419.834	123.94
420.057	138.94
420.28	125.94
420.503	120.94
420.726	127.94
420.948	145.94
421.171	138.94
421.394	142.94
421.617	146.94
421.839	144.94
422.062	143.94
422.285	131.94
422.507	152.94
422.73	138.94
422.953	109.94
423.175	130.94
423.398	134.94
423.621	120.94
423.843	132.94
424.066	143.94
424.288	140.94
424.511	136.94
424.733	157.94
424.956	154.94
425.178	140.94
425.401	121.94
425.623	134.94
425.846	114.94
426.068	128.94
426.291	130.94
426.513	137.94
426.735	131.94
426.958	139.94
427.18	127.94
427.402	134.94
427.625	135.94
427.847	120.94
428.069	126.94
428.292	122.94
428.514	132.94
428.736	132.94
428.958	120.94
429.181	128.94
429.403	123.94
429.625	116.94
429.847	114.94
430.069	142.94
430.292	130.94
430.514	151.94
430.736	137.94
430.958	122.94
431.18	122.94
431.402	145.94
431.624	121.94
431.846	103.94
432.068	101.94
432.29	104.94
432.512	123.94
432.734	132.94
432.956	136.94
433.178	131.94
433.4	139.94
433.622	141.94
433.844	133.94
434.066	125.94
434.287	107.94
434.509	113.94
434.731	104.94
434.953	114.94
435.175	124.94
435.397	139.94
435.618	115.94
435.84	106.94
436.062	106.94
436.284	120.94
436.505	115.94
436.727	132.94
436.949	134.94
437.17	118.94
437.392	118.94
437.614	124.94
437.835	116.94
438.057	117.94
438.278	112.94
438.5	121.94
438.721	118.94
438.943	124.94
439.165	140.94
439.386	131.94
439.608	142.94
439.829	146.94
440.05	123.94
440.272	144.94
440.493	139.94
440.715	150.94
440.936	149.94
441.158	133.94
441.379	133.94
441.6	150.94
441.822	142.94
442.043	154.94
442.264	129.94
442.486	138.94
442.707	142.94
442.928	145.94
443.149	150.94
443.371	140.94
443.592	121.94
443.813	140.94
444.034	135.94
444.255	149.94
444.476	146.94
444.698	155.94
444.919	141.94
445.14	273.94
445.361	196.94
445.582	154.94
445.803	179.94
446.024	151.94
446.245	155.94
446.466	151.94
446.687	154.94
446.908	150.94
447.129	162.94
447.35	134.94
447.571	150.94
447.792	142.94
448.013	151.94
448.234	159.94
448.455	157.94
448.675	149.94
448.896	142.94
449.117	117.94
449.338	145.94
449.559	138.94
449.779	126.94
450	137.94
450.221	132.94
450.442	128.94
450.662	126.94
450.883	134.94
451.104	123.94
451.324	124.94
451.545	129.94
451.766	146.94
451.986	129.94
452.207	132.94
452.428	120.94
452.648	120.94
452.869	117.94
453.089	114.94
453.31	123.94
453.53	101.94
453.751	110.94
453.971	108.94
454.192	90.94
454.412	107.94
454.633	120.94
454.853	116.94
455.073	124.94
455.294	120.94
455.514	134.94
455.734	124.94
455.955	130.94
456.175	125.94
456.395	105.94
456.616	117.94
456.836	108.94
457.056	118.94
457.276	120.94
457.497	128.94
457.717	108.94
457.937	117.94
458.157	97.94
458.377	96.94
458.598	88.94
458.818	88.94
459.038	97.94
459.258	86.94
459.478	92.94
459.698	82.94
459.918	97.94
460.138	108.94
460.358	117.94
460.578	128.94
460.798	114.94
461.018	122.94
461.238	105.94
461.458	116.94
461.678	110.94
461.898	124.94
462.118	126.94
462.338	122.94
462.558	103.94
462.777	103.94
462.997	115.94
463.217	110.94
463.437	115.94
463.657	101.94
463.876	116.94
464.096	106.94
464.316	101.94
464.536	111.94
464.755	126.94
464.975	113.94
465.195	128.94
465.414	132.94
465.634	123.94
465.854	104.94
466.073	127.94
466.293	112.94
466.512	131.94
466.732	126.94
466.951	133.94
467.171	133.94
467.391	114.94
467.61	141.94
467.829	131.94
468.049	128.94
468.268	140.94
468.488	142.94
468.707	136.94
468.927	139.94
469.146	130.94
469.365	149.94
469.585	132.94
469.804	140.94
470.023	143.94
470.243	132.94
470.462	135.94
470.681	139.94
470.901	133.94
471.12	136.94
471.339	132.94
471.558	118.94
471.777	133.94
471.997	124.94
472.216	130.94
472.435	123.94
472.654	122.94
472.873	108.94
473.092	111.94
473.311	123.94
473.53	115.94
473.749	128.94
473.968	120.94
474.187	118.94
474.406	120.94
474.625	118.94
474.844	133.94
475.063	141.94
475.282	120.94
475.501	115.94
475.72	122.94
475.939	129.94
476.158	134.94
476.377	112.94
476.596	124.94
476.814	116.94
477.033	106.94
477.252	126.94
477.471	124.94
477.69	125.94
477.908	144.94
478.127	128.94
478.346	132.94
478.564	140.94
478.783	134.94
479.002	145.94
479.22	138.94
479.439	136.94
479.658	123.94
479.876	123.94
480.095	116.94
480.313	96.94
480.532	110.94
480.751	115.94
480.969	98.94
481.188	104.94
481.406	88.94
481.624	95.94
481.843	97.94
482.061	96.94
482.28	109.94
482.498	110.94
482.717	101.94
482.935	125.94
483.153	146.94
483.372	152.94
483.59	164.94
483.808	146.94
484.027	126.94
484.245	142.94
484.463	139.94
484.681	155.94
484.9	162.94
485.118	146.94
485.336	123.94
485.554	106.94
485.772	120.94
485.99	93.94
486.209	102.94
486.427	98.94
486.645	132.94
486.863	132.94
487.081	131.94
487.299	145.94
487.517	133.94
487.735	180.94
487.953	196.94
488.171	174.94
488.389	182.94
488.607	162.94
488.825	132.94
489.043	142.94
489.261	135.94
489.479	129.94
489.696	126.94
489.914	165.94
490.132	133.94
490.35	151.94
490.568	154.94
490.786	170.94
491.003	169.94
491.221	169.94
491.439	173.94
491.657	198.94
491.874	188.94
492.092	232.94
492.31	246.94
492.527	226.94
492.745	203.94
492.963	181.94
493.18	188.94
493.398	179.94
493.615	171.94
493.833	171.94
494.05	178.94
494.268	162.94
494.485	185.94
494.703	170.94
494.92	168.94
495.138	169.94
495.355	171.94
495.573	179.94
495.79	158.94
496.008	178.94
496.225	174.94
496.442	149.94
496.66	157.94
496.877	173.94
497.094	163.94
497.312	171.94
497.529	141.94
497.746	163.94
497.963	150.94
498.181	133.94
498.398	119.94
498.615	115.94
498.832	124.94
499.049	138.94
499.267	122.94
499.484	129.94
499.701	140.94
499.918	138.94
500.135	124.94
500.352	152.94
500.569	139.94
500.786	146.94
501.003	159.94
501.22	138.94
501.437	154.94
501.654	156.94
501.871	141.94
502.088	124.94
502.305	130.94
502.522	124.94
502.739	124.94
502.956	124.94
503.172	136.94
503.389	132.94
503.606	120.94
503.823	121.94
504.04	126.94
504.256	118.94
504.473	123.94
504.69	116.94
504.907	129.94
505.123	114.94
505.34	119.94
505.557	122.94
505.773	121.94
505.99	132.94
506.207	132.94
506.423	125.94
506.64	123.94
506.856	111.94
507.073	125.94
507.289	116.94
507.506	106.94
507.722	117.94
507.939	126.94
508.155	115.94
508.372	120.94
508.588	115.94
508.805	106.94
509.021	105.94
509.238	107.94
509.454	102.94
509.67	97.94
509.887	104.94
510.103	96.94
510.319	106.94
510.536	88.94
510.752	100.94
510.968	95.94
511.184	85.94
511.401	96.94
