Data from Location4.07152019.Energy5.Lamp.07192019.3%Agarose_HRD10591_16-20-16-925.txt Node
Date: Fri Jul 19 16:20:16 EDT 2019
User: cochatt
Spectrometer: HR+D1059
Trigger mode: 1
Integration Time (sec): 1.000000E-1
Scans to average: 1
Electric dark correction enabled: true
Nonlinearity correction enabled: false
Boxcar width: 0
XAxis mode: Wavelengths
Number of Pixels in Spectrum: 2048
>>>>>Begin Spectral Data<<<<<
223.165	-13.88
223.4	-13.88
223.635	-13.88
223.869	-7.88
224.104	-32.88
224.338	-14.88
224.573	-9.88
224.808	5.12
225.042	-7.88
225.277	-8.88
225.511	-16.88
225.746	8.12
225.98	4.12
226.215	6.12
226.449	21.12
226.683	24.12
226.918	2.12
227.152	42.12
227.387	37.12
227.621	38.12
227.856	44.12
228.09	56.12
228.324	49.12
228.559	54.12
228.793	63.12
229.027	58.12
229.262	57.12
229.496	70.12
229.73	65.12
229.964	63.12
230.199	65.12
230.433	69.12
230.667	78.12
230.901	69.12
231.136	85.12
231.37	67.12
231.604	67.12
231.838	75.12
232.072	76.12
232.306	74.12
232.541	82.12
232.775	93.12
233.009	95.12
233.243	83.12
233.477	87.12
233.711	106.12
233.945	79.12
234.179	77.12
234.413	97.12
234.647	91.12
234.881	83.12
235.115	87.12
235.349	91.12
235.583	80.12
235.817	78.12
236.051	72.12
236.285	84.12
236.519	71.12
236.753	66.12
236.987	84.12
237.221	81.12
237.455	70.12
237.689	71.12
237.922	89.12
238.156	76.12
238.39	93.12
238.624	75.12
238.858	94.12
239.091	80.12
239.325	70.12
239.559	72.12
239.793	76.12
240.027	67.12
240.26	77.12
240.494	74.12
240.728	73.12
240.961	69.12
241.195	78.12
241.429	82.12
241.662	85.12
241.896	70.12
242.13	75.12
242.363	82.12
242.597	86.12
242.83	87.12
243.064	74.12
243.298	72.12
243.531	61.12
243.765	73.12
243.998	83.12
244.232	73.12
244.465	74.12
244.699	88.12
244.932	97.12
245.166	79.12
245.399	70.12
245.633	74.12
245.866	96.12
246.099	78.12
246.333	78.12
246.566	85.12
246.8	101.12
247.033	70.12
247.266	78.12
247.5	72.12
247.733	88.12
247.966	86.12
248.2	94.12
248.433	88.12
248.666	82.12
248.899	90.12
249.133	76.12
249.366	76.12
249.599	80.12
249.832	74.12
250.066	83.12
250.299	88.12
250.532	87.12
250.765	85.12
250.998	85.12
251.231	77.12
251.465	86.12
251.698	75.12
251.931	91.12
252.164	74.12
252.397	79.12
252.63	86.12
252.863	69.12
253.096	70.12
253.329	86.12
253.562	76.12
253.795	86.12
254.028	82.12
254.261	57.12
254.494	81.12
254.727	77.12
254.96	87.12
255.193	84.12
255.426	70.12
255.659	90.12
255.892	73.12
256.124	70.12
256.357	76.12
256.59	83.12
256.823	69.12
257.056	75.12
257.289	72.12
257.521	70.12
257.754	89.12
257.987	81.12
258.22	76.12
258.452	84.12
258.685	73.12
258.918	87.12
259.151	85.12
259.383	81.12
259.616	84.12
259.849	84.12
260.081	81.12
260.314	78.12
260.547	92.12
260.779	86.12
261.012	88.12
261.244	81.12
261.477	84.12
261.71	81.12
261.942	86.12
262.175	77.12
262.407	88.12
262.64	80.12
262.872	86.12
263.105	95.12
263.337	81.12
263.57	81.12
263.802	76.12
264.035	85.12
264.267	88.12
264.499	90.12
264.732	82.12
264.964	77.12
265.197	93.12
265.429	81.12
265.661	98.12
265.894	86.12
266.126	78.12
266.358	83.12
266.591	78.12
266.823	82.12
267.055	91.12
267.287	89.12
267.52	79.12
267.752	75.12
267.984	75.12
268.216	80.12
268.448	83.12
268.681	79.12
268.913	72.12
269.145	81.12
269.377	88.12
269.609	88.12
269.841	84.12
270.073	77.12
270.306	68.12
270.538	79.12
270.77	85.12
271.002	94.12
271.234	69.12
271.466	95.12
271.698	84.12
271.93	84.12
272.162	108.12
272.394	98.12
272.626	84.12
272.858	89.12
273.09	72.12
273.322	74.12
273.553	89.12
273.785	87.12
274.017	103.12
274.249	85.12
274.481	79.12
274.713	87.12
274.945	80.12
275.176	86.12
275.408	78.12
275.64	80.12
275.872	75.12
276.104	86.12
276.335	79.12
276.567	89.12
276.799	81.12
277.031	86.12
277.262	91.12
277.494	78.12
277.726	78.12
277.957	83.12
278.189	100.12
278.421	87.12
278.652	93.12
278.884	98.12
279.115	79.12
279.347	98.12
279.579	82.12
279.81	97.12
280.042	80.12
280.273	73.12
280.505	92.12
280.736	82.12
280.968	83.12
281.199	83.12
281.431	73.12
281.662	82.12
281.894	85.12
282.125	99.12
282.356	92.12
282.588	101.12
282.819	94.12
283.051	90.12
283.282	86.12
283.513	100.12
283.745	80.12
283.976	83.12
284.207	77.12
284.439	82.12
284.67	90.12
284.901	95.12
285.132	85.12
285.364	98.12
285.595	94.12
285.826	93.12
286.057	94.12
286.288	85.12
286.52	82.12
286.751	84.12
286.982	96.12
287.213	93.12
287.444	73.12
287.675	95.12
287.906	88.12
288.138	87.12
288.369	95.12
288.6	74.12
288.831	84.12
289.062	94.12
289.293	93.12
289.524	98.12
289.755	88.12
289.986	93.12
290.217	95.12
290.448	85.12
290.679	82.12
290.91	87.12
291.141	84.12
291.371	88.12
291.602	88.12
291.833	81.12
292.064	79.12
292.295	84.12
292.526	97.12
292.757	80.12
292.987	78.12
293.218	96.12
293.449	70.12
293.68	82.12
293.91	81.12
294.141	92.12
294.372	85.12
294.603	87.12
294.833	99.12
295.064	80.12
295.295	99.12
295.525	79.12
295.756	95.12
295.987	78.12
296.217	88.12
296.448	84.12
296.679	88.12
296.909	93.12
297.14	76.12
297.37	86.12
297.601	88.12
297.831	96.12
298.062	72.12
298.292	97.12
298.523	90.12
298.753	85.12
298.984	70.12
299.214	86.12
299.445	90.12
299.675	91.12
299.905	91.12
300.136	87.12
300.366	83.12
300.597	95.12
300.827	86.12
301.057	88.12
301.288	95.12
301.518	84.12
301.748	94.12
301.979	80.12
302.209	88.12
302.439	92.12
302.669	94.12
302.9	96.12
303.13	98.12
303.36	87.12
303.59	73.12
303.82	81.12
304.051	84.12
304.281	89.12
304.511	85.12
304.741	70.12
304.971	84.12
305.201	91.12
305.431	80.12
305.661	90.12
305.891	84.12
306.121	88.12
306.352	85.12
306.582	86.12
306.812	96.12
307.042	86.12
307.272	95.12
307.502	88.12
307.731	101.12
307.961	90.12
308.191	99.12
308.421	104.12
308.651	89.12
308.881	92.12
309.111	80.12
309.341	93.12
309.571	93.12
309.8	96.12
310.03	70.12
310.26	87.12
310.49	86.12
310.72	87.12
310.949	78.12
311.179	77.12
311.409	83.12
311.639	86.12
311.868	105.12
312.098	89.12
312.328	100.12
312.557	82.12
312.787	83.12
313.017	92.12
313.246	95.12
313.476	86.12
313.706	92.12
313.935	87.12
314.165	89.12
314.394	69.12
314.624	87.12
314.853	93.12
315.083	82.12
315.312	79.12
315.542	88.12
315.771	83.12
316.001	86.12
316.23	100.12
316.46	93.12
316.689	87.12
316.919	96.12
317.148	95.12
317.377	103.12
317.607	84.12
317.836	85.12
318.065	87.12
318.295	80.12
318.524	78.12
318.753	87.12
318.983	90.12
319.212	79.12
319.441	91.12
319.67	76.12
319.9	76.12
320.129	83.12
320.358	82.12
320.587	77.12
320.816	84.12
321.046	79.12
321.275	88.12
321.504	86.12
321.733	91.12
321.962	74.12
322.191	91.12
322.42	90.12
322.649	74.12
322.878	85.12
323.108	79.12
323.337	68.12
323.566	94.12
323.795	89.12
324.024	95.12
324.253	83.12
324.482	84.12
324.71	87.12
324.939	71.12
325.168	81.12
325.397	72.12
325.626	86.12
325.855	72.12
326.084	79.12
326.313	102.12
326.542	91.12
326.77	101.12
326.999	92.12
327.228	74.12
327.457	91.12
327.686	90.12
327.914	96.12
328.143	85.12
328.372	108.12
328.6	78.12
328.829	92.12
329.058	84.12
329.287	82.12
329.515	74.12
329.744	95.12
329.972	87.12
330.201	83.12
330.43	98.12
330.658	104.12
330.887	93.12
331.115	73.12
331.344	92.12
331.572	92.12
331.801	84.12
332.03	95.12
332.258	94.12
332.486	86.12
332.715	75.12
332.943	76.12
333.172	86.12
333.4	93.12
333.629	94.12
333.857	86.12
334.085	79.12
334.314	83.12
334.542	88.12
334.771	73.12
334.999	65.12
335.227	86.12
335.455	77.12
335.684	88.12
335.912	78.12
336.14	71.12
336.369	90.12
336.597	94.12
336.825	80.12
337.053	85.12
337.281	75.12
337.51	106.12
337.738	92.12
337.966	74.12
338.194	96.12
338.422	77.12
338.65	84.12
338.878	85.12
339.106	84.12
339.334	92.12
339.562	86.12
339.79	85.12
340.018	74.12
340.246	89.12
340.474	74.12
340.702	96.12
340.93	109.12
341.158	71.12
341.386	73.12
341.614	78.12
341.842	79.12
342.07	82.12
342.298	84.12
342.526	88.12
342.754	81.12
342.981	79.12
343.209	100.12
343.437	103.12
343.665	86.12
343.893	80.12
344.12	97.12
344.348	86.12
344.576	68.12
344.804	86.12
345.031	94.12
345.259	83.12
345.487	80.12
345.714	92.12
345.942	82.12
346.17	99.12
346.397	79.12
346.625	95.12
346.853	83.12
347.08	88.12
347.308	91.12
347.535	93.12
347.763	84.12
347.99	96.12
348.218	93.12
348.445	90.12
348.673	86.12
348.9	85.12
349.128	84.12
349.355	90.12
349.583	82.12
349.81	86.12
350.037	86.12
350.265	94.12
350.492	86.12
350.72	68.12
350.947	89.12
351.174	82.12
351.402	96.12
351.629	85.12
351.856	86.12
352.083	83.12
352.311	90.12
352.538	91.12
352.765	89.12
352.992	86.12
353.22	90.12
353.447	85.12
353.674	102.12
353.901	92.12
354.128	85.12
354.355	91.12
354.583	84.12
354.81	81.12
355.037	92.12
355.264	100.12
355.491	96.12
355.718	97.12
355.945	90.12
356.172	76.12
356.399	92.12
356.626	90.12
356.853	81.12
357.08	97.12
357.307	85.12
357.534	93.12
357.761	99.12
357.988	91.12
358.215	86.12
358.441	91.12
358.668	78.12
358.895	86.12
359.122	83.12
359.349	83.12
359.576	95.12
359.802	91.12
360.029	76.12
360.256	82.12
360.483	83.12
360.709	92.12
360.936	105.12
361.163	84.12
361.39	70.12
361.616	100.12
361.843	85.12
362.07	92.12
362.296	80.12
362.523	79.12
362.749	86.12
362.976	87.12
363.203	90.12
363.429	81.12
363.656	85.12
363.882	74.12
364.109	94.12
364.335	100.12
364.562	91.12
364.788	84.12
365.015	76.12
365.241	87.12
365.468	69.12
365.694	79.12
365.92	87.12
366.147	100.12
366.373	79.12
366.599	92.12
366.826	104.12
367.052	87.12
367.278	94.12
367.505	93.12
367.731	99.12
367.957	80.12
368.184	79.12
368.41	85.12
368.636	81.12
368.862	88.12
369.089	83.12
369.315	90.12
369.541	92.12
369.767	82.12
369.993	94.12
370.219	99.12
370.445	84.12
370.672	93.12
370.898	86.12
371.124	93.12
371.35	87.12
371.576	88.12
371.802	83.12
372.028	96.12
372.254	87.12
372.48	97.12
372.706	104.12
372.932	87.12
373.158	92.12
373.384	101.12
373.61	111.12
373.835	94.12
374.061	84.12
374.287	88.12
374.513	100.12
374.739	87.12
374.965	85.12
375.191	95.12
375.416	87.12
375.642	95.12
375.868	92.12
376.094	94.12
376.319	88.12
376.545	94.12
376.771	95.12
376.997	96.12
377.222	94.12
377.448	94.12
377.674	94.12
377.899	94.12
378.125	96.12
378.35	105.12
378.576	93.12
378.802	89.12
379.027	84.12
379.253	107.12
379.478	84.12
379.704	99.12
379.929	97.12
380.155	98.12
380.38	99.12
380.606	94.12
380.831	93.12
381.057	104.12
381.282	89.12
381.507	100.12
381.733	103.12
381.958	107.12
382.184	94.12
382.409	94.12
382.634	100.12
382.86	92.12
383.085	106.12
383.31	80.12
383.535	97.12
383.761	104.12
383.986	93.12
384.211	102.12
384.436	117.12
384.662	109.12
384.887	106.12
385.112	102.12
385.337	96.12
385.562	85.12
385.787	96.12
386.013	96.12
386.238	111.12
386.463	115.12
386.688	98.12
386.913	105.12
387.138	98.12
387.363	87.12
387.588	108.12
387.813	113.12
388.038	115.12
388.263	106.12
388.488	102.12
388.713	100.12
388.938	104.12
389.163	100.12
389.387	114.12
389.612	105.12
389.837	109.12
390.062	96.12
390.287	96.12
390.512	98.12
390.736	86.12
390.961	87.12
391.186	101.12
391.411	104.12
391.636	104.12
391.86	99.12
392.085	99.12
392.31	118.12
392.534	109.12
392.759	102.12
392.984	106.12
393.208	104.12
393.433	117.12
393.658	111.12
393.882	99.12
394.107	95.12
394.331	98.12
394.556	103.12
394.78	98.12
395.005	95.12
395.229	109.12
395.454	120.12
395.678	114.12
395.903	101.12
396.127	110.12
396.352	114.12
396.576	114.12
396.801	100.12
397.025	106.12
397.249	96.12
397.474	114.12
397.698	100.12
397.922	107.12
398.147	126.12
398.371	104.12
398.595	106.12
398.82	103.12
399.044	109.12
399.268	126.12
399.492	119.12
399.717	115.12
399.941	112.12
400.165	110.12
400.389	111.12
400.613	126.12
400.837	111.12
401.062	108.12
401.286	99.12
401.51	105.12
401.734	116.12
401.958	124.12
402.182	128.12
402.406	114.12
402.63	108.12
402.854	109.12
403.078	123.12
403.302	107.12
403.526	114.12
403.75	114.12
403.974	119.12
404.198	123.12
404.422	130.12
404.645	126.12
404.869	120.12
405.093	110.12
405.317	99.12
405.541	99.12
405.765	111.12
405.988	118.12
406.212	122.12
406.436	125.12
406.66	126.12
406.883	126.12
407.107	124.12
407.331	106.12
407.555	114.12
407.778	115.12
408.002	125.12
408.226	125.12
408.449	131.12
408.673	121.12
408.896	128.12
409.12	122.12
409.344	134.12
409.567	117.12
409.791	112.12
410.014	114.12
410.238	126.12
410.461	121.12
410.685	120.12
410.908	123.12
411.132	126.12
411.355	120.12
411.578	124.12
411.802	126.12
412.025	130.12
412.249	118.12
412.472	136.12
412.695	116.12
412.919	104.12
413.142	122.12
413.365	125.12
413.589	117.12
413.812	127.12
414.035	119.12
414.258	119.12
414.482	112.12
414.705	112.12
414.928	126.12
415.151	126.12
415.374	122.12
415.597	123.12
415.821	123.12
416.044	122.12
416.267	119.12
416.49	132.12
416.713	135.12
416.936	119.12
417.159	117.12
417.382	115.12
417.605	120.12
417.828	134.12
418.051	123.12
418.274	122.12
418.497	129.12
418.72	128.12
418.943	130.12
419.166	144.12
419.389	120.12
419.611	135.12
419.834	144.12
420.057	140.12
420.28	143.12
420.503	132.12
420.726	114.12
420.948	141.12
421.171	128.12
421.394	121.12
421.617	134.12
421.839	138.12
422.062	142.12
422.285	124.12
422.507	132.12
422.73	127.12
422.953	138.12
423.175	121.12
423.398	121.12
423.621	141.12
423.843	141.12
424.066	122.12
424.288	124.12
424.511	135.12
424.733	140.12
424.956	154.12
425.178	144.12
425.401	134.12
425.623	130.12
425.846	143.12
426.068	126.12
426.291	118.12
426.513	124.12
426.735	125.12
426.958	131.12
427.18	130.12
427.402	136.12
427.625	147.12
427.847	124.12
428.069	139.12
428.292	125.12
428.514	121.12
428.736	121.12
428.958	127.12
429.181	137.12
429.403	130.12
429.625	135.12
429.847	119.12
430.069	137.12
430.292	141.12
430.514	113.12
430.736	125.12
430.958	125.12
431.18	136.12
431.402	124.12
431.624	126.12
431.846	126.12
432.068	88.12
432.29	105.12
432.512	113.12
432.734	126.12
432.956	140.12
433.178	145.12
433.4	118.12
433.622	141.12
433.844	133.12
434.066	124.12
434.287	118.12
434.509	103.12
434.731	98.12
434.953	100.12
435.175	123.12
435.397	140.12
435.618	121.12
435.84	124.12
436.062	113.12
436.284	134.12
436.505	134.12
436.727	130.12
436.949	128.12
437.17	131.12
437.392	124.12
437.614	129.12
437.835	116.12
438.057	120.12
438.278	123.12
438.5	131.12
438.721	122.12
438.943	121.12
439.165	126.12
439.386	147.12
439.608	151.12
439.829	141.12
440.05	139.12
440.272	126.12
440.493	155.12
440.715	152.12
440.936	143.12
441.158	144.12
441.379	147.12
441.6	143.12
441.822	142.12
442.043	145.12
442.264	143.12
442.486	114.12
442.707	137.12
442.928	143.12
443.149	152.12
443.371	133.12
443.592	145.12
443.813	141.12
444.034	154.12
444.255	130.12
444.476	138.12
444.698	152.12
444.919	142.12
445.14	257.12
445.361	226.12
445.582	162.12
445.803	146.12
446.024	155.12
446.245	161.12
446.466	154.12
446.687	167.12
446.908	165.12
447.129	155.12
447.35	155.12
447.571	160.12
447.792	163.12
448.013	138.12
448.234	146.12
448.455	130.12
448.675	129.12
448.896	151.12
449.117	128.12
449.338	138.12
449.559	141.12
449.779	139.12
450	125.12
450.221	141.12
450.442	123.12
450.662	131.12
450.883	132.12
451.104	125.12
451.324	128.12
451.545	134.12
451.766	142.12
451.986	137.12
452.207	125.12
452.428	133.12
452.648	111.12
452.869	124.12
453.089	109.12
453.31	120.12
453.53	114.12
453.751	82.12
453.971	97.12
454.192	107.12
454.412	116.12
454.633	112.12
454.853	118.12
455.073	124.12
455.294	124.12
455.514	125.12
455.734	118.12
455.955	107.12
456.175	119.12
456.395	103.12
456.616	98.12
456.836	119.12
457.056	114.12
457.276	121.12
457.497	103.12
457.717	100.12
457.937	116.12
458.157	100.12
458.377	112.12
458.598	114.12
458.818	95.12
459.038	90.12
459.258	99.12
459.478	86.12
459.698	102.12
459.918	97.12
460.138	99.12
460.358	121.12
460.578	108.12
460.798	118.12
461.018	118.12
461.238	117.12
461.458	120.12
461.678	128.12
461.898	117.12
462.118	117.12
462.338	117.12
462.558	111.12
462.777	121.12
462.997	114.12
463.217	114.12
463.437	115.12
463.657	108.12
463.876	91.12
464.096	103.12
464.316	107.12
464.536	118.12
464.755	117.12
464.975	116.12
465.195	115.12
465.414	122.12
465.634	118.12
465.854	118.12
466.073	116.12
466.293	139.12
466.512	134.12
466.732	128.12
466.951	119.12
467.171	143.12
467.391	135.12
467.61	138.12
467.829	133.12
468.049	141.12
468.268	132.12
468.488	133.12
468.707	132.12
468.927	136.12
469.146	127.12
469.365	139.12
469.585	132.12
469.804	139.12
470.023	135.12
470.243	154.12
470.462	150.12
470.681	134.12
470.901	138.12
471.12	145.12
471.339	150.12
471.558	133.12
471.777	141.12
471.997	137.12
472.216	144.12
472.435	134.12
472.654	105.12
472.873	110.12
473.092	118.12
473.311	114.12
473.53	118.12
473.749	132.12
473.968	125.12
474.187	134.12
474.406	126.12
474.625	134.12
474.844	135.12
475.063	129.12
475.282	135.12
475.501	128.12
475.72	114.12
475.939	131.12
476.158	131.12
476.377	125.12
476.596	130.12
476.814	128.12
477.033	114.12
477.252	102.12
477.471	137.12
477.69	128.12
477.908	130.12
478.127	138.12
478.346	138.12
478.564	142.12
478.783	139.12
479.002	138.12
479.22	132.12
479.439	127.12
479.658	123.12
479.876	109.12
480.095	104.12
480.313	117.12
480.532	114.12
480.751	116.12
480.969	100.12
481.188	83.12
481.406	96.12
481.624	98.12
481.843	84.12
482.061	92.12
482.28	111.12
482.498	122.12
482.717	112.12
482.935	110.12
483.153	150.12
483.372	152.12
483.59	162.12
483.808	155.12
484.027	140.12
484.245	130.12
484.463	137.12
484.681	143.12
484.9	147.12
485.118	144.12
485.336	140.12
485.554	116.12
485.772	107.12
485.99	100.12
486.209	99.12
486.427	128.12
486.645	124.12
486.863	139.12
487.081	138.12
487.299	131.12
487.517	159.12
487.735	177.12
487.953	174.12
488.171	186.12
488.389	173.12
488.607	167.12
488.825	146.12
489.043	152.12
489.261	150.12
489.479	140.12
489.696	140.12
489.914	128.12
490.132	139.12
490.35	158.12
490.568	156.12
490.786	167.12
491.003	189.12
491.221	197.12
491.439	188.12
491.657	186.12
491.874	199.12
492.092	217.12
492.31	232.12
492.527	231.12
492.745	217.12
492.963	199.12
493.18	192.12
493.398	190.12
493.615	177.12
493.833	166.12
494.05	161.12
494.268	164.12
494.485	164.12
494.703	167.12
494.92	171.12
495.138	158.12
495.355	179.12
495.573	146.12
495.79	156.12
496.008	173.12
496.225	157.12
496.442	179.12
496.66	166.12
496.877	174.12
497.094	164.12
497.312	162.12
497.529	161.12
497.746	147.12
497.963	148.12
498.181	127.12
498.398	112.12
498.615	124.12
498.832	114.12
499.049	119.12
499.267	125.12
499.484	130.12
499.701	128.12
499.918	142.12
500.135	140.12
500.352	139.12
500.569	133.12
500.786	150.12
501.003	120.12
501.22	141.12
501.437	120.12
501.654	146.12
501.871	132.12
502.088	150.12
502.305	123.12
502.522	128.12
502.739	135.12
502.956	129.12
503.172	126.12
503.389	122.12
503.606	122.12
503.823	121.12
504.04	125.12
504.256	110.12
504.473	124.12
504.69	122.12
504.907	135.12
505.123	118.12
505.34	129.12
505.557	134.12
505.773	114.12
505.99	132.12
506.207	132.12
506.423	128.12
506.64	114.12
506.856	123.12
507.073	120.12
507.289	135.12
507.506	122.12
507.722	120.12
507.939	123.12
508.155	107.12
508.372	125.12
508.588	109.12
508.805	106.12
509.021	101.12
509.238	115.12
509.454	118.12
509.67	108.12
509.887	106.12
510.103	98.12
510.319	93.12
510.536	74.12
510.752	95.12
510.968	94.12
511.184	97.12
511.401	82.12
