Data from Location4.07152019.Energy5.Lamp.07192019.3%Agarose_HRD10591_16-19-09-926.txt Node
Date: Fri Jul 19 16:19:09 EDT 2019
User: cochatt
Spectrometer: HR+D1059
Trigger mode: 1
Integration Time (sec): 1.000000E-1
Scans to average: 1
Electric dark correction enabled: true
Nonlinearity correction enabled: false
Boxcar width: 0
XAxis mode: Wavelengths
Number of Pixels in Spectrum: 2048
>>>>>Begin Spectral Data<<<<<
223.165	-14.19
223.4	-14.19
223.635	-14.19
223.869	-7.19
224.104	-12.19
224.338	-11.19
224.573	-18.19
224.808	-21.19
225.042	-14.19
225.277	5.81
225.511	1.81
225.746	-5.19
225.98	-3.19
226.215	7.81
226.449	13.81
226.683	25.81
226.918	21.81
227.152	29.81
227.387	31.81
227.621	36.81
227.856	40.81
228.09	26.81
228.324	40.81
228.559	55.81
228.793	62.81
229.027	66.81
229.262	62.81
229.496	58.81
229.73	61.81
229.964	68.81
230.199	64.81
230.433	79.81
230.667	71.81
230.901	75.81
231.136	72.81
231.37	70.81
231.604	62.81
231.838	81.81
232.072	79.81
232.306	78.81
232.541	91.81
232.775	67.81
233.009	71.81
233.243	85.81
233.477	78.81
233.711	96.81
233.945	79.81
234.179	86.81
234.413	79.81
234.647	76.81
234.881	77.81
235.115	69.81
235.349	72.81
235.583	76.81
235.817	90.81
236.051	79.81
236.285	73.81
236.519	89.81
236.753	91.81
236.987	84.81
237.221	75.81
237.455	81.81
237.689	78.81
237.922	79.81
238.156	84.81
238.39	75.81
238.624	75.81
238.858	79.81
239.091	82.81
239.325	65.81
239.559	76.81
239.793	72.81
240.027	85.81
240.26	76.81
240.494	75.81
240.728	77.81
240.961	83.81
241.195	90.81
241.429	69.81
241.662	77.81
241.896	86.81
242.13	81.81
242.363	70.81
242.597	82.81
242.83	85.81
243.064	85.81
243.298	63.81
243.531	82.81
243.765	76.81
243.998	59.81
244.232	69.81
244.465	72.81
244.699	85.81
244.932	80.81
245.166	77.81
245.399	69.81
245.633	84.81
245.866	79.81
246.099	87.81
246.333	75.81
246.566	90.81
246.8	91.81
247.033	76.81
247.266	71.81
247.5	72.81
247.733	57.81
247.966	74.81
248.2	73.81
248.433	90.81
248.666	74.81
248.899	76.81
249.133	86.81
249.366	78.81
249.599	93.81
249.832	77.81
250.066	76.81
250.299	79.81
250.532	68.81
250.765	87.81
250.998	81.81
251.231	86.81
251.465	90.81
251.698	62.81
251.931	78.81
252.164	76.81
252.397	90.81
252.63	76.81
252.863	77.81
253.096	69.81
253.329	77.81
253.562	73.81
253.795	77.81
254.028	72.81
254.261	83.81
254.494	85.81
254.727	74.81
254.96	77.81
255.193	62.81
255.426	82.81
255.659	73.81
255.892	79.81
256.124	69.81
256.357	89.81
256.59	95.81
256.823	74.81
257.056	92.81
257.289	60.81
257.521	84.81
257.754	71.81
257.987	71.81
258.22	74.81
258.452	83.81
258.685	84.81
258.918	73.81
259.151	78.81
259.383	79.81
259.616	80.81
259.849	83.81
260.081	82.81
260.314	81.81
260.547	73.81
260.779	83.81
261.012	94.81
261.244	83.81
261.477	64.81
261.71	86.81
261.942	82.81
262.175	83.81
262.407	80.81
262.64	96.81
262.872	93.81
263.105	90.81
263.337	86.81
263.57	69.81
263.802	68.81
264.035	88.81
264.267	87.81
264.499	101.81
264.732	88.81
264.964	79.81
265.197	100.81
265.429	67.81
265.661	78.81
265.894	83.81
266.126	93.81
266.358	82.81
266.591	88.81
266.823	78.81
267.055	75.81
267.287	93.81
267.52	82.81
267.752	88.81
267.984	72.81
268.216	86.81
268.448	93.81
268.681	86.81
268.913	78.81
269.145	97.81
269.377	85.81
269.609	69.81
269.841	84.81
270.073	85.81
270.306	81.81
270.538	84.81
270.77	72.81
271.002	80.81
271.234	79.81
271.466	91.81
271.698	98.81
271.93	88.81
272.162	101.81
272.394	84.81
272.626	86.81
272.858	85.81
273.09	80.81
273.322	69.81
273.553	84.81
273.785	65.81
274.017	77.81
274.249	90.81
274.481	76.81
274.713	79.81
274.945	83.81
275.176	92.81
275.408	70.81
275.64	77.81
275.872	84.81
276.104	89.81
276.335	79.81
276.567	77.81
276.799	87.81
277.031	97.81
277.262	82.81
277.494	86.81
277.726	70.81
277.957	78.81
278.189	75.81
278.421	87.81
278.652	87.81
278.884	76.81
279.115	89.81
279.347	86.81
279.579	84.81
279.81	82.81
280.042	80.81
280.273	82.81
280.505	84.81
280.736	83.81
280.968	76.81
281.199	78.81
281.431	84.81
281.662	85.81
281.894	91.81
282.125	102.81
282.356	87.81
282.588	78.81
282.819	79.81
283.051	83.81
283.282	81.81
283.513	83.81
283.745	89.81
283.976	85.81
284.207	83.81
284.439	75.81
284.67	92.81
284.901	78.81
285.132	80.81
285.364	83.81
285.595	81.81
285.826	93.81
286.057	94.81
286.288	90.81
286.52	89.81
286.751	93.81
286.982	83.81
287.213	92.81
287.444	76.81
287.675	78.81
287.906	92.81
288.138	91.81
288.369	84.81
288.6	77.81
288.831	102.81
289.062	87.81
289.293	81.81
289.524	79.81
289.755	78.81
289.986	78.81
290.217	89.81
290.448	77.81
290.679	76.81
290.91	83.81
291.141	82.81
291.371	102.81
291.602	101.81
291.833	86.81
292.064	84.81
292.295	81.81
292.526	87.81
292.757	87.81
292.987	90.81
293.218	83.81
293.449	89.81
293.68	91.81
293.91	79.81
294.141	83.81
294.372	85.81
294.603	79.81
294.833	93.81
295.064	80.81
295.295	76.81
295.525	81.81
295.756	85.81
295.987	79.81
296.217	86.81
296.448	86.81
296.679	87.81
296.909	95.81
297.14	83.81
297.37	91.81
297.601	91.81
297.831	77.81
298.062	81.81
298.292	70.81
298.523	93.81
298.753	78.81
298.984	77.81
299.214	87.81
299.445	87.81
299.675	81.81
299.905	84.81
300.136	104.81
300.366	83.81
300.597	80.81
300.827	89.81
301.057	89.81
301.288	92.81
301.518	84.81
301.748	96.81
301.979	87.81
302.209	99.81
302.439	84.81
302.669	85.81
302.9	73.81
303.13	89.81
303.36	93.81
303.59	99.81
303.82	96.81
304.051	87.81
304.281	79.81
304.511	85.81
304.741	69.81
304.971	86.81
305.201	98.81
305.431	90.81
305.661	79.81
305.891	89.81
306.121	87.81
306.352	90.81
306.582	76.81
306.812	95.81
307.042	83.81
307.272	90.81
307.502	79.81
307.731	99.81
307.961	79.81
308.191	88.81
308.421	91.81
308.651	87.81
308.881	87.81
309.111	85.81
309.341	84.81
309.571	90.81
309.8	89.81
310.03	83.81
310.26	81.81
310.49	86.81
310.72	92.81
310.949	86.81
311.179	82.81
311.409	87.81
311.639	93.81
311.868	87.81
312.098	81.81
312.328	81.81
312.557	85.81
312.787	90.81
313.017	90.81
313.246	96.81
313.476	86.81
313.706	76.81
313.935	85.81
314.165	76.81
314.394	79.81
314.624	75.81
314.853	97.81
315.083	67.81
315.312	88.81
315.542	93.81
315.771	90.81
316.001	86.81
316.23	84.81
316.46	84.81
316.689	95.81
316.919	66.81
317.148	91.81
317.377	87.81
317.607	89.81
317.836	78.81
318.065	74.81
318.295	85.81
318.524	83.81
318.753	87.81
318.983	81.81
319.212	82.81
319.441	94.81
319.67	82.81
319.9	85.81
320.129	77.81
320.358	81.81
320.587	90.81
320.816	84.81
321.046	94.81
321.275	99.81
321.504	89.81
321.733	92.81
321.962	84.81
322.191	79.81
322.42	79.81
322.649	86.81
322.878	97.81
323.108	99.81
323.337	82.81
323.566	76.81
323.795	95.81
324.024	93.81
324.253	83.81
324.482	94.81
324.71	93.81
324.939	83.81
325.168	88.81
325.397	82.81
325.626	91.81
325.855	95.81
326.084	86.81
326.313	71.81
326.542	89.81
326.77	84.81
326.999	87.81
327.228	84.81
327.457	87.81
327.686	99.81
327.914	92.81
328.143	93.81
328.372	82.81
328.6	97.81
328.829	82.81
329.058	95.81
329.287	83.81
329.515	96.81
329.744	87.81
329.972	82.81
330.201	96.81
330.43	80.81
330.658	71.81
330.887	90.81
331.115	82.81
331.344	94.81
331.572	77.81
331.801	91.81
332.03	81.81
332.258	90.81
332.486	84.81
332.715	87.81
332.943	83.81
333.172	87.81
333.4	77.81
333.629	89.81
333.857	95.81
334.085	96.81
334.314	103.81
334.542	79.81
334.771	97.81
334.999	85.81
335.227	96.81
335.455	89.81
335.684	84.81
335.912	80.81
336.14	84.81
336.369	85.81
336.597	87.81
336.825	86.81
337.053	78.81
337.281	83.81
337.51	94.81
337.738	92.81
337.966	78.81
338.194	97.81
338.422	96.81
338.65	87.81
338.878	94.81
339.106	83.81
339.334	87.81
339.562	74.81
339.79	66.81
340.018	78.81
340.246	81.81
340.474	75.81
340.702	86.81
340.93	74.81
341.158	77.81
341.386	77.81
341.614	91.81
341.842	75.81
342.07	84.81
342.298	86.81
342.526	78.81
342.754	96.81
342.981	84.81
343.209	89.81
343.437	96.81
343.665	75.81
343.893	85.81
344.12	98.81
344.348	85.81
344.576	94.81
344.804	83.81
345.031	85.81
345.259	93.81
345.487	84.81
345.714	72.81
345.942	74.81
346.17	84.81
346.397	83.81
346.625	82.81
346.853	84.81
347.08	75.81
347.308	83.81
347.535	81.81
347.763	92.81
347.99	86.81
348.218	84.81
348.445	79.81
348.673	85.81
348.9	84.81
349.128	76.81
349.355	92.81
349.583	92.81
349.81	87.81
350.037	96.81
350.265	94.81
350.492	80.81
350.72	95.81
350.947	85.81
351.174	69.81
351.402	74.81
351.629	84.81
351.856	94.81
352.083	95.81
352.311	80.81
352.538	73.81
352.765	71.81
352.992	105.81
353.22	86.81
353.447	83.81
353.674	83.81
353.901	81.81
354.128	77.81
354.355	76.81
354.583	76.81
354.81	91.81
355.037	90.81
355.264	80.81
355.491	77.81
355.718	76.81
355.945	89.81
356.172	85.81
356.399	79.81
356.626	80.81
356.853	104.81
357.08	81.81
357.307	88.81
357.534	72.81
357.761	78.81
357.988	99.81
358.215	79.81
358.441	84.81
358.668	81.81
358.895	85.81
359.122	86.81
359.349	76.81
359.576	78.81
359.802	77.81
360.029	90.81
360.256	80.81
360.483	90.81
360.709	89.81
360.936	89.81
361.163	84.81
361.39	88.81
361.616	90.81
361.843	74.81
362.07	86.81
362.296	90.81
362.523	76.81
362.749	83.81
362.976	75.81
363.203	80.81
363.429	80.81
363.656	90.81
363.882	90.81
364.109	77.81
364.335	78.81
364.562	72.81
364.788	77.81
365.015	94.81
365.241	86.81
365.468	90.81
365.694	86.81
365.92	87.81
366.147	95.81
366.373	82.81
366.599	98.81
366.826	87.81
367.052	90.81
367.278	93.81
367.505	82.81
367.731	83.81
367.957	80.81
368.184	91.81
368.41	99.81
368.636	84.81
368.862	89.81
369.089	73.81
369.315	78.81
369.541	83.81
369.767	89.81
369.993	83.81
370.219	101.81
370.445	88.81
370.672	81.81
370.898	92.81
371.124	84.81
371.35	86.81
371.576	91.81
371.802	92.81
372.028	94.81
372.254	108.81
372.48	102.81
372.706	91.81
372.932	83.81
373.158	79.81
373.384	89.81
373.61	98.81
373.835	81.81
374.061	99.81
374.287	83.81
374.513	92.81
374.739	84.81
374.965	89.81
375.191	85.81
375.416	95.81
375.642	85.81
375.868	96.81
376.094	81.81
376.319	85.81
376.545	80.81
376.771	101.81
376.997	92.81
377.222	92.81
377.448	92.81
377.674	100.81
377.899	93.81
378.125	85.81
378.35	105.81
378.576	102.81
378.802	92.81
379.027	95.81
379.253	89.81
379.478	95.81
379.704	95.81
379.929	94.81
380.155	92.81
380.38	89.81
380.606	109.81
380.831	97.81
381.057	88.81
381.282	95.81
381.507	107.81
381.733	109.81
381.958	99.81
382.184	73.81
382.409	107.81
382.634	95.81
382.86	95.81
383.085	102.81
383.31	91.81
383.535	94.81
383.761	111.81
383.986	103.81
384.211	104.81
384.436	92.81
384.662	101.81
384.887	91.81
385.112	98.81
385.337	110.81
385.562	91.81
385.787	94.81
386.013	100.81
386.238	104.81
386.463	107.81
386.688	99.81
386.913	109.81
387.138	98.81
387.363	93.81
387.588	101.81
387.813	105.81
388.038	104.81
388.263	104.81
388.488	112.81
388.713	111.81
388.938	94.81
389.163	106.81
389.387	103.81
389.612	117.81
389.837	82.81
390.062	108.81
390.287	93.81
390.512	108.81
390.736	100.81
390.961	119.81
391.186	103.81
391.411	113.81
391.636	102.81
391.86	101.81
392.085	110.81
392.31	98.81
392.534	98.81
392.759	111.81
392.984	96.81
393.208	115.81
393.433	109.81
393.658	115.81
393.882	105.81
394.107	101.81
394.331	97.81
394.556	103.81
394.78	108.81
395.005	102.81
395.229	109.81
395.454	100.81
395.678	93.81
395.903	100.81
396.127	113.81
396.352	108.81
396.576	105.81
396.801	118.81
397.025	119.81
397.249	115.81
397.474	120.81
397.698	118.81
397.922	105.81
398.147	93.81
398.371	110.81
398.595	135.81
398.82	113.81
399.044	116.81
399.268	100.81
399.492	117.81
399.717	110.81
399.941	109.81
400.165	115.81
400.389	122.81
400.613	101.81
400.837	115.81
401.062	116.81
401.286	104.81
401.51	106.81
401.734	114.81
401.958	114.81
402.182	124.81
402.406	120.81
402.63	108.81
402.854	119.81
403.078	127.81
403.302	106.81
403.526	110.81
403.75	111.81
403.974	113.81
404.198	105.81
404.422	127.81
404.645	122.81
404.869	107.81
405.093	118.81
405.317	115.81
405.541	116.81
405.765	127.81
405.988	107.81
406.212	121.81
406.436	117.81
406.66	127.81
406.883	123.81
407.107	94.81
407.331	117.81
407.555	121.81
407.778	119.81
408.002	118.81
408.226	113.81
408.449	101.81
408.673	106.81
408.896	107.81
409.12	126.81
409.344	119.81
409.567	105.81
409.791	118.81
410.014	124.81
410.238	117.81
410.461	106.81
410.685	127.81
410.908	126.81
411.132	117.81
411.355	130.81
411.578	124.81
411.802	125.81
412.025	123.81
412.249	122.81
412.472	120.81
412.695	124.81
412.919	107.81
413.142	109.81
413.365	111.81
413.589	108.81
413.812	118.81
414.035	129.81
414.258	121.81
414.482	111.81
414.705	117.81
414.928	120.81
415.151	107.81
415.374	117.81
415.597	123.81
415.821	127.81
416.044	123.81
416.267	129.81
416.49	135.81
416.713	122.81
416.936	118.81
417.159	118.81
417.382	125.81
417.605	125.81
417.828	119.81
418.051	125.81
418.274	114.81
418.497	116.81
418.72	124.81
418.943	133.81
419.166	130.81
419.389	135.81
419.611	138.81
419.834	132.81
420.057	122.81
420.28	137.81
420.503	124.81
420.726	136.81
420.948	138.81
421.171	117.81
421.394	149.81
421.617	137.81
421.839	142.81
422.062	139.81
422.285	148.81
422.507	125.81
422.73	110.81
422.953	136.81
423.175	131.81
423.398	124.81
423.621	128.81
423.843	141.81
424.066	139.81
424.288	134.81
424.511	144.81
424.733	156.81
424.956	143.81
425.178	145.81
425.401	122.81
425.623	128.81
425.846	126.81
426.068	137.81
426.291	131.81
426.513	126.81
426.735	125.81
426.958	115.81
427.18	131.81
427.402	137.81
427.625	124.81
427.847	139.81
428.069	126.81
428.292	124.81
428.514	118.81
428.736	125.81
428.958	139.81
429.181	145.81
429.403	120.81
429.625	124.81
429.847	129.81
430.069	134.81
430.292	130.81
430.514	125.81
430.736	131.81
430.958	129.81
431.18	108.81
431.402	121.81
431.624	133.81
431.846	117.81
432.068	106.81
432.29	102.81
432.512	118.81
432.734	129.81
432.956	121.81
433.178	123.81
433.4	130.81
433.622	140.81
433.844	147.81
434.066	107.81
434.287	106.81
434.509	93.81
434.731	93.81
434.953	118.81
435.175	122.81
435.397	121.81
435.618	121.81
435.84	127.81
436.062	122.81
436.284	127.81
436.505	129.81
436.727	130.81
436.949	135.81
437.17	121.81
437.392	123.81
437.614	109.81
437.835	103.81
438.057	105.81
438.278	119.81
438.5	127.81
438.721	133.81
438.943	135.81
439.165	140.81
439.386	127.81
439.608	140.81
439.829	128.81
440.05	138.81
440.272	150.81
440.493	149.81
440.715	151.81
440.936	149.81
441.158	128.81
441.379	141.81
441.6	142.81
441.822	143.81
442.043	135.81
442.264	147.81
442.486	125.81
442.707	143.81
442.928	134.81
443.149	131.81
443.371	142.81
443.592	130.81
443.813	143.81
444.034	128.81
444.255	130.81
444.476	137.81
444.698	147.81
444.919	133.81
445.14	251.81
445.361	191.81
445.582	144.81
445.803	142.81
446.024	163.81
446.245	157.81
446.466	177.81
446.687	151.81
446.908	161.81
447.129	147.81
447.35	141.81
447.571	154.81
447.792	135.81
448.013	148.81
448.234	148.81
448.455	137.81
448.675	149.81
448.896	138.81
449.117	138.81
449.338	138.81
449.559	134.81
449.779	134.81
450	149.81
450.221	131.81
450.442	138.81
450.662	126.81
450.883	126.81
451.104	118.81
451.324	125.81
451.545	134.81
451.766	137.81
451.986	125.81
452.207	125.81
452.428	124.81
452.648	129.81
452.869	117.81
453.089	128.81
453.31	107.81
453.53	119.81
453.751	111.81
453.971	109.81
454.192	102.81
454.412	110.81
454.633	120.81
454.853	110.81
455.073	113.81
455.294	129.81
455.514	119.81
455.734	129.81
455.955	123.81
456.175	109.81
456.395	110.81
456.616	119.81
456.836	104.81
457.056	107.81
457.276	107.81
457.497	92.81
457.717	105.81
457.937	117.81
458.157	102.81
458.377	115.81
458.598	116.81
458.818	91.81
459.038	86.81
459.258	105.81
459.478	79.81
459.698	108.81
459.918	113.81
460.138	111.81
460.358	109.81
460.578	120.81
460.798	131.81
461.018	115.81
461.238	119.81
461.458	131.81
461.678	113.81
461.898	110.81
462.118	125.81
462.338	121.81
462.558	99.81
462.777	105.81
462.997	101.81
463.217	116.81
463.437	117.81
463.657	100.81
463.876	102.81
464.096	107.81
464.316	107.81
464.536	118.81
464.755	118.81
464.975	127.81
465.195	117.81
465.414	123.81
465.634	128.81
465.854	113.81
466.073	119.81
466.293	109.81
466.512	137.81
466.732	141.81
466.951	130.81
467.171	139.81
467.391	142.81
467.61	125.81
467.829	146.81
468.049	139.81
468.268	123.81
468.488	125.81
468.707	135.81
468.927	149.81
469.146	128.81
469.365	142.81
469.585	144.81
469.804	157.81
470.023	137.81
470.243	127.81
470.462	148.81
470.681	137.81
470.901	125.81
471.12	141.81
471.339	152.81
471.558	143.81
471.777	129.81
471.997	139.81
472.216	133.81
472.435	122.81
472.654	104.81
472.873	122.81
473.092	105.81
473.311	127.81
473.53	131.81
473.749	125.81
473.968	118.81
474.187	118.81
474.406	121.81
474.625	126.81
474.844	127.81
475.063	142.81
475.282	116.81
475.501	115.81
475.72	124.81
475.939	121.81
476.158	127.81
476.377	132.81
476.596	125.81
476.814	106.81
477.033	117.81
477.252	126.81
477.471	122.81
477.69	136.81
477.908	119.81
478.127	151.81
478.346	143.81
478.564	131.81
478.783	138.81
479.002	111.81
479.22	149.81
479.439	127.81
479.658	128.81
479.876	102.81
480.095	98.81
480.313	120.81
480.532	137.81
480.751	123.81
480.969	90.81
481.188	79.81
481.406	98.81
481.624	84.81
481.843	90.81
482.061	102.81
482.28	106.81
482.498	111.81
482.717	109.81
482.935	123.81
483.153	142.81
483.372	153.81
483.59	158.81
483.808	134.81
484.027	130.81
484.245	138.81
484.463	152.81
484.681	152.81
484.9	159.81
485.118	160.81
485.336	125.81
485.554	110.81
485.772	102.81
485.99	112.81
486.209	101.81
486.427	115.81
486.645	106.81
486.863	133.81
487.081	139.81
487.299	135.81
487.517	133.81
487.735	157.81
487.953	188.81
488.171	188.81
488.389	172.81
488.607	149.81
488.825	143.81
489.043	133.81
489.261	145.81
489.479	135.81
489.696	138.81
489.914	130.81
490.132	140.81
490.35	152.81
490.568	143.81
490.786	177.81
491.003	179.81
491.221	170.81
491.439	184.81
491.657	167.81
491.874	205.81
492.092	223.81
492.31	230.81
492.527	228.81
492.745	204.81
492.963	178.81
493.18	186.81
493.398	172.81
493.615	180.81
493.833	185.81
494.05	157.81
494.268	172.81
494.485	173.81
494.703	182.81
494.92	167.81
495.138	168.81
495.355	169.81
495.573	156.81
495.79	167.81
496.008	170.81
496.225	165.81
496.442	155.81
496.66	170.81
496.877	150.81
497.094	156.81
497.312	157.81
497.529	155.81
497.746	152.81
497.963	130.81
498.181	135.81
498.398	121.81
498.615	132.81
498.832	121.81
499.049	118.81
499.267	123.81
499.484	127.81
499.701	130.81
499.918	131.81
500.135	134.81
500.352	147.81
500.569	151.81
500.786	142.81
501.003	143.81
501.22	143.81
501.437	142.81
501.654	130.81
501.871	130.81
502.088	132.81
502.305	125.81
502.522	135.81
502.739	117.81
502.956	119.81
503.172	125.81
503.389	125.81
503.606	118.81
503.823	112.81
504.04	125.81
504.256	127.81
504.473	127.81
504.69	116.81
504.907	123.81
505.123	117.81
505.34	113.81
505.557	119.81
505.773	123.81
505.99	123.81
506.207	129.81
506.423	115.81
506.64	116.81
506.856	125.81
507.073	113.81
507.289	107.81
507.506	111.81
507.722	118.81
507.939	116.81
508.155	126.81
508.372	110.81
508.588	107.81
508.805	101.81
509.021	100.81
509.238	108.81
509.454	119.81
509.67	99.81
509.887	93.81
510.103	97.81
510.319	92.81
510.536	97.81
510.752	90.81
510.968	80.81
511.184	81.81
511.401	94.81
