Data from Location4.07152019.Energy5.Lamp.07192019.3%Agarose_HRD10591_16-19-58-925.txt Node
Date: Fri Jul 19 16:19:58 EDT 2019
User: cochatt
Spectrometer: HR+D1059
Trigger mode: 1
Integration Time (sec): 1.000000E-1
Scans to average: 1
Electric dark correction enabled: true
Nonlinearity correction enabled: false
Boxcar width: 0
XAxis mode: Wavelengths
Number of Pixels in Spectrum: 2048
>>>>>Begin Spectral Data<<<<<
223.165	-15.44
223.4	-15.44
223.635	-15.44
223.869	-22.44
224.104	-24.44
224.338	-24.44
224.573	-8.44
224.808	-16.44
225.042	-21.44
225.277	-7.44
225.511	-0.44
225.746	20.56
225.98	14.56
226.215	9.56
226.449	14.56
226.683	18.56
226.918	34.56
227.152	28.56
227.387	32.56
227.621	28.56
227.856	30.56
228.09	43.56
228.324	44.56
228.559	51.56
228.793	52.56
229.027	37.56
229.262	59.56
229.496	68.56
229.73	65.56
229.964	68.56
230.199	66.56
230.433	72.56
230.667	72.56
230.901	73.56
231.136	77.56
231.37	79.56
231.604	69.56
231.838	79.56
232.072	86.56
232.306	72.56
232.541	71.56
232.775	77.56
233.009	78.56
233.243	69.56
233.477	92.56
233.711	90.56
233.945	81.56
234.179	83.56
234.413	72.56
234.647	76.56
234.881	84.56
235.115	76.56
235.349	74.56
235.583	86.56
235.817	72.56
236.051	68.56
236.285	72.56
236.519	79.56
236.753	87.56
236.987	82.56
237.221	66.56
237.455	81.56
237.689	74.56
237.922	71.56
238.156	78.56
238.39	72.56
238.624	74.56
238.858	80.56
239.091	73.56
239.325	83.56
239.559	74.56
239.793	73.56
240.027	79.56
240.26	75.56
240.494	67.56
240.728	75.56
240.961	68.56
241.195	79.56
241.429	69.56
241.662	71.56
241.896	75.56
242.13	77.56
242.363	71.56
242.597	77.56
242.83	83.56
243.064	79.56
243.298	83.56
243.531	69.56
243.765	64.56
243.998	74.56
244.232	69.56
244.465	83.56
244.699	78.56
244.932	87.56
245.166	71.56
245.399	78.56
245.633	83.56
245.866	74.56
246.099	75.56
246.333	72.56
246.566	74.56
246.8	73.56
247.033	64.56
247.266	75.56
247.5	71.56
247.733	70.56
247.966	80.56
248.2	76.56
248.433	61.56
248.666	80.56
248.899	91.56
249.133	70.56
249.366	73.56
249.599	75.56
249.832	75.56
250.066	98.56
250.299	89.56
250.532	67.56
250.765	74.56
250.998	76.56
251.231	79.56
251.465	82.56
251.698	80.56
251.931	81.56
252.164	88.56
252.397	80.56
252.63	93.56
252.863	90.56
253.096	87.56
253.329	67.56
253.562	66.56
253.795	69.56
254.028	77.56
254.261	68.56
254.494	84.56
254.727	78.56
254.96	97.56
255.193	81.56
255.426	62.56
255.659	84.56
255.892	71.56
256.124	82.56
256.357	64.56
256.59	77.56
256.823	77.56
257.056	75.56
257.289	79.56
257.521	81.56
257.754	77.56
257.987	88.56
258.22	77.56
258.452	65.56
258.685	76.56
258.918	75.56
259.151	74.56
259.383	93.56
259.616	79.56
259.849	65.56
260.081	71.56
260.314	84.56
260.547	80.56
260.779	84.56
261.012	81.56
261.244	88.56
261.477	95.56
261.71	69.56
261.942	85.56
262.175	90.56
262.407	79.56
262.64	73.56
262.872	66.56
263.105	75.56
263.337	94.56
263.57	73.56
263.802	96.56
264.035	89.56
264.267	97.56
264.499	84.56
264.732	71.56
264.964	83.56
265.197	72.56
265.429	71.56
265.661	83.56
265.894	85.56
266.126	83.56
266.358	84.56
266.591	80.56
266.823	74.56
267.055	82.56
267.287	82.56
267.52	74.56
267.752	72.56
267.984	89.56
268.216	85.56
268.448	78.56
268.681	90.56
268.913	75.56
269.145	71.56
269.377	88.56
269.609	77.56
269.841	101.56
270.073	84.56
270.306	74.56
270.538	69.56
270.77	77.56
271.002	80.56
271.234	72.56
271.466	73.56
271.698	70.56
271.93	79.56
272.162	86.56
272.394	77.56
272.626	78.56
272.858	76.56
273.09	82.56
273.322	74.56
273.553	83.56
273.785	69.56
274.017	88.56
274.249	88.56
274.481	78.56
274.713	70.56
274.945	72.56
275.176	70.56
275.408	84.56
275.64	81.56
275.872	79.56
276.104	77.56
276.335	80.56
276.567	86.56
276.799	82.56
277.031	71.56
277.262	83.56
277.494	70.56
277.726	90.56
277.957	81.56
278.189	88.56
278.421	80.56
278.652	87.56
278.884	82.56
279.115	86.56
279.347	87.56
279.579	96.56
279.81	89.56
280.042	82.56
280.273	84.56
280.505	72.56
280.736	81.56
280.968	85.56
281.199	82.56
281.431	81.56
281.662	81.56
281.894	76.56
282.125	88.56
282.356	79.56
282.588	74.56
282.819	77.56
283.051	88.56
283.282	74.56
283.513	92.56
283.745	95.56
283.976	92.56
284.207	80.56
284.439	82.56
284.67	84.56
284.901	66.56
285.132	55.56
285.364	84.56
285.595	74.56
285.826	69.56
286.057	89.56
286.288	81.56
286.52	84.56
286.751	98.56
286.982	75.56
287.213	86.56
287.444	71.56
287.675	83.56
287.906	72.56
288.138	85.56
288.369	71.56
288.6	78.56
288.831	84.56
289.062	89.56
289.293	71.56
289.524	78.56
289.755	79.56
289.986	78.56
290.217	89.56
290.448	93.56
290.679	73.56
290.91	74.56
291.141	91.56
291.371	70.56
291.602	67.56
291.833	83.56
292.064	69.56
292.295	67.56
292.526	81.56
292.757	90.56
292.987	81.56
293.218	72.56
293.449	85.56
293.68	86.56
293.91	92.56
294.141	88.56
294.372	80.56
294.603	74.56
294.833	72.56
295.064	73.56
295.295	70.56
295.525	91.56
295.756	84.56
295.987	103.56
296.217	84.56
296.448	84.56
296.679	73.56
296.909	79.56
297.14	87.56
297.37	86.56
297.601	71.56
297.831	87.56
298.062	106.56
298.292	74.56
298.523	96.56
298.753	66.56
298.984	80.56
299.214	88.56
299.445	90.56
299.675	87.56
299.905	83.56
300.136	79.56
300.366	71.56
300.597	94.56
300.827	76.56
301.057	79.56
301.288	84.56
301.518	80.56
301.748	81.56
301.979	74.56
302.209	78.56
302.439	78.56
302.669	86.56
302.9	80.56
303.13	90.56
303.36	81.56
303.59	81.56
303.82	82.56
304.051	84.56
304.281	99.56
304.511	88.56
304.741	83.56
304.971	84.56
305.201	57.56
305.431	88.56
305.661	85.56
305.891	92.56
306.121	97.56
306.352	71.56
306.582	85.56
306.812	94.56
307.042	80.56
307.272	74.56
307.502	71.56
307.731	76.56
307.961	80.56
308.191	83.56
308.421	82.56
308.651	96.56
308.881	74.56
309.111	84.56
309.341	91.56
309.571	82.56
309.8	88.56
310.03	87.56
310.26	67.56
310.49	96.56
310.72	76.56
310.949	75.56
311.179	82.56
311.409	84.56
311.639	84.56
311.868	97.56
312.098	90.56
312.328	83.56
312.557	88.56
312.787	82.56
313.017	87.56
313.246	87.56
313.476	78.56
313.706	71.56
313.935	93.56
314.165	80.56
314.394	89.56
314.624	83.56
314.853	82.56
315.083	71.56
315.312	83.56
315.542	88.56
315.771	86.56
316.001	85.56
316.23	77.56
316.46	87.56
316.689	85.56
316.919	82.56
317.148	89.56
317.377	89.56
317.607	78.56
317.836	98.56
318.065	80.56
318.295	74.56
318.524	87.56
318.753	84.56
318.983	83.56
319.212	94.56
319.441	86.56
319.67	77.56
319.9	78.56
320.129	94.56
320.358	78.56
320.587	83.56
320.816	89.56
321.046	83.56
321.275	77.56
321.504	75.56
321.733	74.56
321.962	93.56
322.191	90.56
322.42	85.56
322.649	88.56
322.878	89.56
323.108	81.56
323.337	74.56
323.566	90.56
323.795	76.56
324.024	81.56
324.253	92.56
324.482	84.56
324.71	78.56
324.939	79.56
325.168	101.56
325.397	86.56
325.626	98.56
325.855	72.56
326.084	78.56
326.313	75.56
326.542	83.56
326.77	93.56
326.999	99.56
327.228	85.56
327.457	93.56
327.686	68.56
327.914	90.56
328.143	82.56
328.372	72.56
328.6	74.56
328.829	89.56
329.058	94.56
329.287	84.56
329.515	77.56
329.744	90.56
329.972	74.56
330.201	83.56
330.43	78.56
330.658	82.56
330.887	81.56
331.115	78.56
331.344	87.56
331.572	95.56
331.801	88.56
332.03	90.56
332.258	86.56
332.486	74.56
332.715	81.56
332.943	79.56
333.172	81.56
333.4	88.56
333.629	85.56
333.857	78.56
334.085	76.56
334.314	91.56
334.542	91.56
334.771	78.56
334.999	86.56
335.227	68.56
335.455	81.56
335.684	88.56
335.912	75.56
336.14	73.56
336.369	92.56
336.597	85.56
336.825	73.56
337.053	88.56
337.281	77.56
337.51	94.56
337.738	74.56
337.966	110.56
338.194	87.56
338.422	78.56
338.65	81.56
338.878	84.56
339.106	80.56
339.334	84.56
339.562	82.56
339.79	95.56
340.018	91.56
340.246	68.56
340.474	85.56
340.702	97.56
340.93	84.56
341.158	81.56
341.386	84.56
341.614	64.56
341.842	86.56
342.07	103.56
342.298	71.56
342.526	78.56
342.754	95.56
342.981	85.56
343.209	73.56
343.437	105.56
343.665	76.56
343.893	87.56
344.12	68.56
344.348	83.56
344.576	81.56
344.804	86.56
345.031	82.56
345.259	86.56
345.487	70.56
345.714	79.56
345.942	75.56
346.17	78.56
346.397	71.56
346.625	81.56
346.853	77.56
347.08	78.56
347.308	79.56
347.535	97.56
347.763	80.56
347.99	83.56
348.218	97.56
348.445	89.56
348.673	64.56
348.9	89.56
349.128	86.56
349.355	79.56
349.583	77.56
349.81	84.56
350.037	101.56
350.265	95.56
350.492	82.56
350.72	98.56
350.947	73.56
351.174	72.56
351.402	76.56
351.629	81.56
351.856	74.56
352.083	77.56
352.311	84.56
352.538	81.56
352.765	84.56
352.992	96.56
353.22	84.56
353.447	78.56
353.674	69.56
353.901	83.56
354.128	86.56
354.355	92.56
354.583	98.56
354.81	84.56
355.037	79.56
355.264	90.56
355.491	88.56
355.718	79.56
355.945	87.56
356.172	84.56
356.399	77.56
356.626	80.56
356.853	72.56
357.08	84.56
357.307	73.56
357.534	68.56
357.761	92.56
357.988	64.56
358.215	79.56
358.441	89.56
358.668	80.56
358.895	90.56
359.122	80.56
359.349	59.56
359.576	84.56
359.802	89.56
360.029	80.56
360.256	90.56
360.483	78.56
360.709	89.56
360.936	79.56
361.163	70.56
361.39	80.56
361.616	89.56
361.843	88.56
362.07	76.56
362.296	78.56
362.523	93.56
362.749	76.56
362.976	69.56
363.203	87.56
363.429	79.56
363.656	89.56
363.882	86.56
364.109	77.56
364.335	83.56
364.562	80.56
364.788	81.56
365.015	79.56
365.241	78.56
365.468	86.56
365.694	86.56
365.92	94.56
366.147	76.56
366.373	83.56
366.599	80.56
366.826	85.56
367.052	87.56
367.278	74.56
367.505	87.56
367.731	77.56
367.957	94.56
368.184	78.56
368.41	82.56
368.636	89.56
368.862	88.56
369.089	80.56
369.315	73.56
369.541	94.56
369.767	84.56
369.993	89.56
370.219	89.56
370.445	94.56
370.672	98.56
370.898	103.56
371.124	95.56
371.35	80.56
371.576	92.56
371.802	81.56
372.028	79.56
372.254	98.56
372.48	88.56
372.706	81.56
372.932	81.56
373.158	99.56
373.384	89.56
373.61	89.56
373.835	102.56
374.061	86.56
374.287	93.56
374.513	83.56
374.739	101.56
374.965	97.56
375.191	92.56
375.416	82.56
375.642	81.56
375.868	89.56
376.094	107.56
376.319	100.56
376.545	100.56
376.771	83.56
376.997	84.56
377.222	88.56
377.448	91.56
377.674	93.56
377.899	86.56
378.125	96.56
378.35	87.56
378.576	95.56
378.802	88.56
379.027	87.56
379.253	77.56
379.478	92.56
379.704	75.56
379.929	98.56
380.155	98.56
380.38	102.56
380.606	89.56
380.831	96.56
381.057	113.56
381.282	96.56
381.507	98.56
381.733	97.56
381.958	81.56
382.184	97.56
382.409	90.56
382.634	97.56
382.86	83.56
383.085	91.56
383.31	82.56
383.535	86.56
383.761	97.56
383.986	87.56
384.211	92.56
384.436	99.56
384.662	103.56
384.887	88.56
385.112	96.56
385.337	97.56
385.562	101.56
385.787	73.56
386.013	106.56
386.238	88.56
386.463	91.56
386.688	97.56
386.913	92.56
387.138	108.56
387.363	96.56
387.588	102.56
387.813	95.56
388.038	98.56
388.263	114.56
388.488	97.56
388.713	95.56
388.938	99.56
389.163	85.56
389.387	104.56
389.612	94.56
389.837	94.56
390.062	108.56
390.287	93.56
390.512	100.56
390.736	112.56
390.961	93.56
391.186	93.56
391.411	90.56
391.636	101.56
391.86	103.56
392.085	89.56
392.31	89.56
392.534	99.56
392.759	115.56
392.984	106.56
393.208	112.56
393.433	94.56
393.658	110.56
393.882	105.56
394.107	113.56
394.331	102.56
394.556	103.56
394.78	97.56
395.005	112.56
395.229	110.56
395.454	97.56
395.678	97.56
395.903	97.56
396.127	106.56
396.352	105.56
396.576	102.56
396.801	111.56
397.025	86.56
397.249	92.56
397.474	101.56
397.698	102.56
397.922	121.56
398.147	113.56
398.371	110.56
398.595	107.56
398.82	104.56
399.044	116.56
399.268	108.56
399.492	112.56
399.717	100.56
399.941	111.56
400.165	99.56
400.389	118.56
400.613	116.56
400.837	102.56
401.062	115.56
401.286	91.56
401.51	108.56
401.734	100.56
401.958	108.56
402.182	111.56
402.406	108.56
402.63	113.56
402.854	102.56
403.078	104.56
403.302	117.56
403.526	110.56
403.75	122.56
403.974	108.56
404.198	105.56
404.422	100.56
404.645	124.56
404.869	99.56
405.093	112.56
405.317	119.56
405.541	92.56
405.765	100.56
405.988	120.56
406.212	116.56
406.436	102.56
406.66	119.56
406.883	103.56
407.107	113.56
407.331	105.56
407.555	94.56
407.778	110.56
408.002	124.56
408.226	117.56
408.449	103.56
408.673	121.56
408.896	105.56
409.12	120.56
409.344	108.56
409.567	132.56
409.791	108.56
410.014	114.56
410.238	121.56
410.461	118.56
410.685	121.56
410.908	109.56
411.132	120.56
411.355	126.56
411.578	116.56
411.802	119.56
412.025	124.56
412.249	107.56
412.472	97.56
412.695	120.56
412.919	121.56
413.142	113.56
413.365	121.56
413.589	118.56
413.812	117.56
414.035	128.56
414.258	117.56
414.482	101.56
414.705	123.56
414.928	106.56
415.151	114.56
415.374	119.56
415.597	120.56
415.821	108.56
416.044	113.56
416.267	131.56
416.49	118.56
416.713	124.56
416.936	116.56
417.159	108.56
417.382	104.56
417.605	114.56
417.828	103.56
418.051	120.56
418.274	126.56
418.497	114.56
418.72	139.56
418.943	124.56
419.166	124.56
419.389	125.56
419.611	126.56
419.834	124.56
420.057	122.56
420.28	144.56
420.503	127.56
420.726	116.56
420.948	138.56
421.171	128.56
421.394	116.56
421.617	122.56
421.839	131.56
422.062	128.56
422.285	117.56
422.507	135.56
422.73	116.56
422.953	128.56
423.175	121.56
423.398	114.56
423.621	132.56
423.843	124.56
424.066	131.56
424.288	128.56
424.511	139.56
424.733	142.56
424.956	140.56
425.178	148.56
425.401	152.56
425.623	113.56
425.846	122.56
426.068	124.56
426.291	120.56
426.513	130.56
426.735	120.56
426.958	126.56
427.18	117.56
427.402	138.56
427.625	131.56
427.847	118.56
428.069	114.56
428.292	115.56
428.514	124.56
428.736	112.56
428.958	130.56
429.181	128.56
429.403	129.56
429.625	116.56
429.847	108.56
430.069	121.56
430.292	124.56
430.514	132.56
430.736	127.56
430.958	115.56
431.18	108.56
431.402	128.56
431.624	119.56
431.846	108.56
432.068	103.56
432.29	96.56
432.512	117.56
432.734	120.56
432.956	120.56
433.178	126.56
433.4	140.56
433.622	119.56
433.844	136.56
434.066	129.56
434.287	110.56
434.509	94.56
434.731	98.56
434.953	108.56
435.175	118.56
435.397	128.56
435.618	110.56
435.84	98.56
436.062	105.56
436.284	115.56
436.505	119.56
436.727	123.56
436.949	126.56
437.17	121.56
437.392	128.56
437.614	116.56
437.835	106.56
438.057	114.56
438.278	109.56
438.5	130.56
438.721	132.56
438.943	121.56
439.165	140.56
439.386	134.56
439.608	145.56
439.829	148.56
440.05	133.56
440.272	139.56
440.493	142.56
440.715	135.56
440.936	146.56
441.158	145.56
441.379	133.56
441.6	126.56
441.822	133.56
442.043	136.56
442.264	135.56
442.486	122.56
442.707	128.56
442.928	114.56
443.149	124.56
443.371	137.56
443.592	126.56
443.813	136.56
444.034	133.56
444.255	148.56
444.476	124.56
444.698	142.56
444.919	124.56
445.14	272.56
445.361	185.56
445.582	141.56
445.803	143.56
446.024	148.56
446.245	148.56
446.466	128.56
446.687	137.56
446.908	176.56
447.129	147.56
447.35	144.56
447.571	124.56
447.792	151.56
448.013	144.56
448.234	142.56
448.455	131.56
448.675	142.56
448.896	128.56
449.117	125.56
449.338	132.56
449.559	146.56
449.779	133.56
450	144.56
450.221	139.56
450.442	136.56
450.662	140.56
450.883	121.56
451.104	136.56
451.324	127.56
451.545	124.56
451.766	134.56
451.986	114.56
452.207	135.56
452.428	122.56
452.648	111.56
452.869	111.56
453.089	115.56
453.31	120.56
453.53	111.56
453.751	101.56
453.971	101.56
454.192	108.56
454.412	105.56
454.633	118.56
454.853	114.56
455.073	119.56
455.294	118.56
455.514	102.56
455.734	114.56
455.955	117.56
456.175	104.56
456.395	110.56
456.616	116.56
456.836	114.56
457.056	95.56
457.276	99.56
457.497	124.56
457.717	108.56
457.937	100.56
458.157	101.56
458.377	89.56
458.598	102.56
458.818	98.56
459.038	88.56
459.258	86.56
459.478	92.56
459.698	98.56
459.918	108.56
460.138	113.56
460.358	121.56
460.578	109.56
460.798	116.56
461.018	109.56
461.238	113.56
461.458	113.56
461.678	98.56
461.898	112.56
462.118	121.56
462.338	125.56
462.558	102.56
462.777	99.56
462.997	113.56
463.217	97.56
463.437	111.56
463.657	114.56
463.876	103.56
464.096	106.56
464.316	98.56
464.536	103.56
464.755	120.56
464.975	110.56
465.195	106.56
465.414	114.56
465.634	116.56
465.854	114.56
466.073	119.56
466.293	105.56
466.512	105.56
466.732	125.56
466.951	137.56
467.171	124.56
467.391	143.56
467.61	151.56
467.829	128.56
468.049	135.56
468.268	122.56
468.488	138.56
468.707	122.56
468.927	124.56
469.146	134.56
469.365	146.56
469.585	126.56
469.804	124.56
470.023	122.56
470.243	133.56
470.462	127.56
470.681	135.56
470.901	125.56
471.12	135.56
471.339	128.56
471.558	147.56
471.777	135.56
471.997	125.56
472.216	129.56
472.435	111.56
472.654	121.56
472.873	113.56
473.092	126.56
473.311	114.56
473.53	120.56
473.749	134.56
473.968	110.56
474.187	116.56
474.406	111.56
474.625	116.56
474.844	138.56
475.063	135.56
475.282	126.56
475.501	122.56
475.72	116.56
475.939	118.56
476.158	125.56
476.377	127.56
476.596	125.56
476.814	119.56
477.033	98.56
477.252	116.56
477.471	110.56
477.69	132.56
477.908	123.56
478.127	149.56
478.346	135.56
478.564	118.56
478.783	130.56
479.002	117.56
479.22	126.56
479.439	125.56
479.658	117.56
479.876	117.56
480.095	118.56
480.313	113.56
480.532	122.56
480.751	103.56
480.969	94.56
481.188	80.56
481.406	89.56
481.624	80.56
481.843	106.56
482.061	97.56
482.28	111.56
482.498	114.56
482.717	103.56
482.935	119.56
483.153	144.56
483.372	151.56
483.59	145.56
483.808	150.56
484.027	133.56
484.245	122.56
484.463	158.56
484.681	143.56
484.9	141.56
485.118	127.56
485.336	132.56
485.554	104.56
485.772	88.56
485.99	100.56
486.209	102.56
486.427	104.56
486.645	110.56
486.863	134.56
487.081	142.56
487.299	120.56
487.517	144.56
487.735	166.56
487.953	178.56
488.171	173.56
488.389	170.56
488.607	148.56
488.825	150.56
489.043	120.56
489.261	122.56
489.479	136.56
489.696	124.56
489.914	131.56
490.132	138.56
490.35	154.56
490.568	158.56
490.786	168.56
491.003	157.56
491.221	168.56
491.439	173.56
491.657	166.56
491.874	189.56
492.092	223.56
492.31	230.56
492.527	226.56
492.745	199.56
492.963	183.56
493.18	174.56
493.398	177.56
493.615	165.56
493.833	174.56
494.05	163.56
494.268	170.56
494.485	159.56
494.703	162.56
494.92	173.56
495.138	160.56
495.355	166.56
495.573	165.56
495.79	177.56
496.008	164.56
496.225	155.56
496.442	160.56
496.66	158.56
496.877	156.56
497.094	153.56
497.312	156.56
497.529	150.56
497.746	144.56
497.963	137.56
498.181	129.56
498.398	114.56
498.615	129.56
498.832	138.56
499.049	122.56
499.267	120.56
499.484	117.56
499.701	122.56
499.918	139.56
500.135	116.56
500.352	139.56
500.569	150.56
500.786	147.56
501.003	147.56
501.22	129.56
501.437	131.56
501.654	137.56
501.871	120.56
502.088	124.56
502.305	118.56
502.522	117.56
502.739	127.56
502.956	132.56
503.172	119.56
503.389	117.56
503.606	114.56
503.823	103.56
504.04	118.56
504.256	124.56
504.473	106.56
504.69	127.56
504.907	120.56
505.123	124.56
505.34	112.56
505.557	108.56
505.773	116.56
505.99	114.56
506.207	104.56
506.423	124.56
506.64	100.56
506.856	116.56
507.073	113.56
507.289	100.56
507.506	115.56
507.722	129.56
507.939	112.56
508.155	109.56
508.372	115.56
508.588	135.56
508.805	120.56
509.021	100.56
509.238	92.56
509.454	98.56
509.67	82.56
509.887	93.56
510.103	93.56
510.319	99.56
510.536	103.56
510.752	89.56
510.968	94.56
511.184	92.56
511.401	90.56
511.617	103.56
511.833	103.56
512.049	88.56
