Data from Location4.07152019.Energy5.Lamp.07192019.3%Agarose_HRD10591_16-19-17-925.txt Node
Date: Fri Jul 19 16:19:17 EDT 2019
User: cochatt
Spectrometer: HR+D1059
Trigger mode: 1
Integration Time (sec): 1.000000E-1
Scans to average: 1
Electric dark correction enabled: true
Nonlinearity correction enabled: false
Boxcar width: 0
XAxis mode: Wavelengths
Number of Pixels in Spectrum: 2048
>>>>>Begin Spectral Data<<<<<
223.165	-16.75
223.4	-16.75
223.635	-16.75
223.869	-18.75
224.104	-9.75
224.338	-6.75
224.573	-20.75
224.808	-19.75
225.042	-2.75
225.277	0.25
225.511	-17.75
225.746	-0.75
225.98	11.25
226.215	21.25
226.449	21.25
226.683	32.25
226.918	6.25
227.152	21.25
227.387	28.25
227.621	44.25
227.856	45.25
228.09	42.25
228.324	49.25
228.559	65.25
228.793	61.25
229.027	60.25
229.262	69.25
229.496	62.25
229.73	76.25
229.964	75.25
230.199	87.25
230.433	90.25
230.667	76.25
230.901	82.25
231.136	71.25
231.37	75.25
231.604	75.25
231.838	89.25
232.072	93.25
232.306	85.25
232.541	81.25
232.775	85.25
233.009	84.25
233.243	79.25
233.477	68.25
233.711	89.25
233.945	88.25
234.179	79.25
234.413	84.25
234.647	90.25
234.881	75.25
235.115	88.25
235.349	87.25
235.583	90.25
235.817	94.25
236.051	89.25
236.285	78.25
236.519	92.25
236.753	66.25
236.987	73.25
237.221	87.25
237.455	88.25
237.689	78.25
237.922	64.25
238.156	71.25
238.39	89.25
238.624	85.25
238.858	64.25
239.091	84.25
239.325	80.25
239.559	79.25
239.793	88.25
240.027	85.25
240.26	84.25
240.494	86.25
240.728	79.25
240.961	79.25
241.195	67.25
241.429	91.25
241.662	75.25
241.896	98.25
242.13	85.25
242.363	76.25
242.597	69.25
242.83	71.25
243.064	62.25
243.298	71.25
243.531	58.25
243.765	73.25
243.998	70.25
244.232	88.25
244.465	65.25
244.699	63.25
244.932	98.25
245.166	78.25
245.399	78.25
245.633	79.25
245.866	78.25
246.099	73.25
246.333	75.25
246.566	76.25
246.8	79.25
247.033	79.25
247.266	87.25
247.5	79.25
247.733	83.25
247.966	79.25
248.2	84.25
248.433	81.25
248.666	87.25
248.899	86.25
249.133	75.25
249.366	88.25
249.599	77.25
249.832	65.25
250.066	93.25
250.299	82.25
250.532	84.25
250.765	84.25
250.998	87.25
251.231	76.25
251.465	75.25
251.698	84.25
251.931	91.25
252.164	82.25
252.397	94.25
252.63	85.25
252.863	95.25
253.096	85.25
253.329	78.25
253.562	91.25
253.795	78.25
254.028	72.25
254.261	72.25
254.494	84.25
254.727	74.25
254.96	67.25
255.193	73.25
255.426	83.25
255.659	79.25
255.892	91.25
256.124	80.25
256.357	83.25
256.59	94.25
256.823	77.25
257.056	85.25
257.289	69.25
257.521	86.25
257.754	93.25
257.987	90.25
258.22	85.25
258.452	95.25
258.685	89.25
258.918	88.25
259.151	93.25
259.383	84.25
259.616	78.25
259.849	90.25
260.081	83.25
260.314	70.25
260.547	82.25
260.779	75.25
261.012	77.25
261.244	82.25
261.477	88.25
261.71	81.25
261.942	83.25
262.175	70.25
262.407	70.25
262.64	84.25
262.872	89.25
263.105	91.25
263.337	84.25
263.57	70.25
263.802	76.25
264.035	86.25
264.267	72.25
264.499	99.25
264.732	85.25
264.964	88.25
265.197	86.25
265.429	98.25
265.661	75.25
265.894	98.25
266.126	98.25
266.358	83.25
266.591	88.25
266.823	72.25
267.055	78.25
267.287	90.25
267.52	93.25
267.752	78.25
267.984	92.25
268.216	85.25
268.448	82.25
268.681	89.25
268.913	84.25
269.145	79.25
269.377	77.25
269.609	85.25
269.841	75.25
270.073	75.25
270.306	66.25
270.538	91.25
270.77	81.25
271.002	77.25
271.234	83.25
271.466	95.25
271.698	73.25
271.93	84.25
272.162	97.25
272.394	91.25
272.626	88.25
272.858	91.25
273.09	76.25
273.322	96.25
273.553	85.25
273.785	88.25
274.017	85.25
274.249	75.25
274.481	81.25
274.713	84.25
274.945	87.25
275.176	86.25
275.408	85.25
275.64	76.25
275.872	79.25
276.104	94.25
276.335	78.25
276.567	77.25
276.799	100.25
277.031	93.25
277.262	76.25
277.494	94.25
277.726	77.25
277.957	78.25
278.189	79.25
278.421	87.25
278.652	73.25
278.884	70.25
279.115	103.25
279.347	89.25
279.579	82.25
279.81	99.25
280.042	70.25
280.273	83.25
280.505	82.25
280.736	86.25
280.968	91.25
281.199	77.25
281.431	72.25
281.662	76.25
281.894	101.25
282.125	91.25
282.356	79.25
282.588	77.25
282.819	84.25
283.051	96.25
283.282	87.25
283.513	108.25
283.745	91.25
283.976	93.25
284.207	97.25
284.439	85.25
284.67	90.25
284.901	82.25
285.132	95.25
285.364	94.25
285.595	75.25
285.826	91.25
286.057	87.25
286.288	97.25
286.52	98.25
286.751	84.25
286.982	94.25
287.213	93.25
287.444	77.25
287.675	79.25
287.906	87.25
288.138	89.25
288.369	85.25
288.6	87.25
288.831	79.25
289.062	98.25
289.293	87.25
289.524	85.25
289.755	78.25
289.986	82.25
290.217	81.25
290.448	91.25
290.679	83.25
290.91	85.25
291.141	76.25
291.371	79.25
291.602	93.25
291.833	94.25
292.064	84.25
292.295	86.25
292.526	88.25
292.757	83.25
292.987	87.25
293.218	91.25
293.449	87.25
293.68	79.25
293.91	90.25
294.141	84.25
294.372	78.25
294.603	84.25
294.833	90.25
295.064	96.25
295.295	83.25
295.525	82.25
295.756	92.25
295.987	80.25
296.217	85.25
296.448	82.25
296.679	79.25
296.909	83.25
297.14	91.25
297.37	96.25
297.601	89.25
297.831	77.25
298.062	92.25
298.292	83.25
298.523	97.25
298.753	73.25
298.984	83.25
299.214	84.25
299.445	80.25
299.675	88.25
299.905	93.25
300.136	76.25
300.366	82.25
300.597	95.25
300.827	90.25
301.057	71.25
301.288	102.25
301.518	101.25
301.748	80.25
301.979	75.25
302.209	87.25
302.439	92.25
302.669	90.25
302.9	84.25
303.13	92.25
303.36	85.25
303.59	85.25
303.82	89.25
304.051	74.25
304.281	84.25
304.511	92.25
304.741	97.25
304.971	88.25
305.201	89.25
305.431	80.25
305.661	71.25
305.891	84.25
306.121	81.25
306.352	90.25
306.582	75.25
306.812	83.25
307.042	86.25
307.272	92.25
307.502	79.25
307.731	87.25
307.961	94.25
308.191	89.25
308.421	97.25
308.651	94.25
308.881	72.25
309.111	86.25
309.341	82.25
309.571	94.25
309.8	71.25
310.03	67.25
310.26	84.25
310.49	89.25
310.72	77.25
310.949	93.25
311.179	87.25
311.409	87.25
311.639	79.25
311.868	80.25
312.098	96.25
312.328	94.25
312.557	78.25
312.787	94.25
313.017	91.25
313.246	100.25
313.476	80.25
313.706	100.25
313.935	87.25
314.165	89.25
314.394	93.25
314.624	82.25
314.853	88.25
315.083	97.25
315.312	89.25
315.542	75.25
315.771	94.25
316.001	82.25
316.23	89.25
316.46	84.25
316.689	83.25
316.919	80.25
317.148	105.25
317.377	84.25
317.607	90.25
317.836	89.25
318.065	90.25
318.295	79.25
318.524	82.25
318.753	86.25
318.983	89.25
319.212	79.25
319.441	92.25
319.67	79.25
319.9	77.25
320.129	81.25
320.358	89.25
320.587	79.25
320.816	92.25
321.046	95.25
321.275	77.25
321.504	98.25
321.733	87.25
321.962	86.25
322.191	83.25
322.42	83.25
322.649	90.25
322.878	98.25
323.108	82.25
323.337	79.25
323.566	96.25
323.795	82.25
324.024	79.25
324.253	93.25
324.482	90.25
324.71	91.25
324.939	92.25
325.168	91.25
325.397	80.25
325.626	99.25
325.855	86.25
326.084	93.25
326.313	81.25
326.542	86.25
326.77	99.25
326.999	91.25
327.228	101.25
327.457	87.25
327.686	93.25
327.914	92.25
328.143	102.25
328.372	81.25
328.6	92.25
328.829	91.25
329.058	81.25
329.287	96.25
329.515	90.25
329.744	78.25
329.972	75.25
330.201	91.25
330.43	78.25
330.658	79.25
330.887	83.25
331.115	88.25
331.344	82.25
331.572	81.25
331.801	85.25
332.03	82.25
332.258	102.25
332.486	88.25
332.715	91.25
332.943	85.25
333.172	77.25
333.4	96.25
333.629	102.25
333.857	85.25
334.085	95.25
334.314	78.25
334.542	84.25
334.771	87.25
334.999	90.25
335.227	85.25
335.455	85.25
335.684	94.25
335.912	93.25
336.14	72.25
336.369	85.25
336.597	87.25
336.825	69.25
337.053	68.25
337.281	86.25
337.51	89.25
337.738	83.25
337.966	87.25
338.194	98.25
338.422	84.25
338.65	80.25
338.878	91.25
339.106	100.25
339.334	104.25
339.562	74.25
339.79	96.25
340.018	80.25
340.246	76.25
340.474	91.25
340.702	86.25
340.93	86.25
341.158	93.25
341.386	81.25
341.614	84.25
341.842	94.25
342.07	87.25
342.298	81.25
342.526	87.25
342.754	110.25
342.981	102.25
343.209	94.25
343.437	95.25
343.665	92.25
343.893	77.25
344.12	71.25
344.348	84.25
344.576	97.25
344.804	101.25
345.031	90.25
345.259	91.25
345.487	88.25
345.714	72.25
345.942	83.25
346.17	83.25
346.397	75.25
346.625	77.25
346.853	80.25
347.08	102.25
347.308	94.25
347.535	88.25
347.763	100.25
347.99	76.25
348.218	97.25
348.445	87.25
348.673	81.25
348.9	74.25
349.128	92.25
349.355	85.25
349.583	83.25
349.81	85.25
350.037	81.25
350.265	70.25
350.492	87.25
350.72	88.25
350.947	85.25
351.174	86.25
351.402	91.25
351.629	82.25
351.856	83.25
352.083	84.25
352.311	93.25
352.538	87.25
352.765	86.25
352.992	87.25
353.22	87.25
353.447	87.25
353.674	105.25
353.901	77.25
354.128	84.25
354.355	91.25
354.583	77.25
354.81	88.25
355.037	98.25
355.264	89.25
355.491	92.25
355.718	78.25
355.945	98.25
356.172	65.25
356.399	76.25
356.626	69.25
356.853	66.25
357.08	92.25
357.307	72.25
357.534	86.25
357.761	69.25
357.988	90.25
358.215	105.25
358.441	86.25
358.668	98.25
358.895	88.25
359.122	85.25
359.349	84.25
359.576	74.25
359.802	89.25
360.029	84.25
360.256	84.25
360.483	76.25
360.709	94.25
360.936	96.25
361.163	89.25
361.39	83.25
361.616	74.25
361.843	66.25
362.07	85.25
362.296	93.25
362.523	82.25
362.749	73.25
362.976	93.25
363.203	91.25
363.429	87.25
363.656	101.25
363.882	84.25
364.109	83.25
364.335	95.25
364.562	74.25
364.788	90.25
365.015	101.25
365.241	88.25
365.468	83.25
365.694	79.25
365.92	82.25
366.147	82.25
366.373	103.25
366.599	86.25
366.826	101.25
367.052	79.25
367.278	89.25
367.505	91.25
367.731	102.25
367.957	94.25
368.184	102.25
368.41	93.25
368.636	84.25
368.862	99.25
369.089	90.25
369.315	87.25
369.541	90.25
369.767	92.25
369.993	81.25
370.219	96.25
370.445	94.25
370.672	91.25
370.898	90.25
371.124	79.25
371.35	80.25
371.576	85.25
371.802	88.25
372.028	98.25
372.254	93.25
372.48	86.25
372.706	100.25
372.932	95.25
373.158	119.25
373.384	104.25
373.61	98.25
373.835	91.25
374.061	97.25
374.287	98.25
374.513	93.25
374.739	84.25
374.965	90.25
375.191	97.25
375.416	101.25
375.642	98.25
375.868	91.25
376.094	99.25
376.319	93.25
376.545	100.25
376.771	109.25
376.997	102.25
377.222	97.25
377.448	91.25
377.674	90.25
377.899	102.25
378.125	88.25
378.35	93.25
378.576	95.25
378.802	92.25
379.027	94.25
379.253	85.25
379.478	81.25
379.704	89.25
379.929	88.25
380.155	109.25
380.38	103.25
380.606	101.25
380.831	99.25
381.057	104.25
381.282	92.25
381.507	108.25
381.733	94.25
381.958	89.25
382.184	111.25
382.409	101.25
382.634	98.25
382.86	101.25
383.085	99.25
383.31	106.25
383.535	102.25
383.761	87.25
383.986	117.25
384.211	115.25
384.436	107.25
384.662	93.25
384.887	93.25
385.112	92.25
385.337	97.25
385.562	92.25
385.787	109.25
386.013	102.25
386.238	93.25
386.463	99.25
386.688	116.25
386.913	98.25
387.138	87.25
387.363	103.25
387.588	96.25
387.813	97.25
388.038	97.25
388.263	97.25
388.488	109.25
388.713	101.25
388.938	106.25
389.163	97.25
389.387	85.25
389.612	96.25
389.837	104.25
390.062	113.25
390.287	98.25
390.512	104.25
390.736	99.25
390.961	91.25
391.186	90.25
391.411	109.25
391.636	94.25
391.86	101.25
392.085	107.25
392.31	115.25
392.534	98.25
392.759	111.25
392.984	105.25
393.208	96.25
393.433	110.25
393.658	103.25
393.882	101.25
394.107	106.25
394.331	102.25
394.556	103.25
394.78	97.25
395.005	107.25
395.229	103.25
395.454	103.25
395.678	114.25
395.903	123.25
396.127	108.25
396.352	119.25
396.576	98.25
396.801	103.25
397.025	108.25
397.249	95.25
397.474	107.25
397.698	110.25
397.922	103.25
398.147	106.25
398.371	113.25
398.595	109.25
398.82	124.25
399.044	108.25
399.268	118.25
399.492	101.25
399.717	105.25
399.941	117.25
400.165	129.25
400.389	113.25
400.613	110.25
400.837	99.25
401.062	115.25
401.286	108.25
401.51	126.25
401.734	106.25
401.958	104.25
402.182	110.25
402.406	109.25
402.63	113.25
402.854	125.25
403.078	104.25
403.302	108.25
403.526	115.25
403.75	107.25
403.974	124.25
404.198	105.25
404.422	119.25
404.645	114.25
404.869	119.25
405.093	121.25
405.317	127.25
405.541	114.25
405.765	109.25
405.988	115.25
406.212	101.25
406.436	125.25
406.66	133.25
406.883	123.25
407.107	118.25
407.331	108.25
407.555	113.25
407.778	121.25
408.002	129.25
408.226	110.25
408.449	108.25
408.673	129.25
408.896	121.25
409.12	116.25
409.344	134.25
409.567	114.25
409.791	120.25
410.014	122.25
410.238	119.25
410.461	106.25
410.685	131.25
410.908	121.25
411.132	119.25
411.355	128.25
411.578	115.25
411.802	123.25
412.025	136.25
412.249	132.25
412.472	133.25
412.695	114.25
412.919	124.25
413.142	129.25
413.365	128.25
413.589	120.25
413.812	130.25
414.035	111.25
414.258	116.25
414.482	125.25
414.705	125.25
414.928	134.25
415.151	129.25
415.374	114.25
415.597	121.25
415.821	130.25
416.044	115.25
416.267	122.25
416.49	123.25
416.713	136.25
416.936	140.25
417.159	118.25
417.382	117.25
417.605	123.25
417.828	127.25
418.051	136.25
418.274	137.25
418.497	135.25
418.72	129.25
418.943	137.25
419.166	122.25
419.389	127.25
419.611	132.25
419.834	134.25
420.057	124.25
420.28	130.25
420.503	136.25
420.726	121.25
420.948	127.25
421.171	131.25
421.394	123.25
421.617	136.25
421.839	148.25
422.062	136.25
422.285	138.25
422.507	136.25
422.73	142.25
422.953	126.25
423.175	121.25
423.398	121.25
423.621	130.25
423.843	133.25
424.066	127.25
424.288	134.25
424.511	151.25
424.733	129.25
424.956	130.25
425.178	135.25
425.401	136.25
425.623	125.25
425.846	129.25
426.068	144.25
426.291	126.25
426.513	122.25
426.735	133.25
426.958	139.25
427.18	147.25
427.402	133.25
427.625	130.25
427.847	126.25
428.069	136.25
428.292	125.25
428.514	119.25
428.736	133.25
428.958	123.25
429.181	121.25
429.403	125.25
429.625	129.25
429.847	137.25
430.069	137.25
430.292	141.25
430.514	125.25
430.736	140.25
430.958	120.25
431.18	124.25
431.402	134.25
431.624	120.25
431.846	108.25
432.068	97.25
432.29	108.25
432.512	113.25
432.734	122.25
432.956	137.25
433.178	137.25
433.4	127.25
433.622	144.25
433.844	126.25
434.066	119.25
434.287	107.25
434.509	92.25
434.731	94.25
434.953	118.25
435.175	120.25
435.397	115.25
435.618	131.25
435.84	107.25
436.062	113.25
436.284	122.25
436.505	129.25
436.727	138.25
436.949	126.25
437.17	127.25
437.392	129.25
437.614	119.25
437.835	114.25
438.057	109.25
438.278	122.25
438.5	118.25
438.721	131.25
438.943	142.25
439.165	134.25
439.386	139.25
439.608	126.25
439.829	143.25
440.05	153.25
440.272	149.25
440.493	142.25
440.715	147.25
440.936	155.25
441.158	141.25
441.379	158.25
441.6	150.25
441.822	146.25
442.043	149.25
442.264	139.25
442.486	142.25
442.707	144.25
442.928	145.25
443.149	127.25
443.371	122.25
443.592	139.25
443.813	139.25
444.034	150.25
444.255	161.25
444.476	147.25
444.698	143.25
444.919	137.25
445.14	280.25
445.361	192.25
445.582	143.25
445.803	141.25
446.024	146.25
446.245	145.25
446.466	144.25
446.687	133.25
446.908	157.25
447.129	153.25
447.35	147.25
447.571	151.25
447.792	126.25
448.013	132.25
448.234	140.25
448.455	132.25
448.675	149.25
448.896	149.25
449.117	132.25
449.338	130.25
449.559	138.25
449.779	134.25
450	135.25
450.221	150.25
450.442	138.25
450.662	125.25
450.883	131.25
451.104	133.25
451.324	134.25
451.545	123.25
451.766	125.25
451.986	131.25
452.207	131.25
452.428	129.25
452.648	124.25
452.869	115.25
453.089	116.25
453.31	103.25
453.53	113.25
453.751	107.25
453.971	113.25
454.192	108.25
454.412	108.25
454.633	128.25
454.853	106.25
455.073	122.25
455.294	121.25
455.514	125.25
455.734	135.25
455.955	129.25
456.175	115.25
456.395	108.25
456.616	125.25
456.836	117.25
457.056	111.25
457.276	126.25
457.497	125.25
457.717	110.25
457.937	115.25
458.157	110.25
458.377	122.25
458.598	114.25
458.818	90.25
459.038	94.25
459.258	92.25
459.478	101.25
459.698	106.25
459.918	94.25
460.138	103.25
460.358	113.25
460.578	104.25
460.798	103.25
461.018	111.25
461.238	123.25
461.458	130.25
461.678	109.25
461.898	121.25
462.118	109.25
462.338	120.25
462.558	118.25
462.777	129.25
462.997	118.25
463.217	107.25
463.437	109.25
463.657	106.25
463.876	112.25
464.096	112.25
464.316	110.25
464.536	102.25
464.755	123.25
464.975	126.25
465.195	129.25
465.414	101.25
465.634	120.25
465.854	117.25
466.073	137.25
466.293	118.25
466.512	134.25
466.732	133.25
466.951	122.25
467.171	133.25
467.391	138.25
467.61	147.25
467.829	135.25
468.049	149.25
468.268	140.25
468.488	132.25
468.707	149.25
468.927	155.25
469.146	131.25
469.365	129.25
469.585	129.25
469.804	154.25
470.023	138.25
470.243	143.25
470.462	147.25
470.681	146.25
470.901	148.25
471.12	137.25
471.339	146.25
471.558	134.25
471.777	128.25
471.997	141.25
472.216	133.25
472.435	123.25
472.654	118.25
472.873	116.25
473.092	123.25
473.311	130.25
473.53	128.25
473.749	128.25
473.968	130.25
474.187	114.25
474.406	121.25
474.625	113.25
474.844	143.25
475.063	132.25
475.282	134.25
475.501	124.25
475.72	125.25
475.939	127.25
476.158	134.25
476.377	131.25
476.596	117.25
476.814	119.25
477.033	118.25
477.252	109.25
477.471	129.25
477.69	137.25
477.908	133.25
478.127	134.25
478.346	143.25
478.564	133.25
478.783	131.25
479.002	139.25
479.22	137.25
479.439	143.25
479.658	126.25
479.876	121.25
480.095	120.25
480.313	113.25
480.532	125.25
480.751	105.25
480.969	90.25
481.188	90.25
481.406	105.25
481.624	105.25
481.843	85.25
482.061	86.25
482.28	113.25
482.498	117.25
482.717	103.25
482.935	122.25
483.153	130.25
483.372	138.25
483.59	148.25
483.808	135.25
484.027	131.25
484.245	135.25
484.463	143.25
484.681	159.25
484.9	143.25
485.118	135.25
485.336	133.25
485.554	119.25
485.772	105.25
485.99	106.25
486.209	103.25
486.427	116.25
486.645	120.25
486.863	145.25
487.081	156.25
487.299	138.25
487.517	150.25
487.735	182.25
487.953	180.25
488.171	157.25
488.389	165.25
488.607	147.25
488.825	147.25
489.043	141.25
489.261	137.25
489.479	135.25
489.696	150.25
489.914	143.25
490.132	142.25
490.35	151.25
490.568	166.25
490.786	177.25
491.003	179.25
491.221	183.25
491.439	182.25
491.657	180.25
491.874	202.25
492.092	220.25
492.31	236.25
492.527	217.25
492.745	215.25
492.963	200.25
493.18	186.25
493.398	180.25
493.615	184.25
493.833	168.25
494.05	181.25
494.268	170.25
494.485	164.25
494.703	175.25
494.92	174.25
495.138	154.25
495.355	182.25
495.573	173.25
495.79	155.25
496.008	175.25
496.225	158.25
496.442	170.25
496.66	165.25
496.877	161.25
497.094	171.25
497.312	151.25
497.529	173.25
497.746	143.25
497.963	144.25
498.181	107.25
498.398	117.25
498.615	129.25
498.832	124.25
499.049	115.25
499.267	135.25
499.484	127.25
499.701	135.25
499.918	136.25
500.135	153.25
500.352	131.25
500.569	147.25
500.786	143.25
501.003	140.25
501.22	130.25
501.437	128.25
501.654	145.25
501.871	129.25
502.088	133.25
502.305	123.25
502.522	133.25
502.739	137.25
502.956	136.25
503.172	112.25
503.389	127.25
503.606	123.25
503.823	115.25
504.04	132.25
504.256	134.25
504.473	134.25
504.69	126.25
504.907	119.25
505.123	118.25
505.34	128.25
505.557	125.25
505.773	132.25
505.99	143.25
506.207	129.25
506.423	129.25
506.64	121.25
506.856	135.25
507.073	130.25
507.289	128.25
507.506	122.25
507.722	121.25
507.939	110.25
508.155	124.25
508.372	101.25
508.588	113.25
508.805	122.25
509.021	118.25
509.238	111.25
509.454	94.25
509.67	103.25
509.887	100.25
510.103	113.25
510.319	105.25
510.536	103.25
510.752	82.25
510.968	96.25
511.184	82.25
