Data from Location4.07152019.Energy5.Lamp.07192019.3%Agarose_HRD10591_16-19-56-925.txt Node
Date: Fri Jul 19 16:19:56 EDT 2019
User: cochatt
Spectrometer: HR+D1059
Trigger mode: 1
Integration Time (sec): 1.000000E-1
Scans to average: 1
Electric dark correction enabled: true
Nonlinearity correction enabled: false
Boxcar width: 0
XAxis mode: Wavelengths
Number of Pixels in Spectrum: 2048
>>>>>Begin Spectral Data<<<<<
223.165	-10.31
223.4	-10.31
223.635	-10.31
223.869	-15.31
224.104	-10.31
224.338	-17.31
224.573	-24.31
224.808	-17.31
225.042	-4.31
225.277	-15.31
225.511	-5.31
225.746	7.69
225.98	-3.31
226.215	21.69
226.449	20.69
226.683	9.69
226.918	28.69
227.152	34.69
227.387	43.69
227.621	51.69
227.856	43.69
228.09	40.69
228.324	41.69
228.559	40.69
228.793	50.69
229.027	69.69
229.262	71.69
229.496	69.69
229.73	73.69
229.964	79.69
230.199	64.69
230.433	64.69
230.667	89.69
230.901	84.69
231.136	75.69
231.37	85.69
231.604	76.69
231.838	91.69
232.072	90.69
232.306	87.69
232.541	73.69
232.775	82.69
233.009	92.69
233.243	80.69
233.477	91.69
233.711	83.69
233.945	78.69
234.179	67.69
234.413	82.69
234.647	72.69
234.881	80.69
235.115	94.69
235.349	85.69
235.583	81.69
235.817	91.69
236.051	85.69
236.285	90.69
236.519	80.69
236.753	72.69
236.987	73.69
237.221	83.69
237.455	83.69
237.689	86.69
237.922	73.69
238.156	66.69
238.39	81.69
238.624	80.69
238.858	80.69
239.091	83.69
239.325	91.69
239.559	74.69
239.793	75.69
240.027	77.69
240.26	70.69
240.494	78.69
240.728	71.69
240.961	70.69
241.195	84.69
241.429	68.69
241.662	68.69
241.896	78.69
242.13	84.69
242.363	76.69
242.597	82.69
242.83	74.69
243.064	81.69
243.298	70.69
243.531	81.69
243.765	88.69
243.998	77.69
244.232	85.69
244.465	72.69
244.699	71.69
244.932	78.69
245.166	79.69
245.399	78.69
245.633	60.69
245.866	68.69
246.099	81.69
246.333	86.69
246.566	96.69
246.8	74.69
247.033	75.69
247.266	84.69
247.5	84.69
247.733	73.69
247.966	79.69
248.2	96.69
248.433	85.69
248.666	78.69
248.899	85.69
249.133	88.69
249.366	96.69
249.599	73.69
249.832	80.69
250.066	67.69
250.299	77.69
250.532	83.69
250.765	71.69
250.998	74.69
251.231	76.69
251.465	86.69
251.698	84.69
251.931	83.69
252.164	74.69
252.397	80.69
252.63	73.69
252.863	84.69
253.096	75.69
253.329	105.69
253.562	82.69
253.795	80.69
254.028	70.69
254.261	73.69
254.494	75.69
254.727	71.69
254.96	63.69
255.193	93.69
255.426	92.69
255.659	90.69
255.892	88.69
256.124	95.69
256.357	74.69
256.59	77.69
256.823	82.69
257.056	80.69
257.289	79.69
257.521	83.69
257.754	76.69
257.987	98.69
258.22	75.69
258.452	77.69
258.685	88.69
258.918	72.69
259.151	68.69
259.383	84.69
259.616	72.69
259.849	88.69
260.081	81.69
260.314	83.69
260.547	69.69
260.779	72.69
261.012	81.69
261.244	86.69
261.477	87.69
261.71	69.69
261.942	81.69
262.175	75.69
262.407	89.69
262.64	80.69
262.872	79.69
263.105	79.69
263.337	77.69
263.57	79.69
263.802	78.69
264.035	86.69
264.267	88.69
264.499	82.69
264.732	80.69
264.964	101.69
265.197	96.69
265.429	88.69
265.661	86.69
265.894	84.69
266.126	64.69
266.358	88.69
266.591	72.69
266.823	93.69
267.055	77.69
267.287	93.69
267.52	85.69
267.752	78.69
267.984	88.69
268.216	81.69
268.448	94.69
268.681	87.69
268.913	78.69
269.145	88.69
269.377	73.69
269.609	72.69
269.841	82.69
270.073	91.69
270.306	101.69
270.538	58.69
270.77	66.69
271.002	82.69
271.234	82.69
271.466	77.69
271.698	84.69
271.93	92.69
272.162	82.69
272.394	78.69
272.626	81.69
272.858	79.69
273.09	82.69
273.322	78.69
273.553	76.69
273.785	89.69
274.017	80.69
274.249	90.69
274.481	78.69
274.713	79.69
274.945	82.69
275.176	76.69
275.408	97.69
275.64	84.69
275.872	72.69
276.104	77.69
276.335	71.69
276.567	93.69
276.799	64.69
277.031	93.69
277.262	90.69
277.494	87.69
277.726	79.69
277.957	88.69
278.189	78.69
278.421	79.69
278.652	75.69
278.884	90.69
279.115	69.69
279.347	93.69
279.579	86.69
279.81	76.69
280.042	85.69
280.273	87.69
280.505	85.69
280.736	89.69
280.968	81.69
281.199	80.69
281.431	80.69
281.662	83.69
281.894	76.69
282.125	82.69
282.356	86.69
282.588	75.69
282.819	92.69
283.051	81.69
283.282	90.69
283.513	93.69
283.745	85.69
283.976	82.69
284.207	70.69
284.439	103.69
284.67	88.69
284.901	98.69
285.132	88.69
285.364	79.69
285.595	85.69
285.826	86.69
286.057	86.69
286.288	76.69
286.52	88.69
286.751	92.69
286.982	89.69
287.213	92.69
287.444	92.69
287.675	82.69
287.906	94.69
288.138	97.69
288.369	92.69
288.6	85.69
288.831	89.69
289.062	94.69
289.293	85.69
289.524	88.69
289.755	80.69
289.986	83.69
290.217	83.69
290.448	97.69
290.679	83.69
290.91	98.69
291.141	88.69
291.371	93.69
291.602	92.69
291.833	86.69
292.064	85.69
292.295	76.69
292.526	76.69
292.757	85.69
292.987	74.69
293.218	93.69
293.449	92.69
293.68	85.69
293.91	88.69
294.141	68.69
294.372	75.69
294.603	85.69
294.833	76.69
295.064	83.69
295.295	85.69
295.525	77.69
295.756	86.69
295.987	95.69
296.217	92.69
296.448	85.69
296.679	85.69
296.909	87.69
297.14	88.69
297.37	92.69
297.601	84.69
297.831	77.69
298.062	89.69
298.292	94.69
298.523	93.69
298.753	89.69
298.984	84.69
299.214	78.69
299.445	97.69
299.675	94.69
299.905	77.69
300.136	85.69
300.366	78.69
300.597	90.69
300.827	85.69
301.057	84.69
301.288	92.69
301.518	88.69
301.748	99.69
301.979	93.69
302.209	85.69
302.439	77.69
302.669	84.69
302.9	89.69
303.13	76.69
303.36	90.69
303.59	75.69
303.82	86.69
304.051	89.69
304.281	94.69
304.511	84.69
304.741	76.69
304.971	72.69
305.201	84.69
305.431	85.69
305.661	86.69
305.891	76.69
306.121	93.69
306.352	88.69
306.582	88.69
306.812	83.69
307.042	93.69
307.272	84.69
307.502	85.69
307.731	86.69
307.961	87.69
308.191	81.69
308.421	86.69
308.651	85.69
308.881	94.69
309.111	96.69
309.341	78.69
309.571	78.69
309.8	85.69
310.03	79.69
310.26	87.69
310.49	81.69
310.72	84.69
310.949	80.69
311.179	87.69
311.409	82.69
311.639	76.69
311.868	97.69
312.098	109.69
312.328	82.69
312.557	88.69
312.787	105.69
313.017	104.69
313.246	88.69
313.476	83.69
313.706	88.69
313.935	85.69
314.165	82.69
314.394	100.69
314.624	87.69
314.853	98.69
315.083	88.69
315.312	77.69
315.542	76.69
315.771	70.69
316.001	79.69
316.23	74.69
316.46	80.69
316.689	76.69
316.919	89.69
317.148	76.69
317.377	91.69
317.607	96.69
317.836	96.69
318.065	97.69
318.295	81.69
318.524	79.69
318.753	83.69
318.983	85.69
319.212	79.69
319.441	93.69
319.67	91.69
319.9	68.69
320.129	98.69
320.358	89.69
320.587	85.69
320.816	84.69
321.046	84.69
321.275	92.69
321.504	75.69
321.733	80.69
321.962	79.69
322.191	87.69
322.42	77.69
322.649	74.69
322.878	89.69
323.108	98.69
323.337	92.69
323.566	83.69
323.795	79.69
324.024	82.69
324.253	81.69
324.482	88.69
324.71	99.69
324.939	101.69
325.168	84.69
325.397	83.69
325.626	84.69
325.855	85.69
326.084	92.69
326.313	86.69
326.542	71.69
326.77	92.69
326.999	86.69
327.228	96.69
327.457	87.69
327.686	89.69
327.914	80.69
328.143	77.69
328.372	76.69
328.6	82.69
328.829	86.69
329.058	81.69
329.287	93.69
329.515	91.69
329.744	84.69
329.972	78.69
330.201	74.69
330.43	90.69
330.658	76.69
330.887	82.69
331.115	78.69
331.344	88.69
331.572	80.69
331.801	91.69
332.03	76.69
332.258	84.69
332.486	93.69
332.715	93.69
332.943	90.69
333.172	98.69
333.4	90.69
333.629	88.69
333.857	88.69
334.085	90.69
334.314	88.69
334.542	91.69
334.771	81.69
334.999	94.69
335.227	79.69
335.455	78.69
335.684	82.69
335.912	92.69
336.14	83.69
336.369	88.69
336.597	90.69
336.825	85.69
337.053	78.69
337.281	95.69
337.51	87.69
337.738	99.69
337.966	89.69
338.194	78.69
338.422	84.69
338.65	78.69
338.878	72.69
339.106	76.69
339.334	90.69
339.562	85.69
339.79	95.69
340.018	87.69
340.246	86.69
340.474	80.69
340.702	84.69
340.93	84.69
341.158	90.69
341.386	90.69
341.614	90.69
341.842	97.69
342.07	80.69
342.298	88.69
342.526	93.69
342.754	93.69
342.981	93.69
343.209	87.69
343.437	87.69
343.665	69.69
343.893	90.69
344.12	92.69
344.348	93.69
344.576	90.69
344.804	83.69
345.031	80.69
345.259	70.69
345.487	95.69
345.714	74.69
345.942	83.69
346.17	78.69
346.397	84.69
346.625	91.69
346.853	94.69
347.08	89.69
347.308	89.69
347.535	83.69
347.763	82.69
347.99	79.69
348.218	104.69
348.445	78.69
348.673	95.69
348.9	77.69
349.128	91.69
349.355	85.69
349.583	94.69
349.81	92.69
350.037	82.69
350.265	81.69
350.492	93.69
350.72	94.69
350.947	78.69
351.174	94.69
351.402	85.69
351.629	72.69
351.856	86.69
352.083	75.69
352.311	88.69
352.538	98.69
352.765	84.69
352.992	69.69
353.22	92.69
353.447	96.69
353.674	101.69
353.901	86.69
354.128	81.69
354.355	84.69
354.583	85.69
354.81	92.69
355.037	78.69
355.264	84.69
355.491	88.69
355.718	85.69
355.945	100.69
356.172	86.69
356.399	86.69
356.626	84.69
356.853	96.69
357.08	93.69
357.307	86.69
357.534	83.69
357.761	77.69
357.988	90.69
358.215	90.69
358.441	93.69
358.668	82.69
358.895	96.69
359.122	78.69
359.349	87.69
359.576	101.69
359.802	99.69
360.029	94.69
360.256	76.69
360.483	74.69
360.709	73.69
360.936	80.69
361.163	88.69
361.39	87.69
361.616	77.69
361.843	90.69
362.07	97.69
362.296	74.69
362.523	75.69
362.749	86.69
362.976	92.69
363.203	82.69
363.429	82.69
363.656	88.69
363.882	79.69
364.109	88.69
364.335	84.69
364.562	88.69
364.788	84.69
365.015	76.69
365.241	76.69
365.468	71.69
365.694	69.69
365.92	90.69
366.147	104.69
366.373	84.69
366.599	88.69
366.826	84.69
367.052	88.69
367.278	98.69
367.505	80.69
367.731	92.69
367.957	84.69
368.184	77.69
368.41	102.69
368.636	101.69
368.862	99.69
369.089	100.69
369.315	99.69
369.541	96.69
369.767	90.69
369.993	87.69
370.219	70.69
370.445	96.69
370.672	94.69
370.898	88.69
371.124	88.69
371.35	91.69
371.576	93.69
371.802	83.69
372.028	94.69
372.254	90.69
372.48	91.69
372.706	97.69
372.932	92.69
373.158	94.69
373.384	101.69
373.61	96.69
373.835	83.69
374.061	93.69
374.287	97.69
374.513	91.69
374.739	79.69
374.965	95.69
375.191	101.69
375.416	87.69
375.642	96.69
375.868	104.69
376.094	92.69
376.319	80.69
376.545	90.69
376.771	75.69
376.997	106.69
377.222	82.69
377.448	95.69
377.674	93.69
377.899	80.69
378.125	92.69
378.35	96.69
378.576	80.69
378.802	90.69
379.027	108.69
379.253	100.69
379.478	89.69
379.704	106.69
379.929	85.69
380.155	92.69
380.38	94.69
380.606	122.69
380.831	93.69
381.057	102.69
381.282	96.69
381.507	103.69
381.733	93.69
381.958	93.69
382.184	104.69
382.409	100.69
382.634	94.69
382.86	97.69
383.085	97.69
383.31	101.69
383.535	100.69
383.761	104.69
383.986	85.69
384.211	105.69
384.436	101.69
384.662	87.69
384.887	104.69
385.112	104.69
385.337	86.69
385.562	96.69
385.787	106.69
386.013	101.69
386.238	101.69
386.463	99.69
386.688	102.69
386.913	98.69
387.138	99.69
387.363	97.69
387.588	93.69
387.813	100.69
388.038	93.69
388.263	104.69
388.488	103.69
388.713	107.69
388.938	117.69
389.163	110.69
389.387	112.69
389.612	95.69
389.837	98.69
390.062	102.69
390.287	94.69
390.512	106.69
390.736	102.69
390.961	88.69
391.186	114.69
391.411	102.69
391.636	94.69
391.86	99.69
392.085	98.69
392.31	104.69
392.534	89.69
392.759	105.69
392.984	112.69
393.208	106.69
393.433	106.69
393.658	97.69
393.882	105.69
394.107	104.69
394.331	107.69
394.556	99.69
394.78	94.69
395.005	116.69
395.229	101.69
395.454	98.69
395.678	108.69
395.903	121.69
396.127	96.69
396.352	119.69
396.576	98.69
396.801	103.69
397.025	115.69
397.249	109.69
397.474	112.69
397.698	119.69
397.922	96.69
398.147	100.69
398.371	101.69
398.595	105.69
398.82	103.69
399.044	98.69
399.268	119.69
399.492	100.69
399.717	109.69
399.941	112.69
400.165	124.69
400.389	100.69
400.613	103.69
400.837	105.69
401.062	116.69
401.286	95.69
401.51	124.69
401.734	112.69
401.958	113.69
402.182	119.69
402.406	127.69
402.63	114.69
402.854	121.69
403.078	119.69
403.302	117.69
403.526	102.69
403.75	110.69
403.974	107.69
404.198	113.69
404.422	119.69
404.645	107.69
404.869	116.69
405.093	110.69
405.317	122.69
405.541	120.69
405.765	109.69
405.988	115.69
406.212	124.69
406.436	107.69
406.66	126.69
406.883	119.69
407.107	110.69
407.331	116.69
407.555	121.69
407.778	106.69
408.002	105.69
408.226	119.69
408.449	119.69
408.673	116.69
408.896	128.69
409.12	125.69
409.344	115.69
409.567	102.69
409.791	112.69
410.014	126.69
410.238	118.69
410.461	109.69
410.685	117.69
410.908	114.69
411.132	128.69
411.355	119.69
411.578	117.69
411.802	105.69
412.025	106.69
412.249	100.69
412.472	130.69
412.695	124.69
412.919	125.69
413.142	122.69
413.365	125.69
413.589	127.69
413.812	122.69
414.035	120.69
414.258	113.69
414.482	120.69
414.705	130.69
414.928	108.69
415.151	124.69
415.374	127.69
415.597	124.69
415.821	129.69
416.044	128.69
416.267	133.69
416.49	125.69
416.713	124.69
416.936	124.69
417.159	135.69
417.382	123.69
417.605	115.69
417.828	136.69
418.051	128.69
418.274	126.69
418.497	122.69
418.72	128.69
418.943	128.69
419.166	121.69
419.389	139.69
419.611	140.69
419.834	135.69
420.057	126.69
420.28	132.69
420.503	126.69
420.726	140.69
420.948	128.69
421.171	132.69
421.394	134.69
421.617	141.69
421.839	135.69
422.062	132.69
422.285	130.69
422.507	117.69
422.73	138.69
422.953	140.69
423.175	121.69
423.398	126.69
423.621	124.69
423.843	129.69
424.066	142.69
424.288	126.69
424.511	141.69
424.733	142.69
424.956	153.69
425.178	127.69
425.401	140.69
425.623	118.69
425.846	136.69
426.068	135.69
426.291	122.69
426.513	121.69
426.735	129.69
426.958	125.69
427.18	121.69
427.402	125.69
427.625	109.69
427.847	135.69
428.069	126.69
428.292	118.69
428.514	128.69
428.736	132.69
428.958	119.69
429.181	128.69
429.403	130.69
429.625	124.69
429.847	137.69
430.069	128.69
430.292	126.69
430.514	125.69
430.736	118.69
430.958	125.69
431.18	108.69
431.402	116.69
431.624	117.69
431.846	103.69
432.068	112.69
432.29	92.69
432.512	126.69
432.734	124.69
432.956	141.69
433.178	144.69
433.4	138.69
433.622	164.69
433.844	134.69
434.066	123.69
434.287	121.69
434.509	98.69
434.731	109.69
434.953	114.69
435.175	124.69
435.397	121.69
435.618	137.69
435.84	117.69
436.062	101.69
436.284	128.69
436.505	127.69
436.727	129.69
436.949	139.69
437.17	124.69
437.392	126.69
437.614	119.69
437.835	104.69
438.057	132.69
438.278	112.69
438.5	112.69
438.721	142.69
438.943	140.69
439.165	135.69
439.386	148.69
439.608	141.69
439.829	140.69
440.05	137.69
440.272	132.69
440.493	137.69
440.715	148.69
440.936	132.69
441.158	142.69
441.379	144.69
441.6	142.69
441.822	148.69
442.043	150.69
442.264	129.69
442.486	154.69
442.707	127.69
442.928	118.69
443.149	130.69
443.371	131.69
443.592	144.69
443.813	171.69
444.034	129.69
444.255	132.69
444.476	133.69
444.698	142.69
444.919	136.69
445.14	278.69
445.361	197.69
445.582	151.69
445.803	124.69
446.024	148.69
446.245	149.69
446.466	152.69
446.687	160.69
446.908	162.69
447.129	150.69
447.35	154.69
447.571	148.69
447.792	132.69
448.013	150.69
448.234	147.69
448.455	154.69
448.675	137.69
448.896	129.69
449.117	149.69
449.338	140.69
449.559	146.69
449.779	141.69
450	142.69
450.221	141.69
450.442	132.69
450.662	136.69
450.883	112.69
451.104	132.69
451.324	133.69
451.545	131.69
451.766	128.69
451.986	120.69
452.207	131.69
452.428	137.69
452.648	128.69
452.869	117.69
453.089	104.69
453.31	106.69
453.53	108.69
453.751	110.69
453.971	92.69
454.192	94.69
454.412	111.69
454.633	118.69
454.853	124.69
455.073	113.69
455.294	114.69
455.514	116.69
455.734	124.69
455.955	124.69
456.175	110.69
456.395	134.69
456.616	109.69
456.836	113.69
457.056	104.69
457.276	114.69
457.497	109.69
457.717	90.69
457.937	95.69
458.157	118.69
458.377	110.69
458.598	92.69
458.818	89.69
459.038	79.69
459.258	91.69
459.478	86.69
459.698	77.69
459.918	88.69
460.138	99.69
460.358	113.69
460.578	132.69
460.798	108.69
461.018	118.69
461.238	122.69
461.458	128.69
461.678	124.69
461.898	116.69
462.118	118.69
462.338	122.69
462.558	118.69
462.777	104.69
462.997	122.69
463.217	113.69
463.437	105.69
463.657	108.69
463.876	113.69
464.096	118.69
464.316	123.69
464.536	109.69
464.755	112.69
464.975	115.69
465.195	135.69
465.414	121.69
465.634	112.69
465.854	112.69
466.073	110.69
466.293	112.69
466.512	118.69
466.732	131.69
466.951	131.69
467.171	125.69
467.391	128.69
467.61	151.69
467.829	126.69
468.049	130.69
468.268	143.69
468.488	136.69
468.707	138.69
468.927	124.69
469.146	136.69
469.365	139.69
469.585	152.69
469.804	130.69
470.023	138.69
470.243	153.69
470.462	146.69
470.681	138.69
470.901	130.69
471.12	146.69
471.339	129.69
471.558	150.69
471.777	149.69
471.997	133.69
472.216	138.69
472.435	125.69
472.654	111.69
472.873	122.69
473.092	113.69
473.311	115.69
473.53	119.69
473.749	112.69
473.968	126.69
474.187	122.69
474.406	116.69
474.625	127.69
474.844	130.69
475.063	126.69
475.282	120.69
475.501	125.69
475.72	115.69
475.939	137.69
476.158	117.69
476.377	129.69
476.596	116.69
476.814	102.69
477.033	104.69
477.252	108.69
477.471	122.69
477.69	112.69
477.908	140.69
478.127	136.69
478.346	134.69
478.564	140.69
478.783	142.69
479.002	123.69
479.22	132.69
479.439	128.69
479.658	125.69
479.876	113.69
480.095	99.69
480.313	133.69
480.532	109.69
480.751	114.69
480.969	107.69
481.188	89.69
481.406	89.69
481.624	101.69
481.843	91.69
482.061	90.69
482.28	120.69
482.498	105.69
482.717	108.69
482.935	128.69
483.153	141.69
483.372	138.69
483.59	152.69
483.808	150.69
484.027	138.69
484.245	139.69
484.463	165.69
484.681	146.69
484.9	138.69
485.118	149.69
485.336	135.69
485.554	109.69
485.772	111.69
485.99	109.69
486.209	106.69
486.427	105.69
486.645	118.69
486.863	124.69
487.081	141.69
487.299	119.69
487.517	141.69
487.735	174.69
487.953	178.69
488.171	173.69
488.389	169.69
488.607	167.69
488.825	141.69
489.043	153.69
489.261	150.69
489.479	138.69
489.696	141.69
489.914	147.69
490.132	138.69
490.35	134.69
490.568	152.69
490.786	149.69
491.003	177.69
491.221	172.69
491.439	192.69
491.657	185.69
491.874	208.69
492.092	227.69
492.31	226.69
492.527	227.69
492.745	200.69
492.963	176.69
493.18	185.69
493.398	166.69
493.615	171.69
493.833	186.69
494.05	183.69
494.268	178.69
494.485	173.69
494.703	170.69
494.92	158.69
495.138	169.69
495.355	161.69
495.573	182.69
495.79	154.69
496.008	167.69
496.225	156.69
496.442	149.69
496.66	166.69
496.877	171.69
497.094	142.69
497.312	167.69
497.529	168.69
497.746	152.69
497.963	137.69
498.181	126.69
498.398	128.69
498.615	122.69
498.832	128.69
499.049	124.69
499.267	124.69
499.484	135.69
499.701	126.69
499.918	131.69
500.135	150.69
500.352	122.69
500.569	140.69
500.786	147.69
501.003	140.69
501.22	133.69
501.437	145.69
501.654	125.69
501.871	117.69
502.088	129.69
502.305	130.69
502.522	125.69
502.739	138.69
502.956	138.69
503.172	116.69
503.389	121.69
503.606	112.69
503.823	100.69
504.04	118.69
504.256	110.69
504.473	98.69
504.69	122.69
504.907	121.69
505.123	134.69
505.34	128.69
505.557	105.69
505.773	109.69
505.99	106.69
506.207	107.69
506.423	122.69
506.64	138.69
506.856	126.69
507.073	117.69
507.289	114.69
507.506	108.69
507.722	112.69
507.939	115.69
508.155	123.69
508.372	105.69
508.588	120.69
508.805	120.69
509.021	129.69
509.238	116.69
509.454	101.69
509.67	104.69
509.887	98.69
510.103	86.69
510.319	88.69
510.536	89.69
510.752	73.69
510.968	95.69
511.184	88.69
511.401	94.69
