Data from Location4.07152019.Energy5.Lamp.07192019.3%Agarose_HRD10591_16-20-51-926.txt Node
Date: Fri Jul 19 16:20:51 EDT 2019
User: cochatt
Spectrometer: HR+D1059
Trigger mode: 1
Integration Time (sec): 1.000000E-1
Scans to average: 1
Electric dark correction enabled: true
Nonlinearity correction enabled: false
Boxcar width: 0
XAxis mode: Wavelengths
Number of Pixels in Spectrum: 2048
>>>>>Begin Spectral Data<<<<<
223.165	-23.38
223.4	-23.38
223.635	-23.38
223.869	-19.38
224.104	-14.38
224.338	-2.38
224.573	-25.38
224.808	-26.38
225.042	-8.38
225.277	8.62
225.511	5.62
225.746	3.62
225.98	-4.38
226.215	4.62
226.449	18.62
226.683	23.62
226.918	26.62
227.152	32.62
227.387	27.62
227.621	29.62
227.856	32.62
228.09	48.62
228.324	54.62
228.559	47.62
228.793	65.62
229.027	62.62
229.262	61.62
229.496	68.62
229.73	68.62
229.964	86.62
230.199	72.62
230.433	71.62
230.667	74.62
230.901	66.62
231.136	76.62
231.37	68.62
231.604	87.62
231.838	74.62
232.072	70.62
232.306	87.62
232.541	83.62
232.775	76.62
233.009	83.62
233.243	78.62
233.477	77.62
233.711	77.62
233.945	70.62
234.179	76.62
234.413	89.62
234.647	63.62
234.881	81.62
235.115	71.62
235.349	59.62
235.583	72.62
235.817	74.62
236.051	70.62
236.285	92.62
236.519	76.62
236.753	78.62
236.987	90.62
237.221	76.62
237.455	67.62
237.689	74.62
237.922	76.62
238.156	80.62
238.39	71.62
238.624	71.62
238.858	77.62
239.091	69.62
239.325	83.62
239.559	75.62
239.793	78.62
240.027	81.62
240.26	63.62
240.494	84.62
240.728	73.62
240.961	72.62
241.195	73.62
241.429	71.62
241.662	81.62
241.896	67.62
242.13	74.62
242.363	73.62
242.597	76.62
242.83	75.62
243.064	81.62
243.298	76.62
243.531	85.62
243.765	67.62
243.998	69.62
244.232	84.62
244.465	75.62
244.699	77.62
244.932	57.62
245.166	65.62
245.399	90.62
245.633	90.62
245.866	87.62
246.099	70.62
246.333	82.62
246.566	74.62
246.8	72.62
247.033	78.62
247.266	75.62
247.5	75.62
247.733	81.62
247.966	68.62
248.2	72.62
248.433	81.62
248.666	72.62
248.899	69.62
249.133	88.62
249.366	85.62
249.599	75.62
249.832	74.62
250.066	74.62
250.299	84.62
250.532	79.62
250.765	73.62
250.998	72.62
251.231	88.62
251.465	65.62
251.698	72.62
251.931	78.62
252.164	88.62
252.397	81.62
252.63	64.62
252.863	60.62
253.096	88.62
253.329	79.62
253.562	78.62
253.795	86.62
254.028	79.62
254.261	91.62
254.494	75.62
254.727	81.62
254.96	91.62
255.193	100.62
255.426	87.62
255.659	79.62
255.892	96.62
256.124	85.62
256.357	92.62
256.59	77.62
256.823	76.62
257.056	85.62
257.289	91.62
257.521	74.62
257.754	80.62
257.987	84.62
258.22	65.62
258.452	73.62
258.685	78.62
258.918	87.62
259.151	75.62
259.383	96.62
259.616	88.62
259.849	81.62
260.081	75.62
260.314	78.62
260.547	73.62
260.779	77.62
261.012	70.62
261.244	84.62
261.477	83.62
261.71	87.62
261.942	74.62
262.175	83.62
262.407	90.62
262.64	84.62
262.872	79.62
263.105	77.62
263.337	78.62
263.57	73.62
263.802	73.62
264.035	84.62
264.267	84.62
264.499	75.62
264.732	70.62
264.964	81.62
265.197	82.62
265.429	74.62
265.661	79.62
265.894	83.62
266.126	70.62
266.358	86.62
266.591	83.62
266.823	85.62
267.055	79.62
267.287	75.62
267.52	71.62
267.752	76.62
267.984	100.62
268.216	82.62
268.448	75.62
268.681	77.62
268.913	97.62
269.145	84.62
269.377	72.62
269.609	82.62
269.841	73.62
270.073	72.62
270.306	94.62
270.538	84.62
270.77	71.62
271.002	89.62
271.234	96.62
271.466	73.62
271.698	81.62
271.93	91.62
272.162	71.62
272.394	82.62
272.626	74.62
272.858	81.62
273.09	81.62
273.322	74.62
273.553	78.62
273.785	80.62
274.017	93.62
274.249	69.62
274.481	70.62
274.713	87.62
274.945	83.62
275.176	84.62
275.408	76.62
275.64	73.62
275.872	71.62
276.104	81.62
276.335	79.62
276.567	93.62
276.799	90.62
277.031	82.62
277.262	84.62
277.494	81.62
277.726	79.62
277.957	76.62
278.189	82.62
278.421	75.62
278.652	85.62
278.884	79.62
279.115	92.62
279.347	87.62
279.579	91.62
279.81	95.62
280.042	92.62
280.273	80.62
280.505	89.62
280.736	77.62
280.968	77.62
281.199	87.62
281.431	90.62
281.662	72.62
281.894	83.62
282.125	78.62
282.356	96.62
282.588	83.62
282.819	85.62
283.051	77.62
283.282	78.62
283.513	72.62
283.745	88.62
283.976	89.62
284.207	77.62
284.439	79.62
284.67	94.62
284.901	84.62
285.132	82.62
285.364	83.62
285.595	88.62
285.826	87.62
286.057	75.62
286.288	88.62
286.52	76.62
286.751	83.62
286.982	99.62
287.213	71.62
287.444	79.62
287.675	94.62
287.906	80.62
288.138	91.62
288.369	80.62
288.6	82.62
288.831	69.62
289.062	88.62
289.293	85.62
289.524	75.62
289.755	89.62
289.986	88.62
290.217	98.62
290.448	79.62
290.679	82.62
290.91	85.62
291.141	77.62
291.371	64.62
291.602	60.62
291.833	80.62
292.064	78.62
292.295	92.62
292.526	77.62
292.757	78.62
292.987	85.62
293.218	69.62
293.449	98.62
293.68	81.62
293.91	80.62
294.141	73.62
294.372	83.62
294.603	65.62
294.833	93.62
295.064	88.62
295.295	89.62
295.525	88.62
295.756	82.62
295.987	84.62
296.217	81.62
296.448	89.62
296.679	77.62
296.909	91.62
297.14	84.62
297.37	83.62
297.601	81.62
297.831	81.62
298.062	88.62
298.292	84.62
298.523	72.62
298.753	91.62
298.984	68.62
299.214	87.62
299.445	86.62
299.675	79.62
299.905	81.62
300.136	98.62
300.366	96.62
300.597	89.62
300.827	88.62
301.057	79.62
301.288	87.62
301.518	73.62
301.748	94.62
301.979	82.62
302.209	74.62
302.439	81.62
302.669	93.62
302.9	96.62
303.13	93.62
303.36	92.62
303.59	101.62
303.82	94.62
304.051	87.62
304.281	72.62
304.511	84.62
304.741	75.62
304.971	79.62
305.201	88.62
305.431	87.62
305.661	70.62
305.891	87.62
306.121	83.62
306.352	72.62
306.582	69.62
306.812	67.62
307.042	90.62
307.272	85.62
307.502	83.62
307.731	87.62
307.961	77.62
308.191	73.62
308.421	83.62
308.651	75.62
308.881	99.62
309.111	79.62
309.341	67.62
309.571	85.62
309.8	77.62
310.03	85.62
310.26	58.62
310.49	84.62
310.72	89.62
310.949	89.62
311.179	89.62
311.409	91.62
311.639	86.62
311.868	89.62
312.098	93.62
312.328	77.62
312.557	80.62
312.787	88.62
313.017	87.62
313.246	97.62
313.476	82.62
313.706	97.62
313.935	74.62
314.165	81.62
314.394	91.62
314.624	88.62
314.853	85.62
315.083	76.62
315.312	84.62
315.542	83.62
315.771	84.62
316.001	86.62
316.23	92.62
316.46	76.62
316.689	71.62
316.919	96.62
317.148	102.62
317.377	95.62
317.607	86.62
317.836	76.62
318.065	65.62
318.295	93.62
318.524	80.62
318.753	77.62
318.983	77.62
319.212	69.62
319.441	85.62
319.67	83.62
319.9	86.62
320.129	86.62
320.358	86.62
320.587	84.62
320.816	83.62
321.046	89.62
321.275	88.62
321.504	82.62
321.733	84.62
321.962	83.62
322.191	89.62
322.42	80.62
322.649	69.62
322.878	91.62
323.108	67.62
323.337	81.62
323.566	86.62
323.795	87.62
324.024	75.62
324.253	83.62
324.482	82.62
324.71	86.62
324.939	88.62
325.168	70.62
325.397	68.62
325.626	89.62
325.855	85.62
326.084	88.62
326.313	79.62
326.542	72.62
326.77	107.62
326.999	84.62
327.228	87.62
327.457	84.62
327.686	85.62
327.914	98.62
328.143	93.62
328.372	66.62
328.6	100.62
328.829	85.62
329.058	90.62
329.287	93.62
329.515	85.62
329.744	75.62
329.972	81.62
330.201	76.62
330.43	83.62
330.658	79.62
330.887	84.62
331.115	82.62
331.344	82.62
331.572	91.62
331.801	83.62
332.03	81.62
332.258	90.62
332.486	87.62
332.715	88.62
332.943	88.62
333.172	84.62
333.4	93.62
333.629	81.62
333.857	89.62
334.085	78.62
334.314	91.62
334.542	72.62
334.771	77.62
334.999	79.62
335.227	91.62
335.455	93.62
335.684	87.62
335.912	88.62
336.14	78.62
336.369	81.62
336.597	87.62
336.825	85.62
337.053	74.62
337.281	85.62
337.51	80.62
337.738	80.62
337.966	63.62
338.194	88.62
338.422	89.62
338.65	79.62
338.878	82.62
339.106	89.62
339.334	87.62
339.562	89.62
339.79	87.62
340.018	61.62
340.246	92.62
340.474	76.62
340.702	88.62
340.93	89.62
341.158	90.62
341.386	74.62
341.614	89.62
341.842	75.62
342.07	97.62
342.298	90.62
342.526	93.62
342.754	87.62
342.981	95.62
343.209	84.62
343.437	86.62
343.665	81.62
343.893	89.62
344.12	85.62
344.348	87.62
344.576	88.62
344.804	73.62
345.031	79.62
345.259	98.62
345.487	83.62
345.714	76.62
345.942	82.62
346.17	84.62
346.397	86.62
346.625	72.62
346.853	89.62
347.08	83.62
347.308	76.62
347.535	87.62
347.763	96.62
347.99	76.62
348.218	97.62
348.445	92.62
348.673	71.62
348.9	83.62
349.128	86.62
349.355	87.62
349.583	80.62
349.81	91.62
350.037	79.62
350.265	77.62
350.492	77.62
350.72	88.62
350.947	82.62
351.174	91.62
351.402	86.62
351.629	78.62
351.856	89.62
352.083	89.62
352.311	98.62
352.538	88.62
352.765	79.62
352.992	83.62
353.22	77.62
353.447	92.62
353.674	91.62
353.901	82.62
354.128	86.62
354.355	76.62
354.583	95.62
354.81	77.62
355.037	96.62
355.264	84.62
355.491	87.62
355.718	73.62
355.945	79.62
356.172	78.62
356.399	82.62
356.626	89.62
356.853	95.62
357.08	67.62
357.307	79.62
357.534	81.62
357.761	75.62
357.988	87.62
358.215	83.62
358.441	89.62
358.668	95.62
358.895	90.62
359.122	85.62
359.349	88.62
359.576	91.62
359.802	74.62
360.029	94.62
360.256	84.62
360.483	85.62
360.709	93.62
360.936	90.62
361.163	91.62
361.39	91.62
361.616	89.62
361.843	81.62
362.07	79.62
362.296	77.62
362.523	90.62
362.749	84.62
362.976	83.62
363.203	83.62
363.429	88.62
363.656	82.62
363.882	91.62
364.109	78.62
364.335	96.62
364.562	93.62
364.788	72.62
365.015	80.62
365.241	84.62
365.468	82.62
365.694	89.62
365.92	98.62
366.147	75.62
366.373	86.62
366.599	86.62
366.826	86.62
367.052	87.62
367.278	98.62
367.505	87.62
367.731	102.62
367.957	80.62
368.184	81.62
368.41	90.62
368.636	87.62
368.862	84.62
369.089	84.62
369.315	84.62
369.541	80.62
369.767	89.62
369.993	89.62
370.219	101.62
370.445	90.62
370.672	94.62
370.898	93.62
371.124	91.62
371.35	95.62
371.576	112.62
371.802	89.62
372.028	82.62
372.254	91.62
372.48	103.62
372.706	73.62
372.932	75.62
373.158	82.62
373.384	97.62
373.61	95.62
373.835	93.62
374.061	100.62
374.287	95.62
374.513	76.62
374.739	87.62
374.965	86.62
375.191	87.62
375.416	96.62
375.642	96.62
375.868	111.62
376.094	91.62
376.319	101.62
376.545	83.62
376.771	90.62
376.997	106.62
377.222	80.62
377.448	104.62
377.674	83.62
377.899	87.62
378.125	92.62
378.35	101.62
378.576	87.62
378.802	85.62
379.027	90.62
379.253	88.62
379.478	91.62
379.704	88.62
379.929	81.62
380.155	84.62
380.38	96.62
380.606	93.62
380.831	98.62
381.057	88.62
381.282	88.62
381.507	89.62
381.733	91.62
381.958	100.62
382.184	91.62
382.409	88.62
382.634	99.62
382.86	92.62
383.085	97.62
383.31	92.62
383.535	103.62
383.761	97.62
383.986	103.62
384.211	90.62
384.436	106.62
384.662	102.62
384.887	104.62
385.112	93.62
385.337	101.62
385.562	88.62
385.787	92.62
386.013	109.62
386.238	89.62
386.463	91.62
386.688	96.62
386.913	91.62
387.138	93.62
387.363	103.62
387.588	108.62
387.813	105.62
388.038	99.62
388.263	103.62
388.488	98.62
388.713	94.62
388.938	100.62
389.163	83.62
389.387	86.62
389.612	99.62
389.837	112.62
390.062	108.62
390.287	90.62
390.512	92.62
390.736	92.62
390.961	91.62
391.186	88.62
391.411	99.62
391.636	113.62
391.86	98.62
392.085	99.62
392.31	98.62
392.534	108.62
392.759	90.62
392.984	109.62
393.208	108.62
393.433	97.62
393.658	116.62
393.882	102.62
394.107	90.62
394.331	102.62
394.556	114.62
394.78	85.62
395.005	99.62
395.229	103.62
395.454	111.62
395.678	109.62
395.903	103.62
396.127	114.62
396.352	115.62
396.576	115.62
396.801	102.62
397.025	98.62
397.249	105.62
397.474	99.62
397.698	113.62
397.922	106.62
398.147	99.62
398.371	116.62
398.595	105.62
398.82	109.62
399.044	105.62
399.268	114.62
399.492	107.62
399.717	114.62
399.941	121.62
400.165	109.62
400.389	101.62
400.613	123.62
400.837	105.62
401.062	105.62
401.286	101.62
401.51	106.62
401.734	129.62
401.958	101.62
402.182	115.62
402.406	87.62
402.63	121.62
402.854	109.62
403.078	109.62
403.302	104.62
403.526	120.62
403.75	104.62
403.974	118.62
404.198	101.62
404.422	116.62
404.645	96.62
404.869	129.62
405.093	108.62
405.317	108.62
405.541	108.62
405.765	120.62
405.988	120.62
406.212	116.62
406.436	128.62
406.66	138.62
406.883	120.62
407.107	118.62
407.331	113.62
407.555	102.62
407.778	117.62
408.002	106.62
408.226	108.62
408.449	112.62
408.673	115.62
408.896	115.62
409.12	118.62
409.344	123.62
409.567	124.62
409.791	128.62
410.014	116.62
410.238	115.62
410.461	117.62
410.685	113.62
410.908	114.62
411.132	121.62
411.355	120.62
411.578	108.62
411.802	119.62
412.025	129.62
412.249	111.62
412.472	115.62
412.695	111.62
412.919	123.62
413.142	113.62
413.365	107.62
413.589	117.62
413.812	115.62
414.035	124.62
414.258	121.62
414.482	115.62
414.705	104.62
414.928	124.62
415.151	106.62
415.374	112.62
415.597	127.62
415.821	126.62
416.044	136.62
416.267	125.62
416.49	123.62
416.713	136.62
416.936	122.62
417.159	114.62
417.382	135.62
417.605	123.62
417.828	122.62
418.051	133.62
418.274	115.62
418.497	123.62
418.72	137.62
418.943	129.62
419.166	131.62
419.389	136.62
419.611	131.62
419.834	125.62
420.057	134.62
420.28	123.62
420.503	140.62
420.726	130.62
420.948	129.62
421.171	125.62
421.394	127.62
421.617	134.62
421.839	153.62
422.062	133.62
422.285	134.62
422.507	123.62
422.73	126.62
422.953	121.62
423.175	123.62
423.398	128.62
423.621	125.62
423.843	127.62
424.066	143.62
424.288	133.62
424.511	143.62
424.733	131.62
424.956	136.62
425.178	134.62
425.401	138.62
425.623	124.62
425.846	133.62
426.068	142.62
426.291	131.62
426.513	124.62
426.735	142.62
426.958	129.62
427.18	123.62
427.402	127.62
427.625	123.62
427.847	123.62
428.069	119.62
428.292	116.62
428.514	127.62
428.736	133.62
428.958	117.62
429.181	120.62
429.403	132.62
429.625	122.62
429.847	125.62
430.069	122.62
430.292	147.62
430.514	123.62
430.736	116.62
430.958	111.62
431.18	122.62
431.402	123.62
431.624	135.62
431.846	101.62
432.068	92.62
432.29	92.62
432.512	100.62
432.734	123.62
432.956	125.62
433.178	136.62
433.4	136.62
433.622	136.62
433.844	119.62
434.066	109.62
434.287	106.62
434.509	103.62
434.731	98.62
434.953	111.62
435.175	113.62
435.397	121.62
435.618	106.62
435.84	109.62
436.062	123.62
436.284	120.62
436.505	122.62
436.727	124.62
436.949	137.62
437.17	132.62
437.392	117.62
437.614	128.62
437.835	108.62
438.057	113.62
438.278	115.62
438.5	118.62
438.721	151.62
438.943	131.62
439.165	141.62
439.386	130.62
439.608	145.62
439.829	129.62
440.05	140.62
440.272	144.62
440.493	154.62
440.715	143.62
440.936	143.62
441.158	152.62
441.379	125.62
441.6	147.62
441.822	151.62
442.043	136.62
442.264	138.62
442.486	122.62
442.707	135.62
442.928	149.62
443.149	131.62
443.371	144.62
443.592	131.62
443.813	137.62
444.034	153.62
444.255	140.62
444.476	140.62
444.698	144.62
444.919	143.62
445.14	272.62
445.361	198.62
445.582	145.62
445.803	133.62
446.024	149.62
446.245	146.62
446.466	133.62
446.687	150.62
446.908	141.62
447.129	147.62
447.35	153.62
447.571	137.62
447.792	147.62
448.013	141.62
448.234	123.62
448.455	139.62
448.675	147.62
448.896	137.62
449.117	129.62
449.338	150.62
449.559	125.62
449.779	138.62
450	128.62
450.221	137.62
450.442	127.62
450.662	145.62
450.883	130.62
451.104	131.62
451.324	134.62
451.545	132.62
451.766	142.62
451.986	141.62
452.207	124.62
452.428	121.62
452.648	128.62
452.869	115.62
453.089	124.62
453.31	116.62
453.53	116.62
453.751	104.62
453.971	96.62
454.192	96.62
454.412	108.62
454.633	101.62
454.853	115.62
455.073	113.62
455.294	115.62
455.514	123.62
455.734	128.62
455.955	101.62
456.175	116.62
456.395	121.62
456.616	99.62
456.836	106.62
457.056	119.62
457.276	115.62
457.497	117.62
457.717	116.62
457.937	108.62
458.157	100.62
458.377	98.62
458.598	103.62
458.818	95.62
459.038	96.62
459.258	90.62
459.478	86.62
459.698	91.62
459.918	103.62
460.138	110.62
460.358	104.62
460.578	114.62
460.798	117.62
461.018	105.62
461.238	113.62
461.458	101.62
461.678	110.62
461.898	119.62
462.118	95.62
462.338	123.62
462.558	109.62
462.777	108.62
462.997	119.62
463.217	111.62
463.437	99.62
463.657	107.62
463.876	102.62
464.096	105.62
464.316	106.62
464.536	105.62
464.755	106.62
464.975	115.62
465.195	119.62
465.414	122.62
465.634	112.62
465.854	118.62
466.073	126.62
466.293	129.62
466.512	117.62
466.732	121.62
466.951	125.62
467.171	123.62
467.391	128.62
467.61	125.62
467.829	136.62
468.049	141.62
468.268	146.62
468.488	125.62
468.707	114.62
468.927	147.62
469.146	138.62
469.365	136.62
469.585	133.62
469.804	129.62
470.023	131.62
470.243	133.62
470.462	143.62
470.681	141.62
470.901	143.62
471.12	135.62
471.339	144.62
471.558	147.62
471.777	122.62
471.997	132.62
472.216	126.62
472.435	116.62
472.654	109.62
472.873	104.62
473.092	121.62
473.311	121.62
473.53	120.62
473.749	125.62
473.968	127.62
474.187	123.62
474.406	124.62
474.625	137.62
474.844	137.62
475.063	123.62
475.282	115.62
475.501	115.62
475.72	132.62
475.939	118.62
476.158	129.62
476.377	126.62
476.596	101.62
476.814	115.62
477.033	114.62
477.252	107.62
477.471	116.62
477.69	155.62
477.908	151.62
478.127	134.62
478.346	131.62
478.564	137.62
478.783	128.62
479.002	150.62
479.22	138.62
479.439	123.62
479.658	117.62
479.876	97.62
480.095	111.62
480.313	129.62
480.532	115.62
480.751	107.62
480.969	101.62
481.188	92.62
481.406	89.62
481.624	86.62
481.843	90.62
482.061	95.62
482.28	115.62
482.498	106.62
482.717	116.62
482.935	107.62
483.153	129.62
483.372	147.62
483.59	140.62
483.808	147.62
484.027	133.62
484.245	139.62
484.463	141.62
484.681	163.62
484.9	141.62
485.118	150.62
485.336	141.62
485.554	126.62
485.772	101.62
485.99	106.62
486.209	95.62
486.427	104.62
486.645	129.62
486.863	143.62
487.081	152.62
487.299	132.62
487.517	147.62
487.735	164.62
487.953	164.62
488.171	179.62
488.389	178.62
488.607	157.62
488.825	139.62
489.043	133.62
489.261	139.62
489.479	140.62
489.696	131.62
489.914	141.62
490.132	153.62
490.35	141.62
490.568	165.62
490.786	168.62
491.003	172.62
491.221	171.62
491.439	166.62
491.657	181.62
491.874	204.62
492.092	232.62
492.31	221.62
492.527	219.62
492.745	184.62
492.963	196.62
493.18	184.62
493.398	166.62
493.615	169.62
493.833	168.62
494.05	164.62
494.268	166.62
494.485	161.62
494.703	151.62
494.92	163.62
495.138	176.62
495.355	170.62
495.573	168.62
495.79	159.62
496.008	162.62
496.225	157.62
496.442	167.62
496.66	165.62
496.877	156.62
497.094	145.62
497.312	165.62
497.529	153.62
497.746	150.62
497.963	139.62
498.181	139.62
498.398	112.62
498.615	115.62
498.832	125.62
499.049	101.62
499.267	118.62
499.484	119.62
499.701	121.62
499.918	126.62
500.135	134.62
500.352	132.62
500.569	143.62
500.786	143.62
501.003	134.62
501.22	130.62
501.437	134.62
501.654	124.62
501.871	124.62
502.088	113.62
502.305	123.62
502.522	123.62
502.739	121.62
502.956	112.62
503.172	125.62
503.389	135.62
503.606	132.62
503.823	120.62
504.04	123.62
504.256	127.62
504.473	133.62
504.69	115.62
504.907	129.62
505.123	113.62
505.34	123.62
505.557	119.62
505.773	121.62
505.99	106.62
506.207	112.62
506.423	111.62
506.64	116.62
506.856	125.62
507.073	111.62
507.289	113.62
507.506	122.62
507.722	127.62
507.939	115.62
508.155	123.62
508.372	119.62
508.588	96.62
508.805	102.62
509.021	106.62
509.238	108.62
509.454	97.62
509.67	96.62
509.887	102.62
510.103	96.62
510.319	102.62
510.536	88.62
510.752	97.62
510.968	84.62
511.184	86.62
511.401	78.62
511.617	89.62
511.833	92.62
