Data from Location4.07152019.Energy5.Lamp.07192019.3%Agarose_HRD10591_16-21-27-927.txt Node
Date: Fri Jul 19 16:21:27 EDT 2019
User: cochatt
Spectrometer: HR+D1059
Trigger mode: 1
Integration Time (sec): 1.000000E-1
Scans to average: 1
Electric dark correction enabled: true
Nonlinearity correction enabled: false
Boxcar width: 0
XAxis mode: Wavelengths
Number of Pixels in Spectrum: 2048
>>>>>Begin Spectral Data<<<<<
223.165	-8.88
223.4	-8.88
223.635	-8.88
223.869	-22.88
224.104	-12.88
224.338	-19.88
224.573	-5.88
224.808	-5.88
225.042	-5.88
225.277	5.12
225.511	3.12
225.746	2.12
225.98	-0.88
226.215	14.12
226.449	-4.88
226.683	13.12
226.918	19.12
227.152	31.12
227.387	31.12
227.621	45.12
227.856	47.12
228.09	60.12
228.324	60.12
228.559	63.12
228.793	56.12
229.027	55.12
229.262	67.12
229.496	75.12
229.73	64.12
229.964	71.12
230.199	73.12
230.433	73.12
230.667	96.12
230.901	83.12
231.136	72.12
231.37	89.12
231.604	88.12
231.838	74.12
232.072	93.12
232.306	88.12
232.541	89.12
232.775	75.12
233.009	75.12
233.243	80.12
233.477	79.12
233.711	83.12
233.945	83.12
234.179	84.12
234.413	89.12
234.647	75.12
234.881	86.12
235.115	55.12
235.349	79.12
235.583	79.12
235.817	76.12
236.051	91.12
236.285	69.12
236.519	88.12
236.753	59.12
236.987	72.12
237.221	78.12
237.455	66.12
237.689	77.12
237.922	83.12
238.156	77.12
238.39	74.12
238.624	71.12
238.858	84.12
239.091	85.12
239.325	80.12
239.559	78.12
239.793	69.12
240.027	87.12
240.26	76.12
240.494	73.12
240.728	82.12
240.961	82.12
241.195	84.12
241.429	79.12
241.662	68.12
241.896	87.12
242.13	72.12
242.363	81.12
242.597	73.12
242.83	77.12
243.064	85.12
243.298	70.12
243.531	70.12
243.765	83.12
243.998	75.12
244.232	73.12
244.465	67.12
244.699	70.12
244.932	75.12
245.166	75.12
245.399	84.12
245.633	83.12
245.866	87.12
246.099	76.12
246.333	80.12
246.566	83.12
246.8	75.12
247.033	68.12
247.266	74.12
247.5	70.12
247.733	76.12
247.966	57.12
248.2	81.12
248.433	76.12
248.666	97.12
248.899	81.12
249.133	66.12
249.366	75.12
249.599	95.12
249.832	73.12
250.066	80.12
250.299	84.12
250.532	82.12
250.765	66.12
250.998	88.12
251.231	71.12
251.465	90.12
251.698	90.12
251.931	78.12
252.164	69.12
252.397	83.12
252.63	77.12
252.863	87.12
253.096	77.12
253.329	78.12
253.562	80.12
253.795	71.12
254.028	70.12
254.261	85.12
254.494	72.12
254.727	68.12
254.96	84.12
255.193	80.12
255.426	87.12
255.659	73.12
255.892	84.12
256.124	74.12
256.357	87.12
256.59	69.12
256.823	76.12
257.056	65.12
257.289	81.12
257.521	92.12
257.754	93.12
257.987	82.12
258.22	75.12
258.452	89.12
258.685	71.12
258.918	81.12
259.151	89.12
259.383	92.12
259.616	83.12
259.849	100.12
260.081	96.12
260.314	88.12
260.547	79.12
260.779	96.12
261.012	76.12
261.244	76.12
261.477	76.12
261.71	82.12
261.942	64.12
262.175	94.12
262.407	77.12
262.64	96.12
262.872	80.12
263.105	72.12
263.337	80.12
263.57	79.12
263.802	77.12
264.035	71.12
264.267	75.12
264.499	74.12
264.732	80.12
264.964	79.12
265.197	66.12
265.429	81.12
265.661	78.12
265.894	75.12
266.126	88.12
266.358	89.12
266.591	82.12
266.823	85.12
267.055	92.12
267.287	82.12
267.52	91.12
267.752	86.12
267.984	84.12
268.216	73.12
268.448	84.12
268.681	82.12
268.913	84.12
269.145	83.12
269.377	83.12
269.609	87.12
269.841	79.12
270.073	74.12
270.306	82.12
270.538	82.12
270.77	90.12
271.002	91.12
271.234	83.12
271.466	95.12
271.698	80.12
271.93	80.12
272.162	83.12
272.394	69.12
272.626	88.12
272.858	92.12
273.09	92.12
273.322	78.12
273.553	80.12
273.785	83.12
274.017	84.12
274.249	97.12
274.481	74.12
274.713	80.12
274.945	70.12
275.176	76.12
275.408	100.12
275.64	73.12
275.872	74.12
276.104	84.12
276.335	89.12
276.567	85.12
276.799	86.12
277.031	101.12
277.262	92.12
277.494	88.12
277.726	84.12
277.957	86.12
278.189	87.12
278.421	86.12
278.652	94.12
278.884	84.12
279.115	74.12
279.347	89.12
279.579	91.12
279.81	77.12
280.042	77.12
280.273	90.12
280.505	76.12
280.736	86.12
280.968	86.12
281.199	74.12
281.431	86.12
281.662	100.12
281.894	85.12
282.125	85.12
282.356	78.12
282.588	94.12
282.819	85.12
283.051	82.12
283.282	87.12
283.513	75.12
283.745	80.12
283.976	85.12
284.207	77.12
284.439	93.12
284.67	87.12
284.901	73.12
285.132	84.12
285.364	85.12
285.595	80.12
285.826	82.12
286.057	93.12
286.288	90.12
286.52	85.12
286.751	97.12
286.982	88.12
287.213	88.12
287.444	83.12
287.675	88.12
287.906	75.12
288.138	86.12
288.369	86.12
288.6	80.12
288.831	92.12
289.062	88.12
289.293	87.12
289.524	83.12
289.755	89.12
289.986	76.12
290.217	76.12
290.448	85.12
290.679	97.12
290.91	77.12
291.141	87.12
291.371	88.12
291.602	84.12
291.833	75.12
292.064	90.12
292.295	79.12
292.526	92.12
292.757	80.12
292.987	87.12
293.218	72.12
293.449	88.12
293.68	107.12
293.91	79.12
294.141	78.12
294.372	76.12
294.603	77.12
294.833	70.12
295.064	81.12
295.295	73.12
295.525	69.12
295.756	82.12
295.987	103.12
296.217	85.12
296.448	80.12
296.679	87.12
296.909	89.12
297.14	82.12
297.37	76.12
297.601	85.12
297.831	95.12
298.062	88.12
298.292	86.12
298.523	96.12
298.753	78.12
298.984	80.12
299.214	87.12
299.445	94.12
299.675	65.12
299.905	90.12
300.136	101.12
300.366	83.12
300.597	92.12
300.827	84.12
301.057	80.12
301.288	89.12
301.518	85.12
301.748	84.12
301.979	102.12
302.209	86.12
302.439	102.12
302.669	80.12
302.9	81.12
303.13	94.12
303.36	84.12
303.59	85.12
303.82	88.12
304.051	89.12
304.281	86.12
304.511	88.12
304.741	90.12
304.971	83.12
305.201	89.12
305.431	96.12
305.661	94.12
305.891	93.12
306.121	82.12
306.352	89.12
306.582	105.12
306.812	81.12
307.042	76.12
307.272	79.12
307.502	98.12
307.731	84.12
307.961	84.12
308.191	93.12
308.421	89.12
308.651	84.12
308.881	72.12
309.111	72.12
309.341	91.12
309.571	75.12
309.8	89.12
310.03	83.12
310.26	85.12
310.49	77.12
310.72	85.12
310.949	75.12
311.179	96.12
311.409	85.12
311.639	91.12
311.868	75.12
312.098	77.12
312.328	99.12
312.557	90.12
312.787	72.12
313.017	96.12
313.246	89.12
313.476	73.12
313.706	80.12
313.935	73.12
314.165	92.12
314.394	84.12
314.624	84.12
314.853	100.12
315.083	86.12
315.312	81.12
315.542	71.12
315.771	93.12
316.001	92.12
316.23	75.12
316.46	75.12
316.689	88.12
316.919	77.12
317.148	91.12
317.377	90.12
317.607	73.12
317.836	81.12
318.065	76.12
318.295	89.12
318.524	93.12
318.753	78.12
318.983	77.12
319.212	84.12
319.441	88.12
319.67	89.12
319.9	86.12
320.129	78.12
320.358	86.12
320.587	91.12
320.816	76.12
321.046	85.12
321.275	85.12
321.504	91.12
321.733	84.12
321.962	86.12
322.191	99.12
322.42	92.12
322.649	82.12
322.878	87.12
323.108	77.12
323.337	80.12
323.566	83.12
323.795	85.12
324.024	93.12
324.253	79.12
324.482	83.12
324.71	84.12
324.939	85.12
325.168	84.12
325.397	96.12
325.626	97.12
325.855	65.12
326.084	73.12
326.313	87.12
326.542	82.12
326.77	75.12
326.999	80.12
327.228	73.12
327.457	64.12
327.686	89.12
327.914	83.12
328.143	103.12
328.372	84.12
328.6	80.12
328.829	100.12
329.058	82.12
329.287	91.12
329.515	94.12
329.744	67.12
329.972	86.12
330.201	94.12
330.43	90.12
330.658	88.12
330.887	73.12
331.115	79.12
331.344	69.12
331.572	75.12
331.801	91.12
332.03	75.12
332.258	98.12
332.486	81.12
332.715	95.12
332.943	88.12
333.172	94.12
333.4	70.12
333.629	86.12
333.857	95.12
334.085	85.12
334.314	73.12
334.542	87.12
334.771	107.12
334.999	106.12
335.227	81.12
335.455	88.12
335.684	93.12
335.912	81.12
336.14	72.12
336.369	89.12
336.597	83.12
336.825	82.12
337.053	81.12
337.281	84.12
337.51	70.12
337.738	87.12
337.966	78.12
338.194	88.12
338.422	64.12
338.65	88.12
338.878	88.12
339.106	87.12
339.334	94.12
339.562	84.12
339.79	96.12
340.018	82.12
340.246	87.12
340.474	63.12
340.702	90.12
340.93	84.12
341.158	81.12
341.386	93.12
341.614	90.12
341.842	86.12
342.07	88.12
342.298	78.12
342.526	83.12
342.754	82.12
342.981	97.12
343.209	82.12
343.437	83.12
343.665	89.12
343.893	79.12
344.12	103.12
344.348	82.12
344.576	85.12
344.804	66.12
345.031	84.12
345.259	100.12
345.487	79.12
345.714	83.12
345.942	85.12
346.17	73.12
346.397	80.12
346.625	81.12
346.853	72.12
347.08	75.12
347.308	80.12
347.535	78.12
347.763	80.12
347.99	97.12
348.218	84.12
348.445	92.12
348.673	92.12
348.9	68.12
349.128	103.12
349.355	81.12
349.583	79.12
349.81	83.12
350.037	81.12
350.265	73.12
350.492	88.12
350.72	87.12
350.947	85.12
351.174	84.12
351.402	87.12
351.629	95.12
351.856	71.12
352.083	87.12
352.311	77.12
352.538	75.12
352.765	69.12
352.992	76.12
353.22	91.12
353.447	100.12
353.674	84.12
353.901	74.12
354.128	90.12
354.355	89.12
354.583	98.12
354.81	85.12
355.037	74.12
355.264	96.12
355.491	86.12
355.718	94.12
355.945	77.12
356.172	76.12
356.399	76.12
356.626	88.12
356.853	95.12
357.08	78.12
357.307	90.12
357.534	86.12
357.761	85.12
357.988	83.12
358.215	90.12
358.441	97.12
358.668	88.12
358.895	86.12
359.122	88.12
359.349	95.12
359.576	90.12
359.802	92.12
360.029	83.12
360.256	78.12
360.483	89.12
360.709	95.12
360.936	100.12
361.163	89.12
361.39	84.12
361.616	83.12
361.843	71.12
362.07	74.12
362.296	78.12
362.523	90.12
362.749	73.12
362.976	79.12
363.203	80.12
363.429	93.12
363.656	73.12
363.882	87.12
364.109	94.12
364.335	87.12
364.562	85.12
364.788	81.12
365.015	85.12
365.241	68.12
365.468	84.12
365.694	87.12
365.92	86.12
366.147	73.12
366.373	87.12
366.599	86.12
366.826	97.12
367.052	88.12
367.278	76.12
367.505	75.12
367.731	102.12
367.957	91.12
368.184	100.12
368.41	91.12
368.636	83.12
368.862	85.12
369.089	91.12
369.315	96.12
369.541	93.12
369.767	97.12
369.993	88.12
370.219	89.12
370.445	80.12
370.672	87.12
370.898	81.12
371.124	77.12
371.35	84.12
371.576	95.12
371.802	88.12
372.028	85.12
372.254	82.12
372.48	97.12
372.706	82.12
372.932	87.12
373.158	82.12
373.384	84.12
373.61	78.12
373.835	86.12
374.061	82.12
374.287	87.12
374.513	98.12
374.739	96.12
374.965	84.12
375.191	98.12
375.416	95.12
375.642	89.12
375.868	92.12
376.094	97.12
376.319	92.12
376.545	91.12
376.771	91.12
376.997	100.12
377.222	96.12
377.448	94.12
377.674	103.12
377.899	90.12
378.125	90.12
378.35	92.12
378.576	93.12
378.802	80.12
379.027	91.12
379.253	99.12
379.478	82.12
379.704	94.12
379.929	82.12
380.155	87.12
380.38	116.12
380.606	104.12
380.831	97.12
381.057	94.12
381.282	96.12
381.507	107.12
381.733	85.12
381.958	94.12
382.184	91.12
382.409	100.12
382.634	97.12
382.86	81.12
383.085	104.12
383.31	97.12
383.535	93.12
383.761	107.12
383.986	89.12
384.211	101.12
384.436	86.12
384.662	90.12
384.887	97.12
385.112	105.12
385.337	84.12
385.562	98.12
385.787	88.12
386.013	89.12
386.238	114.12
386.463	101.12
386.688	91.12
386.913	92.12
387.138	90.12
387.363	97.12
387.588	104.12
387.813	96.12
388.038	105.12
388.263	111.12
388.488	90.12
388.713	83.12
388.938	106.12
389.163	95.12
389.387	109.12
389.612	101.12
389.837	89.12
390.062	112.12
390.287	98.12
390.512	117.12
390.736	106.12
390.961	111.12
391.186	96.12
391.411	97.12
391.636	94.12
391.86	89.12
392.085	105.12
392.31	89.12
392.534	107.12
392.759	105.12
392.984	113.12
393.208	95.12
393.433	103.12
393.658	106.12
393.882	105.12
394.107	100.12
394.331	104.12
394.556	111.12
394.78	111.12
395.005	97.12
395.229	103.12
395.454	99.12
395.678	104.12
395.903	128.12
396.127	111.12
396.352	91.12
396.576	90.12
396.801	105.12
397.025	107.12
397.249	111.12
397.474	114.12
397.698	97.12
397.922	108.12
398.147	111.12
398.371	117.12
398.595	131.12
398.82	104.12
399.044	103.12
399.268	99.12
399.492	106.12
399.717	106.12
399.941	120.12
400.165	101.12
400.389	121.12
400.613	118.12
400.837	106.12
401.062	118.12
401.286	113.12
401.51	99.12
401.734	111.12
401.958	102.12
402.182	115.12
402.406	105.12
402.63	116.12
402.854	125.12
403.078	103.12
403.302	127.12
403.526	115.12
403.75	122.12
403.974	106.12
404.198	109.12
404.422	111.12
404.645	123.12
404.869	111.12
405.093	115.12
405.317	120.12
405.541	113.12
405.765	105.12
405.988	111.12
406.212	115.12
406.436	124.12
406.66	115.12
406.883	109.12
407.107	120.12
407.331	114.12
407.555	119.12
407.778	117.12
408.002	115.12
408.226	120.12
408.449	115.12
408.673	108.12
408.896	109.12
409.12	107.12
409.344	120.12
409.567	118.12
409.791	109.12
410.014	120.12
410.238	137.12
410.461	124.12
410.685	127.12
410.908	115.12
411.132	119.12
411.355	111.12
411.578	114.12
411.802	121.12
412.025	120.12
412.249	100.12
412.472	131.12
412.695	125.12
412.919	116.12
413.142	120.12
413.365	127.12
413.589	118.12
413.812	119.12
414.035	140.12
414.258	124.12
414.482	114.12
414.705	121.12
414.928	131.12
415.151	131.12
415.374	115.12
415.597	122.12
415.821	124.12
416.044	131.12
416.267	133.12
416.49	114.12
416.713	122.12
416.936	134.12
417.159	131.12
417.382	127.12
417.605	131.12
417.828	126.12
418.051	128.12
418.274	139.12
418.497	125.12
418.72	121.12
418.943	135.12
419.166	132.12
419.389	130.12
419.611	114.12
419.834	139.12
420.057	119.12
420.28	146.12
420.503	116.12
420.726	141.12
420.948	128.12
421.171	125.12
421.394	144.12
421.617	137.12
421.839	127.12
422.062	146.12
422.285	123.12
422.507	116.12
422.73	134.12
422.953	130.12
423.175	123.12
423.398	115.12
423.621	123.12
423.843	137.12
424.066	127.12
424.288	141.12
424.511	134.12
424.733	142.12
424.956	133.12
425.178	131.12
425.401	137.12
425.623	141.12
425.846	132.12
426.068	134.12
426.291	125.12
426.513	123.12
426.735	132.12
426.958	130.12
427.18	124.12
427.402	127.12
427.625	119.12
427.847	113.12
428.069	113.12
428.292	126.12
428.514	125.12
428.736	130.12
428.958	123.12
429.181	121.12
429.403	137.12
429.625	122.12
429.847	131.12
430.069	123.12
430.292	127.12
430.514	135.12
430.736	121.12
430.958	118.12
431.18	125.12
431.402	117.12
431.624	118.12
431.846	100.12
432.068	99.12
432.29	100.12
432.512	118.12
432.734	122.12
432.956	132.12
433.178	145.12
433.4	129.12
433.622	114.12
433.844	127.12
434.066	119.12
434.287	112.12
434.509	100.12
434.731	99.12
434.953	112.12
435.175	108.12
435.397	129.12
435.618	120.12
435.84	105.12
436.062	116.12
436.284	105.12
436.505	112.12
436.727	143.12
436.949	143.12
437.17	135.12
437.392	124.12
437.614	120.12
437.835	121.12
438.057	97.12
438.278	109.12
438.5	123.12
438.721	129.12
438.943	135.12
439.165	127.12
439.386	145.12
439.608	144.12
439.829	131.12
440.05	138.12
440.272	147.12
440.493	139.12
440.715	133.12
440.936	151.12
441.158	153.12
441.379	153.12
441.6	142.12
441.822	137.12
442.043	136.12
442.264	140.12
442.486	134.12
442.707	138.12
442.928	133.12
443.149	127.12
443.371	132.12
443.592	148.12
443.813	134.12
444.034	145.12
444.255	145.12
444.476	132.12
444.698	152.12
444.919	128.12
445.14	241.12
445.361	198.12
445.582	138.12
445.803	139.12
446.024	143.12
446.245	131.12
446.466	139.12
446.687	143.12
446.908	164.12
447.129	166.12
447.35	154.12
447.571	131.12
447.792	145.12
448.013	141.12
448.234	147.12
448.455	150.12
448.675	140.12
448.896	136.12
449.117	149.12
449.338	129.12
449.559	111.12
449.779	124.12
450	142.12
450.221	129.12
450.442	123.12
450.662	127.12
450.883	138.12
451.104	137.12
451.324	124.12
451.545	125.12
451.766	112.12
451.986	120.12
452.207	133.12
452.428	114.12
452.648	123.12
452.869	120.12
453.089	111.12
453.31	117.12
453.53	114.12
453.751	95.12
453.971	101.12
454.192	95.12
454.412	105.12
454.633	123.12
454.853	131.12
455.073	114.12
455.294	121.12
455.514	122.12
455.734	127.12
455.955	124.12
456.175	104.12
456.395	108.12
456.616	117.12
456.836	105.12
457.056	115.12
457.276	118.12
457.497	116.12
457.717	116.12
457.937	106.12
458.157	92.12
458.377	100.12
458.598	99.12
458.818	95.12
459.038	99.12
459.258	101.12
459.478	83.12
459.698	109.12
459.918	100.12
460.138	105.12
460.358	97.12
460.578	111.12
460.798	127.12
461.018	130.12
461.238	127.12
461.458	122.12
461.678	110.12
461.898	108.12
462.118	117.12
462.338	109.12
462.558	115.12
462.777	107.12
462.997	101.12
463.217	117.12
463.437	105.12
463.657	113.12
463.876	104.12
464.096	107.12
464.316	117.12
464.536	113.12
464.755	111.12
464.975	114.12
465.195	117.12
465.414	119.12
465.634	117.12
465.854	111.12
466.073	119.12
466.293	122.12
466.512	132.12
466.732	133.12
466.951	133.12
467.171	126.12
467.391	136.12
467.61	134.12
467.829	127.12
468.049	132.12
468.268	137.12
468.488	147.12
468.707	128.12
468.927	131.12
469.146	134.12
469.365	133.12
469.585	139.12
469.804	138.12
470.023	133.12
470.243	131.12
470.462	134.12
470.681	131.12
470.901	137.12
471.12	127.12
471.339	146.12
471.558	131.12
471.777	137.12
471.997	136.12
472.216	136.12
472.435	100.12
472.654	101.12
472.873	104.12
473.092	117.12
473.311	133.12
473.53	121.12
473.749	135.12
473.968	135.12
474.187	113.12
474.406	108.12
474.625	131.12
474.844	142.12
475.063	126.12
475.282	126.12
475.501	118.12
475.72	119.12
475.939	101.12
476.158	127.12
476.377	119.12
476.596	121.12
476.814	121.12
477.033	119.12
477.252	98.12
477.471	129.12
477.69	126.12
477.908	134.12
478.127	135.12
478.346	127.12
478.564	122.12
478.783	133.12
479.002	127.12
479.22	141.12
479.439	136.12
479.658	126.12
479.876	124.12
480.095	111.12
480.313	110.12
480.532	119.12
480.751	108.12
480.969	98.12
481.188	91.12
481.406	95.12
481.624	89.12
481.843	86.12
482.061	93.12
482.28	101.12
482.498	109.12
482.717	102.12
482.935	123.12
483.153	127.12
483.372	144.12
483.59	158.12
483.808	137.12
484.027	121.12
484.245	140.12
484.463	147.12
484.681	151.12
484.9	162.12
485.118	141.12
485.336	117.12
485.554	123.12
485.772	111.12
485.99	111.12
486.209	108.12
486.427	102.12
486.645	125.12
486.863	143.12
487.081	153.12
487.299	140.12
487.517	148.12
487.735	165.12
487.953	195.12
488.171	188.12
488.389	164.12
488.607	160.12
488.825	131.12
489.043	144.12
489.261	127.12
489.479	144.12
489.696	133.12
489.914	139.12
490.132	133.12
490.35	137.12
490.568	139.12
490.786	152.12
491.003	173.12
491.221	169.12
491.439	171.12
491.657	181.12
491.874	198.12
492.092	220.12
492.31	242.12
492.527	208.12
492.745	193.12
492.963	193.12
493.18	180.12
493.398	186.12
493.615	168.12
493.833	172.12
494.05	178.12
494.268	165.12
494.485	176.12
494.703	165.12
494.92	184.12
495.138	164.12
495.355	161.12
495.573	148.12
495.79	160.12
496.008	173.12
496.225	166.12
496.442	160.12
496.66	170.12
496.877	161.12
497.094	164.12
497.312	157.12
497.529	165.12
497.746	141.12
497.963	121.12
498.181	145.12
498.398	122.12
498.615	127.12
498.832	108.12
499.049	107.12
499.267	122.12
499.484	126.12
499.701	130.12
499.918	145.12
500.135	142.12
500.352	132.12
500.569	133.12
500.786	133.12
501.003	148.12
501.22	129.12
501.437	141.12
501.654	125.12
501.871	132.12
502.088	134.12
502.305	150.12
502.522	132.12
502.739	136.12
502.956	122.12
503.172	121.12
503.389	130.12
503.606	136.12
503.823	115.12
504.04	124.12
504.256	113.12
504.473	117.12
504.69	117.12
504.907	131.12
505.123	113.12
505.34	117.12
505.557	117.12
505.773	123.12
505.99	127.12
506.207	114.12
506.423	107.12
506.64	124.12
506.856	127.12
507.073	129.12
507.289	127.12
507.506	120.12
507.722	122.12
507.939	123.12
508.155	127.12
508.372	121.12
508.588	102.12
508.805	123.12
509.021	112.12
509.238	112.12
509.454	102.12
509.67	103.12
509.887	103.12
510.103	104.12
510.319	99.12
510.536	97.12
510.752	84.12
510.968	88.12
511.184	89.12
511.401	79.12
511.617	93.12
