Data from Location4.07152019.Energy5.Lamp.07192019.3%Agarose_HRD10591_16-20-11-925.txt Node
Date: Fri Jul 19 16:20:11 EDT 2019
User: cochatt
Spectrometer: HR+D1059
Trigger mode: 1
Integration Time (sec): 1.000000E-1
Scans to average: 1
Electric dark correction enabled: true
Nonlinearity correction enabled: false
Boxcar width: 0
XAxis mode: Wavelengths
Number of Pixels in Spectrum: 2048
>>>>>Begin Spectral Data<<<<<
223.165	-20.69
223.4	-20.69
223.635	-20.69
223.869	-11.69
224.104	-21.69
224.338	-10.69
224.573	-21.69
224.808	-10.69
225.042	-4.69
225.277	-12.69
225.511	-0.69
225.746	8.31
225.98	-2.69
226.215	6.31
226.449	8.31
226.683	19.31
226.918	35.31
227.152	40.31
227.387	35.31
227.621	28.31
227.856	37.31
228.09	48.31
228.324	31.31
228.559	61.31
228.793	61.31
229.027	59.31
229.262	60.31
229.496	57.31
229.73	68.31
229.964	68.31
230.199	81.31
230.433	71.31
230.667	72.31
230.901	76.31
231.136	69.31
231.37	75.31
231.604	89.31
231.838	80.31
232.072	83.31
232.306	73.31
232.541	88.31
232.775	83.31
233.009	75.31
233.243	79.31
233.477	68.31
233.711	77.31
233.945	67.31
234.179	84.31
234.413	86.31
234.647	82.31
234.881	89.31
235.115	96.31
235.349	79.31
235.583	77.31
235.817	75.31
236.051	72.31
236.285	76.31
236.519	82.31
236.753	74.31
236.987	83.31
237.221	74.31
237.455	73.31
237.689	88.31
237.922	71.31
238.156	84.31
238.39	80.31
238.624	87.31
238.858	87.31
239.091	82.31
239.325	67.31
239.559	93.31
239.793	67.31
240.027	74.31
240.26	60.31
240.494	74.31
240.728	89.31
240.961	83.31
241.195	74.31
241.429	82.31
241.662	75.31
241.896	66.31
242.13	78.31
242.363	77.31
242.597	85.31
242.83	74.31
243.064	81.31
243.298	75.31
243.531	59.31
243.765	70.31
243.998	94.31
244.232	87.31
244.465	80.31
244.699	68.31
244.932	69.31
245.166	91.31
245.399	77.31
245.633	69.31
245.866	72.31
246.099	69.31
246.333	75.31
246.566	76.31
246.8	77.31
247.033	83.31
247.266	76.31
247.5	87.31
247.733	98.31
247.966	84.31
248.2	84.31
248.433	76.31
248.666	81.31
248.899	83.31
249.133	86.31
249.366	95.31
249.599	74.31
249.832	77.31
250.066	64.31
250.299	67.31
250.532	73.31
250.765	80.31
250.998	80.31
251.231	64.31
251.465	77.31
251.698	84.31
251.931	81.31
252.164	70.31
252.397	68.31
252.63	81.31
252.863	79.31
253.096	81.31
253.329	79.31
253.562	80.31
253.795	71.31
254.028	72.31
254.261	77.31
254.494	72.31
254.727	93.31
254.96	80.31
255.193	83.31
255.426	75.31
255.659	86.31
255.892	73.31
256.124	74.31
256.357	85.31
256.59	73.31
256.823	95.31
257.056	64.31
257.289	74.31
257.521	77.31
257.754	69.31
257.987	86.31
258.22	81.31
258.452	82.31
258.685	80.31
258.918	86.31
259.151	83.31
259.383	75.31
259.616	70.31
259.849	96.31
260.081	82.31
260.314	81.31
260.547	75.31
260.779	77.31
261.012	86.31
261.244	90.31
261.477	87.31
261.71	86.31
261.942	83.31
262.175	80.31
262.407	82.31
262.64	69.31
262.872	85.31
263.105	71.31
263.337	86.31
263.57	70.31
263.802	67.31
264.035	80.31
264.267	67.31
264.499	76.31
264.732	80.31
264.964	82.31
265.197	91.31
265.429	78.31
265.661	73.31
265.894	83.31
266.126	76.31
266.358	65.31
266.591	70.31
266.823	80.31
267.055	84.31
267.287	92.31
267.52	90.31
267.752	89.31
267.984	90.31
268.216	75.31
268.448	95.31
268.681	83.31
268.913	89.31
269.145	75.31
269.377	80.31
269.609	90.31
269.841	86.31
270.073	70.31
270.306	88.31
270.538	93.31
270.77	68.31
271.002	69.31
271.234	88.31
271.466	71.31
271.698	71.31
271.93	84.31
272.162	73.31
272.394	79.31
272.626	87.31
272.858	89.31
273.09	81.31
273.322	84.31
273.553	83.31
273.785	92.31
274.017	72.31
274.249	85.31
274.481	84.31
274.713	81.31
274.945	88.31
275.176	90.31
275.408	92.31
275.64	84.31
275.872	82.31
276.104	75.31
276.335	71.31
276.567	98.31
276.799	80.31
277.031	90.31
277.262	90.31
277.494	89.31
277.726	88.31
277.957	91.31
278.189	88.31
278.421	87.31
278.652	92.31
278.884	78.31
279.115	76.31
279.347	89.31
279.579	88.31
279.81	74.31
280.042	77.31
280.273	79.31
280.505	85.31
280.736	76.31
280.968	88.31
281.199	76.31
281.431	68.31
281.662	78.31
281.894	106.31
282.125	82.31
282.356	85.31
282.588	80.31
282.819	81.31
283.051	83.31
283.282	97.31
283.513	86.31
283.745	93.31
283.976	85.31
284.207	73.31
284.439	88.31
284.67	86.31
284.901	96.31
285.132	85.31
285.364	90.31
285.595	84.31
285.826	99.31
286.057	93.31
286.288	79.31
286.52	107.31
286.751	93.31
286.982	76.31
287.213	87.31
287.444	79.31
287.675	100.31
287.906	87.31
288.138	77.31
288.369	76.31
288.6	75.31
288.831	86.31
289.062	82.31
289.293	90.31
289.524	69.31
289.755	77.31
289.986	96.31
290.217	79.31
290.448	79.31
290.679	90.31
290.91	96.31
291.141	83.31
291.371	96.31
291.602	79.31
291.833	86.31
292.064	92.31
292.295	90.31
292.526	92.31
292.757	85.31
292.987	104.31
293.218	68.31
293.449	69.31
293.68	98.31
293.91	88.31
294.141	92.31
294.372	83.31
294.603	83.31
294.833	76.31
295.064	83.31
295.295	78.31
295.525	81.31
295.756	77.31
295.987	90.31
296.217	82.31
296.448	88.31
296.679	71.31
296.909	87.31
297.14	79.31
297.37	98.31
297.601	77.31
297.831	83.31
298.062	75.31
298.292	85.31
298.523	96.31
298.753	61.31
298.984	87.31
299.214	97.31
299.445	86.31
299.675	88.31
299.905	87.31
300.136	93.31
300.366	83.31
300.597	87.31
300.827	74.31
301.057	82.31
301.288	101.31
301.518	86.31
301.748	85.31
301.979	68.31
302.209	80.31
302.439	84.31
302.669	87.31
302.9	85.31
303.13	91.31
303.36	92.31
303.59	82.31
303.82	88.31
304.051	82.31
304.281	74.31
304.511	75.31
304.741	72.31
304.971	79.31
305.201	89.31
305.431	88.31
305.661	80.31
305.891	92.31
306.121	92.31
306.352	83.31
306.582	95.31
306.812	92.31
307.042	89.31
307.272	87.31
307.502	82.31
307.731	84.31
307.961	79.31
308.191	83.31
308.421	87.31
308.651	85.31
308.881	86.31
309.111	94.31
309.341	79.31
309.571	96.31
309.8	84.31
310.03	86.31
310.26	91.31
310.49	80.31
310.72	86.31
310.949	98.31
311.179	80.31
311.409	76.31
311.639	90.31
311.868	84.31
312.098	74.31
312.328	99.31
312.557	85.31
312.787	77.31
313.017	96.31
313.246	71.31
313.476	91.31
313.706	76.31
313.935	79.31
314.165	85.31
314.394	81.31
314.624	76.31
314.853	80.31
315.083	89.31
315.312	88.31
315.542	85.31
315.771	90.31
316.001	84.31
316.23	82.31
316.46	94.31
316.689	86.31
316.919	88.31
317.148	80.31
317.377	82.31
317.607	96.31
317.836	91.31
318.065	88.31
318.295	98.31
318.524	80.31
318.753	75.31
318.983	88.31
319.212	98.31
319.441	95.31
319.67	92.31
319.9	91.31
320.129	84.31
320.358	99.31
320.587	85.31
320.816	80.31
321.046	87.31
321.275	83.31
321.504	86.31
321.733	67.31
321.962	82.31
322.191	89.31
322.42	70.31
322.649	75.31
322.878	98.31
323.108	86.31
323.337	86.31
323.566	94.31
323.795	79.31
324.024	81.31
324.253	82.31
324.482	74.31
324.71	89.31
324.939	78.31
325.168	88.31
325.397	80.31
325.626	71.31
325.855	85.31
326.084	88.31
326.313	87.31
326.542	90.31
326.77	90.31
326.999	82.31
327.228	78.31
327.457	82.31
327.686	72.31
327.914	83.31
328.143	97.31
328.372	92.31
328.6	104.31
328.829	86.31
329.058	65.31
329.287	88.31
329.515	86.31
329.744	86.31
329.972	84.31
330.201	85.31
330.43	89.31
330.658	88.31
330.887	76.31
331.115	80.31
331.344	80.31
331.572	92.31
331.801	87.31
332.03	83.31
332.258	82.31
332.486	73.31
332.715	90.31
332.943	86.31
333.172	77.31
333.4	87.31
333.629	85.31
333.857	88.31
334.085	76.31
334.314	92.31
334.542	76.31
334.771	89.31
334.999	91.31
335.227	83.31
335.455	85.31
335.684	77.31
335.912	76.31
336.14	83.31
336.369	96.31
336.597	86.31
336.825	85.31
337.053	74.31
337.281	83.31
337.51	72.31
337.738	91.31
337.966	83.31
338.194	82.31
338.422	85.31
338.65	87.31
338.878	68.31
339.106	84.31
339.334	79.31
339.562	78.31
339.79	89.31
340.018	79.31
340.246	80.31
340.474	76.31
340.702	93.31
340.93	83.31
341.158	80.31
341.386	82.31
341.614	81.31
341.842	85.31
342.07	94.31
342.298	95.31
342.526	81.31
342.754	88.31
342.981	85.31
343.209	101.31
343.437	81.31
343.665	81.31
343.893	87.31
344.12	93.31
344.348	95.31
344.576	76.31
344.804	85.31
345.031	66.31
345.259	93.31
345.487	88.31
345.714	86.31
345.942	86.31
346.17	87.31
346.397	84.31
346.625	85.31
346.853	81.31
347.08	84.31
347.308	76.31
347.535	73.31
347.763	85.31
347.99	94.31
348.218	82.31
348.445	100.31
348.673	90.31
348.9	71.31
349.128	93.31
349.355	92.31
349.583	91.31
349.81	96.31
350.037	79.31
350.265	83.31
350.492	90.31
350.72	88.31
350.947	81.31
351.174	87.31
351.402	86.31
351.629	88.31
351.856	73.31
352.083	72.31
352.311	76.31
352.538	79.31
352.765	77.31
352.992	82.31
353.22	100.31
353.447	81.31
353.674	92.31
353.901	75.31
354.128	72.31
354.355	78.31
354.583	85.31
354.81	82.31
355.037	92.31
355.264	87.31
355.491	89.31
355.718	73.31
355.945	84.31
356.172	76.31
356.399	74.31
356.626	65.31
356.853	77.31
357.08	83.31
357.307	75.31
357.534	84.31
357.761	76.31
357.988	74.31
358.215	79.31
358.441	93.31
358.668	85.31
358.895	97.31
359.122	83.31
359.349	78.31
359.576	84.31
359.802	97.31
360.029	67.31
360.256	81.31
360.483	99.31
360.709	85.31
360.936	87.31
361.163	104.31
361.39	75.31
361.616	85.31
361.843	85.31
362.07	95.31
362.296	87.31
362.523	82.31
362.749	89.31
362.976	69.31
363.203	71.31
363.429	95.31
363.656	79.31
363.882	80.31
364.109	88.31
364.335	77.31
364.562	89.31
364.788	82.31
365.015	86.31
365.241	72.31
365.468	88.31
365.694	71.31
365.92	65.31
366.147	88.31
366.373	87.31
366.599	97.31
366.826	89.31
367.052	83.31
367.278	84.31
367.505	97.31
367.731	81.31
367.957	86.31
368.184	86.31
368.41	80.31
368.636	89.31
368.862	95.31
369.089	91.31
369.315	90.31
369.541	86.31
369.767	95.31
369.993	97.31
370.219	77.31
370.445	81.31
370.672	95.31
370.898	80.31
371.124	98.31
371.35	79.31
371.576	90.31
371.802	101.31
372.028	87.31
372.254	80.31
372.48	89.31
372.706	91.31
372.932	91.31
373.158	88.31
373.384	93.31
373.61	79.31
373.835	102.31
374.061	75.31
374.287	88.31
374.513	84.31
374.739	97.31
374.965	81.31
375.191	81.31
375.416	93.31
375.642	101.31
375.868	91.31
376.094	83.31
376.319	106.31
376.545	99.31
376.771	95.31
376.997	91.31
377.222	90.31
377.448	65.31
377.674	84.31
377.899	97.31
378.125	90.31
378.35	105.31
378.576	91.31
378.802	91.31
379.027	89.31
379.253	100.31
379.478	94.31
379.704	99.31
379.929	104.31
380.155	77.31
380.38	100.31
380.606	96.31
380.831	87.31
381.057	96.31
381.282	108.31
381.507	95.31
381.733	88.31
381.958	97.31
382.184	81.31
382.409	93.31
382.634	103.31
382.86	92.31
383.085	95.31
383.31	91.31
383.535	92.31
383.761	83.31
383.986	89.31
384.211	102.31
384.436	101.31
384.662	84.31
384.887	102.31
385.112	95.31
385.337	78.31
385.562	83.31
385.787	89.31
386.013	107.31
386.238	111.31
386.463	98.31
386.688	90.31
386.913	88.31
387.138	92.31
387.363	92.31
387.588	110.31
387.813	104.31
388.038	91.31
388.263	81.31
388.488	91.31
388.713	97.31
388.938	108.31
389.163	89.31
389.387	117.31
389.612	105.31
389.837	96.31
390.062	100.31
390.287	101.31
390.512	108.31
390.736	101.31
390.961	108.31
391.186	119.31
391.411	107.31
391.636	101.31
391.86	105.31
392.085	101.31
392.31	96.31
392.534	98.31
392.759	108.31
392.984	101.31
393.208	119.31
393.433	105.31
393.658	100.31
393.882	96.31
394.107	119.31
394.331	97.31
394.556	101.31
394.78	103.31
395.005	103.31
395.229	106.31
395.454	108.31
395.678	101.31
395.903	107.31
396.127	120.31
396.352	105.31
396.576	109.31
396.801	96.31
397.025	100.31
397.249	104.31
397.474	106.31
397.698	94.31
397.922	102.31
398.147	105.31
398.371	95.31
398.595	113.31
398.82	90.31
399.044	104.31
399.268	108.31
399.492	115.31
399.717	121.31
399.941	97.31
400.165	105.31
400.389	116.31
400.613	120.31
400.837	102.31
401.062	112.31
401.286	115.31
401.51	116.31
401.734	94.31
401.958	109.31
402.182	110.31
402.406	113.31
402.63	125.31
402.854	106.31
403.078	115.31
403.302	103.31
403.526	123.31
403.75	112.31
403.974	117.31
404.198	125.31
404.422	111.31
404.645	116.31
404.869	114.31
405.093	121.31
405.317	118.31
405.541	118.31
405.765	112.31
405.988	103.31
406.212	117.31
406.436	113.31
406.66	118.31
406.883	113.31
407.107	105.31
407.331	117.31
407.555	125.31
407.778	114.31
408.002	121.31
408.226	118.31
408.449	108.31
408.673	126.31
408.896	110.31
409.12	107.31
409.344	116.31
409.567	117.31
409.791	109.31
410.014	123.31
410.238	105.31
410.461	115.31
410.685	118.31
410.908	122.31
411.132	117.31
411.355	128.31
411.578	129.31
411.802	130.31
412.025	127.31
412.249	117.31
412.472	120.31
412.695	111.31
412.919	122.31
413.142	125.31
413.365	120.31
413.589	124.31
413.812	112.31
414.035	122.31
414.258	123.31
414.482	124.31
414.705	121.31
414.928	117.31
415.151	111.31
415.374	116.31
415.597	122.31
415.821	105.31
416.044	115.31
416.267	115.31
416.49	128.31
416.713	127.31
416.936	126.31
417.159	121.31
417.382	128.31
417.605	123.31
417.828	107.31
418.051	129.31
418.274	125.31
418.497	137.31
418.72	121.31
418.943	130.31
419.166	118.31
419.389	128.31
419.611	137.31
419.834	131.31
420.057	125.31
420.28	132.31
420.503	124.31
420.726	134.31
420.948	134.31
421.171	126.31
421.394	133.31
421.617	135.31
421.839	124.31
422.062	126.31
422.285	124.31
422.507	137.31
422.73	126.31
422.953	133.31
423.175	130.31
423.398	134.31
423.621	131.31
423.843	122.31
424.066	120.31
424.288	142.31
424.511	138.31
424.733	149.31
424.956	128.31
425.178	136.31
425.401	148.31
425.623	143.31
425.846	130.31
426.068	139.31
426.291	137.31
426.513	132.31
426.735	143.31
426.958	133.31
427.18	148.31
427.402	127.31
427.625	128.31
427.847	132.31
428.069	111.31
428.292	111.31
428.514	122.31
428.736	119.31
428.958	125.31
429.181	133.31
429.403	136.31
429.625	120.31
429.847	128.31
430.069	117.31
430.292	127.31
430.514	140.31
430.736	123.31
430.958	123.31
431.18	134.31
431.402	111.31
431.624	116.31
431.846	121.31
432.068	92.31
432.29	96.31
432.512	103.31
432.734	117.31
432.956	129.31
433.178	123.31
433.4	143.31
433.622	133.31
433.844	128.31
434.066	114.31
434.287	100.31
434.509	101.31
434.731	113.31
434.953	123.31
435.175	124.31
435.397	113.31
435.618	115.31
435.84	117.31
436.062	113.31
436.284	120.31
436.505	132.31
436.727	138.31
436.949	137.31
437.17	125.31
437.392	119.31
437.614	122.31
437.835	103.31
438.057	108.31
438.278	99.31
438.5	124.31
438.721	132.31
438.943	145.31
439.165	140.31
439.386	122.31
439.608	149.31
439.829	139.31
440.05	127.31
440.272	155.31
440.493	139.31
440.715	123.31
440.936	127.31
441.158	140.31
441.379	131.31
441.6	144.31
441.822	143.31
442.043	151.31
442.264	133.31
442.486	134.31
442.707	125.31
442.928	129.31
443.149	137.31
443.371	137.31
443.592	118.31
443.813	153.31
444.034	133.31
444.255	131.31
444.476	140.31
444.698	165.31
444.919	148.31
445.14	268.31
445.361	183.31
445.582	147.31
445.803	143.31
446.024	134.31
446.245	136.31
446.466	145.31
446.687	147.31
446.908	159.31
447.129	166.31
447.35	131.31
447.571	159.31
447.792	147.31
448.013	131.31
448.234	139.31
448.455	133.31
448.675	155.31
448.896	136.31
449.117	133.31
449.338	119.31
449.559	127.31
449.779	137.31
450	125.31
450.221	128.31
450.442	143.31
450.662	137.31
450.883	134.31
451.104	124.31
451.324	118.31
451.545	138.31
451.766	117.31
451.986	124.31
452.207	121.31
452.428	124.31
452.648	113.31
452.869	131.31
453.089	123.31
453.31	100.31
453.53	104.31
453.751	113.31
453.971	119.31
454.192	111.31
454.412	123.31
454.633	132.31
454.853	109.31
455.073	119.31
455.294	119.31
455.514	109.31
455.734	120.31
455.955	102.31
456.175	113.31
456.395	115.31
456.616	109.31
456.836	105.31
457.056	98.31
457.276	90.31
457.497	114.31
457.717	100.31
457.937	106.31
458.157	97.31
458.377	100.31
458.598	93.31
458.818	88.31
459.038	108.31
459.258	83.31
459.478	82.31
459.698	85.31
459.918	100.31
460.138	108.31
460.358	113.31
460.578	105.31
460.798	107.31
461.018	113.31
461.238	123.31
461.458	108.31
461.678	103.31
461.898	109.31
462.118	111.31
462.338	126.31
462.558	100.31
462.777	111.31
462.997	112.31
463.217	100.31
463.437	123.31
463.657	109.31
463.876	121.31
464.096	116.31
464.316	103.31
464.536	101.31
464.755	120.31
464.975	109.31
465.195	102.31
465.414	118.31
465.634	117.31
465.854	119.31
466.073	115.31
466.293	123.31
466.512	121.31
466.732	126.31
466.951	130.31
467.171	112.31
467.391	131.31
467.61	134.31
467.829	139.31
468.049	134.31
468.268	140.31
468.488	136.31
468.707	138.31
468.927	148.31
469.146	131.31
469.365	142.31
469.585	138.31
469.804	137.31
470.023	131.31
470.243	132.31
470.462	133.31
470.681	147.31
470.901	132.31
471.12	115.31
471.339	140.31
471.558	144.31
471.777	126.31
471.997	127.31
472.216	135.31
472.435	116.31
472.654	114.31
472.873	115.31
473.092	106.31
473.311	117.31
473.53	125.31
473.749	112.31
473.968	120.31
474.187	131.31
474.406	126.31
474.625	116.31
474.844	135.31
475.063	142.31
475.282	124.31
475.501	117.31
475.72	125.31
475.939	134.31
476.158	120.31
476.377	117.31
476.596	108.31
476.814	118.31
477.033	108.31
477.252	115.31
477.471	129.31
477.69	131.31
477.908	148.31
478.127	138.31
478.346	137.31
478.564	131.31
478.783	125.31
479.002	145.31
479.22	128.31
479.439	124.31
479.658	117.31
479.876	120.31
480.095	116.31
480.313	132.31
480.532	114.31
480.751	105.31
480.969	91.31
481.188	83.31
481.406	81.31
481.624	92.31
481.843	89.31
482.061	101.31
482.28	112.31
482.498	131.31
482.717	108.31
482.935	124.31
483.153	139.31
483.372	157.31
483.59	152.31
483.808	139.31
484.027	116.31
484.245	135.31
484.463	153.31
484.681	176.31
484.9	149.31
485.118	141.31
485.336	134.31
485.554	118.31
485.772	113.31
485.99	107.31
486.209	116.31
486.427	106.31
486.645	124.31
486.863	134.31
487.081	139.31
487.299	124.31
487.517	135.31
487.735	154.31
487.953	177.31
488.171	165.31
488.389	173.31
488.607	157.31
488.825	145.31
489.043	140.31
489.261	138.31
489.479	139.31
489.696	142.31
489.914	159.31
490.132	148.31
490.35	157.31
490.568	171.31
490.786	172.31
491.003	183.31
491.221	173.31
491.439	192.31
491.657	194.31
491.874	210.31
492.092	216.31
492.31	231.31
492.527	219.31
492.745	194.31
492.963	188.31
493.18	177.31
493.398	184.31
493.615	186.31
493.833	160.31
494.05	153.31
494.268	158.31
494.485	178.31
494.703	177.31
494.92	173.31
495.138	167.31
495.355	169.31
495.573	169.31
495.79	156.31
496.008	164.31
496.225	158.31
496.442	166.31
496.66	156.31
496.877	153.31
497.094	161.31
497.312	172.31
497.529	143.31
497.746	158.31
497.963	140.31
498.181	133.31
498.398	116.31
498.615	128.31
498.832	95.31
499.049	113.31
499.267	135.31
499.484	129.31
499.701	120.31
499.918	123.31
500.135	143.31
500.352	148.31
500.569	147.31
500.786	144.31
501.003	129.31
501.22	145.31
501.437	146.31
501.654	146.31
501.871	123.31
502.088	123.31
502.305	125.31
502.522	129.31
502.739	121.31
502.956	125.31
503.172	125.31
503.389	122.31
503.606	119.31
503.823	115.31
504.04	129.31
504.256	126.31
504.473	105.31
504.69	125.31
504.907	127.31
505.123	127.31
505.34	123.31
505.557	133.31
505.773	108.31
505.99	108.31
506.207	121.31
506.423	111.31
506.64	117.31
506.856	121.31
507.073	123.31
507.289	121.31
507.506	122.31
507.722	124.31
507.939	123.31
508.155	106.31
508.372	93.31
508.588	105.31
508.805	111.31
509.021	94.31
509.238	109.31
509.454	103.31
509.67	98.31
509.887	97.31
510.103	89.31
510.319	92.31
510.536	96.31
510.752	98.31
510.968	70.31
511.184	76.31
511.401	89.31
511.617	86.31
