Data from Location4.07152019.Energy5.Lamp.07192019.3%Agarose_HRD10591_16-18-48-925.txt Node
Date: Fri Jul 19 16:18:48 EDT 2019
User: cochatt
Spectrometer: HR+D1059
Trigger mode: 1
Integration Time (sec): 1.000000E-1
Scans to average: 1
Electric dark correction enabled: true
Nonlinearity correction enabled: false
Boxcar width: 0
XAxis mode: Wavelengths
Number of Pixels in Spectrum: 2048
>>>>>Begin Spectral Data<<<<<
223.165	3.62
223.4	3.62
223.635	3.62
223.869	-15.38
224.104	-21.38
224.338	-25.38
224.573	0.62
224.808	-25.38
225.042	-12.38
225.277	-10.38
225.511	-5.38
225.746	2.62
225.98	17.62
226.215	-0.38
226.449	34.62
226.683	14.62
226.918	18.62
227.152	23.62
227.387	23.62
227.621	33.62
227.856	47.62
228.09	46.62
228.324	46.62
228.559	55.62
228.793	60.62
229.027	68.62
229.262	65.62
229.496	71.62
229.73	83.62
229.964	82.62
230.199	65.62
230.433	79.62
230.667	87.62
230.901	79.62
231.136	79.62
231.37	93.62
231.604	86.62
231.838	82.62
232.072	78.62
232.306	85.62
232.541	92.62
232.775	87.62
233.009	90.62
233.243	71.62
233.477	78.62
233.711	86.62
233.945	89.62
234.179	83.62
234.413	104.62
234.647	87.62
234.881	88.62
235.115	76.62
235.349	84.62
235.583	86.62
235.817	87.62
236.051	70.62
236.285	81.62
236.519	75.62
236.753	67.62
236.987	82.62
237.221	71.62
237.455	87.62
237.689	87.62
237.922	79.62
238.156	84.62
238.39	80.62
238.624	82.62
238.858	85.62
239.091	78.62
239.325	76.62
239.559	82.62
239.793	85.62
240.027	71.62
240.26	78.62
240.494	76.62
240.728	73.62
240.961	88.62
241.195	87.62
241.429	74.62
241.662	76.62
241.896	74.62
242.13	85.62
242.363	79.62
242.597	79.62
242.83	72.62
243.064	71.62
243.298	71.62
243.531	92.62
243.765	93.62
243.998	83.62
244.232	85.62
244.465	82.62
244.699	75.62
244.932	84.62
245.166	86.62
245.399	89.62
245.633	84.62
245.866	85.62
246.099	72.62
246.333	81.62
246.566	86.62
246.8	88.62
247.033	64.62
247.266	78.62
247.5	62.62
247.733	78.62
247.966	80.62
248.2	75.62
248.433	71.62
248.666	82.62
248.899	90.62
249.133	77.62
249.366	84.62
249.599	93.62
249.832	86.62
250.066	92.62
250.299	85.62
250.532	96.62
250.765	69.62
250.998	98.62
251.231	78.62
251.465	84.62
251.698	88.62
251.931	89.62
252.164	84.62
252.397	90.62
252.63	85.62
252.863	86.62
253.096	97.62
253.329	91.62
253.562	75.62
253.795	77.62
254.028	87.62
254.261	83.62
254.494	101.62
254.727	84.62
254.96	83.62
255.193	73.62
255.426	98.62
255.659	95.62
255.892	92.62
256.124	78.62
256.357	84.62
256.59	90.62
256.823	71.62
257.056	98.62
257.289	88.62
257.521	96.62
257.754	81.62
257.987	87.62
258.22	82.62
258.452	83.62
258.685	64.62
258.918	82.62
259.151	91.62
259.383	86.62
259.616	74.62
259.849	89.62
260.081	82.62
260.314	85.62
260.547	75.62
260.779	77.62
261.012	81.62
261.244	97.62
261.477	83.62
261.71	94.62
261.942	81.62
262.175	75.62
262.407	80.62
262.64	77.62
262.872	79.62
263.105	75.62
263.337	89.62
263.57	102.62
263.802	93.62
264.035	80.62
264.267	74.62
264.499	87.62
264.732	100.62
264.964	78.62
265.197	81.62
265.429	86.62
265.661	81.62
265.894	82.62
266.126	78.62
266.358	104.62
266.591	93.62
266.823	78.62
267.055	85.62
267.287	76.62
267.52	91.62
267.752	89.62
267.984	87.62
268.216	72.62
268.448	88.62
268.681	66.62
268.913	89.62
269.145	83.62
269.377	90.62
269.609	87.62
269.841	76.62
270.073	72.62
270.306	73.62
270.538	85.62
270.77	78.62
271.002	78.62
271.234	94.62
271.466	85.62
271.698	87.62
271.93	90.62
272.162	98.62
272.394	107.62
272.626	99.62
272.858	78.62
273.09	100.62
273.322	90.62
273.553	82.62
273.785	96.62
274.017	108.62
274.249	84.62
274.481	78.62
274.713	89.62
274.945	84.62
275.176	74.62
275.408	83.62
275.64	77.62
275.872	89.62
276.104	74.62
276.335	83.62
276.567	84.62
276.799	81.62
277.031	100.62
277.262	94.62
277.494	94.62
277.726	89.62
277.957	92.62
278.189	89.62
278.421	89.62
278.652	90.62
278.884	88.62
279.115	91.62
279.347	87.62
279.579	81.62
279.81	87.62
280.042	77.62
280.273	91.62
280.505	85.62
280.736	90.62
280.968	87.62
281.199	93.62
281.431	77.62
281.662	86.62
281.894	91.62
282.125	100.62
282.356	103.62
282.588	96.62
282.819	73.62
283.051	90.62
283.282	79.62
283.513	87.62
283.745	84.62
283.976	92.62
284.207	75.62
284.439	91.62
284.67	92.62
284.901	94.62
285.132	89.62
285.364	94.62
285.595	99.62
285.826	85.62
286.057	74.62
286.288	101.62
286.52	107.62
286.751	105.62
286.982	98.62
287.213	86.62
287.444	87.62
287.675	80.62
287.906	94.62
288.138	80.62
288.369	80.62
288.6	74.62
288.831	88.62
289.062	90.62
289.293	88.62
289.524	84.62
289.755	89.62
289.986	89.62
290.217	90.62
290.448	88.62
290.679	74.62
290.91	80.62
291.141	97.62
291.371	90.62
291.602	84.62
291.833	93.62
292.064	91.62
292.295	87.62
292.526	81.62
292.757	99.62
292.987	88.62
293.218	90.62
293.449	74.62
293.68	82.62
293.91	71.62
294.141	89.62
294.372	72.62
294.603	80.62
294.833	83.62
295.064	72.62
295.295	83.62
295.525	90.62
295.756	83.62
295.987	95.62
296.217	91.62
296.448	79.62
296.679	85.62
296.909	94.62
297.14	91.62
297.37	75.62
297.601	88.62
297.831	79.62
298.062	102.62
298.292	100.62
298.523	90.62
298.753	85.62
298.984	89.62
299.214	85.62
299.445	91.62
299.675	78.62
299.905	93.62
300.136	97.62
300.366	72.62
300.597	90.62
300.827	92.62
301.057	85.62
301.288	94.62
301.518	74.62
301.748	102.62
301.979	89.62
302.209	71.62
302.439	89.62
302.669	76.62
302.9	89.62
303.13	99.62
303.36	97.62
303.59	74.62
303.82	90.62
304.051	80.62
304.281	88.62
304.511	93.62
304.741	83.62
304.971	84.62
305.201	100.62
305.431	92.62
305.661	89.62
305.891	93.62
306.121	95.62
306.352	85.62
306.582	80.62
306.812	97.62
307.042	96.62
307.272	84.62
307.502	76.62
307.731	84.62
307.961	85.62
308.191	77.62
308.421	81.62
308.651	79.62
308.881	91.62
309.111	77.62
309.341	70.62
309.571	69.62
309.8	91.62
310.03	93.62
310.26	85.62
310.49	91.62
310.72	75.62
310.949	90.62
311.179	87.62
311.409	81.62
311.639	75.62
311.868	85.62
312.098	90.62
312.328	85.62
312.557	85.62
312.787	80.62
313.017	91.62
313.246	89.62
313.476	88.62
313.706	86.62
313.935	85.62
314.165	92.62
314.394	92.62
314.624	95.62
314.853	103.62
315.083	84.62
315.312	87.62
315.542	85.62
315.771	90.62
316.001	107.62
316.23	84.62
316.46	79.62
316.689	92.62
316.919	73.62
317.148	102.62
317.377	94.62
317.607	97.62
317.836	75.62
318.065	76.62
318.295	84.62
318.524	73.62
318.753	95.62
318.983	74.62
319.212	91.62
319.441	75.62
319.67	84.62
319.9	92.62
320.129	87.62
320.358	80.62
320.587	83.62
320.816	89.62
321.046	89.62
321.275	93.62
321.504	89.62
321.733	101.62
321.962	81.62
322.191	101.62
322.42	78.62
322.649	90.62
322.878	83.62
323.108	88.62
323.337	106.62
323.566	78.62
323.795	98.62
324.024	100.62
324.253	81.62
324.482	77.62
324.71	88.62
324.939	87.62
325.168	96.62
325.397	92.62
325.626	87.62
325.855	82.62
326.084	83.62
326.313	98.62
326.542	83.62
326.77	90.62
326.999	90.62
327.228	82.62
327.457	79.62
327.686	76.62
327.914	87.62
328.143	100.62
328.372	88.62
328.6	87.62
328.829	82.62
329.058	90.62
329.287	99.62
329.515	90.62
329.744	86.62
329.972	89.62
330.201	85.62
330.43	90.62
330.658	99.62
330.887	80.62
331.115	91.62
331.344	86.62
331.572	79.62
331.801	87.62
332.03	79.62
332.258	76.62
332.486	87.62
332.715	81.62
332.943	71.62
333.172	74.62
333.4	106.62
333.629	92.62
333.857	82.62
334.085	75.62
334.314	79.62
334.542	84.62
334.771	82.62
334.999	90.62
335.227	87.62
335.455	86.62
335.684	93.62
335.912	100.62
336.14	85.62
336.369	90.62
336.597	97.62
336.825	91.62
337.053	86.62
337.281	89.62
337.51	84.62
337.738	100.62
337.966	89.62
338.194	79.62
338.422	83.62
338.65	74.62
338.878	92.62
339.106	89.62
339.334	91.62
339.562	83.62
339.79	93.62
340.018	85.62
340.246	87.62
340.474	85.62
340.702	83.62
340.93	94.62
341.158	90.62
341.386	95.62
341.614	90.62
341.842	79.62
342.07	79.62
342.298	84.62
342.526	86.62
342.754	92.62
342.981	88.62
343.209	82.62
343.437	94.62
343.665	91.62
343.893	78.62
344.12	82.62
344.348	81.62
344.576	79.62
344.804	81.62
345.031	87.62
345.259	103.62
345.487	87.62
345.714	91.62
345.942	83.62
346.17	94.62
346.397	91.62
346.625	98.62
346.853	100.62
347.08	97.62
347.308	86.62
347.535	86.62
347.763	78.62
347.99	108.62
348.218	94.62
348.445	78.62
348.673	85.62
348.9	96.62
349.128	85.62
349.355	83.62
349.583	84.62
349.81	89.62
350.037	79.62
350.265	90.62
350.492	70.62
350.72	79.62
350.947	95.62
351.174	89.62
351.402	79.62
351.629	84.62
351.856	80.62
352.083	78.62
352.311	98.62
352.538	95.62
352.765	90.62
352.992	90.62
353.22	81.62
353.447	78.62
353.674	93.62
353.901	90.62
354.128	98.62
354.355	74.62
354.583	95.62
354.81	90.62
355.037	89.62
355.264	77.62
355.491	87.62
355.718	89.62
355.945	87.62
356.172	86.62
356.399	97.62
356.626	79.62
356.853	90.62
357.08	87.62
357.307	79.62
357.534	80.62
357.761	80.62
357.988	83.62
358.215	77.62
358.441	101.62
358.668	90.62
358.895	94.62
359.122	81.62
359.349	82.62
359.576	63.62
359.802	84.62
360.029	87.62
360.256	100.62
360.483	90.62
360.709	96.62
360.936	79.62
361.163	96.62
361.39	85.62
361.616	87.62
361.843	83.62
362.07	87.62
362.296	90.62
362.523	94.62
362.749	77.62
362.976	90.62
363.203	97.62
363.429	91.62
363.656	86.62
363.882	80.62
364.109	93.62
364.335	90.62
364.562	87.62
364.788	89.62
365.015	79.62
365.241	85.62
365.468	80.62
365.694	81.62
365.92	79.62
366.147	86.62
366.373	96.62
366.599	67.62
366.826	91.62
367.052	75.62
367.278	88.62
367.505	80.62
367.731	105.62
367.957	97.62
368.184	81.62
368.41	104.62
368.636	82.62
368.862	97.62
369.089	81.62
369.315	82.62
369.541	102.62
369.767	93.62
369.993	87.62
370.219	89.62
370.445	89.62
370.672	91.62
370.898	86.62
371.124	95.62
371.35	103.62
371.576	88.62
371.802	92.62
372.028	95.62
372.254	105.62
372.48	102.62
372.706	91.62
372.932	88.62
373.158	103.62
373.384	95.62
373.61	110.62
373.835	100.62
374.061	99.62
374.287	88.62
374.513	93.62
374.739	103.62
374.965	100.62
375.191	87.62
375.416	95.62
375.642	78.62
375.868	105.62
376.094	104.62
376.319	91.62
376.545	81.62
376.771	94.62
376.997	102.62
377.222	93.62
377.448	84.62
377.674	108.62
377.899	101.62
378.125	93.62
378.35	85.62
378.576	96.62
378.802	95.62
379.027	102.62
379.253	98.62
379.478	94.62
379.704	92.62
379.929	88.62
380.155	102.62
380.38	100.62
380.606	83.62
380.831	95.62
381.057	105.62
381.282	80.62
381.507	102.62
381.733	90.62
381.958	100.62
382.184	93.62
382.409	97.62
382.634	90.62
382.86	107.62
383.085	95.62
383.31	100.62
383.535	89.62
383.761	114.62
383.986	102.62
384.211	92.62
384.436	109.62
384.662	98.62
384.887	95.62
385.112	90.62
385.337	106.62
385.562	102.62
385.787	103.62
386.013	113.62
386.238	92.62
386.463	86.62
386.688	101.62
386.913	93.62
387.138	98.62
387.363	111.62
387.588	98.62
387.813	115.62
388.038	113.62
388.263	100.62
388.488	100.62
388.713	106.62
388.938	97.62
389.163	99.62
389.387	105.62
389.612	109.62
389.837	106.62
390.062	120.62
390.287	117.62
390.512	100.62
390.736	89.62
390.961	103.62
391.186	103.62
391.411	105.62
391.636	105.62
391.86	115.62
392.085	97.62
392.31	107.62
392.534	96.62
392.759	91.62
392.984	93.62
393.208	100.62
393.433	114.62
393.658	118.62
393.882	100.62
394.107	108.62
394.331	125.62
394.556	115.62
394.78	106.62
395.005	117.62
395.229	93.62
395.454	111.62
395.678	109.62
395.903	93.62
396.127	118.62
396.352	116.62
396.576	110.62
396.801	131.62
397.025	112.62
397.249	113.62
397.474	115.62
397.698	102.62
397.922	100.62
398.147	108.62
398.371	111.62
398.595	117.62
398.82	117.62
399.044	106.62
399.268	99.62
399.492	119.62
399.717	115.62
399.941	115.62
400.165	114.62
400.389	114.62
400.613	117.62
400.837	119.62
401.062	125.62
401.286	106.62
401.51	126.62
401.734	99.62
401.958	108.62
402.182	106.62
402.406	124.62
402.63	121.62
402.854	123.62
403.078	111.62
403.302	135.62
403.526	130.62
403.75	103.62
403.974	119.62
404.198	108.62
404.422	115.62
404.645	124.62
404.869	114.62
405.093	123.62
405.317	123.62
405.541	114.62
405.765	135.62
405.988	128.62
406.212	125.62
406.436	115.62
406.66	132.62
406.883	121.62
407.107	131.62
407.331	136.62
407.555	117.62
407.778	129.62
408.002	118.62
408.226	113.62
408.449	107.62
408.673	102.62
408.896	124.62
409.12	121.62
409.344	126.62
409.567	127.62
409.791	119.62
410.014	110.62
410.238	108.62
410.461	119.62
410.685	120.62
410.908	132.62
411.132	136.62
411.355	123.62
411.578	115.62
411.802	131.62
412.025	110.62
412.249	118.62
412.472	122.62
412.695	125.62
412.919	123.62
413.142	123.62
413.365	111.62
413.589	129.62
413.812	125.62
414.035	129.62
414.258	143.62
414.482	119.62
414.705	124.62
414.928	122.62
415.151	109.62
415.374	129.62
415.597	129.62
415.821	129.62
416.044	124.62
416.267	141.62
416.49	122.62
416.713	130.62
416.936	142.62
417.159	118.62
417.382	132.62
417.605	122.62
417.828	124.62
418.051	134.62
418.274	130.62
418.497	123.62
418.72	150.62
418.943	126.62
419.166	152.62
419.389	132.62
419.611	130.62
419.834	142.62
420.057	132.62
420.28	131.62
420.503	110.62
420.726	143.62
420.948	122.62
421.171	129.62
421.394	137.62
421.617	142.62
421.839	149.62
422.062	143.62
422.285	128.62
422.507	122.62
422.73	133.62
422.953	127.62
423.175	131.62
423.398	138.62
423.621	128.62
423.843	138.62
424.066	132.62
424.288	149.62
424.511	143.62
424.733	153.62
424.956	141.62
425.178	138.62
425.401	148.62
425.623	142.62
425.846	119.62
426.068	115.62
426.291	133.62
426.513	131.62
426.735	150.62
426.958	133.62
427.18	137.62
427.402	123.62
427.625	123.62
427.847	124.62
428.069	135.62
428.292	133.62
428.514	135.62
428.736	127.62
428.958	129.62
429.181	133.62
429.403	139.62
429.625	124.62
429.847	136.62
430.069	129.62
430.292	134.62
430.514	134.62
430.736	126.62
430.958	157.62
431.18	131.62
431.402	130.62
431.624	130.62
431.846	114.62
432.068	97.62
432.29	95.62
432.512	101.62
432.734	129.62
432.956	128.62
433.178	155.62
433.4	139.62
433.622	128.62
433.844	132.62
434.066	131.62
434.287	116.62
434.509	95.62
434.731	105.62
434.953	108.62
435.175	121.62
435.397	114.62
435.618	123.62
435.84	121.62
436.062	123.62
436.284	116.62
436.505	132.62
436.727	125.62
436.949	130.62
437.17	147.62
437.392	139.62
437.614	129.62
437.835	115.62
438.057	118.62
438.278	116.62
438.5	132.62
438.721	143.62
438.943	128.62
439.165	126.62
439.386	138.62
439.608	149.62
439.829	142.62
440.05	157.62
440.272	150.62
440.493	136.62
440.715	149.62
440.936	132.62
441.158	140.62
441.379	142.62
441.6	145.62
441.822	128.62
442.043	156.62
442.264	159.62
442.486	133.62
442.707	128.62
442.928	124.62
443.149	154.62
443.371	137.62
443.592	134.62
443.813	137.62
444.034	139.62
444.255	138.62
444.476	135.62
444.698	155.62
444.919	141.62
445.14	265.62
445.361	213.62
445.582	151.62
445.803	141.62
446.024	149.62
446.245	151.62
446.466	165.62
446.687	155.62
446.908	156.62
447.129	156.62
447.35	160.62
447.571	161.62
447.792	145.62
448.013	142.62
448.234	171.62
448.455	133.62
448.675	137.62
448.896	142.62
449.117	130.62
449.338	151.62
449.559	161.62
449.779	135.62
450	143.62
450.221	138.62
450.442	136.62
450.662	141.62
450.883	135.62
451.104	138.62
451.324	135.62
451.545	137.62
451.766	135.62
451.986	120.62
452.207	133.62
452.428	131.62
452.648	134.62
452.869	121.62
453.089	121.62
453.31	130.62
453.53	113.62
453.751	118.62
453.971	101.62
454.192	99.62
454.412	118.62
454.633	121.62
454.853	122.62
455.073	124.62
455.294	127.62
455.514	115.62
455.734	121.62
455.955	123.62
456.175	107.62
456.395	114.62
456.616	102.62
456.836	116.62
457.056	105.62
457.276	113.62
457.497	110.62
457.717	122.62
457.937	111.62
458.157	117.62
458.377	117.62
458.598	99.62
458.818	99.62
459.038	97.62
459.258	86.62
459.478	97.62
459.698	98.62
459.918	104.62
460.138	109.62
460.358	107.62
460.578	123.62
460.798	125.62
461.018	127.62
461.238	116.62
461.458	128.62
461.678	111.62
461.898	133.62
462.118	104.62
462.338	124.62
462.558	108.62
462.777	115.62
462.997	129.62
463.217	120.62
463.437	119.62
463.657	121.62
463.876	105.62
464.096	125.62
464.316	117.62
464.536	115.62
464.755	119.62
464.975	112.62
465.195	119.62
465.414	105.62
465.634	109.62
465.854	118.62
466.073	125.62
466.293	123.62
466.512	123.62
466.732	120.62
466.951	137.62
467.171	142.62
467.391	139.62
467.61	142.62
467.829	133.62
468.049	136.62
468.268	147.62
468.488	137.62
468.707	153.62
468.927	145.62
469.146	138.62
469.365	141.62
469.585	137.62
469.804	130.62
470.023	149.62
470.243	147.62
470.462	143.62
470.681	139.62
470.901	144.62
471.12	145.62
471.339	142.62
471.558	165.62
471.777	135.62
471.997	133.62
472.216	122.62
472.435	121.62
472.654	116.62
472.873	107.62
473.092	107.62
473.311	115.62
473.53	130.62
473.749	135.62
473.968	136.62
474.187	134.62
474.406	134.62
474.625	139.62
474.844	133.62
475.063	126.62
475.282	144.62
475.501	150.62
475.72	128.62
475.939	124.62
476.158	135.62
476.377	134.62
476.596	130.62
476.814	107.62
477.033	113.62
477.252	106.62
477.471	127.62
477.69	141.62
477.908	134.62
478.127	144.62
478.346	148.62
478.564	151.62
478.783	143.62
479.002	136.62
479.22	133.62
479.439	130.62
479.658	127.62
479.876	115.62
480.095	102.62
480.313	122.62
480.532	111.62
480.751	116.62
480.969	113.62
481.188	95.62
481.406	104.62
481.624	112.62
481.843	95.62
482.061	112.62
482.28	113.62
482.498	134.62
482.717	115.62
482.935	110.62
483.153	120.62
483.372	137.62
483.59	136.62
483.808	142.62
484.027	138.62
484.245	150.62
484.463	153.62
484.681	170.62
484.9	163.62
485.118	134.62
485.336	140.62
485.554	125.62
485.772	107.62
485.99	107.62
486.209	122.62
486.427	122.62
486.645	113.62
486.863	138.62
487.081	151.62
487.299	150.62
487.517	139.62
487.735	158.62
487.953	174.62
488.171	186.62
488.389	193.62
488.607	179.62
488.825	144.62
489.043	141.62
489.261	141.62
489.479	142.62
489.696	157.62
489.914	149.62
490.132	148.62
490.35	164.62
490.568	156.62
490.786	170.62
491.003	175.62
491.221	202.62
491.439	208.62
491.657	196.62
491.874	209.62
492.092	226.62
492.31	234.62
492.527	219.62
492.745	213.62
492.963	181.62
493.18	187.62
493.398	187.62
493.615	164.62
493.833	181.62
494.05	185.62
494.268	188.62
494.485	169.62
494.703	159.62
494.92	192.62
495.138	169.62
495.355	170.62
495.573	177.62
495.79	168.62
496.008	170.62
496.225	171.62
496.442	173.62
496.66	172.62
496.877	178.62
497.094	172.62
497.312	163.62
497.529	148.62
497.746	154.62
497.963	142.62
498.181	140.62
498.398	130.62
498.615	132.62
498.832	126.62
499.049	113.62
499.267	123.62
499.484	126.62
499.701	141.62
499.918	140.62
500.135	135.62
500.352	147.62
500.569	133.62
500.786	141.62
501.003	137.62
501.22	150.62
501.437	138.62
501.654	136.62
501.871	135.62
502.088	127.62
502.305	135.62
502.522	132.62
502.739	123.62
502.956	127.62
503.172	135.62
503.389	126.62
503.606	128.62
503.823	133.62
504.04	137.62
504.256	125.62
504.473	108.62
504.69	118.62
504.907	133.62
505.123	123.62
505.34	115.62
505.557	125.62
505.773	136.62
505.99	127.62
506.207	129.62
506.423	118.62
506.64	121.62
506.856	117.62
507.073	125.62
507.289	110.62
507.506	116.62
507.722	119.62
507.939	122.62
508.155	112.62
508.372	114.62
508.588	110.62
508.805	100.62
509.021	107.62
509.238	110.62
509.454	97.62
509.67	116.62
509.887	115.62
510.103	100.62
510.319	95.62
510.536	99.62
510.752	104.62
510.968	79.62
