Data from Location4.07152019.Energy5.Lamp.07192019.3%Agarose_HRD10591_16-18-29-926.txt Node
Date: Fri Jul 19 16:18:29 EDT 2019
User: cochatt
Spectrometer: HR+D1059
Trigger mode: 1
Integration Time (sec): 1.000000E-1
Scans to average: 1
Electric dark correction enabled: true
Nonlinearity correction enabled: false
Boxcar width: 0
XAxis mode: Wavelengths
Number of Pixels in Spectrum: 2048
>>>>>Begin Spectral Data<<<<<
223.165	-14.44
223.4	-14.44
223.635	-14.44
223.869	-23.44
224.104	-19.44
224.338	-15.44
224.573	-5.44
224.808	-22.44
225.042	-10.44
225.277	-6.44
225.511	6.56
225.746	8.56
225.98	6.56
226.215	7.56
226.449	19.56
226.683	24.56
226.918	13.56
227.152	30.56
227.387	36.56
227.621	47.56
227.856	42.56
228.09	42.56
228.324	37.56
228.559	58.56
228.793	61.56
229.027	55.56
229.262	58.56
229.496	73.56
229.73	78.56
229.964	72.56
230.199	84.56
230.433	66.56
230.667	81.56
230.901	79.56
231.136	87.56
231.37	90.56
231.604	81.56
231.838	69.56
232.072	75.56
232.306	80.56
232.541	91.56
232.775	82.56
233.009	79.56
233.243	72.56
233.477	94.56
233.711	85.56
233.945	96.56
234.179	95.56
234.413	90.56
234.647	83.56
234.881	88.56
235.115	78.56
235.349	81.56
235.583	85.56
235.817	75.56
236.051	75.56
236.285	75.56
236.519	68.56
236.753	80.56
236.987	75.56
237.221	76.56
237.455	80.56
237.689	68.56
237.922	70.56
238.156	76.56
238.39	68.56
238.624	80.56
238.858	85.56
239.091	72.56
239.325	74.56
239.559	76.56
239.793	71.56
240.027	83.56
240.26	74.56
240.494	92.56
240.728	78.56
240.961	81.56
241.195	66.56
241.429	75.56
241.662	70.56
241.896	62.56
242.13	82.56
242.363	70.56
242.597	64.56
242.83	79.56
243.064	70.56
243.298	80.56
243.531	71.56
243.765	75.56
243.998	71.56
244.232	72.56
244.465	80.56
244.699	65.56
244.932	77.56
245.166	71.56
245.399	81.56
245.633	69.56
245.866	88.56
246.099	78.56
246.333	74.56
246.566	72.56
246.8	80.56
247.033	78.56
247.266	69.56
247.5	86.56
247.733	79.56
247.966	67.56
248.2	85.56
248.433	90.56
248.666	87.56
248.899	96.56
249.133	85.56
249.366	76.56
249.599	88.56
249.832	72.56
250.066	63.56
250.299	73.56
250.532	82.56
250.765	73.56
250.998	89.56
251.231	77.56
251.465	55.56
251.698	79.56
251.931	88.56
252.164	75.56
252.397	69.56
252.63	73.56
252.863	78.56
253.096	79.56
253.329	89.56
253.562	74.56
253.795	79.56
254.028	81.56
254.261	83.56
254.494	67.56
254.727	89.56
254.96	83.56
255.193	79.56
255.426	65.56
255.659	78.56
255.892	82.56
256.124	79.56
256.357	75.56
256.59	83.56
256.823	78.56
257.056	85.56
257.289	68.56
257.521	65.56
257.754	86.56
257.987	88.56
258.22	86.56
258.452	78.56
258.685	70.56
258.918	75.56
259.151	78.56
259.383	81.56
259.616	66.56
259.849	66.56
260.081	66.56
260.314	75.56
260.547	83.56
260.779	72.56
261.012	86.56
261.244	91.56
261.477	75.56
261.71	79.56
261.942	73.56
262.175	82.56
262.407	78.56
262.64	84.56
262.872	72.56
263.105	78.56
263.337	78.56
263.57	82.56
263.802	88.56
264.035	77.56
264.267	82.56
264.499	80.56
264.732	81.56
264.964	75.56
265.197	85.56
265.429	80.56
265.661	73.56
265.894	72.56
266.126	83.56
266.358	82.56
266.591	87.56
266.823	79.56
267.055	75.56
267.287	82.56
267.52	78.56
267.752	77.56
267.984	81.56
268.216	90.56
268.448	88.56
268.681	81.56
268.913	86.56
269.145	78.56
269.377	72.56
269.609	76.56
269.841	75.56
270.073	79.56
270.306	80.56
270.538	73.56
270.77	83.56
271.002	85.56
271.234	80.56
271.466	78.56
271.698	81.56
271.93	67.56
272.162	65.56
272.394	85.56
272.626	82.56
272.858	81.56
273.09	80.56
273.322	81.56
273.553	79.56
273.785	78.56
274.017	76.56
274.249	79.56
274.481	68.56
274.713	90.56
274.945	78.56
275.176	85.56
275.408	92.56
275.64	75.56
275.872	82.56
276.104	86.56
276.335	84.56
276.567	88.56
276.799	78.56
277.031	73.56
277.262	90.56
277.494	80.56
277.726	87.56
277.957	83.56
278.189	74.56
278.421	85.56
278.652	76.56
278.884	69.56
279.115	80.56
279.347	83.56
279.579	98.56
279.81	81.56
280.042	87.56
280.273	89.56
280.505	81.56
280.736	84.56
280.968	82.56
281.199	84.56
281.431	89.56
281.662	91.56
281.894	82.56
282.125	59.56
282.356	82.56
282.588	80.56
282.819	81.56
283.051	86.56
283.282	77.56
283.513	67.56
283.745	90.56
283.976	78.56
284.207	83.56
284.439	95.56
284.67	81.56
284.901	97.56
285.132	82.56
285.364	94.56
285.595	84.56
285.826	74.56
286.057	92.56
286.288	74.56
286.52	75.56
286.751	92.56
286.982	85.56
287.213	80.56
287.444	87.56
287.675	83.56
287.906	90.56
288.138	81.56
288.369	79.56
288.6	86.56
288.831	84.56
289.062	98.56
289.293	87.56
289.524	78.56
289.755	86.56
289.986	93.56
290.217	90.56
290.448	83.56
290.679	74.56
290.91	87.56
291.141	90.56
291.371	78.56
291.602	89.56
291.833	87.56
292.064	82.56
292.295	81.56
292.526	97.56
292.757	90.56
292.987	113.56
293.218	76.56
293.449	91.56
293.68	88.56
293.91	69.56
294.141	95.56
294.372	78.56
294.603	94.56
294.833	87.56
295.064	94.56
295.295	90.56
295.525	91.56
295.756	74.56
295.987	91.56
296.217	82.56
296.448	83.56
296.679	87.56
296.909	80.56
297.14	77.56
297.37	81.56
297.601	80.56
297.831	80.56
298.062	86.56
298.292	82.56
298.523	85.56
298.753	90.56
298.984	75.56
299.214	92.56
299.445	71.56
299.675	86.56
299.905	82.56
300.136	78.56
300.366	84.56
300.597	74.56
300.827	100.56
301.057	75.56
301.288	86.56
301.518	77.56
301.748	82.56
301.979	85.56
302.209	63.56
302.439	81.56
302.669	70.56
302.9	82.56
303.13	81.56
303.36	89.56
303.59	83.56
303.82	89.56
304.051	73.56
304.281	68.56
304.511	76.56
304.741	87.56
304.971	82.56
305.201	91.56
305.431	90.56
305.661	94.56
305.891	87.56
306.121	81.56
306.352	78.56
306.582	81.56
306.812	87.56
307.042	84.56
307.272	95.56
307.502	84.56
307.731	91.56
307.961	74.56
308.191	74.56
308.421	93.56
308.651	84.56
308.881	76.56
309.111	82.56
309.341	78.56
309.571	94.56
309.8	85.56
310.03	83.56
310.26	87.56
310.49	75.56
310.72	87.56
310.949	83.56
311.179	96.56
311.409	80.56
311.639	83.56
311.868	91.56
312.098	88.56
312.328	83.56
312.557	79.56
312.787	79.56
313.017	78.56
313.246	67.56
313.476	96.56
313.706	83.56
313.935	85.56
314.165	89.56
314.394	93.56
314.624	91.56
314.853	73.56
315.083	93.56
315.312	95.56
315.542	78.56
315.771	88.56
316.001	92.56
316.23	91.56
316.46	74.56
316.689	74.56
316.919	81.56
317.148	74.56
317.377	86.56
317.607	93.56
317.836	87.56
318.065	75.56
318.295	90.56
318.524	86.56
318.753	79.56
318.983	82.56
319.212	96.56
319.441	83.56
319.67	85.56
319.9	82.56
320.129	87.56
320.358	89.56
320.587	82.56
320.816	81.56
321.046	75.56
321.275	78.56
321.504	78.56
321.733	82.56
321.962	89.56
322.191	86.56
322.42	71.56
322.649	79.56
322.878	90.56
323.108	79.56
323.337	76.56
323.566	79.56
323.795	76.56
324.024	81.56
324.253	75.56
324.482	84.56
324.71	70.56
324.939	79.56
325.168	86.56
325.397	75.56
325.626	88.56
325.855	79.56
326.084	86.56
326.313	82.56
326.542	88.56
326.77	71.56
326.999	83.56
327.228	81.56
327.457	78.56
327.686	86.56
327.914	78.56
328.143	97.56
328.372	93.56
328.6	91.56
328.829	93.56
329.058	71.56
329.287	74.56
329.515	89.56
329.744	98.56
329.972	83.56
330.201	64.56
330.43	92.56
330.658	90.56
330.887	79.56
331.115	89.56
331.344	84.56
331.572	94.56
331.801	84.56
332.03	72.56
332.258	102.56
332.486	77.56
332.715	81.56
332.943	85.56
333.172	78.56
333.4	77.56
333.629	80.56
333.857	76.56
334.085	86.56
334.314	80.56
334.542	87.56
334.771	93.56
334.999	94.56
335.227	86.56
335.455	83.56
335.684	85.56
335.912	85.56
336.14	73.56
336.369	80.56
336.597	82.56
336.825	91.56
337.053	73.56
337.281	95.56
337.51	76.56
337.738	82.56
337.966	70.56
338.194	84.56
338.422	75.56
338.65	76.56
338.878	93.56
339.106	99.56
339.334	78.56
339.562	90.56
339.79	90.56
340.018	91.56
340.246	89.56
340.474	88.56
340.702	88.56
340.93	74.56
341.158	84.56
341.386	86.56
341.614	81.56
341.842	82.56
342.07	88.56
342.298	82.56
342.526	72.56
342.754	85.56
342.981	81.56
343.209	74.56
343.437	75.56
343.665	94.56
343.893	95.56
344.12	87.56
344.348	83.56
344.576	82.56
344.804	98.56
345.031	90.56
345.259	89.56
345.487	78.56
345.714	82.56
345.942	90.56
346.17	93.56
346.397	89.56
346.625	74.56
346.853	74.56
347.08	78.56
347.308	81.56
347.535	75.56
347.763	80.56
347.99	94.56
348.218	89.56
348.445	71.56
348.673	82.56
348.9	87.56
349.128	73.56
349.355	79.56
349.583	83.56
349.81	80.56
350.037	94.56
350.265	93.56
350.492	88.56
350.72	87.56
350.947	81.56
351.174	85.56
351.402	90.56
351.629	70.56
351.856	73.56
352.083	69.56
352.311	84.56
352.538	77.56
352.765	95.56
352.992	84.56
353.22	74.56
353.447	78.56
353.674	85.56
353.901	73.56
354.128	83.56
354.355	77.56
354.583	73.56
354.81	85.56
355.037	89.56
355.264	79.56
355.491	71.56
355.718	95.56
355.945	88.56
356.172	82.56
356.399	80.56
356.626	84.56
356.853	88.56
357.08	82.56
357.307	80.56
357.534	75.56
357.761	81.56
357.988	83.56
358.215	78.56
358.441	89.56
358.668	77.56
358.895	77.56
359.122	92.56
359.349	69.56
359.576	85.56
359.802	88.56
360.029	92.56
360.256	78.56
360.483	68.56
360.709	73.56
360.936	93.56
361.163	82.56
361.39	71.56
361.616	80.56
361.843	86.56
362.07	85.56
362.296	82.56
362.523	82.56
362.749	81.56
362.976	101.56
363.203	85.56
363.429	77.56
363.656	90.56
363.882	92.56
364.109	81.56
364.335	89.56
364.562	79.56
364.788	75.56
365.015	87.56
365.241	92.56
365.468	80.56
365.694	86.56
365.92	94.56
366.147	81.56
366.373	91.56
366.599	87.56
366.826	75.56
367.052	82.56
367.278	96.56
367.505	101.56
367.731	91.56
367.957	85.56
368.184	91.56
368.41	84.56
368.636	78.56
368.862	94.56
369.089	94.56
369.315	82.56
369.541	92.56
369.767	88.56
369.993	81.56
370.219	73.56
370.445	81.56
370.672	93.56
370.898	95.56
371.124	81.56
371.35	100.56
371.576	99.56
371.802	89.56
372.028	83.56
372.254	82.56
372.48	66.56
372.706	97.56
372.932	91.56
373.158	81.56
373.384	91.56
373.61	97.56
373.835	85.56
374.061	82.56
374.287	88.56
374.513	101.56
374.739	92.56
374.965	93.56
375.191	94.56
375.416	84.56
375.642	95.56
375.868	89.56
376.094	105.56
376.319	87.56
376.545	81.56
376.771	80.56
376.997	98.56
377.222	89.56
377.448	79.56
377.674	90.56
377.899	92.56
378.125	83.56
378.35	85.56
378.576	86.56
378.802	92.56
379.027	97.56
379.253	92.56
379.478	88.56
379.704	84.56
379.929	99.56
380.155	97.56
380.38	94.56
380.606	71.56
380.831	94.56
381.057	89.56
381.282	87.56
381.507	88.56
381.733	98.56
381.958	97.56
382.184	85.56
382.409	97.56
382.634	87.56
382.86	95.56
383.085	88.56
383.31	97.56
383.535	105.56
383.761	88.56
383.986	90.56
384.211	97.56
384.436	94.56
384.662	88.56
384.887	86.56
385.112	98.56
385.337	99.56
385.562	91.56
385.787	94.56
386.013	107.56
386.238	97.56
386.463	84.56
386.688	99.56
386.913	99.56
387.138	112.56
387.363	89.56
387.588	89.56
387.813	97.56
388.038	92.56
388.263	106.56
388.488	99.56
388.713	93.56
388.938	93.56
389.163	101.56
389.387	91.56
389.612	93.56
389.837	102.56
390.062	95.56
390.287	94.56
390.512	103.56
390.736	116.56
390.961	115.56
391.186	101.56
391.411	115.56
391.636	101.56
391.86	103.56
392.085	119.56
392.31	105.56
392.534	99.56
392.759	104.56
392.984	108.56
393.208	112.56
393.433	102.56
393.658	97.56
393.882	71.56
394.107	98.56
394.331	109.56
394.556	93.56
394.78	97.56
395.005	99.56
395.229	105.56
395.454	101.56
395.678	101.56
395.903	106.56
396.127	96.56
396.352	96.56
396.576	92.56
396.801	101.56
397.025	108.56
397.249	108.56
397.474	115.56
397.698	119.56
397.922	121.56
398.147	95.56
398.371	98.56
398.595	119.56
398.82	106.56
399.044	111.56
399.268	118.56
399.492	106.56
399.717	119.56
399.941	119.56
400.165	117.56
400.389	92.56
400.613	114.56
400.837	104.56
401.062	111.56
401.286	100.56
401.51	108.56
401.734	98.56
401.958	114.56
402.182	114.56
402.406	119.56
402.63	121.56
402.854	108.56
403.078	103.56
403.302	120.56
403.526	112.56
403.75	119.56
403.974	111.56
404.198	107.56
404.422	119.56
404.645	114.56
404.869	117.56
405.093	129.56
405.317	112.56
405.541	110.56
405.765	98.56
405.988	120.56
406.212	115.56
406.436	103.56
406.66	124.56
406.883	112.56
407.107	115.56
407.331	121.56
407.555	103.56
407.778	122.56
408.002	116.56
408.226	104.56
408.449	110.56
408.673	127.56
408.896	121.56
409.12	127.56
409.344	110.56
409.567	125.56
409.791	125.56
410.014	116.56
410.238	125.56
410.461	124.56
410.685	122.56
410.908	109.56
411.132	117.56
411.355	112.56
411.578	126.56
411.802	105.56
412.025	109.56
412.249	121.56
412.472	119.56
412.695	113.56
412.919	106.56
413.142	111.56
413.365	129.56
413.589	121.56
413.812	107.56
414.035	131.56
414.258	122.56
414.482	118.56
414.705	135.56
414.928	136.56
415.151	119.56
415.374	116.56
415.597	116.56
415.821	117.56
416.044	113.56
416.267	124.56
416.49	124.56
416.713	125.56
416.936	128.56
417.159	122.56
417.382	114.56
417.605	120.56
417.828	127.56
418.051	137.56
418.274	128.56
418.497	132.56
418.72	128.56
418.943	117.56
419.166	127.56
419.389	137.56
419.611	128.56
419.834	129.56
420.057	127.56
420.28	120.56
420.503	115.56
420.726	135.56
420.948	130.56
421.171	134.56
421.394	133.56
421.617	117.56
421.839	129.56
422.062	146.56
422.285	139.56
422.507	112.56
422.73	119.56
422.953	132.56
423.175	102.56
423.398	112.56
423.621	128.56
423.843	129.56
424.066	139.56
424.288	149.56
424.511	128.56
424.733	132.56
424.956	132.56
425.178	121.56
425.401	122.56
425.623	136.56
425.846	119.56
426.068	136.56
426.291	125.56
426.513	122.56
426.735	123.56
426.958	130.56
427.18	117.56
427.402	121.56
427.625	125.56
427.847	119.56
428.069	131.56
428.292	118.56
428.514	127.56
428.736	111.56
428.958	127.56
429.181	126.56
429.403	129.56
429.625	135.56
429.847	127.56
430.069	130.56
430.292	123.56
430.514	121.56
430.736	123.56
430.958	125.56
431.18	138.56
431.402	121.56
431.624	105.56
431.846	93.56
432.068	99.56
432.29	102.56
432.512	112.56
432.734	113.56
432.956	119.56
433.178	148.56
433.4	140.56
433.622	131.56
433.844	115.56
434.066	107.56
434.287	110.56
434.509	104.56
434.731	111.56
434.953	113.56
435.175	121.56
435.397	121.56
435.618	118.56
435.84	114.56
436.062	111.56
436.284	124.56
436.505	121.56
436.727	133.56
436.949	125.56
437.17	120.56
437.392	121.56
437.614	123.56
437.835	111.56
438.057	100.56
438.278	125.56
438.5	129.56
438.721	132.56
438.943	136.56
439.165	131.56
439.386	138.56
439.608	136.56
439.829	132.56
440.05	130.56
440.272	143.56
440.493	126.56
440.715	144.56
440.936	129.56
441.158	135.56
441.379	129.56
441.6	145.56
441.822	129.56
442.043	126.56
442.264	119.56
442.486	139.56
442.707	137.56
442.928	134.56
443.149	122.56
443.371	149.56
443.592	139.56
443.813	129.56
444.034	138.56
444.255	145.56
444.476	132.56
444.698	127.56
444.919	132.56
445.14	277.56
445.361	197.56
445.582	147.56
445.803	149.56
446.024	148.56
446.245	157.56
446.466	147.56
446.687	135.56
446.908	145.56
447.129	149.56
447.35	154.56
447.571	152.56
447.792	144.56
448.013	131.56
448.234	144.56
448.455	157.56
448.675	127.56
448.896	134.56
449.117	147.56
449.338	135.56
449.559	135.56
449.779	145.56
450	134.56
450.221	141.56
450.442	125.56
450.662	139.56
450.883	135.56
451.104	122.56
451.324	123.56
451.545	134.56
451.766	118.56
451.986	145.56
452.207	138.56
452.428	129.56
452.648	121.56
452.869	122.56
453.089	115.56
453.31	120.56
453.53	119.56
453.751	99.56
453.971	104.56
454.192	93.56
454.412	114.56
454.633	114.56
454.853	106.56
455.073	117.56
455.294	125.56
455.514	121.56
455.734	115.56
455.955	121.56
456.175	114.56
456.395	120.56
456.616	114.56
456.836	117.56
457.056	118.56
457.276	114.56
457.497	96.56
457.717	106.56
457.937	121.56
458.157	99.56
458.377	115.56
458.598	107.56
458.818	103.56
459.038	82.56
459.258	85.56
459.478	81.56
459.698	88.56
459.918	103.56
460.138	98.56
460.358	107.56
460.578	106.56
460.798	117.56
461.018	129.56
461.238	121.56
461.458	114.56
461.678	106.56
461.898	110.56
462.118	105.56
462.338	104.56
462.558	102.56
462.777	110.56
462.997	116.56
463.217	105.56
463.437	111.56
463.657	112.56
463.876	116.56
464.096	106.56
464.316	114.56
464.536	102.56
464.755	109.56
464.975	117.56
465.195	116.56
465.414	103.56
465.634	117.56
465.854	115.56
466.073	123.56
466.293	132.56
466.512	118.56
466.732	121.56
466.951	126.56
467.171	135.56
467.391	128.56
467.61	129.56
467.829	115.56
468.049	130.56
468.268	144.56
468.488	133.56
468.707	141.56
468.927	133.56
469.146	133.56
469.365	128.56
469.585	130.56
469.804	131.56
470.023	135.56
470.243	138.56
470.462	138.56
470.681	135.56
470.901	121.56
471.12	130.56
471.339	149.56
471.558	125.56
471.777	138.56
471.997	133.56
472.216	123.56
472.435	125.56
472.654	105.56
472.873	95.56
473.092	102.56
473.311	130.56
473.53	117.56
473.749	115.56
473.968	117.56
474.187	112.56
474.406	122.56
474.625	128.56
474.844	123.56
475.063	111.56
475.282	131.56
475.501	123.56
475.72	117.56
475.939	121.56
476.158	134.56
476.377	115.56
476.596	117.56
476.814	120.56
477.033	118.56
477.252	107.56
477.471	135.56
477.69	129.56
477.908	138.56
478.127	140.56
478.346	137.56
478.564	132.56
478.783	127.56
479.002	130.56
479.22	138.56
479.439	136.56
479.658	121.56
479.876	100.56
480.095	113.56
480.313	98.56
480.532	92.56
480.751	114.56
480.969	113.56
481.188	81.56
481.406	82.56
481.624	80.56
481.843	90.56
482.061	94.56
482.28	121.56
482.498	109.56
482.717	122.56
482.935	117.56
483.153	150.56
483.372	145.56
483.59	136.56
483.808	126.56
484.027	137.56
484.245	125.56
484.463	148.56
484.681	163.56
484.9	164.56
485.118	142.56
485.336	129.56
485.554	110.56
485.772	93.56
485.99	114.56
486.209	115.56
486.427	127.56
486.645	112.56
486.863	133.56
487.081	128.56
487.299	138.56
487.517	139.56
487.735	148.56
487.953	187.56
488.171	182.56
488.389	171.56
488.607	162.56
488.825	132.56
489.043	129.56
489.261	134.56
489.479	153.56
489.696	143.56
489.914	143.56
490.132	145.56
490.35	139.56
490.568	163.56
490.786	168.56
491.003	169.56
491.221	186.56
491.439	191.56
491.657	201.56
491.874	195.56
492.092	214.56
492.31	215.56
492.527	220.56
492.745	192.56
492.963	195.56
493.18	177.56
493.398	179.56
493.615	179.56
493.833	166.56
494.05	167.56
494.268	184.56
494.485	164.56
494.703	168.56
494.92	166.56
495.138	178.56
495.355	157.56
495.573	168.56
495.79	148.56
496.008	166.56
496.225	165.56
496.442	157.56
496.66	166.56
496.877	153.56
497.094	160.56
497.312	138.56
497.529	162.56
497.746	149.56
497.963	124.56
498.181	122.56
498.398	112.56
498.615	112.56
498.832	114.56
499.049	123.56
499.267	116.56
499.484	129.56
499.701	107.56
499.918	141.56
500.135	132.56
500.352	115.56
500.569	137.56
500.786	138.56
501.003	138.56
501.22	144.56
501.437	139.56
501.654	128.56
501.871	138.56
502.088	133.56
502.305	132.56
502.522	130.56
502.739	134.56
502.956	130.56
503.172	121.56
503.389	113.56
503.606	107.56
503.823	118.56
504.04	105.56
504.256	109.56
504.473	104.56
504.69	105.56
504.907	119.56
505.123	113.56
505.34	113.56
505.557	117.56
505.773	125.56
505.99	123.56
506.207	127.56
506.423	118.56
506.64	120.56
506.856	120.56
507.073	117.56
507.289	118.56
507.506	115.56
507.722	111.56
507.939	117.56
508.155	116.56
508.372	104.56
508.588	117.56
508.805	113.56
509.021	105.56
509.238	101.56
509.454	98.56
509.67	100.56
509.887	94.56
510.103	88.56
510.319	87.56
510.536	96.56
510.752	106.56
510.968	89.56
511.184	83.56
511.401	92.56
511.617	81.56
511.833	93.56
512.049	76.56
