Data from Location4.07152019.Energy5.Lamp.07192019.3%Agarose_HRD10591_16-18-49-925.txt Node
Date: Fri Jul 19 16:18:49 EDT 2019
User: cochatt
Spectrometer: HR+D1059
Trigger mode: 1
Integration Time (sec): 1.000000E-1
Scans to average: 1
Electric dark correction enabled: true
Nonlinearity correction enabled: false
Boxcar width: 0
XAxis mode: Wavelengths
Number of Pixels in Spectrum: 2048
>>>>>Begin Spectral Data<<<<<
223.165	-12.12
223.4	-12.12
223.635	-12.12
223.869	-18.12
224.104	-17.12
224.338	-9.12
224.573	-25.12
224.808	-7.12
225.042	8.88
225.277	-14.12
225.511	-13.12
225.746	-0.12
225.98	2.88
226.215	21.88
226.449	14.88
226.683	10.88
226.918	16.88
227.152	39.88
227.387	35.88
227.621	40.88
227.856	46.88
228.09	45.88
228.324	48.88
228.559	60.88
228.793	56.88
229.027	72.88
229.262	68.88
229.496	65.88
229.73	53.88
229.964	75.88
230.199	63.88
230.433	92.88
230.667	75.88
230.901	88.88
231.136	78.88
231.37	82.88
231.604	81.88
231.838	80.88
232.072	82.88
232.306	75.88
232.541	93.88
232.775	68.88
233.009	84.88
233.243	84.88
233.477	86.88
233.711	75.88
233.945	77.88
234.179	81.88
234.413	84.88
234.647	77.88
234.881	77.88
235.115	90.88
235.349	69.88
235.583	86.88
235.817	88.88
236.051	97.88
236.285	82.88
236.519	83.88
236.753	95.88
236.987	80.88
237.221	68.88
237.455	76.88
237.689	70.88
237.922	74.88
238.156	69.88
238.39	70.88
238.624	87.88
238.858	106.88
239.091	84.88
239.325	79.88
239.559	80.88
239.793	81.88
240.027	62.88
240.26	65.88
240.494	76.88
240.728	71.88
240.961	69.88
241.195	86.88
241.429	82.88
241.662	64.88
241.896	70.88
242.13	66.88
242.363	74.88
242.597	86.88
242.83	92.88
243.064	84.88
243.298	92.88
243.531	91.88
243.765	73.88
243.998	80.88
244.232	82.88
244.465	80.88
244.699	90.88
244.932	62.88
245.166	76.88
245.399	69.88
245.633	75.88
245.866	82.88
246.099	77.88
246.333	72.88
246.566	72.88
246.8	76.88
247.033	82.88
247.266	75.88
247.5	72.88
247.733	80.88
247.966	79.88
248.2	82.88
248.433	84.88
248.666	83.88
248.899	81.88
249.133	93.88
249.366	80.88
249.599	93.88
249.832	90.88
250.066	92.88
250.299	66.88
250.532	83.88
250.765	72.88
250.998	86.88
251.231	76.88
251.465	82.88
251.698	81.88
251.931	83.88
252.164	90.88
252.397	88.88
252.63	84.88
252.863	85.88
253.096	67.88
253.329	93.88
253.562	85.88
253.795	73.88
254.028	80.88
254.261	81.88
254.494	75.88
254.727	74.88
254.96	71.88
255.193	76.88
255.426	66.88
255.659	71.88
255.892	82.88
256.124	70.88
256.357	82.88
256.59	75.88
256.823	80.88
257.056	81.88
257.289	84.88
257.521	77.88
257.754	74.88
257.987	69.88
258.22	85.88
258.452	76.88
258.685	91.88
258.918	89.88
259.151	84.88
259.383	80.88
259.616	86.88
259.849	76.88
260.081	76.88
260.314	83.88
260.547	84.88
260.779	87.88
261.012	96.88
261.244	84.88
261.477	67.88
261.71	79.88
261.942	87.88
262.175	87.88
262.407	75.88
262.64	79.88
262.872	77.88
263.105	81.88
263.337	85.88
263.57	81.88
263.802	79.88
264.035	92.88
264.267	86.88
264.499	80.88
264.732	97.88
264.964	78.88
265.197	79.88
265.429	80.88
265.661	79.88
265.894	74.88
266.126	89.88
266.358	91.88
266.591	86.88
266.823	78.88
267.055	81.88
267.287	69.88
267.52	79.88
267.752	80.88
267.984	80.88
268.216	87.88
268.448	87.88
268.681	73.88
268.913	91.88
269.145	83.88
269.377	73.88
269.609	88.88
269.841	83.88
270.073	84.88
270.306	85.88
270.538	78.88
270.77	80.88
271.002	83.88
271.234	88.88
271.466	100.88
271.698	91.88
271.93	78.88
272.162	80.88
272.394	80.88
272.626	83.88
272.858	86.88
273.09	84.88
273.322	90.88
273.553	72.88
273.785	77.88
274.017	78.88
274.249	85.88
274.481	83.88
274.713	80.88
274.945	94.88
275.176	82.88
275.408	93.88
275.64	86.88
275.872	81.88
276.104	100.88
276.335	85.88
276.567	98.88
276.799	83.88
277.031	87.88
277.262	101.88
277.494	88.88
277.726	88.88
277.957	82.88
278.189	77.88
278.421	88.88
278.652	87.88
278.884	106.88
279.115	85.88
279.347	88.88
279.579	93.88
279.81	85.88
280.042	85.88
280.273	74.88
280.505	81.88
280.736	77.88
280.968	80.88
281.199	85.88
281.431	99.88
281.662	99.88
281.894	84.88
282.125	98.88
282.356	67.88
282.588	90.88
282.819	87.88
283.051	67.88
283.282	91.88
283.513	77.88
283.745	77.88
283.976	83.88
284.207	84.88
284.439	92.88
284.67	80.88
284.901	75.88
285.132	73.88
285.364	87.88
285.595	81.88
285.826	85.88
286.057	92.88
286.288	83.88
286.52	92.88
286.751	73.88
286.982	95.88
287.213	84.88
287.444	95.88
287.675	100.88
287.906	85.88
288.138	73.88
288.369	84.88
288.6	84.88
288.831	85.88
289.062	92.88
289.293	91.88
289.524	75.88
289.755	86.88
289.986	82.88
290.217	86.88
290.448	78.88
290.679	97.88
290.91	94.88
291.141	83.88
291.371	81.88
291.602	93.88
291.833	84.88
292.064	93.88
292.295	89.88
292.526	82.88
292.757	73.88
292.987	80.88
293.218	76.88
293.449	86.88
293.68	81.88
293.91	100.88
294.141	89.88
294.372	87.88
294.603	80.88
294.833	85.88
295.064	93.88
295.295	83.88
295.525	87.88
295.756	97.88
295.987	88.88
296.217	86.88
296.448	98.88
296.679	83.88
296.909	82.88
297.14	83.88
297.37	75.88
297.601	83.88
297.831	83.88
298.062	92.88
298.292	83.88
298.523	91.88
298.753	78.88
298.984	62.88
299.214	90.88
299.445	70.88
299.675	92.88
299.905	77.88
300.136	83.88
300.366	85.88
300.597	95.88
300.827	77.88
301.057	81.88
301.288	79.88
301.518	85.88
301.748	77.88
301.979	80.88
302.209	74.88
302.439	96.88
302.669	84.88
302.9	87.88
303.13	86.88
303.36	81.88
303.59	84.88
303.82	99.88
304.051	83.88
304.281	90.88
304.511	91.88
304.741	83.88
304.971	80.88
305.201	93.88
305.431	88.88
305.661	94.88
305.891	88.88
306.121	73.88
306.352	93.88
306.582	86.88
306.812	64.88
307.042	71.88
307.272	92.88
307.502	87.88
307.731	97.88
307.961	89.88
308.191	89.88
308.421	90.88
308.651	94.88
308.881	92.88
309.111	100.88
309.341	84.88
309.571	72.88
309.8	81.88
310.03	97.88
310.26	78.88
310.49	71.88
310.72	89.88
310.949	76.88
311.179	95.88
311.409	92.88
311.639	86.88
311.868	79.88
312.098	84.88
312.328	84.88
312.557	87.88
312.787	69.88
313.017	95.88
313.246	93.88
313.476	84.88
313.706	97.88
313.935	89.88
314.165	82.88
314.394	87.88
314.624	92.88
314.853	67.88
315.083	75.88
315.312	80.88
315.542	90.88
315.771	83.88
316.001	102.88
316.23	95.88
316.46	96.88
316.689	68.88
316.919	96.88
317.148	85.88
317.377	75.88
317.607	95.88
317.836	103.88
318.065	86.88
318.295	76.88
318.524	86.88
318.753	82.88
318.983	85.88
319.212	80.88
319.441	82.88
319.67	95.88
319.9	89.88
320.129	82.88
320.358	88.88
320.587	85.88
320.816	98.88
321.046	92.88
321.275	95.88
321.504	88.88
321.733	76.88
321.962	87.88
322.191	96.88
322.42	69.88
322.649	92.88
322.878	83.88
323.108	83.88
323.337	84.88
323.566	86.88
323.795	82.88
324.024	88.88
324.253	71.88
324.482	89.88
324.71	74.88
324.939	87.88
325.168	74.88
325.397	87.88
325.626	87.88
325.855	88.88
326.084	89.88
326.313	77.88
326.542	86.88
326.77	75.88
326.999	87.88
327.228	87.88
327.457	70.88
327.686	91.88
327.914	84.88
328.143	99.88
328.372	85.88
328.6	86.88
328.829	80.88
329.058	88.88
329.287	79.88
329.515	100.88
329.744	79.88
329.972	88.88
330.201	111.88
330.43	87.88
330.658	89.88
330.887	83.88
331.115	83.88
331.344	86.88
331.572	88.88
331.801	75.88
332.03	73.88
332.258	85.88
332.486	89.88
332.715	84.88
332.943	85.88
333.172	75.88
333.4	81.88
333.629	97.88
333.857	83.88
334.085	75.88
334.314	87.88
334.542	76.88
334.771	110.88
334.999	81.88
335.227	83.88
335.455	89.88
335.684	90.88
335.912	99.88
336.14	83.88
336.369	81.88
336.597	77.88
336.825	97.88
337.053	91.88
337.281	84.88
337.51	93.88
337.738	96.88
337.966	82.88
338.194	85.88
338.422	76.88
338.65	97.88
338.878	91.88
339.106	98.88
339.334	83.88
339.562	76.88
339.79	77.88
340.018	83.88
340.246	71.88
340.474	79.88
340.702	95.88
340.93	82.88
341.158	87.88
341.386	78.88
341.614	92.88
341.842	88.88
342.07	80.88
342.298	92.88
342.526	86.88
342.754	85.88
342.981	73.88
343.209	87.88
343.437	79.88
343.665	68.88
343.893	97.88
344.12	74.88
344.348	75.88
344.576	76.88
344.804	90.88
345.031	87.88
345.259	93.88
345.487	96.88
345.714	87.88
345.942	86.88
346.17	89.88
346.397	75.88
346.625	91.88
346.853	68.88
347.08	77.88
347.308	86.88
347.535	86.88
347.763	84.88
347.99	79.88
348.218	88.88
348.445	96.88
348.673	82.88
348.9	88.88
349.128	96.88
349.355	78.88
349.583	92.88
349.81	85.88
350.037	87.88
350.265	83.88
350.492	80.88
350.72	91.88
350.947	73.88
351.174	76.88
351.402	80.88
351.629	89.88
351.856	79.88
352.083	76.88
352.311	81.88
352.538	88.88
352.765	100.88
352.992	87.88
353.22	81.88
353.447	71.88
353.674	88.88
353.901	101.88
354.128	85.88
354.355	83.88
354.583	79.88
354.81	87.88
355.037	86.88
355.264	86.88
355.491	84.88
355.718	73.88
355.945	81.88
356.172	76.88
356.399	88.88
356.626	84.88
356.853	87.88
357.08	75.88
357.307	76.88
357.534	90.88
357.761	81.88
357.988	66.88
358.215	83.88
358.441	84.88
358.668	90.88
358.895	81.88
359.122	100.88
359.349	90.88
359.576	85.88
359.802	76.88
360.029	94.88
360.256	86.88
360.483	72.88
360.709	75.88
360.936	95.88
361.163	83.88
361.39	93.88
361.616	87.88
361.843	79.88
362.07	77.88
362.296	89.88
362.523	84.88
362.749	88.88
362.976	81.88
363.203	84.88
363.429	92.88
363.656	99.88
363.882	78.88
364.109	95.88
364.335	100.88
364.562	76.88
364.788	86.88
365.015	80.88
365.241	90.88
365.468	87.88
365.694	82.88
365.92	73.88
366.147	79.88
366.373	72.88
366.599	79.88
366.826	77.88
367.052	77.88
367.278	92.88
367.505	84.88
367.731	80.88
367.957	83.88
368.184	91.88
368.41	100.88
368.636	92.88
368.862	90.88
369.089	89.88
369.315	89.88
369.541	93.88
369.767	101.88
369.993	105.88
370.219	84.88
370.445	85.88
370.672	89.88
370.898	84.88
371.124	91.88
371.35	90.88
371.576	87.88
371.802	84.88
372.028	83.88
372.254	97.88
372.48	87.88
372.706	77.88
372.932	108.88
373.158	88.88
373.384	97.88
373.61	80.88
373.835	89.88
374.061	107.88
374.287	99.88
374.513	82.88
374.739	85.88
374.965	103.88
375.191	98.88
375.416	94.88
375.642	97.88
375.868	99.88
376.094	89.88
376.319	95.88
376.545	86.88
376.771	100.88
376.997	86.88
377.222	109.88
377.448	90.88
377.674	81.88
377.899	85.88
378.125	96.88
378.35	111.88
378.576	87.88
378.802	86.88
379.027	90.88
379.253	90.88
379.478	95.88
379.704	100.88
379.929	92.88
380.155	91.88
380.38	89.88
380.606	79.88
380.831	91.88
381.057	100.88
381.282	92.88
381.507	89.88
381.733	104.88
381.958	91.88
382.184	84.88
382.409	92.88
382.634	102.88
382.86	100.88
383.085	96.88
383.31	86.88
383.535	99.88
383.761	95.88
383.986	92.88
384.211	89.88
384.436	99.88
384.662	83.88
384.887	81.88
385.112	98.88
385.337	89.88
385.562	112.88
385.787	103.88
386.013	101.88
386.238	103.88
386.463	121.88
386.688	108.88
386.913	96.88
387.138	94.88
387.363	87.88
387.588	113.88
387.813	104.88
388.038	87.88
388.263	106.88
388.488	113.88
388.713	99.88
388.938	95.88
389.163	95.88
389.387	100.88
389.612	105.88
389.837	94.88
390.062	96.88
390.287	110.88
390.512	107.88
390.736	103.88
390.961	96.88
391.186	97.88
391.411	96.88
391.636	87.88
391.86	109.88
392.085	97.88
392.31	106.88
392.534	92.88
392.759	103.88
392.984	107.88
393.208	107.88
393.433	103.88
393.658	91.88
393.882	112.88
394.107	96.88
394.331	112.88
394.556	112.88
394.78	106.88
395.005	107.88
395.229	99.88
395.454	103.88
395.678	107.88
395.903	92.88
396.127	95.88
396.352	106.88
396.576	108.88
396.801	101.88
397.025	100.88
397.249	119.88
397.474	107.88
397.698	92.88
397.922	99.88
398.147	101.88
398.371	100.88
398.595	108.88
398.82	105.88
399.044	112.88
399.268	115.88
399.492	105.88
399.717	104.88
399.941	107.88
400.165	120.88
400.389	121.88
400.613	110.88
400.837	107.88
401.062	108.88
401.286	116.88
401.51	113.88
401.734	122.88
401.958	116.88
402.182	118.88
402.406	104.88
402.63	109.88
402.854	109.88
403.078	122.88
403.302	108.88
403.526	119.88
403.75	117.88
403.974	107.88
404.198	119.88
404.422	128.88
404.645	124.88
404.869	107.88
405.093	125.88
405.317	104.88
405.541	116.88
405.765	113.88
405.988	103.88
406.212	130.88
406.436	119.88
406.66	128.88
406.883	129.88
407.107	122.88
407.331	128.88
407.555	108.88
407.778	123.88
408.002	107.88
408.226	123.88
408.449	112.88
408.673	117.88
408.896	115.88
409.12	118.88
409.344	103.88
409.567	119.88
409.791	119.88
410.014	121.88
410.238	116.88
410.461	127.88
410.685	127.88
410.908	125.88
411.132	121.88
411.355	119.88
411.578	122.88
411.802	128.88
412.025	133.88
412.249	127.88
412.472	119.88
412.695	127.88
412.919	123.88
413.142	117.88
413.365	116.88
413.589	94.88
413.812	108.88
414.035	121.88
414.258	125.88
414.482	116.88
414.705	111.88
414.928	116.88
415.151	118.88
415.374	138.88
415.597	108.88
415.821	120.88
416.044	108.88
416.267	120.88
416.49	136.88
416.713	130.88
416.936	129.88
417.159	113.88
417.382	127.88
417.605	133.88
417.828	132.88
418.051	119.88
418.274	123.88
418.497	125.88
418.72	125.88
418.943	133.88
419.166	139.88
419.389	130.88
419.611	143.88
419.834	145.88
420.057	126.88
420.28	134.88
420.503	129.88
420.726	118.88
420.948	130.88
421.171	132.88
421.394	128.88
421.617	131.88
421.839	131.88
422.062	138.88
422.285	151.88
422.507	135.88
422.73	125.88
422.953	112.88
423.175	127.88
423.398	132.88
423.621	127.88
423.843	119.88
424.066	123.88
424.288	132.88
424.511	140.88
424.733	126.88
424.956	124.88
425.178	142.88
425.401	157.88
425.623	129.88
425.846	131.88
426.068	135.88
426.291	122.88
426.513	124.88
426.735	127.88
426.958	142.88
427.18	134.88
427.402	139.88
427.625	128.88
427.847	124.88
428.069	129.88
428.292	133.88
428.514	118.88
428.736	133.88
428.958	127.88
429.181	124.88
429.403	133.88
429.625	120.88
429.847	116.88
430.069	123.88
430.292	146.88
430.514	127.88
430.736	136.88
430.958	135.88
431.18	130.88
431.402	131.88
431.624	114.88
431.846	115.88
432.068	96.88
432.29	96.88
432.512	108.88
432.734	118.88
432.956	116.88
433.178	139.88
433.4	125.88
433.622	127.88
433.844	139.88
434.066	121.88
434.287	105.88
434.509	102.88
434.731	105.88
434.953	116.88
435.175	131.88
435.397	122.88
435.618	109.88
435.84	110.88
436.062	116.88
436.284	114.88
436.505	120.88
436.727	129.88
436.949	127.88
437.17	125.88
437.392	116.88
437.614	122.88
437.835	100.88
438.057	121.88
438.278	105.88
438.5	119.88
438.721	123.88
438.943	132.88
439.165	136.88
439.386	139.88
439.608	154.88
439.829	138.88
440.05	145.88
440.272	141.88
440.493	140.88
440.715	142.88
440.936	132.88
441.158	145.88
441.379	149.88
441.6	124.88
441.822	150.88
442.043	142.88
442.264	130.88
442.486	137.88
442.707	132.88
442.928	144.88
443.149	136.88
443.371	141.88
443.592	131.88
443.813	135.88
444.034	133.88
444.255	127.88
444.476	133.88
444.698	134.88
444.919	155.88
445.14	258.88
445.361	200.88
445.582	148.88
445.803	139.88
446.024	149.88
446.245	149.88
446.466	140.88
446.687	165.88
446.908	165.88
447.129	161.88
447.35	153.88
447.571	156.88
447.792	159.88
448.013	135.88
448.234	135.88
448.455	133.88
448.675	143.88
448.896	137.88
449.117	140.88
449.338	129.88
449.559	131.88
449.779	148.88
450	131.88
450.221	135.88
450.442	137.88
450.662	141.88
450.883	125.88
451.104	128.88
451.324	125.88
451.545	135.88
451.766	137.88
451.986	122.88
452.207	132.88
452.428	128.88
452.648	123.88
452.869	126.88
453.089	106.88
453.31	109.88
453.53	116.88
453.751	109.88
453.971	101.88
454.192	106.88
454.412	113.88
454.633	122.88
454.853	119.88
455.073	133.88
455.294	123.88
455.514	121.88
455.734	96.88
455.955	121.88
456.175	127.88
456.395	103.88
456.616	106.88
456.836	106.88
457.056	120.88
457.276	114.88
457.497	116.88
457.717	96.88
457.937	120.88
458.157	106.88
458.377	111.88
458.598	102.88
458.818	97.88
459.038	90.88
459.258	87.88
459.478	90.88
459.698	86.88
459.918	101.88
460.138	107.88
460.358	96.88
460.578	121.88
460.798	116.88
461.018	120.88
461.238	108.88
461.458	124.88
461.678	123.88
461.898	103.88
462.118	117.88
462.338	128.88
462.558	117.88
462.777	112.88
462.997	121.88
463.217	100.88
463.437	88.88
463.657	100.88
463.876	103.88
464.096	94.88
464.316	106.88
464.536	97.88
464.755	106.88
464.975	131.88
465.195	125.88
465.414	127.88
465.634	117.88
465.854	115.88
466.073	113.88
466.293	131.88
466.512	124.88
466.732	132.88
466.951	139.88
467.171	137.88
467.391	140.88
467.61	130.88
467.829	151.88
468.049	121.88
468.268	129.88
468.488	119.88
468.707	115.88
468.927	144.88
469.146	143.88
469.365	144.88
469.585	150.88
469.804	141.88
470.023	136.88
470.243	151.88
470.462	151.88
470.681	128.88
470.901	139.88
471.12	123.88
471.339	160.88
471.558	151.88
471.777	159.88
471.997	139.88
472.216	133.88
472.435	116.88
472.654	114.88
472.873	111.88
473.092	127.88
473.311	127.88
473.53	120.88
473.749	135.88
473.968	129.88
474.187	140.88
474.406	124.88
474.625	129.88
474.844	118.88
475.063	112.88
475.282	121.88
475.501	121.88
475.72	124.88
475.939	113.88
476.158	119.88
476.377	114.88
476.596	115.88
476.814	107.88
477.033	105.88
477.252	109.88
477.471	123.88
477.69	132.88
477.908	148.88
478.127	133.88
478.346	140.88
478.564	132.88
478.783	142.88
479.002	137.88
479.22	134.88
479.439	125.88
479.658	133.88
479.876	109.88
480.095	105.88
480.313	118.88
480.532	123.88
480.751	112.88
480.969	100.88
481.188	77.88
481.406	99.88
481.624	85.88
481.843	83.88
482.061	95.88
482.28	106.88
482.498	116.88
482.717	103.88
482.935	120.88
483.153	145.88
483.372	131.88
483.59	154.88
483.808	144.88
484.027	127.88
484.245	123.88
484.463	147.88
484.681	154.88
484.9	156.88
485.118	133.88
485.336	122.88
485.554	114.88
485.772	106.88
485.99	107.88
486.209	105.88
486.427	100.88
486.645	120.88
486.863	143.88
487.081	144.88
487.299	120.88
487.517	139.88
487.735	167.88
487.953	179.88
488.171	173.88
488.389	198.88
488.607	153.88
488.825	151.88
489.043	147.88
489.261	142.88
489.479	131.88
489.696	162.88
489.914	152.88
490.132	147.88
490.35	145.88
490.568	164.88
490.786	171.88
491.003	175.88
491.221	177.88
491.439	196.88
491.657	192.88
491.874	180.88
492.092	204.88
492.31	260.88
492.527	212.88
492.745	193.88
492.963	187.88
493.18	180.88
493.398	181.88
493.615	182.88
493.833	175.88
494.05	163.88
494.268	165.88
494.485	186.88
494.703	181.88
494.92	161.88
495.138	175.88
495.355	179.88
495.573	163.88
495.79	153.88
496.008	156.88
496.225	156.88
496.442	159.88
496.66	167.88
496.877	157.88
497.094	164.88
497.312	166.88
497.529	163.88
497.746	147.88
497.963	148.88
498.181	138.88
498.398	123.88
498.615	122.88
498.832	126.88
499.049	108.88
499.267	117.88
499.484	127.88
499.701	138.88
499.918	147.88
500.135	143.88
500.352	131.88
500.569	145.88
500.786	139.88
501.003	145.88
501.22	147.88
501.437	156.88
501.654	132.88
501.871	148.88
502.088	151.88
502.305	125.88
502.522	126.88
502.739	140.88
502.956	130.88
503.172	130.88
503.389	119.88
503.606	121.88
503.823	117.88
504.04	131.88
504.256	119.88
504.473	111.88
504.69	112.88
504.907	123.88
505.123	124.88
505.34	129.88
505.557	129.88
505.773	147.88
505.99	113.88
506.207	130.88
506.423	135.88
506.64	128.88
506.856	120.88
507.073	142.88
507.289	125.88
507.506	123.88
507.722	121.88
507.939	121.88
508.155	118.88
508.372	117.88
508.588	119.88
508.805	108.88
509.021	114.88
509.238	96.88
509.454	101.88
509.67	84.88
509.887	84.88
510.103	99.88
510.319	104.88
510.536	90.88
510.752	96.88
510.968	89.88
511.184	86.88
511.401	90.88
511.617	87.88
