Data from Location4.07152019.Energy5.Lamp.07192019.3%Agarose_HRD10591_16-21-04-927.txt Node
Date: Fri Jul 19 16:21:04 EDT 2019
User: cochatt
Spectrometer: HR+D1059
Trigger mode: 1
Integration Time (sec): 1.000000E-1
Scans to average: 1
Electric dark correction enabled: true
Nonlinearity correction enabled: false
Boxcar width: 0
XAxis mode: Wavelengths
Number of Pixels in Spectrum: 2048
>>>>>Begin Spectral Data<<<<<
223.165	-16.56
223.4	-16.56
223.635	-16.56
223.869	-26.56
224.104	-17.56
224.338	-10.56
224.573	-22.56
224.808	-15.56
225.042	0.44
225.277	0.44
225.511	0.44
225.746	5.44
225.98	11.44
226.215	9.44
226.449	3.44
226.683	10.44
226.918	38.44
227.152	29.44
227.387	25.44
227.621	39.44
227.856	47.44
228.09	55.44
228.324	45.44
228.559	49.44
228.793	59.44
229.027	68.44
229.262	65.44
229.496	56.44
229.73	65.44
229.964	68.44
230.199	68.44
230.433	68.44
230.667	74.44
230.901	82.44
231.136	63.44
231.37	81.44
231.604	68.44
231.838	75.44
232.072	85.44
232.306	77.44
232.541	75.44
232.775	69.44
233.009	74.44
233.243	77.44
233.477	82.44
233.711	101.44
233.945	74.44
234.179	83.44
234.413	76.44
234.647	70.44
234.881	93.44
235.115	93.44
235.349	87.44
235.583	85.44
235.817	76.44
236.051	55.44
236.285	79.44
236.519	76.44
236.753	89.44
236.987	69.44
237.221	72.44
237.455	73.44
237.689	84.44
237.922	87.44
238.156	76.44
238.39	88.44
238.624	71.44
238.858	84.44
239.091	81.44
239.325	89.44
239.559	68.44
239.793	73.44
240.027	73.44
240.26	67.44
240.494	73.44
240.728	85.44
240.961	73.44
241.195	72.44
241.429	69.44
241.662	77.44
241.896	69.44
242.13	71.44
242.363	65.44
242.597	58.44
242.83	67.44
243.064	79.44
243.298	73.44
243.531	68.44
243.765	74.44
243.998	83.44
244.232	70.44
244.465	77.44
244.699	77.44
244.932	84.44
245.166	72.44
245.399	75.44
245.633	70.44
245.866	80.44
246.099	82.44
246.333	71.44
246.566	76.44
246.8	81.44
247.033	80.44
247.266	75.44
247.5	74.44
247.733	92.44
247.966	79.44
248.2	68.44
248.433	75.44
248.666	75.44
248.899	71.44
249.133	83.44
249.366	77.44
249.599	77.44
249.832	72.44
250.066	82.44
250.299	82.44
250.532	83.44
250.765	86.44
250.998	98.44
251.231	89.44
251.465	63.44
251.698	69.44
251.931	84.44
252.164	75.44
252.397	91.44
252.63	92.44
252.863	79.44
253.096	83.44
253.329	83.44
253.562	74.44
253.795	85.44
254.028	77.44
254.261	88.44
254.494	82.44
254.727	80.44
254.96	89.44
255.193	76.44
255.426	73.44
255.659	72.44
255.892	81.44
256.124	71.44
256.357	75.44
256.59	66.44
256.823	77.44
257.056	90.44
257.289	67.44
257.521	83.44
257.754	87.44
257.987	68.44
258.22	80.44
258.452	86.44
258.685	83.44
258.918	87.44
259.151	75.44
259.383	82.44
259.616	88.44
259.849	67.44
260.081	82.44
260.314	82.44
260.547	88.44
260.779	84.44
261.012	67.44
261.244	68.44
261.477	85.44
261.71	95.44
261.942	81.44
262.175	75.44
262.407	91.44
262.64	72.44
262.872	81.44
263.105	68.44
263.337	87.44
263.57	72.44
263.802	76.44
264.035	70.44
264.267	76.44
264.499	79.44
264.732	106.44
264.964	85.44
265.197	83.44
265.429	68.44
265.661	80.44
265.894	99.44
266.126	96.44
266.358	86.44
266.591	91.44
266.823	71.44
267.055	78.44
267.287	94.44
267.52	77.44
267.752	91.44
267.984	81.44
268.216	80.44
268.448	91.44
268.681	103.44
268.913	93.44
269.145	95.44
269.377	73.44
269.609	89.44
269.841	90.44
270.073	93.44
270.306	79.44
270.538	81.44
270.77	70.44
271.002	84.44
271.234	85.44
271.466	79.44
271.698	81.44
271.93	74.44
272.162	90.44
272.394	89.44
272.626	80.44
272.858	75.44
273.09	83.44
273.322	91.44
273.553	71.44
273.785	91.44
274.017	70.44
274.249	80.44
274.481	81.44
274.713	85.44
274.945	75.44
275.176	77.44
275.408	87.44
275.64	80.44
275.872	81.44
276.104	75.44
276.335	85.44
276.567	82.44
276.799	74.44
277.031	82.44
277.262	71.44
277.494	79.44
277.726	75.44
277.957	74.44
278.189	84.44
278.421	85.44
278.652	86.44
278.884	71.44
279.115	86.44
279.347	83.44
279.579	78.44
279.81	84.44
280.042	88.44
280.273	81.44
280.505	84.44
280.736	89.44
280.968	90.44
281.199	88.44
281.431	83.44
281.662	79.44
281.894	94.44
282.125	88.44
282.356	89.44
282.588	90.44
282.819	82.44
283.051	87.44
283.282	66.44
283.513	80.44
283.745	82.44
283.976	74.44
284.207	86.44
284.439	80.44
284.67	91.44
284.901	86.44
285.132	92.44
285.364	103.44
285.595	77.44
285.826	96.44
286.057	82.44
286.288	88.44
286.52	75.44
286.751	79.44
286.982	81.44
287.213	68.44
287.444	82.44
287.675	90.44
287.906	98.44
288.138	85.44
288.369	96.44
288.6	86.44
288.831	80.44
289.062	99.44
289.293	92.44
289.524	84.44
289.755	73.44
289.986	84.44
290.217	83.44
290.448	83.44
290.679	84.44
290.91	87.44
291.141	87.44
291.371	88.44
291.602	91.44
291.833	84.44
292.064	100.44
292.295	82.44
292.526	95.44
292.757	85.44
292.987	103.44
293.218	92.44
293.449	81.44
293.68	89.44
293.91	84.44
294.141	91.44
294.372	99.44
294.603	89.44
294.833	84.44
295.064	73.44
295.295	72.44
295.525	81.44
295.756	94.44
295.987	99.44
296.217	88.44
296.448	96.44
296.679	94.44
296.909	89.44
297.14	72.44
297.37	73.44
297.601	91.44
297.831	86.44
298.062	93.44
298.292	99.44
298.523	98.44
298.753	90.44
298.984	83.44
299.214	87.44
299.445	96.44
299.675	96.44
299.905	74.44
300.136	94.44
300.366	83.44
300.597	76.44
300.827	83.44
301.057	85.44
301.288	74.44
301.518	88.44
301.748	88.44
301.979	83.44
302.209	104.44
302.439	76.44
302.669	89.44
302.9	91.44
303.13	89.44
303.36	80.44
303.59	96.44
303.82	88.44
304.051	86.44
304.281	97.44
304.511	88.44
304.741	86.44
304.971	84.44
305.201	83.44
305.431	81.44
305.661	99.44
305.891	93.44
306.121	89.44
306.352	82.44
306.582	78.44
306.812	81.44
307.042	88.44
307.272	80.44
307.502	91.44
307.731	80.44
307.961	89.44
308.191	80.44
308.421	94.44
308.651	82.44
308.881	94.44
309.111	94.44
309.341	67.44
309.571	98.44
309.8	95.44
310.03	97.44
310.26	93.44
310.49	89.44
310.72	88.44
310.949	87.44
311.179	91.44
311.409	86.44
311.639	104.44
311.868	75.44
312.098	86.44
312.328	73.44
312.557	80.44
312.787	82.44
313.017	87.44
313.246	76.44
313.476	77.44
313.706	67.44
313.935	71.44
314.165	97.44
314.394	88.44
314.624	84.44
314.853	84.44
315.083	77.44
315.312	89.44
315.542	88.44
315.771	96.44
316.001	87.44
316.23	87.44
316.46	99.44
316.689	77.44
316.919	92.44
317.148	77.44
317.377	82.44
317.607	85.44
317.836	83.44
318.065	97.44
318.295	88.44
318.524	81.44
318.753	91.44
318.983	100.44
319.212	78.44
319.441	95.44
319.67	75.44
319.9	95.44
320.129	85.44
320.358	89.44
320.587	86.44
320.816	91.44
321.046	85.44
321.275	85.44
321.504	83.44
321.733	77.44
321.962	78.44
322.191	77.44
322.42	93.44
322.649	91.44
322.878	77.44
323.108	84.44
323.337	96.44
323.566	89.44
323.795	79.44
324.024	101.44
324.253	88.44
324.482	89.44
324.71	98.44
324.939	76.44
325.168	96.44
325.397	72.44
325.626	87.44
325.855	92.44
326.084	83.44
326.313	97.44
326.542	91.44
326.77	87.44
326.999	80.44
327.228	86.44
327.457	92.44
327.686	84.44
327.914	100.44
328.143	88.44
328.372	99.44
328.6	95.44
328.829	96.44
329.058	94.44
329.287	97.44
329.515	85.44
329.744	98.44
329.972	92.44
330.201	83.44
330.43	89.44
330.658	97.44
330.887	89.44
331.115	84.44
331.344	86.44
331.572	91.44
331.801	85.44
332.03	86.44
332.258	79.44
332.486	76.44
332.715	87.44
332.943	85.44
333.172	78.44
333.4	89.44
333.629	88.44
333.857	89.44
334.085	94.44
334.314	79.44
334.542	92.44
334.771	65.44
334.999	92.44
335.227	95.44
335.455	83.44
335.684	84.44
335.912	86.44
336.14	100.44
336.369	95.44
336.597	89.44
336.825	91.44
337.053	83.44
337.281	92.44
337.51	92.44
337.738	89.44
337.966	82.44
338.194	77.44
338.422	91.44
338.65	96.44
338.878	82.44
339.106	100.44
339.334	93.44
339.562	83.44
339.79	93.44
340.018	86.44
340.246	81.44
340.474	80.44
340.702	85.44
340.93	96.44
341.158	80.44
341.386	84.44
341.614	98.44
341.842	85.44
342.07	78.44
342.298	85.44
342.526	91.44
342.754	83.44
342.981	93.44
343.209	84.44
343.437	93.44
343.665	91.44
343.893	77.44
344.12	87.44
344.348	91.44
344.576	95.44
344.804	81.44
345.031	79.44
345.259	68.44
345.487	87.44
345.714	84.44
345.942	80.44
346.17	79.44
346.397	90.44
346.625	86.44
346.853	93.44
347.08	94.44
347.308	66.44
347.535	88.44
347.763	79.44
347.99	87.44
348.218	74.44
348.445	81.44
348.673	95.44
348.9	88.44
349.128	88.44
349.355	80.44
349.583	84.44
349.81	88.44
350.037	85.44
350.265	86.44
350.492	83.44
350.72	81.44
350.947	104.44
351.174	92.44
351.402	82.44
351.629	82.44
351.856	71.44
352.083	85.44
352.311	79.44
352.538	70.44
352.765	83.44
352.992	81.44
353.22	84.44
353.447	82.44
353.674	83.44
353.901	82.44
354.128	76.44
354.355	74.44
354.583	82.44
354.81	80.44
355.037	91.44
355.264	80.44
355.491	94.44
355.718	84.44
355.945	79.44
356.172	72.44
356.399	82.44
356.626	77.44
356.853	79.44
357.08	81.44
357.307	88.44
357.534	90.44
357.761	92.44
357.988	99.44
358.215	90.44
358.441	84.44
358.668	88.44
358.895	75.44
359.122	76.44
359.349	100.44
359.576	69.44
359.802	89.44
360.029	101.44
360.256	102.44
360.483	83.44
360.709	77.44
360.936	85.44
361.163	91.44
361.39	84.44
361.616	91.44
361.843	81.44
362.07	70.44
362.296	71.44
362.523	79.44
362.749	98.44
362.976	84.44
363.203	75.44
363.429	76.44
363.656	85.44
363.882	92.44
364.109	95.44
364.335	76.44
364.562	79.44
364.788	97.44
365.015	95.44
365.241	85.44
365.468	80.44
365.694	86.44
365.92	71.44
366.147	87.44
366.373	90.44
366.599	83.44
366.826	97.44
367.052	98.44
367.278	68.44
367.505	83.44
367.731	104.44
367.957	92.44
368.184	83.44
368.41	85.44
368.636	75.44
368.862	93.44
369.089	84.44
369.315	87.44
369.541	91.44
369.767	81.44
369.993	96.44
370.219	87.44
370.445	90.44
370.672	91.44
370.898	83.44
371.124	96.44
371.35	85.44
371.576	91.44
371.802	83.44
372.028	75.44
372.254	92.44
372.48	90.44
372.706	97.44
372.932	98.44
373.158	73.44
373.384	91.44
373.61	98.44
373.835	97.44
374.061	94.44
374.287	103.44
374.513	92.44
374.739	95.44
374.965	79.44
375.191	96.44
375.416	89.44
375.642	89.44
375.868	88.44
376.094	94.44
376.319	96.44
376.545	94.44
376.771	92.44
376.997	81.44
377.222	102.44
377.448	83.44
377.674	88.44
377.899	108.44
378.125	98.44
378.35	88.44
378.576	98.44
378.802	89.44
379.027	82.44
379.253	100.44
379.478	98.44
379.704	94.44
379.929	88.44
380.155	113.44
380.38	95.44
380.606	102.44
380.831	107.44
381.057	95.44
381.282	102.44
381.507	89.44
381.733	111.44
381.958	102.44
382.184	91.44
382.409	83.44
382.634	104.44
382.86	101.44
383.085	81.44
383.31	108.44
383.535	102.44
383.761	87.44
383.986	108.44
384.211	89.44
384.436	105.44
384.662	94.44
384.887	85.44
385.112	95.44
385.337	91.44
385.562	90.44
385.787	90.44
386.013	106.44
386.238	91.44
386.463	90.44
386.688	92.44
386.913	96.44
387.138	95.44
387.363	104.44
387.588	88.44
387.813	96.44
388.038	92.44
388.263	108.44
388.488	104.44
388.713	106.44
388.938	107.44
389.163	96.44
389.387	105.44
389.612	94.44
389.837	104.44
390.062	95.44
390.287	107.44
390.512	112.44
390.736	112.44
390.961	103.44
391.186	104.44
391.411	100.44
391.636	112.44
391.86	104.44
392.085	113.44
392.31	95.44
392.534	104.44
392.759	103.44
392.984	97.44
393.208	111.44
393.433	115.44
393.658	98.44
393.882	107.44
394.107	97.44
394.331	109.44
394.556	104.44
394.78	101.44
395.005	109.44
395.229	106.44
395.454	96.44
395.678	115.44
395.903	115.44
396.127	95.44
396.352	122.44
396.576	81.44
396.801	99.44
397.025	94.44
397.249	123.44
397.474	114.44
397.698	117.44
397.922	98.44
398.147	110.44
398.371	121.44
398.595	96.44
398.82	117.44
399.044	102.44
399.268	113.44
399.492	106.44
399.717	109.44
399.941	100.44
400.165	101.44
400.389	96.44
400.613	104.44
400.837	97.44
401.062	92.44
401.286	107.44
401.51	114.44
401.734	100.44
401.958	112.44
402.182	98.44
402.406	129.44
402.63	116.44
402.854	116.44
403.078	91.44
403.302	103.44
403.526	118.44
403.75	116.44
403.974	96.44
404.198	105.44
404.422	112.44
404.645	112.44
404.869	112.44
405.093	120.44
405.317	110.44
405.541	115.44
405.765	99.44
405.988	115.44
406.212	115.44
406.436	115.44
406.66	113.44
406.883	120.44
407.107	127.44
407.331	121.44
407.555	115.44
407.778	117.44
408.002	120.44
408.226	112.44
408.449	117.44
408.673	121.44
408.896	122.44
409.12	115.44
409.344	119.44
409.567	100.44
409.791	127.44
410.014	102.44
410.238	123.44
410.461	118.44
410.685	120.44
410.908	113.44
411.132	119.44
411.355	103.44
411.578	125.44
411.802	117.44
412.025	101.44
412.249	117.44
412.472	119.44
412.695	116.44
412.919	106.44
413.142	105.44
413.365	104.44
413.589	109.44
413.812	112.44
414.035	125.44
414.258	126.44
414.482	118.44
414.705	115.44
414.928	102.44
415.151	131.44
415.374	121.44
415.597	119.44
415.821	122.44
416.044	108.44
416.267	119.44
416.49	123.44
416.713	125.44
416.936	122.44
417.159	117.44
417.382	124.44
417.605	135.44
417.828	131.44
418.051	124.44
418.274	138.44
418.497	131.44
418.72	129.44
418.943	122.44
419.166	129.44
419.389	141.44
419.611	118.44
419.834	121.44
420.057	120.44
420.28	133.44
420.503	136.44
420.726	130.44
420.948	128.44
421.171	137.44
421.394	144.44
421.617	149.44
421.839	139.44
422.062	151.44
422.285	127.44
422.507	127.44
422.73	123.44
422.953	127.44
423.175	131.44
423.398	139.44
423.621	137.44
423.843	141.44
424.066	125.44
424.288	134.44
424.511	136.44
424.733	129.44
424.956	131.44
425.178	147.44
425.401	131.44
425.623	139.44
425.846	133.44
426.068	136.44
426.291	119.44
426.513	123.44
426.735	130.44
426.958	120.44
427.18	127.44
427.402	135.44
427.625	120.44
427.847	122.44
428.069	122.44
428.292	136.44
428.514	114.44
428.736	121.44
428.958	120.44
429.181	134.44
429.403	122.44
429.625	110.44
429.847	133.44
430.069	139.44
430.292	119.44
430.514	148.44
430.736	133.44
430.958	144.44
431.18	121.44
431.402	126.44
431.624	114.44
431.846	112.44
432.068	91.44
432.29	101.44
432.512	107.44
432.734	125.44
432.956	127.44
433.178	114.44
433.4	141.44
433.622	139.44
433.844	123.44
434.066	121.44
434.287	94.44
434.509	91.44
434.731	100.44
434.953	96.44
435.175	115.44
435.397	132.44
435.618	132.44
435.84	102.44
436.062	117.44
436.284	108.44
436.505	113.44
436.727	131.44
436.949	128.44
437.17	130.44
437.392	127.44
437.614	114.44
437.835	123.44
438.057	113.44
438.278	106.44
438.5	119.44
438.721	119.44
438.943	130.44
439.165	140.44
439.386	133.44
439.608	135.44
439.829	139.44
440.05	135.44
440.272	148.44
440.493	139.44
440.715	142.44
440.936	139.44
441.158	149.44
441.379	141.44
441.6	151.44
441.822	162.44
442.043	136.44
442.264	136.44
442.486	141.44
442.707	121.44
442.928	137.44
443.149	135.44
443.371	132.44
443.592	147.44
443.813	137.44
444.034	138.44
444.255	140.44
444.476	136.44
444.698	125.44
444.919	130.44
445.14	247.44
445.361	187.44
445.582	157.44
445.803	141.44
446.024	152.44
446.245	156.44
446.466	144.44
446.687	167.44
446.908	163.44
447.129	156.44
447.35	163.44
447.571	151.44
447.792	136.44
448.013	144.44
448.234	149.44
448.455	137.44
448.675	147.44
448.896	124.44
449.117	143.44
449.338	129.44
449.559	123.44
449.779	132.44
450	135.44
450.221	138.44
450.442	126.44
450.662	131.44
450.883	131.44
451.104	123.44
451.324	128.44
451.545	125.44
451.766	135.44
451.986	116.44
452.207	119.44
452.428	112.44
452.648	117.44
452.869	134.44
453.089	119.44
453.31	119.44
453.53	106.44
453.751	99.44
453.971	100.44
454.192	102.44
454.412	111.44
454.633	103.44
454.853	124.44
455.073	119.44
455.294	115.44
455.514	116.44
455.734	114.44
455.955	128.44
456.175	108.44
456.395	114.44
456.616	103.44
456.836	105.44
457.056	115.44
457.276	111.44
457.497	99.44
457.717	122.44
457.937	108.44
458.157	93.44
458.377	92.44
458.598	104.44
458.818	93.44
459.038	94.44
459.258	96.44
459.478	86.44
459.698	94.44
459.918	103.44
460.138	97.44
460.358	121.44
460.578	106.44
460.798	123.44
461.018	121.44
461.238	120.44
461.458	117.44
461.678	116.44
461.898	106.44
462.118	100.44
462.338	119.44
462.558	110.44
462.777	117.44
462.997	114.44
463.217	105.44
463.437	103.44
463.657	98.44
463.876	96.44
464.096	101.44
464.316	101.44
464.536	98.44
464.755	121.44
464.975	116.44
465.195	134.44
465.414	113.44
465.634	108.44
465.854	110.44
466.073	131.44
466.293	113.44
466.512	119.44
466.732	123.44
466.951	129.44
467.171	113.44
467.391	124.44
467.61	124.44
467.829	139.44
468.049	139.44
468.268	132.44
468.488	117.44
468.707	137.44
468.927	137.44
469.146	133.44
469.365	131.44
469.585	127.44
469.804	140.44
470.023	145.44
470.243	149.44
470.462	124.44
470.681	147.44
470.901	138.44
471.12	147.44
471.339	129.44
471.558	135.44
471.777	143.44
471.997	136.44
472.216	122.44
472.435	116.44
472.654	109.44
472.873	119.44
473.092	105.44
473.311	109.44
473.53	126.44
473.749	140.44
473.968	118.44
474.187	128.44
474.406	120.44
474.625	121.44
474.844	119.44
475.063	127.44
475.282	128.44
475.501	122.44
475.72	125.44
475.939	121.44
476.158	126.44
476.377	131.44
476.596	106.44
476.814	119.44
477.033	101.44
477.252	115.44
477.471	122.44
477.69	132.44
477.908	133.44
478.127	150.44
478.346	145.44
478.564	131.44
478.783	135.44
479.002	141.44
479.22	138.44
479.439	140.44
479.658	132.44
479.876	116.44
480.095	114.44
480.313	132.44
480.532	112.44
480.751	92.44
480.969	96.44
481.188	105.44
481.406	96.44
481.624	80.44
481.843	75.44
482.061	92.44
482.28	94.44
482.498	116.44
482.717	131.44
482.935	125.44
483.153	133.44
483.372	170.44
483.59	135.44
483.808	125.44
484.027	129.44
484.245	133.44
484.463	152.44
484.681	165.44
484.9	137.44
485.118	124.44
485.336	121.44
485.554	113.44
485.772	92.44
485.99	101.44
486.209	115.44
486.427	120.44
486.645	134.44
486.863	134.44
487.081	133.44
487.299	140.44
487.517	137.44
487.735	171.44
487.953	168.44
488.171	171.44
488.389	178.44
488.607	164.44
488.825	150.44
489.043	127.44
489.261	139.44
489.479	124.44
489.696	130.44
489.914	144.44
490.132	121.44
490.35	149.44
490.568	159.44
490.786	182.44
491.003	181.44
491.221	168.44
491.439	169.44
491.657	189.44
491.874	196.44
492.092	215.44
492.31	219.44
492.527	223.44
492.745	203.44
492.963	184.44
493.18	191.44
493.398	179.44
493.615	192.44
493.833	182.44
494.05	180.44
494.268	192.44
494.485	169.44
494.703	169.44
494.92	159.44
495.138	168.44
495.355	170.44
495.573	175.44
495.79	165.44
496.008	172.44
496.225	172.44
496.442	158.44
496.66	162.44
496.877	171.44
497.094	167.44
497.312	152.44
497.529	157.44
497.746	160.44
497.963	138.44
498.181	103.44
498.398	123.44
498.615	135.44
498.832	125.44
499.049	131.44
499.267	116.44
499.484	125.44
499.701	133.44
499.918	129.44
500.135	155.44
500.352	161.44
500.569	135.44
500.786	156.44
501.003	140.44
501.22	151.44
501.437	141.44
501.654	145.44
501.871	123.44
502.088	136.44
502.305	138.44
502.522	121.44
502.739	130.44
502.956	122.44
503.172	128.44
503.389	126.44
503.606	120.44
503.823	120.44
504.04	118.44
504.256	114.44
504.473	117.44
504.69	112.44
504.907	131.44
505.123	117.44
505.34	125.44
505.557	128.44
505.773	121.44
505.99	122.44
506.207	122.44
506.423	124.44
506.64	130.44
506.856	125.44
507.073	114.44
507.289	133.44
507.506	112.44
507.722	125.44
507.939	102.44
508.155	123.44
508.372	113.44
508.588	126.44
508.805	106.44
509.021	106.44
509.238	119.44
509.454	94.44
509.67	94.44
509.887	91.44
510.103	98.44
510.319	94.44
510.536	91.44
510.752	99.44
510.968	85.44
511.184	95.44
511.401	83.44
511.617	86.44
511.833	87.44
