Data from Location4.07152019.Energy5.Lamp.07192019.3%Agarose_HRD10591_16-18-24-926.txt Node
Date: Fri Jul 19 16:18:24 EDT 2019
User: cochatt
Spectrometer: HR+D1059
Trigger mode: 1
Integration Time (sec): 1.000000E-1
Scans to average: 1
Electric dark correction enabled: true
Nonlinearity correction enabled: false
Boxcar width: 0
XAxis mode: Wavelengths
Number of Pixels in Spectrum: 2048
>>>>>Begin Spectral Data<<<<<
223.165	-6.5
223.4	-6.5
223.635	-6.5
223.869	-22.5
224.104	-13.5
224.338	-7.5
224.573	-18.5
224.808	-8.5
225.042	-14.5
225.277	-16.5
225.511	-19.5
225.746	9.5
225.98	3.5
226.215	15.5
226.449	16.5
226.683	24.5
226.918	23.5
227.152	34.5
227.387	33.5
227.621	51.5
227.856	49.5
228.09	56.5
228.324	53.5
228.559	60.5
228.793	61.5
229.027	70.5
229.262	68.5
229.496	81.5
229.73	57.5
229.964	70.5
230.199	70.5
230.433	71.5
230.667	91.5
230.901	74.5
231.136	81.5
231.37	92.5
231.604	93.5
231.838	79.5
232.072	91.5
232.306	85.5
232.541	79.5
232.775	71.5
233.009	97.5
233.243	92.5
233.477	86.5
233.711	84.5
233.945	80.5
234.179	78.5
234.413	85.5
234.647	81.5
234.881	81.5
235.115	86.5
235.349	91.5
235.583	80.5
235.817	84.5
236.051	79.5
236.285	93.5
236.519	73.5
236.753	82.5
236.987	78.5
237.221	71.5
237.455	82.5
237.689	82.5
237.922	76.5
238.156	85.5
238.39	75.5
238.624	86.5
238.858	81.5
239.091	89.5
239.325	85.5
239.559	81.5
239.793	71.5
240.027	82.5
240.26	79.5
240.494	77.5
240.728	73.5
240.961	86.5
241.195	74.5
241.429	86.5
241.662	103.5
241.896	87.5
242.13	85.5
242.363	82.5
242.597	81.5
242.83	87.5
243.064	93.5
243.298	77.5
243.531	73.5
243.765	72.5
243.998	69.5
244.232	73.5
244.465	90.5
244.699	80.5
244.932	78.5
245.166	85.5
245.399	93.5
245.633	77.5
245.866	79.5
246.099	96.5
246.333	81.5
246.566	83.5
246.8	86.5
247.033	78.5
247.266	73.5
247.5	75.5
247.733	75.5
247.966	80.5
248.2	81.5
248.433	77.5
248.666	78.5
248.899	80.5
249.133	74.5
249.366	90.5
249.599	85.5
249.832	78.5
250.066	89.5
250.299	80.5
250.532	79.5
250.765	86.5
250.998	89.5
251.231	89.5
251.465	95.5
251.698	73.5
251.931	76.5
252.164	82.5
252.397	88.5
252.63	90.5
252.863	77.5
253.096	81.5
253.329	86.5
253.562	80.5
253.795	79.5
254.028	73.5
254.261	76.5
254.494	81.5
254.727	82.5
254.96	80.5
255.193	81.5
255.426	77.5
255.659	75.5
255.892	93.5
256.124	89.5
256.357	88.5
256.59	85.5
256.823	78.5
257.056	89.5
257.289	68.5
257.521	85.5
257.754	92.5
257.987	88.5
258.22	98.5
258.452	83.5
258.685	74.5
258.918	94.5
259.151	77.5
259.383	88.5
259.616	94.5
259.849	69.5
260.081	82.5
260.314	100.5
260.547	87.5
260.779	82.5
261.012	85.5
261.244	75.5
261.477	102.5
261.71	80.5
261.942	85.5
262.175	76.5
262.407	65.5
262.64	74.5
262.872	86.5
263.105	79.5
263.337	104.5
263.57	84.5
263.802	86.5
264.035	82.5
264.267	79.5
264.499	83.5
264.732	79.5
264.964	83.5
265.197	81.5
265.429	91.5
265.661	103.5
265.894	95.5
266.126	87.5
266.358	84.5
266.591	103.5
266.823	95.5
267.055	89.5
267.287	80.5
267.52	78.5
267.752	89.5
267.984	79.5
268.216	79.5
268.448	95.5
268.681	91.5
268.913	93.5
269.145	69.5
269.377	68.5
269.609	73.5
269.841	96.5
270.073	89.5
270.306	67.5
270.538	80.5
270.77	91.5
271.002	86.5
271.234	84.5
271.466	89.5
271.698	87.5
271.93	103.5
272.162	101.5
272.394	79.5
272.626	92.5
272.858	90.5
273.09	91.5
273.322	89.5
273.553	82.5
273.785	88.5
274.017	91.5
274.249	96.5
274.481	93.5
274.713	85.5
274.945	70.5
275.176	84.5
275.408	89.5
275.64	87.5
275.872	89.5
276.104	75.5
276.335	79.5
276.567	107.5
276.799	80.5
277.031	70.5
277.262	91.5
277.494	97.5
277.726	92.5
277.957	84.5
278.189	90.5
278.421	80.5
278.652	85.5
278.884	89.5
279.115	84.5
279.347	77.5
279.579	102.5
279.81	103.5
280.042	97.5
280.273	93.5
280.505	77.5
280.736	89.5
280.968	78.5
281.199	76.5
281.431	93.5
281.662	98.5
281.894	97.5
282.125	105.5
282.356	83.5
282.588	90.5
282.819	82.5
283.051	78.5
283.282	83.5
283.513	75.5
283.745	84.5
283.976	96.5
284.207	88.5
284.439	79.5
284.67	77.5
284.901	76.5
285.132	74.5
285.364	97.5
285.595	80.5
285.826	81.5
286.057	79.5
286.288	103.5
286.52	79.5
286.751	85.5
286.982	94.5
287.213	78.5
287.444	93.5
287.675	105.5
287.906	76.5
288.138	86.5
288.369	88.5
288.6	99.5
288.831	92.5
289.062	86.5
289.293	83.5
289.524	80.5
289.755	76.5
289.986	83.5
290.217	91.5
290.448	84.5
290.679	89.5
290.91	107.5
291.141	97.5
291.371	91.5
291.602	90.5
291.833	87.5
292.064	88.5
292.295	95.5
292.526	98.5
292.757	85.5
292.987	81.5
293.218	82.5
293.449	85.5
293.68	85.5
293.91	100.5
294.141	95.5
294.372	105.5
294.603	94.5
294.833	84.5
295.064	108.5
295.295	83.5
295.525	82.5
295.756	82.5
295.987	95.5
296.217	81.5
296.448	91.5
296.679	74.5
296.909	83.5
297.14	87.5
297.37	76.5
297.601	101.5
297.831	91.5
298.062	86.5
298.292	77.5
298.523	86.5
298.753	71.5
298.984	95.5
299.214	73.5
299.445	89.5
299.675	93.5
299.905	87.5
300.136	86.5
300.366	83.5
300.597	82.5
300.827	83.5
301.057	67.5
301.288	79.5
301.518	78.5
301.748	78.5
301.979	93.5
302.209	87.5
302.439	80.5
302.669	81.5
302.9	85.5
303.13	95.5
303.36	90.5
303.59	91.5
303.82	84.5
304.051	70.5
304.281	85.5
304.511	89.5
304.741	86.5
304.971	82.5
305.201	97.5
305.431	96.5
305.661	96.5
305.891	99.5
306.121	96.5
306.352	93.5
306.582	92.5
306.812	89.5
307.042	85.5
307.272	85.5
307.502	98.5
307.731	87.5
307.961	86.5
308.191	90.5
308.421	93.5
308.651	96.5
308.881	88.5
309.111	99.5
309.341	103.5
309.571	74.5
309.8	86.5
310.03	87.5
310.26	85.5
310.49	73.5
310.72	90.5
310.949	79.5
311.179	91.5
311.409	84.5
311.639	94.5
311.868	92.5
312.098	90.5
312.328	88.5
312.557	90.5
312.787	92.5
313.017	81.5
313.246	80.5
313.476	99.5
313.706	99.5
313.935	82.5
314.165	103.5
314.394	85.5
314.624	80.5
314.853	93.5
315.083	95.5
315.312	91.5
315.542	71.5
315.771	96.5
316.001	85.5
316.23	86.5
316.46	85.5
316.689	78.5
316.919	90.5
317.148	93.5
317.377	89.5
317.607	101.5
317.836	82.5
318.065	90.5
318.295	85.5
318.524	85.5
318.753	88.5
318.983	91.5
319.212	90.5
319.441	78.5
319.67	99.5
319.9	87.5
320.129	76.5
320.358	94.5
320.587	100.5
320.816	85.5
321.046	83.5
321.275	94.5
321.504	94.5
321.733	93.5
321.962	101.5
322.191	90.5
322.42	94.5
322.649	79.5
322.878	84.5
323.108	80.5
323.337	93.5
323.566	89.5
323.795	85.5
324.024	90.5
324.253	86.5
324.482	75.5
324.71	80.5
324.939	81.5
325.168	74.5
325.397	91.5
325.626	98.5
325.855	87.5
326.084	84.5
326.313	79.5
326.542	80.5
326.77	101.5
326.999	93.5
327.228	96.5
327.457	88.5
327.686	92.5
327.914	86.5
328.143	81.5
328.372	80.5
328.6	80.5
328.829	92.5
329.058	92.5
329.287	83.5
329.515	96.5
329.744	93.5
329.972	83.5
330.201	87.5
330.43	97.5
330.658	79.5
330.887	93.5
331.115	88.5
331.344	76.5
331.572	84.5
331.801	88.5
332.03	76.5
332.258	88.5
332.486	86.5
332.715	77.5
332.943	88.5
333.172	83.5
333.4	88.5
333.629	91.5
333.857	90.5
334.085	99.5
334.314	97.5
334.542	79.5
334.771	99.5
334.999	80.5
335.227	73.5
335.455	86.5
335.684	89.5
335.912	78.5
336.14	93.5
336.369	88.5
336.597	100.5
336.825	76.5
337.053	80.5
337.281	77.5
337.51	87.5
337.738	81.5
337.966	85.5
338.194	81.5
338.422	88.5
338.65	84.5
338.878	96.5
339.106	90.5
339.334	115.5
339.562	91.5
339.79	90.5
340.018	94.5
340.246	77.5
340.474	95.5
340.702	95.5
340.93	79.5
341.158	96.5
341.386	91.5
341.614	103.5
341.842	90.5
342.07	100.5
342.298	87.5
342.526	85.5
342.754	85.5
342.981	84.5
343.209	80.5
343.437	87.5
343.665	78.5
343.893	75.5
344.12	80.5
344.348	82.5
344.576	81.5
344.804	80.5
345.031	84.5
345.259	69.5
345.487	91.5
345.714	92.5
345.942	93.5
346.17	78.5
346.397	83.5
346.625	89.5
346.853	100.5
347.08	83.5
347.308	97.5
347.535	92.5
347.763	90.5
347.99	92.5
348.218	103.5
348.445	84.5
348.673	74.5
348.9	82.5
349.128	93.5
349.355	85.5
349.583	88.5
349.81	71.5
350.037	87.5
350.265	95.5
350.492	105.5
350.72	97.5
350.947	80.5
351.174	96.5
351.402	81.5
351.629	93.5
351.856	83.5
352.083	94.5
352.311	80.5
352.538	81.5
352.765	95.5
352.992	77.5
353.22	95.5
353.447	89.5
353.674	88.5
353.901	83.5
354.128	84.5
354.355	92.5
354.583	89.5
354.81	91.5
355.037	94.5
355.264	81.5
355.491	107.5
355.718	98.5
355.945	85.5
356.172	80.5
356.399	91.5
356.626	92.5
356.853	81.5
357.08	96.5
357.307	91.5
357.534	74.5
357.761	94.5
357.988	95.5
358.215	79.5
358.441	95.5
358.668	84.5
358.895	92.5
359.122	93.5
359.349	89.5
359.576	77.5
359.802	90.5
360.029	89.5
360.256	89.5
360.483	88.5
360.709	78.5
360.936	94.5
361.163	86.5
361.39	84.5
361.616	84.5
361.843	85.5
362.07	88.5
362.296	88.5
362.523	78.5
362.749	76.5
362.976	80.5
363.203	90.5
363.429	89.5
363.656	98.5
363.882	87.5
364.109	76.5
364.335	100.5
364.562	87.5
364.788	87.5
365.015	95.5
365.241	103.5
365.468	88.5
365.694	92.5
365.92	88.5
366.147	88.5
366.373	87.5
366.599	76.5
366.826	79.5
367.052	87.5
367.278	74.5
367.505	96.5
367.731	95.5
367.957	96.5
368.184	86.5
368.41	82.5
368.636	92.5
368.862	101.5
369.089	77.5
369.315	88.5
369.541	101.5
369.767	105.5
369.993	103.5
370.219	97.5
370.445	99.5
370.672	91.5
370.898	87.5
371.124	91.5
371.35	94.5
371.576	100.5
371.802	96.5
372.028	104.5
372.254	95.5
372.48	82.5
372.706	89.5
372.932	91.5
373.158	98.5
373.384	102.5
373.61	100.5
373.835	90.5
374.061	97.5
374.287	86.5
374.513	85.5
374.739	106.5
374.965	94.5
375.191	91.5
375.416	82.5
375.642	88.5
375.868	100.5
376.094	111.5
376.319	95.5
376.545	96.5
376.771	89.5
376.997	88.5
377.222	105.5
377.448	100.5
377.674	105.5
377.899	86.5
378.125	105.5
378.35	96.5
378.576	101.5
378.802	94.5
379.027	91.5
379.253	97.5
379.478	86.5
379.704	75.5
379.929	94.5
380.155	87.5
380.38	99.5
380.606	97.5
380.831	107.5
381.057	98.5
381.282	106.5
381.507	114.5
381.733	105.5
381.958	105.5
382.184	105.5
382.409	75.5
382.634	100.5
382.86	108.5
383.085	106.5
383.31	90.5
383.535	93.5
383.761	93.5
383.986	110.5
384.211	111.5
384.436	99.5
384.662	96.5
384.887	80.5
385.112	92.5
385.337	95.5
385.562	102.5
385.787	96.5
386.013	109.5
386.238	102.5
386.463	105.5
386.688	94.5
386.913	86.5
387.138	90.5
387.363	105.5
387.588	93.5
387.813	105.5
388.038	115.5
388.263	123.5
388.488	100.5
388.713	101.5
388.938	99.5
389.163	95.5
389.387	104.5
389.612	108.5
389.837	109.5
390.062	114.5
390.287	107.5
390.512	112.5
390.736	108.5
390.961	93.5
391.186	103.5
391.411	112.5
391.636	107.5
391.86	105.5
392.085	112.5
392.31	111.5
392.534	116.5
392.759	100.5
392.984	83.5
393.208	99.5
393.433	106.5
393.658	101.5
393.882	115.5
394.107	102.5
394.331	107.5
394.556	110.5
394.78	115.5
395.005	105.5
395.229	113.5
395.454	104.5
395.678	98.5
395.903	111.5
396.127	105.5
396.352	105.5
396.576	130.5
396.801	102.5
397.025	117.5
397.249	112.5
397.474	107.5
397.698	99.5
397.922	110.5
398.147	119.5
398.371	95.5
398.595	117.5
398.82	104.5
399.044	116.5
399.268	110.5
399.492	117.5
399.717	107.5
399.941	106.5
400.165	110.5
400.389	104.5
400.613	116.5
400.837	103.5
401.062	113.5
401.286	112.5
401.51	125.5
401.734	104.5
401.958	101.5
402.182	101.5
402.406	118.5
402.63	105.5
402.854	125.5
403.078	111.5
403.302	107.5
403.526	110.5
403.75	111.5
403.974	125.5
404.198	127.5
404.422	122.5
404.645	125.5
404.869	119.5
405.093	123.5
405.317	101.5
405.541	105.5
405.765	119.5
405.988	115.5
406.212	126.5
406.436	128.5
406.66	123.5
406.883	101.5
407.107	117.5
407.331	113.5
407.555	129.5
407.778	113.5
408.002	123.5
408.226	129.5
408.449	138.5
408.673	114.5
408.896	125.5
409.12	119.5
409.344	125.5
409.567	120.5
409.791	116.5
410.014	142.5
410.238	118.5
410.461	126.5
410.685	130.5
410.908	120.5
411.132	125.5
411.355	113.5
411.578	119.5
411.802	119.5
412.025	132.5
412.249	126.5
412.472	109.5
412.695	117.5
412.919	120.5
413.142	129.5
413.365	130.5
413.589	125.5
413.812	128.5
414.035	133.5
414.258	111.5
414.482	138.5
414.705	130.5
414.928	129.5
415.151	129.5
415.374	125.5
415.597	130.5
415.821	120.5
416.044	119.5
416.267	131.5
416.49	118.5
416.713	122.5
416.936	129.5
417.159	120.5
417.382	136.5
417.605	119.5
417.828	121.5
418.051	108.5
418.274	127.5
418.497	117.5
418.72	126.5
418.943	117.5
419.166	135.5
419.389	136.5
419.611	124.5
419.834	145.5
420.057	141.5
420.28	141.5
420.503	122.5
420.726	137.5
420.948	138.5
421.171	139.5
421.394	134.5
421.617	159.5
421.839	156.5
422.062	136.5
422.285	133.5
422.507	127.5
422.73	119.5
422.953	128.5
423.175	125.5
423.398	147.5
423.621	123.5
423.843	128.5
424.066	142.5
424.288	135.5
424.511	131.5
424.733	124.5
424.956	131.5
425.178	135.5
425.401	142.5
425.623	136.5
425.846	143.5
426.068	121.5
426.291	131.5
426.513	140.5
426.735	129.5
426.958	122.5
427.18	121.5
427.402	135.5
427.625	124.5
427.847	127.5
428.069	129.5
428.292	127.5
428.514	124.5
428.736	129.5
428.958	122.5
429.181	140.5
429.403	128.5
429.625	103.5
429.847	122.5
430.069	120.5
430.292	128.5
430.514	129.5
430.736	123.5
430.958	129.5
431.18	125.5
431.402	137.5
431.624	110.5
431.846	113.5
432.068	111.5
432.29	102.5
432.512	104.5
432.734	125.5
432.956	127.5
433.178	151.5
433.4	142.5
433.622	129.5
433.844	132.5
434.066	122.5
434.287	115.5
434.509	90.5
434.731	105.5
434.953	112.5
435.175	115.5
435.397	102.5
435.618	148.5
435.84	115.5
436.062	123.5
436.284	132.5
436.505	119.5
436.727	140.5
436.949	120.5
437.17	135.5
437.392	128.5
437.614	125.5
437.835	111.5
438.057	107.5
438.278	110.5
438.5	119.5
438.721	144.5
438.943	148.5
439.165	139.5
439.386	132.5
439.608	124.5
439.829	160.5
440.05	148.5
440.272	148.5
440.493	132.5
440.715	133.5
440.936	140.5
441.158	157.5
441.379	143.5
441.6	141.5
441.822	150.5
442.043	133.5
442.264	135.5
442.486	116.5
442.707	152.5
442.928	143.5
443.149	141.5
443.371	124.5
443.592	127.5
443.813	132.5
444.034	131.5
444.255	129.5
444.476	136.5
444.698	153.5
444.919	135.5
445.14	273.5
445.361	212.5
445.582	157.5
445.803	147.5
446.024	142.5
446.245	154.5
446.466	159.5
446.687	135.5
446.908	151.5
447.129	164.5
447.35	143.5
447.571	153.5
447.792	125.5
448.013	151.5
448.234	155.5
448.455	129.5
448.675	116.5
448.896	131.5
449.117	137.5
449.338	144.5
449.559	150.5
449.779	137.5
450	139.5
450.221	130.5
450.442	142.5
450.662	137.5
450.883	115.5
451.104	133.5
451.324	142.5
451.545	118.5
451.766	107.5
451.986	125.5
452.207	119.5
452.428	125.5
452.648	121.5
452.869	105.5
453.089	106.5
453.31	123.5
453.53	108.5
453.751	116.5
453.971	108.5
454.192	113.5
454.412	127.5
454.633	128.5
454.853	127.5
455.073	118.5
455.294	141.5
455.514	139.5
455.734	134.5
455.955	119.5
456.175	118.5
456.395	123.5
456.616	120.5
456.836	114.5
457.056	119.5
457.276	108.5
457.497	99.5
457.717	115.5
457.937	115.5
458.157	118.5
458.377	102.5
458.598	102.5
458.818	108.5
459.038	95.5
459.258	90.5
459.478	90.5
459.698	92.5
459.918	94.5
460.138	98.5
460.358	103.5
460.578	121.5
460.798	118.5
461.018	124.5
461.238	117.5
461.458	127.5
461.678	100.5
461.898	106.5
462.118	111.5
462.338	114.5
462.558	112.5
462.777	126.5
462.997	115.5
463.217	119.5
463.437	123.5
463.657	128.5
463.876	102.5
464.096	121.5
464.316	111.5
464.536	125.5
464.755	111.5
464.975	117.5
465.195	110.5
465.414	132.5
465.634	121.5
465.854	120.5
466.073	119.5
466.293	117.5
466.512	124.5
466.732	135.5
466.951	123.5
467.171	137.5
467.391	125.5
467.61	131.5
467.829	133.5
468.049	141.5
468.268	156.5
468.488	141.5
468.707	136.5
468.927	135.5
469.146	129.5
469.365	131.5
469.585	149.5
469.804	145.5
470.023	137.5
470.243	152.5
470.462	154.5
470.681	147.5
470.901	147.5
471.12	132.5
471.339	141.5
471.558	135.5
471.777	149.5
471.997	132.5
472.216	131.5
472.435	139.5
472.654	112.5
472.873	119.5
473.092	104.5
473.311	129.5
473.53	121.5
473.749	127.5
473.968	129.5
474.187	123.5
474.406	134.5
474.625	127.5
474.844	130.5
475.063	127.5
475.282	119.5
475.501	132.5
475.72	117.5
475.939	129.5
476.158	126.5
476.377	131.5
476.596	128.5
476.814	110.5
477.033	125.5
477.252	115.5
477.471	125.5
477.69	131.5
477.908	148.5
478.127	131.5
478.346	139.5
478.564	148.5
478.783	138.5
479.002	133.5
479.22	140.5
479.439	138.5
479.658	131.5
479.876	110.5
480.095	111.5
480.313	131.5
480.532	117.5
480.751	126.5
480.969	95.5
481.188	93.5
481.406	92.5
481.624	100.5
481.843	100.5
482.061	104.5
482.28	117.5
482.498	128.5
482.717	99.5
482.935	135.5
483.153	159.5
483.372	165.5
483.59	148.5
483.808	138.5
484.027	121.5
484.245	145.5
484.463	144.5
484.681	159.5
484.9	134.5
485.118	127.5
485.336	130.5
485.554	121.5
485.772	94.5
485.99	99.5
486.209	113.5
486.427	100.5
486.645	125.5
486.863	143.5
487.081	137.5
487.299	130.5
487.517	143.5
487.735	144.5
487.953	175.5
488.171	187.5
488.389	179.5
488.607	161.5
488.825	149.5
489.043	135.5
489.261	136.5
489.479	139.5
489.696	137.5
489.914	155.5
490.132	135.5
490.35	165.5
490.568	153.5
490.786	188.5
491.003	174.5
491.221	189.5
491.439	164.5
491.657	192.5
491.874	204.5
492.092	215.5
492.31	237.5
492.527	232.5
492.745	197.5
492.963	191.5
493.18	179.5
493.398	176.5
493.615	165.5
493.833	167.5
494.05	158.5
494.268	163.5
494.485	170.5
494.703	180.5
494.92	192.5
495.138	171.5
495.355	173.5
495.573	157.5
495.79	167.5
496.008	181.5
496.225	178.5
496.442	160.5
496.66	167.5
496.877	141.5
497.094	170.5
497.312	164.5
497.529	155.5
497.746	135.5
497.963	144.5
498.181	128.5
498.398	127.5
498.615	119.5
498.832	116.5
499.049	115.5
499.267	118.5
499.484	125.5
499.701	135.5
499.918	146.5
500.135	146.5
500.352	135.5
500.569	146.5
500.786	151.5
501.003	123.5
501.22	140.5
501.437	132.5
501.654	138.5
501.871	131.5
502.088	119.5
502.305	124.5
502.522	125.5
502.739	135.5
502.956	136.5
503.172	120.5
503.389	119.5
503.606	119.5
503.823	126.5
504.04	139.5
504.256	132.5
504.473	113.5
504.69	131.5
504.907	137.5
505.123	100.5
505.34	119.5
505.557	123.5
505.773	121.5
505.99	110.5
506.207	125.5
506.423	112.5
506.64	130.5
506.856	125.5
507.073	113.5
507.289	137.5
507.506	122.5
507.722	111.5
507.939	131.5
508.155	128.5
508.372	131.5
508.588	121.5
508.805	114.5
509.021	103.5
509.238	114.5
509.454	101.5
509.67	121.5
509.887	105.5
510.103	102.5
510.319	103.5
510.536	89.5
510.752	93.5
510.968	86.5
511.184	89.5
511.401	96.5
511.617	91.5
511.833	69.5
512.049	94.5
512.265	85.5
512.481	99.5
512.698	90.5
512.914	122.5
513.13	99.5
513.346	81.5
513.562	96.5
513.778	100.5
513.994	94.5
514.21	108.5
514.426	93.5
514.642	95.5
514.858	86.5
515.074	88.5
515.29	104.5
515.506	90.5
515.721	95.5
515.937	86.5
516.153	84.5
516.369	77.5
516.585	97.5
516.801	77.5
517.016	78.5
517.232	101.5
517.448	100.5
517.664	93.5
517.879	103.5
518.095	100.5
518.311	95.5
518.527	105.5
518.742	98.5
518.958	105.5
519.173	124.5
519.389	113.5
519.605	101.5
519.82	109.5
520.036	117.5
520.251	103.5
520.467	115.5
520.682	100.5
520.898	114.5
521.113	88.5
521.329	95.5
521.544	109.5
521.76	87.5
521.975	101.5
522.19	93.5
522.406	87.5
522.621	108.5
522.836	94.5
523.052	120.5
523.267	110.5
523.482	118.5
523.698	104.5
523.913	107.5
524.128	112.5
524.343	107.5
524.559	133.5
524.774	105.5
524.989	117.5
525.204	118.5
525.419	121.5
525.634	118.5
525.849	124.5
526.064	112.5
526.28	108.5
526.495	110.5
526.71	91.5
526.925	85.5
527.14	89.5
527.355	98.5
527.57	84.5
527.785	94.5
527.999	106.5
528.214	105.5
528.429	96.5
528.644	138.5
528.859	144.5
529.074	155.5
529.289	166.5
529.503	157.5
529.718	131.5
529.933	127.5
