Data from Location4.07152019.Energy5.Lamp.07192019.3%Agarose_HRD10591_16-18-21-928.txt Node
Date: Fri Jul 19 16:18:21 EDT 2019
User: cochatt
Spectrometer: HR+D1059
Trigger mode: 1
Integration Time (sec): 1.000000E-1
Scans to average: 1
Electric dark correction enabled: true
Nonlinearity correction enabled: false
Boxcar width: 0
XAxis mode: Wavelengths
Number of Pixels in Spectrum: 2048
>>>>>Begin Spectral Data<<<<<
223.165	-12.94
223.4	-12.94
223.635	-12.94
223.869	-15.94
224.104	-14.94
224.338	-8.94
224.573	-3.94
224.808	-1.94
225.042	-24.94
225.277	-0.94
225.511	7.06
225.746	-5.94
225.98	0.06
226.215	6.06
226.449	21.06
226.683	21.06
226.918	18.06
227.152	17.06
227.387	35.06
227.621	45.06
227.856	49.06
228.09	53.06
228.324	52.06
228.559	62.06
228.793	64.06
229.027	57.06
229.262	67.06
229.496	75.06
229.73	78.06
229.964	78.06
230.199	73.06
230.433	70.06
230.667	85.06
230.901	79.06
231.136	64.06
231.37	89.06
231.604	84.06
231.838	79.06
232.072	94.06
232.306	85.06
232.541	84.06
232.775	80.06
233.009	83.06
233.243	87.06
233.477	83.06
233.711	85.06
233.945	75.06
234.179	73.06
234.413	73.06
234.647	86.06
234.881	85.06
235.115	75.06
235.349	80.06
235.583	91.06
235.817	84.06
236.051	90.06
236.285	82.06
236.519	76.06
236.753	79.06
236.987	77.06
237.221	78.06
237.455	78.06
237.689	92.06
237.922	91.06
238.156	85.06
238.39	71.06
238.624	98.06
238.858	86.06
239.091	84.06
239.325	86.06
239.559	82.06
239.793	71.06
240.027	68.06
240.26	62.06
240.494	91.06
240.728	72.06
240.961	85.06
241.195	79.06
241.429	80.06
241.662	73.06
241.896	64.06
242.13	77.06
242.363	76.06
242.597	73.06
242.83	65.06
243.064	71.06
243.298	71.06
243.531	80.06
243.765	75.06
243.998	78.06
244.232	78.06
244.465	95.06
244.699	77.06
244.932	76.06
245.166	71.06
245.399	85.06
245.633	85.06
245.866	74.06
246.099	97.06
246.333	71.06
246.566	81.06
246.8	77.06
247.033	88.06
247.266	83.06
247.5	99.06
247.733	67.06
247.966	76.06
248.2	83.06
248.433	65.06
248.666	70.06
248.899	87.06
249.133	80.06
249.366	81.06
249.599	78.06
249.832	79.06
250.066	80.06
250.299	83.06
250.532	71.06
250.765	74.06
250.998	77.06
251.231	92.06
251.465	85.06
251.698	80.06
251.931	79.06
252.164	79.06
252.397	78.06
252.63	72.06
252.863	75.06
253.096	72.06
253.329	75.06
253.562	94.06
253.795	83.06
254.028	82.06
254.261	94.06
254.494	75.06
254.727	76.06
254.96	77.06
255.193	83.06
255.426	91.06
255.659	84.06
255.892	92.06
256.124	64.06
256.357	94.06
256.59	76.06
256.823	91.06
257.056	74.06
257.289	89.06
257.521	79.06
257.754	79.06
257.987	89.06
258.22	89.06
258.452	71.06
258.685	89.06
258.918	85.06
259.151	77.06
259.383	84.06
259.616	81.06
259.849	80.06
260.081	86.06
260.314	82.06
260.547	90.06
260.779	88.06
261.012	79.06
261.244	71.06
261.477	91.06
261.71	83.06
261.942	92.06
262.175	76.06
262.407	84.06
262.64	87.06
262.872	81.06
263.105	83.06
263.337	98.06
263.57	102.06
263.802	82.06
264.035	90.06
264.267	81.06
264.499	79.06
264.732	79.06
264.964	87.06
265.197	79.06
265.429	77.06
265.661	84.06
265.894	76.06
266.126	96.06
266.358	95.06
266.591	71.06
266.823	89.06
267.055	82.06
267.287	87.06
267.52	91.06
267.752	81.06
267.984	76.06
268.216	68.06
268.448	88.06
268.681	78.06
268.913	76.06
269.145	74.06
269.377	79.06
269.609	80.06
269.841	82.06
270.073	76.06
270.306	87.06
270.538	89.06
270.77	90.06
271.002	76.06
271.234	79.06
271.466	83.06
271.698	103.06
271.93	83.06
272.162	96.06
272.394	77.06
272.626	83.06
272.858	86.06
273.09	75.06
273.322	78.06
273.553	90.06
273.785	76.06
274.017	78.06
274.249	87.06
274.481	87.06
274.713	79.06
274.945	87.06
275.176	99.06
275.408	84.06
275.64	93.06
275.872	81.06
276.104	85.06
276.335	74.06
276.567	79.06
276.799	95.06
277.031	85.06
277.262	70.06
277.494	83.06
277.726	79.06
277.957	80.06
278.189	76.06
278.421	78.06
278.652	76.06
278.884	75.06
279.115	89.06
279.347	83.06
279.579	103.06
279.81	77.06
280.042	81.06
280.273	99.06
280.505	87.06
280.736	84.06
280.968	86.06
281.199	93.06
281.431	86.06
281.662	95.06
281.894	75.06
282.125	101.06
282.356	86.06
282.588	94.06
282.819	80.06
283.051	79.06
283.282	70.06
283.513	70.06
283.745	81.06
283.976	74.06
284.207	90.06
284.439	87.06
284.67	84.06
284.901	77.06
285.132	83.06
285.364	77.06
285.595	86.06
285.826	88.06
286.057	80.06
286.288	93.06
286.52	80.06
286.751	93.06
286.982	90.06
287.213	88.06
287.444	86.06
287.675	59.06
287.906	84.06
288.138	74.06
288.369	79.06
288.6	79.06
288.831	89.06
289.062	91.06
289.293	88.06
289.524	85.06
289.755	75.06
289.986	75.06
290.217	84.06
290.448	95.06
290.679	84.06
290.91	84.06
291.141	89.06
291.371	89.06
291.602	87.06
291.833	72.06
292.064	75.06
292.295	99.06
292.526	85.06
292.757	85.06
292.987	88.06
293.218	81.06
293.449	85.06
293.68	88.06
293.91	86.06
294.141	78.06
294.372	82.06
294.603	82.06
294.833	74.06
295.064	106.06
295.295	83.06
295.525	84.06
295.756	95.06
295.987	103.06
296.217	97.06
296.448	92.06
296.679	85.06
296.909	82.06
297.14	95.06
297.37	87.06
297.601	91.06
297.831	88.06
298.062	96.06
298.292	85.06
298.523	75.06
298.753	100.06
298.984	93.06
299.214	85.06
299.445	87.06
299.675	81.06
299.905	76.06
300.136	85.06
300.366	81.06
300.597	78.06
300.827	91.06
301.057	85.06
301.288	83.06
301.518	82.06
301.748	93.06
301.979	80.06
302.209	79.06
302.439	70.06
302.669	94.06
302.9	84.06
303.13	77.06
303.36	102.06
303.59	93.06
303.82	73.06
304.051	78.06
304.281	97.06
304.511	100.06
304.741	90.06
304.971	78.06
305.201	74.06
305.431	96.06
305.661	87.06
305.891	85.06
306.121	85.06
306.352	79.06
306.582	92.06
306.812	82.06
307.042	86.06
307.272	103.06
307.502	84.06
307.731	83.06
307.961	95.06
308.191	77.06
308.421	99.06
308.651	91.06
308.881	84.06
309.111	75.06
309.341	79.06
309.571	90.06
309.8	92.06
310.03	89.06
310.26	70.06
310.49	75.06
310.72	93.06
310.949	84.06
311.179	89.06
311.409	92.06
311.639	86.06
311.868	90.06
312.098	98.06
312.328	100.06
312.557	81.06
312.787	92.06
313.017	110.06
313.246	79.06
313.476	95.06
313.706	74.06
313.935	93.06
314.165	86.06
314.394	83.06
314.624	85.06
314.853	79.06
315.083	95.06
315.312	89.06
315.542	73.06
315.771	93.06
316.001	86.06
316.23	93.06
316.46	83.06
316.689	80.06
316.919	81.06
317.148	82.06
317.377	92.06
317.607	81.06
317.836	97.06
318.065	84.06
318.295	82.06
318.524	81.06
318.753	79.06
318.983	86.06
319.212	106.06
319.441	79.06
319.67	87.06
319.9	98.06
320.129	85.06
320.358	107.06
320.587	98.06
320.816	98.06
321.046	82.06
321.275	91.06
321.504	76.06
321.733	102.06
321.962	90.06
322.191	81.06
322.42	102.06
322.649	86.06
322.878	92.06
323.108	92.06
323.337	83.06
323.566	75.06
323.795	83.06
324.024	79.06
324.253	102.06
324.482	76.06
324.71	77.06
324.939	73.06
325.168	78.06
325.397	88.06
325.626	91.06
325.855	89.06
326.084	82.06
326.313	94.06
326.542	86.06
326.77	86.06
326.999	89.06
327.228	97.06
327.457	88.06
327.686	68.06
327.914	86.06
328.143	86.06
328.372	93.06
328.6	90.06
328.829	100.06
329.058	86.06
329.287	81.06
329.515	86.06
329.744	84.06
329.972	92.06
330.201	84.06
330.43	76.06
330.658	86.06
330.887	86.06
331.115	80.06
331.344	81.06
331.572	66.06
331.801	95.06
332.03	87.06
332.258	86.06
332.486	87.06
332.715	73.06
332.943	69.06
333.172	89.06
333.4	91.06
333.629	74.06
333.857	78.06
334.085	80.06
334.314	84.06
334.542	72.06
334.771	86.06
334.999	78.06
335.227	70.06
335.455	93.06
335.684	85.06
335.912	79.06
336.14	81.06
336.369	87.06
336.597	78.06
336.825	85.06
337.053	85.06
337.281	82.06
337.51	92.06
337.738	74.06
337.966	89.06
338.194	88.06
338.422	92.06
338.65	100.06
338.878	99.06
339.106	86.06
339.334	88.06
339.562	102.06
339.79	81.06
340.018	81.06
340.246	77.06
340.474	97.06
340.702	97.06
340.93	79.06
341.158	93.06
341.386	88.06
341.614	93.06
341.842	77.06
342.07	82.06
342.298	71.06
342.526	96.06
342.754	93.06
342.981	80.06
343.209	84.06
343.437	86.06
343.665	92.06
343.893	106.06
344.12	88.06
344.348	77.06
344.576	99.06
344.804	91.06
345.031	91.06
345.259	77.06
345.487	94.06
345.714	96.06
345.942	71.06
346.17	88.06
346.397	90.06
346.625	84.06
346.853	73.06
347.08	92.06
347.308	85.06
347.535	73.06
347.763	85.06
347.99	93.06
348.218	93.06
348.445	82.06
348.673	88.06
348.9	85.06
349.128	86.06
349.355	81.06
349.583	87.06
349.81	81.06
350.037	78.06
350.265	87.06
350.492	87.06
350.72	101.06
350.947	83.06
351.174	95.06
351.402	79.06
351.629	85.06
351.856	90.06
352.083	83.06
352.311	85.06
352.538	94.06
352.765	86.06
352.992	85.06
353.22	81.06
353.447	71.06
353.674	77.06
353.901	87.06
354.128	96.06
354.355	79.06
354.583	84.06
354.81	75.06
355.037	81.06
355.264	90.06
355.491	97.06
355.718	102.06
355.945	78.06
356.172	81.06
356.399	79.06
356.626	94.06
356.853	76.06
357.08	90.06
357.307	90.06
357.534	87.06
357.761	85.06
357.988	90.06
358.215	79.06
358.441	74.06
358.668	90.06
358.895	86.06
359.122	90.06
359.349	83.06
359.576	85.06
359.802	78.06
360.029	61.06
360.256	95.06
360.483	77.06
360.709	90.06
360.936	93.06
361.163	89.06
361.39	94.06
361.616	77.06
361.843	79.06
362.07	107.06
362.296	86.06
362.523	88.06
362.749	79.06
362.976	94.06
363.203	90.06
363.429	100.06
363.656	89.06
363.882	87.06
364.109	86.06
364.335	81.06
364.562	80.06
364.788	83.06
365.015	81.06
365.241	82.06
365.468	91.06
365.694	94.06
365.92	91.06
366.147	85.06
366.373	80.06
366.599	87.06
366.826	86.06
367.052	91.06
367.278	82.06
367.505	89.06
367.731	95.06
367.957	92.06
368.184	81.06
368.41	92.06
368.636	92.06
368.862	84.06
369.089	89.06
369.315	75.06
369.541	83.06
369.767	99.06
369.993	92.06
370.219	97.06
370.445	89.06
370.672	85.06
370.898	97.06
371.124	82.06
371.35	93.06
371.576	99.06
371.802	90.06
372.028	98.06
372.254	100.06
372.48	89.06
372.706	90.06
372.932	96.06
373.158	96.06
373.384	94.06
373.61	84.06
373.835	95.06
374.061	91.06
374.287	90.06
374.513	96.06
374.739	87.06
374.965	91.06
375.191	96.06
375.416	101.06
375.642	99.06
375.868	98.06
376.094	98.06
376.319	85.06
376.545	91.06
376.771	96.06
376.997	77.06
377.222	91.06
377.448	86.06
377.674	97.06
377.899	95.06
378.125	89.06
378.35	86.06
378.576	98.06
378.802	98.06
379.027	99.06
379.253	106.06
379.478	105.06
379.704	92.06
379.929	99.06
380.155	97.06
380.38	108.06
380.606	102.06
380.831	95.06
381.057	101.06
381.282	99.06
381.507	99.06
381.733	115.06
381.958	85.06
382.184	84.06
382.409	102.06
382.634	109.06
382.86	108.06
383.085	100.06
383.31	92.06
383.535	87.06
383.761	94.06
383.986	94.06
384.211	107.06
384.436	119.06
384.662	95.06
384.887	98.06
385.112	90.06
385.337	99.06
385.562	115.06
385.787	103.06
386.013	99.06
386.238	105.06
386.463	97.06
386.688	94.06
386.913	93.06
387.138	101.06
387.363	96.06
387.588	126.06
387.813	117.06
388.038	89.06
388.263	95.06
388.488	98.06
388.713	91.06
388.938	88.06
389.163	85.06
389.387	91.06
389.612	98.06
389.837	88.06
390.062	98.06
390.287	107.06
390.512	130.06
390.736	107.06
390.961	105.06
391.186	97.06
391.411	98.06
391.636	95.06
391.86	95.06
392.085	107.06
392.31	104.06
392.534	109.06
392.759	92.06
392.984	110.06
393.208	105.06
393.433	110.06
393.658	100.06
393.882	104.06
394.107	103.06
394.331	104.06
394.556	114.06
394.78	104.06
395.005	104.06
395.229	102.06
395.454	103.06
395.678	94.06
395.903	108.06
396.127	122.06
396.352	97.06
396.576	124.06
396.801	113.06
397.025	107.06
397.249	118.06
397.474	117.06
397.698	121.06
397.922	106.06
398.147	118.06
398.371	113.06
398.595	109.06
398.82	110.06
399.044	106.06
399.268	106.06
399.492	118.06
399.717	115.06
399.941	124.06
400.165	98.06
400.389	122.06
400.613	97.06
400.837	109.06
401.062	119.06
401.286	100.06
401.51	109.06
401.734	110.06
401.958	107.06
402.182	118.06
402.406	113.06
402.63	122.06
402.854	111.06
403.078	98.06
403.302	95.06
403.526	114.06
403.75	113.06
403.974	102.06
404.198	119.06
404.422	115.06
404.645	101.06
404.869	116.06
405.093	125.06
405.317	128.06
405.541	122.06
405.765	113.06
405.988	121.06
406.212	126.06
406.436	117.06
406.66	119.06
406.883	125.06
407.107	124.06
407.331	118.06
407.555	104.06
407.778	118.06
408.002	126.06
408.226	118.06
408.449	122.06
408.673	130.06
408.896	105.06
409.12	121.06
409.344	115.06
409.567	114.06
409.791	117.06
410.014	128.06
410.238	127.06
410.461	122.06
410.685	121.06
410.908	111.06
411.132	129.06
411.355	117.06
411.578	120.06
411.802	116.06
412.025	120.06
412.249	117.06
412.472	114.06
412.695	118.06
412.919	108.06
413.142	118.06
413.365	119.06
413.589	120.06
413.812	110.06
414.035	120.06
414.258	115.06
414.482	114.06
414.705	126.06
414.928	108.06
415.151	101.06
415.374	126.06
415.597	103.06
415.821	126.06
416.044	119.06
416.267	125.06
416.49	123.06
416.713	136.06
416.936	115.06
417.159	122.06
417.382	116.06
417.605	115.06
417.828	124.06
418.051	122.06
418.274	127.06
418.497	122.06
418.72	143.06
418.943	134.06
419.166	130.06
419.389	139.06
419.611	130.06
419.834	113.06
420.057	140.06
420.28	139.06
420.503	129.06
420.726	129.06
420.948	126.06
421.171	131.06
421.394	123.06
421.617	135.06
421.839	148.06
422.062	137.06
422.285	125.06
422.507	125.06
422.73	136.06
422.953	137.06
423.175	114.06
423.398	120.06
423.621	126.06
423.843	124.06
424.066	138.06
424.288	129.06
424.511	138.06
424.733	132.06
424.956	130.06
425.178	119.06
425.401	141.06
425.623	130.06
425.846	129.06
426.068	127.06
426.291	127.06
426.513	139.06
426.735	117.06
426.958	133.06
427.18	149.06
427.402	131.06
427.625	134.06
427.847	135.06
428.069	126.06
428.292	117.06
428.514	133.06
428.736	129.06
428.958	128.06
429.181	129.06
429.403	125.06
429.625	121.06
429.847	120.06
430.069	123.06
430.292	121.06
430.514	128.06
430.736	136.06
430.958	134.06
431.18	121.06
431.402	134.06
431.624	118.06
431.846	123.06
432.068	99.06
432.29	91.06
432.512	125.06
432.734	109.06
432.956	127.06
433.178	126.06
433.4	147.06
433.622	137.06
433.844	140.06
434.066	122.06
434.287	121.06
434.509	106.06
434.731	106.06
434.953	106.06
435.175	116.06
435.397	113.06
435.618	112.06
435.84	119.06
436.062	115.06
436.284	127.06
436.505	124.06
436.727	140.06
436.949	142.06
437.17	107.06
437.392	103.06
437.614	122.06
437.835	105.06
438.057	110.06
438.278	121.06
438.5	118.06
438.721	130.06
438.943	136.06
439.165	141.06
439.386	136.06
439.608	134.06
439.829	139.06
440.05	142.06
440.272	146.06
440.493	155.06
440.715	142.06
440.936	136.06
441.158	143.06
441.379	118.06
441.6	139.06
441.822	151.06
442.043	150.06
442.264	132.06
442.486	127.06
442.707	142.06
442.928	146.06
443.149	141.06
443.371	139.06
443.592	144.06
443.813	149.06
444.034	129.06
444.255	143.06
444.476	139.06
444.698	129.06
444.919	137.06
445.14	253.06
445.361	194.06
445.582	153.06
445.803	145.06
446.024	151.06
446.245	149.06
446.466	157.06
446.687	154.06
446.908	145.06
447.129	158.06
447.35	155.06
447.571	153.06
447.792	143.06
448.013	145.06
448.234	141.06
448.455	157.06
448.675	147.06
448.896	149.06
449.117	140.06
449.338	145.06
449.559	145.06
449.779	134.06
450	119.06
450.221	143.06
450.442	131.06
450.662	140.06
450.883	141.06
451.104	127.06
451.324	140.06
451.545	138.06
451.766	124.06
451.986	125.06
452.207	126.06
452.428	124.06
452.648	126.06
452.869	132.06
453.089	109.06
453.31	116.06
453.53	115.06
453.751	98.06
453.971	106.06
454.192	106.06
454.412	123.06
454.633	117.06
454.853	123.06
455.073	116.06
455.294	125.06
455.514	124.06
455.734	121.06
455.955	123.06
456.175	117.06
456.395	103.06
456.616	124.06
456.836	109.06
457.056	123.06
457.276	118.06
457.497	106.06
457.717	117.06
457.937	105.06
458.157	107.06
458.377	109.06
458.598	103.06
458.818	112.06
459.038	83.06
459.258	89.06
459.478	76.06
459.698	83.06
459.918	95.06
460.138	109.06
460.358	118.06
460.578	126.06
460.798	111.06
461.018	122.06
461.238	108.06
461.458	116.06
461.678	117.06
461.898	120.06
462.118	118.06
462.338	113.06
462.558	106.06
462.777	116.06
462.997	104.06
463.217	115.06
463.437	102.06
463.657	111.06
463.876	94.06
464.096	102.06
464.316	104.06
464.536	111.06
464.755	112.06
464.975	114.06
465.195	119.06
465.414	135.06
465.634	109.06
465.854	125.06
466.073	119.06
466.293	124.06
466.512	131.06
466.732	124.06
466.951	139.06
467.171	144.06
467.391	153.06
467.61	133.06
467.829	121.06
468.049	128.06
468.268	129.06
468.488	131.06
468.707	138.06
468.927	138.06
469.146	159.06
469.365	135.06
469.585	137.06
469.804	147.06
470.023	133.06
470.243	130.06
470.462	130.06
470.681	138.06
470.901	135.06
471.12	144.06
471.339	135.06
471.558	133.06
471.777	127.06
471.997	126.06
472.216	131.06
472.435	115.06
472.654	109.06
472.873	111.06
473.092	133.06
473.311	128.06
473.53	132.06
473.749	131.06
473.968	126.06
474.187	122.06
474.406	125.06
474.625	135.06
474.844	126.06
475.063	145.06
475.282	128.06
475.501	121.06
475.72	129.06
475.939	118.06
476.158	137.06
476.377	126.06
476.596	126.06
476.814	117.06
477.033	100.06
477.252	124.06
477.471	129.06
477.69	116.06
477.908	134.06
478.127	133.06
478.346	144.06
478.564	142.06
478.783	144.06
479.002	129.06
479.22	135.06
479.439	125.06
479.658	124.06
479.876	109.06
480.095	117.06
480.313	125.06
480.532	115.06
480.751	123.06
480.969	94.06
481.188	91.06
481.406	92.06
481.624	97.06
481.843	96.06
482.061	100.06
482.28	114.06
482.498	111.06
482.717	98.06
482.935	105.06
483.153	147.06
483.372	147.06
483.59	139.06
483.808	146.06
484.027	147.06
484.245	138.06
484.463	151.06
484.681	150.06
484.9	153.06
485.118	137.06
485.336	118.06
485.554	110.06
485.772	103.06
485.99	114.06
486.209	109.06
486.427	115.06
486.645	116.06
486.863	132.06
487.081	136.06
487.299	123.06
487.517	133.06
487.735	171.06
487.953	190.06
488.171	186.06
488.389	184.06
488.607	174.06
488.825	141.06
489.043	144.06
489.261	131.06
489.479	130.06
489.696	136.06
489.914	145.06
490.132	138.06
490.35	144.06
490.568	174.06
490.786	162.06
491.003	172.06
491.221	174.06
491.439	174.06
491.657	188.06
491.874	199.06
492.092	235.06
492.31	243.06
492.527	243.06
492.745	182.06
492.963	181.06
493.18	176.06
493.398	177.06
493.615	177.06
493.833	192.06
494.05	164.06
494.268	169.06
494.485	175.06
494.703	161.06
494.92	163.06
495.138	157.06
495.355	180.06
495.573	180.06
495.79	170.06
496.008	161.06
496.225	155.06
496.442	156.06
496.66	162.06
496.877	155.06
497.094	158.06
497.312	151.06
497.529	157.06
497.746	151.06
497.963	144.06
498.181	123.06
498.398	131.06
498.615	117.06
498.832	108.06
499.049	117.06
499.267	118.06
499.484	129.06
499.701	137.06
499.918	142.06
500.135	132.06
500.352	145.06
500.569	135.06
500.786	133.06
501.003	129.06
501.22	154.06
501.437	129.06
501.654	126.06
501.871	147.06
502.088	140.06
502.305	137.06
502.522	124.06
502.739	119.06
502.956	153.06
503.172	123.06
503.389	125.06
503.606	141.06
503.823	115.06
504.04	119.06
504.256	125.06
504.473	127.06
504.69	122.06
504.907	121.06
505.123	118.06
505.34	119.06
505.557	129.06
505.773	145.06
505.99	135.06
506.207	124.06
506.423	120.06
506.64	119.06
506.856	119.06
507.073	122.06
507.289	117.06
507.506	124.06
507.722	114.06
507.939	117.06
508.155	117.06
508.372	114.06
508.588	122.06
508.805	104.06
509.021	108.06
509.238	108.06
509.454	102.06
509.67	117.06
509.887	98.06
510.103	101.06
510.319	99.06
510.536	97.06
510.752	92.06
510.968	77.06
511.184	82.06
511.401	86.06
