Data from Location4.07152019.Energy5.Lamp.07192019.3%Agarose_HRD10591_16-21-15-926.txt Node
Date: Fri Jul 19 16:21:15 EDT 2019
User: cochatt
Spectrometer: HR+D1059
Trigger mode: 1
Integration Time (sec): 1.000000E-1
Scans to average: 1
Electric dark correction enabled: true
Nonlinearity correction enabled: false
Boxcar width: 0
XAxis mode: Wavelengths
Number of Pixels in Spectrum: 2048
>>>>>Begin Spectral Data<<<<<
223.165	-12.62
223.4	-12.62
223.635	-12.62
223.869	-1.62
224.104	-24.62
224.338	-18.62
224.573	-14.62
224.808	-11.62
225.042	-15.62
225.277	-7.62
225.511	4.38
225.746	-18.62
225.98	9.38
226.215	8.38
226.449	22.38
226.683	24.38
226.918	23.38
227.152	33.38
227.387	28.38
227.621	46.38
227.856	36.38
228.09	44.38
228.324	45.38
228.559	52.38
228.793	58.38
229.027	62.38
229.262	69.38
229.496	79.38
229.73	56.38
229.964	63.38
230.199	63.38
230.433	78.38
230.667	88.38
230.901	79.38
231.136	87.38
231.37	82.38
231.604	79.38
231.838	72.38
232.072	84.38
232.306	79.38
232.541	83.38
232.775	76.38
233.009	78.38
233.243	76.38
233.477	83.38
233.711	83.38
233.945	90.38
234.179	74.38
234.413	69.38
234.647	84.38
234.881	74.38
235.115	75.38
235.349	77.38
235.583	91.38
235.817	78.38
236.051	80.38
236.285	69.38
236.519	84.38
236.753	87.38
236.987	76.38
237.221	78.38
237.455	80.38
237.689	77.38
237.922	78.38
238.156	73.38
238.39	73.38
238.624	83.38
238.858	65.38
239.091	72.38
239.325	72.38
239.559	79.38
239.793	83.38
240.027	84.38
240.26	91.38
240.494	72.38
240.728	79.38
240.961	80.38
241.195	83.38
241.429	69.38
241.662	73.38
241.896	65.38
242.13	68.38
242.363	77.38
242.597	86.38
242.83	69.38
243.064	78.38
243.298	82.38
243.531	75.38
243.765	75.38
243.998	67.38
244.232	65.38
244.465	77.38
244.699	82.38
244.932	91.38
245.166	94.38
245.399	86.38
245.633	68.38
245.866	75.38
246.099	79.38
246.333	70.38
246.566	76.38
246.8	82.38
247.033	81.38
247.266	85.38
247.5	80.38
247.733	77.38
247.966	74.38
248.2	73.38
248.433	89.38
248.666	78.38
248.899	85.38
249.133	75.38
249.366	92.38
249.599	76.38
249.832	82.38
250.066	88.38
250.299	77.38
250.532	79.38
250.765	75.38
250.998	77.38
251.231	81.38
251.465	78.38
251.698	76.38
251.931	94.38
252.164	84.38
252.397	84.38
252.63	83.38
252.863	86.38
253.096	69.38
253.329	84.38
253.562	85.38
253.795	81.38
254.028	96.38
254.261	81.38
254.494	81.38
254.727	72.38
254.96	78.38
255.193	85.38
255.426	68.38
255.659	64.38
255.892	85.38
256.124	89.38
256.357	78.38
256.59	64.38
256.823	79.38
257.056	93.38
257.289	87.38
257.521	80.38
257.754	82.38
257.987	82.38
258.22	92.38
258.452	83.38
258.685	73.38
258.918	79.38
259.151	70.38
259.383	86.38
259.616	83.38
259.849	85.38
260.081	87.38
260.314	75.38
260.547	79.38
260.779	78.38
261.012	77.38
261.244	85.38
261.477	90.38
261.71	85.38
261.942	86.38
262.175	86.38
262.407	72.38
262.64	73.38
262.872	86.38
263.105	82.38
263.337	92.38
263.57	79.38
263.802	92.38
264.035	82.38
264.267	75.38
264.499	78.38
264.732	83.38
264.964	91.38
265.197	85.38
265.429	84.38
265.661	88.38
265.894	77.38
266.126	100.38
266.358	72.38
266.591	86.38
266.823	65.38
267.055	63.38
267.287	94.38
267.52	82.38
267.752	103.38
267.984	85.38
268.216	77.38
268.448	72.38
268.681	96.38
268.913	87.38
269.145	77.38
269.377	89.38
269.609	69.38
269.841	88.38
270.073	90.38
270.306	92.38
270.538	89.38
270.77	98.38
271.002	78.38
271.234	89.38
271.466	78.38
271.698	82.38
271.93	88.38
272.162	67.38
272.394	78.38
272.626	91.38
272.858	85.38
273.09	87.38
273.322	89.38
273.553	77.38
273.785	77.38
274.017	72.38
274.249	69.38
274.481	67.38
274.713	77.38
274.945	81.38
275.176	77.38
275.408	78.38
275.64	92.38
275.872	92.38
276.104	74.38
276.335	70.38
276.567	79.38
276.799	88.38
277.031	95.38
277.262	92.38
277.494	91.38
277.726	81.38
277.957	82.38
278.189	88.38
278.421	81.38
278.652	72.38
278.884	86.38
279.115	81.38
279.347	81.38
279.579	89.38
279.81	95.38
280.042	89.38
280.273	85.38
280.505	88.38
280.736	84.38
280.968	84.38
281.199	76.38
281.431	91.38
281.662	79.38
281.894	85.38
282.125	88.38
282.356	93.38
282.588	94.38
282.819	90.38
283.051	80.38
283.282	78.38
283.513	67.38
283.745	69.38
283.976	87.38
284.207	91.38
284.439	86.38
284.67	95.38
284.901	92.38
285.132	85.38
285.364	89.38
285.595	80.38
285.826	96.38
286.057	84.38
286.288	75.38
286.52	87.38
286.751	85.38
286.982	84.38
287.213	84.38
287.444	94.38
287.675	89.38
287.906	91.38
288.138	87.38
288.369	98.38
288.6	90.38
288.831	91.38
289.062	77.38
289.293	96.38
289.524	93.38
289.755	81.38
289.986	112.38
290.217	98.38
290.448	90.38
290.679	88.38
290.91	72.38
291.141	73.38
291.371	82.38
291.602	88.38
291.833	85.38
292.064	68.38
292.295	82.38
292.526	88.38
292.757	84.38
292.987	85.38
293.218	94.38
293.449	91.38
293.68	94.38
293.91	85.38
294.141	84.38
294.372	73.38
294.603	85.38
294.833	77.38
295.064	69.38
295.295	84.38
295.525	88.38
295.756	85.38
295.987	68.38
296.217	72.38
296.448	80.38
296.679	84.38
296.909	74.38
297.14	79.38
297.37	80.38
297.601	74.38
297.831	86.38
298.062	90.38
298.292	82.38
298.523	86.38
298.753	103.38
298.984	82.38
299.214	74.38
299.445	92.38
299.675	83.38
299.905	90.38
300.136	83.38
300.366	84.38
300.597	83.38
300.827	81.38
301.057	97.38
301.288	92.38
301.518	68.38
301.748	76.38
301.979	69.38
302.209	93.38
302.439	90.38
302.669	82.38
302.9	92.38
303.13	91.38
303.36	90.38
303.59	86.38
303.82	88.38
304.051	80.38
304.281	88.38
304.511	85.38
304.741	80.38
304.971	86.38
305.201	85.38
305.431	80.38
305.661	78.38
305.891	81.38
306.121	93.38
306.352	86.38
306.582	81.38
306.812	83.38
307.042	81.38
307.272	91.38
307.502	89.38
307.731	91.38
307.961	86.38
308.191	76.38
308.421	104.38
308.651	81.38
308.881	87.38
309.111	82.38
309.341	82.38
309.571	88.38
309.8	79.38
310.03	88.38
310.26	79.38
310.49	81.38
310.72	64.38
310.949	85.38
311.179	90.38
311.409	88.38
311.639	94.38
311.868	72.38
312.098	82.38
312.328	92.38
312.557	80.38
312.787	85.38
313.017	80.38
313.246	95.38
313.476	84.38
313.706	88.38
313.935	82.38
314.165	85.38
314.394	91.38
314.624	85.38
314.853	86.38
315.083	94.38
315.312	84.38
315.542	77.38
315.771	91.38
316.001	76.38
316.23	94.38
316.46	89.38
316.689	89.38
316.919	90.38
317.148	76.38
317.377	85.38
317.607	94.38
317.836	67.38
318.065	76.38
318.295	81.38
318.524	92.38
318.753	97.38
318.983	88.38
319.212	76.38
319.441	76.38
319.67	100.38
319.9	86.38
320.129	92.38
320.358	85.38
320.587	87.38
320.816	77.38
321.046	80.38
321.275	86.38
321.504	92.38
321.733	98.38
321.962	85.38
322.191	93.38
322.42	89.38
322.649	86.38
322.878	90.38
323.108	86.38
323.337	101.38
323.566	88.38
323.795	77.38
324.024	86.38
324.253	90.38
324.482	81.38
324.71	79.38
324.939	77.38
325.168	92.38
325.397	84.38
325.626	105.38
325.855	85.38
326.084	71.38
326.313	91.38
326.542	73.38
326.77	84.38
326.999	83.38
327.228	92.38
327.457	100.38
327.686	83.38
327.914	78.38
328.143	101.38
328.372	71.38
328.6	89.38
328.829	92.38
329.058	78.38
329.287	99.38
329.515	81.38
329.744	86.38
329.972	97.38
330.201	90.38
330.43	80.38
330.658	92.38
330.887	84.38
331.115	89.38
331.344	79.38
331.572	82.38
331.801	78.38
332.03	95.38
332.258	81.38
332.486	83.38
332.715	87.38
332.943	87.38
333.172	85.38
333.4	77.38
333.629	97.38
333.857	76.38
334.085	70.38
334.314	77.38
334.542	90.38
334.771	82.38
334.999	65.38
335.227	77.38
335.455	94.38
335.684	78.38
335.912	82.38
336.14	91.38
336.369	100.38
336.597	81.38
336.825	82.38
337.053	78.38
337.281	114.38
337.51	77.38
337.738	95.38
337.966	82.38
338.194	76.38
338.422	78.38
338.65	90.38
338.878	80.38
339.106	97.38
339.334	93.38
339.562	90.38
339.79	72.38
340.018	86.38
340.246	70.38
340.474	94.38
340.702	69.38
340.93	88.38
341.158	79.38
341.386	81.38
341.614	95.38
341.842	89.38
342.07	89.38
342.298	83.38
342.526	83.38
342.754	82.38
342.981	93.38
343.209	89.38
343.437	87.38
343.665	97.38
343.893	90.38
344.12	105.38
344.348	81.38
344.576	85.38
344.804	91.38
345.031	88.38
345.259	91.38
345.487	95.38
345.714	95.38
345.942	94.38
346.17	82.38
346.397	81.38
346.625	86.38
346.853	80.38
347.08	77.38
347.308	76.38
347.535	86.38
347.763	97.38
347.99	83.38
348.218	83.38
348.445	103.38
348.673	93.38
348.9	90.38
349.128	87.38
349.355	81.38
349.583	82.38
349.81	77.38
350.037	86.38
350.265	83.38
350.492	78.38
350.72	84.38
350.947	78.38
351.174	93.38
351.402	80.38
351.629	87.38
351.856	83.38
352.083	82.38
352.311	80.38
352.538	89.38
352.765	89.38
352.992	81.38
353.22	103.38
353.447	78.38
353.674	86.38
353.901	82.38
354.128	86.38
354.355	88.38
354.583	84.38
354.81	89.38
355.037	78.38
355.264	83.38
355.491	77.38
355.718	83.38
355.945	78.38
356.172	84.38
356.399	79.38
356.626	75.38
356.853	91.38
357.08	82.38
357.307	94.38
357.534	79.38
357.761	92.38
357.988	84.38
358.215	74.38
358.441	89.38
358.668	83.38
358.895	88.38
359.122	88.38
359.349	89.38
359.576	82.38
359.802	81.38
360.029	92.38
360.256	90.38
360.483	77.38
360.709	73.38
360.936	101.38
361.163	85.38
361.39	84.38
361.616	81.38
361.843	82.38
362.07	89.38
362.296	78.38
362.523	81.38
362.749	91.38
362.976	88.38
363.203	92.38
363.429	84.38
363.656	89.38
363.882	84.38
364.109	81.38
364.335	88.38
364.562	74.38
364.788	93.38
365.015	75.38
365.241	86.38
365.468	88.38
365.694	81.38
365.92	92.38
366.147	83.38
366.373	91.38
366.599	77.38
366.826	78.38
367.052	85.38
367.278	72.38
367.505	92.38
367.731	98.38
367.957	75.38
368.184	92.38
368.41	72.38
368.636	80.38
368.862	84.38
369.089	83.38
369.315	93.38
369.541	94.38
369.767	86.38
369.993	85.38
370.219	118.38
370.445	98.38
370.672	95.38
370.898	90.38
371.124	94.38
371.35	87.38
371.576	90.38
371.802	89.38
372.028	79.38
372.254	84.38
372.48	95.38
372.706	108.38
372.932	91.38
373.158	106.38
373.384	86.38
373.61	84.38
373.835	86.38
374.061	92.38
374.287	101.38
374.513	94.38
374.739	98.38
374.965	94.38
375.191	79.38
375.416	94.38
375.642	104.38
375.868	88.38
376.094	93.38
376.319	97.38
376.545	97.38
376.771	99.38
376.997	95.38
377.222	90.38
377.448	94.38
377.674	86.38
377.899	97.38
378.125	87.38
378.35	90.38
378.576	101.38
378.802	95.38
379.027	78.38
379.253	90.38
379.478	87.38
379.704	83.38
379.929	93.38
380.155	93.38
380.38	86.38
380.606	83.38
380.831	101.38
381.057	100.38
381.282	103.38
381.507	104.38
381.733	101.38
381.958	108.38
382.184	89.38
382.409	90.38
382.634	93.38
382.86	94.38
383.085	99.38
383.31	102.38
383.535	88.38
383.761	84.38
383.986	93.38
384.211	75.38
384.436	97.38
384.662	96.38
384.887	87.38
385.112	85.38
385.337	112.38
385.562	97.38
385.787	92.38
386.013	102.38
386.238	103.38
386.463	93.38
386.688	98.38
386.913	108.38
387.138	97.38
387.363	96.38
387.588	101.38
387.813	86.38
388.038	98.38
388.263	99.38
388.488	99.38
388.713	102.38
388.938	102.38
389.163	88.38
389.387	109.38
389.612	111.38
389.837	93.38
390.062	112.38
390.287	107.38
390.512	110.38
390.736	108.38
390.961	106.38
391.186	108.38
391.411	96.38
391.636	112.38
391.86	106.38
392.085	108.38
392.31	114.38
392.534	110.38
392.759	114.38
392.984	106.38
393.208	110.38
393.433	102.38
393.658	96.38
393.882	106.38
394.107	114.38
394.331	106.38
394.556	100.38
394.78	93.38
395.005	115.38
395.229	100.38
395.454	107.38
395.678	117.38
395.903	118.38
396.127	123.38
396.352	107.38
396.576	104.38
396.801	115.38
397.025	112.38
397.249	108.38
397.474	105.38
397.698	105.38
397.922	90.38
398.147	110.38
398.371	121.38
398.595	114.38
398.82	105.38
399.044	107.38
399.268	105.38
399.492	113.38
399.717	118.38
399.941	103.38
400.165	110.38
400.389	106.38
400.613	109.38
400.837	120.38
401.062	105.38
401.286	100.38
401.51	109.38
401.734	101.38
401.958	103.38
402.182	100.38
402.406	124.38
402.63	106.38
402.854	114.38
403.078	107.38
403.302	92.38
403.526	101.38
403.75	115.38
403.974	112.38
404.198	126.38
404.422	106.38
404.645	114.38
404.869	120.38
405.093	106.38
405.317	130.38
405.541	122.38
405.765	116.38
405.988	112.38
406.212	118.38
406.436	110.38
406.66	98.38
406.883	131.38
407.107	107.38
407.331	109.38
407.555	107.38
407.778	125.38
408.002	114.38
408.226	122.38
408.449	105.38
408.673	106.38
408.896	112.38
409.12	129.38
409.344	115.38
409.567	118.38
409.791	113.38
410.014	126.38
410.238	125.38
410.461	129.38
410.685	117.38
410.908	127.38
411.132	128.38
411.355	118.38
411.578	123.38
411.802	114.38
412.025	129.38
412.249	107.38
412.472	125.38
412.695	123.38
412.919	132.38
413.142	116.38
413.365	116.38
413.589	106.38
413.812	124.38
414.035	121.38
414.258	112.38
414.482	123.38
414.705	130.38
414.928	122.38
415.151	120.38
415.374	117.38
415.597	114.38
415.821	122.38
416.044	121.38
416.267	122.38
416.49	128.38
416.713	121.38
416.936	113.38
417.159	123.38
417.382	136.38
417.605	132.38
417.828	135.38
418.051	119.38
418.274	132.38
418.497	135.38
418.72	128.38
418.943	140.38
419.166	125.38
419.389	119.38
419.611	131.38
419.834	122.38
420.057	129.38
420.28	126.38
420.503	140.38
420.726	119.38
420.948	146.38
421.171	130.38
421.394	137.38
421.617	134.38
421.839	149.38
422.062	140.38
422.285	138.38
422.507	131.38
422.73	128.38
422.953	114.38
423.175	138.38
423.398	120.38
423.621	127.38
423.843	127.38
424.066	136.38
424.288	136.38
424.511	144.38
424.733	138.38
424.956	127.38
425.178	121.38
425.401	128.38
425.623	153.38
425.846	139.38
426.068	123.38
426.291	123.38
426.513	118.38
426.735	131.38
426.958	130.38
427.18	130.38
427.402	131.38
427.625	118.38
427.847	127.38
428.069	136.38
428.292	127.38
428.514	137.38
428.736	143.38
428.958	135.38
429.181	131.38
429.403	130.38
429.625	122.38
429.847	114.38
430.069	120.38
430.292	129.38
430.514	124.38
430.736	137.38
430.958	117.38
431.18	134.38
431.402	128.38
431.624	124.38
431.846	101.38
432.068	102.38
432.29	107.38
432.512	117.38
432.734	129.38
432.956	140.38
433.178	128.38
433.4	132.38
433.622	130.38
433.844	131.38
434.066	127.38
434.287	113.38
434.509	108.38
434.731	93.38
434.953	112.38
435.175	121.38
435.397	125.38
435.618	113.38
435.84	92.38
436.062	104.38
436.284	119.38
436.505	135.38
436.727	127.38
436.949	136.38
437.17	141.38
437.392	123.38
437.614	106.38
437.835	112.38
438.057	124.38
438.278	114.38
438.5	120.38
438.721	123.38
438.943	126.38
439.165	131.38
439.386	138.38
439.608	140.38
439.829	140.38
440.05	145.38
440.272	148.38
440.493	148.38
440.715	137.38
440.936	140.38
441.158	139.38
441.379	139.38
441.6	150.38
441.822	143.38
442.043	136.38
442.264	152.38
442.486	141.38
442.707	127.38
442.928	138.38
443.149	140.38
443.371	129.38
443.592	129.38
443.813	144.38
444.034	138.38
444.255	148.38
444.476	145.38
444.698	139.38
444.919	142.38
445.14	278.38
445.361	214.38
445.582	161.38
445.803	152.38
446.024	138.38
446.245	150.38
446.466	164.38
446.687	153.38
446.908	162.38
447.129	151.38
447.35	145.38
447.571	145.38
447.792	137.38
448.013	143.38
448.234	150.38
448.455	140.38
448.675	151.38
448.896	138.38
449.117	126.38
449.338	131.38
449.559	122.38
449.779	134.38
450	135.38
450.221	142.38
450.442	135.38
450.662	133.38
450.883	125.38
451.104	126.38
451.324	116.38
451.545	132.38
451.766	125.38
451.986	139.38
452.207	123.38
452.428	122.38
452.648	138.38
452.869	117.38
453.089	104.38
453.31	117.38
453.53	108.38
453.751	112.38
453.971	112.38
454.192	116.38
454.412	104.38
454.633	122.38
454.853	124.38
455.073	128.38
455.294	132.38
455.514	141.38
455.734	125.38
455.955	112.38
456.175	119.38
456.395	112.38
456.616	119.38
456.836	108.38
457.056	119.38
457.276	97.38
457.497	120.38
457.717	117.38
457.937	100.38
458.157	98.38
458.377	109.38
458.598	109.38
458.818	93.38
459.038	95.38
459.258	86.38
459.478	98.38
459.698	99.38
459.918	112.38
460.138	121.38
460.358	108.38
460.578	107.38
460.798	101.38
461.018	120.38
461.238	116.38
461.458	113.38
461.678	115.38
461.898	133.38
462.118	112.38
462.338	114.38
462.558	104.38
462.777	118.38
462.997	126.38
463.217	108.38
463.437	111.38
463.657	103.38
463.876	116.38
464.096	106.38
464.316	100.38
464.536	107.38
464.755	108.38
464.975	112.38
465.195	118.38
465.414	110.38
465.634	120.38
465.854	126.38
466.073	119.38
466.293	119.38
466.512	129.38
466.732	132.38
466.951	131.38
467.171	139.38
467.391	142.38
467.61	126.38
467.829	124.38
468.049	128.38
468.268	124.38
468.488	125.38
468.707	133.38
468.927	139.38
469.146	136.38
469.365	137.38
469.585	140.38
469.804	147.38
470.023	152.38
470.243	135.38
470.462	151.38
470.681	142.38
470.901	147.38
471.12	120.38
471.339	150.38
471.558	139.38
471.777	146.38
471.997	129.38
472.216	129.38
472.435	121.38
472.654	117.38
472.873	121.38
473.092	112.38
473.311	118.38
473.53	135.38
473.749	126.38
473.968	130.38
474.187	125.38
474.406	131.38
474.625	139.38
474.844	132.38
475.063	115.38
475.282	117.38
475.501	128.38
475.72	141.38
475.939	142.38
476.158	121.38
476.377	128.38
476.596	126.38
476.814	112.38
477.033	99.38
477.252	106.38
477.471	115.38
477.69	137.38
477.908	139.38
478.127	146.38
478.346	142.38
478.564	125.38
478.783	132.38
479.002	143.38
479.22	139.38
479.439	118.38
479.658	143.38
479.876	118.38
480.095	121.38
480.313	122.38
480.532	122.38
480.751	113.38
480.969	105.38
481.188	98.38
481.406	100.38
481.624	100.38
481.843	88.38
482.061	108.38
482.28	116.38
482.498	122.38
482.717	125.38
482.935	133.38
483.153	131.38
483.372	151.38
483.59	147.38
483.808	140.38
484.027	146.38
484.245	145.38
484.463	149.38
484.681	150.38
484.9	149.38
485.118	138.38
485.336	113.38
485.554	103.38
485.772	96.38
485.99	105.38
486.209	114.38
486.427	119.38
486.645	121.38
486.863	128.38
487.081	143.38
487.299	131.38
487.517	137.38
487.735	173.38
487.953	200.38
488.171	184.38
488.389	173.38
488.607	177.38
488.825	145.38
489.043	132.38
489.261	117.38
489.479	137.38
489.696	144.38
489.914	136.38
490.132	143.38
490.35	159.38
490.568	144.38
490.786	155.38
491.003	170.38
491.221	188.38
491.439	180.38
491.657	184.38
491.874	220.38
492.092	204.38
492.31	235.38
492.527	235.38
492.745	198.38
492.963	184.38
493.18	191.38
493.398	150.38
493.615	183.38
493.833	182.38
494.05	174.38
494.268	166.38
494.485	177.38
494.703	168.38
494.92	164.38
495.138	168.38
495.355	172.38
495.573	164.38
495.79	158.38
496.008	164.38
496.225	169.38
496.442	170.38
496.66	144.38
496.877	164.38
497.094	157.38
497.312	140.38
497.529	157.38
497.746	149.38
497.963	142.38
498.181	129.38
498.398	124.38
498.615	114.38
498.832	126.38
499.049	121.38
499.267	121.38
499.484	116.38
499.701	120.38
499.918	138.38
500.135	114.38
500.352	136.38
500.569	138.38
500.786	139.38
501.003	143.38
501.22	129.38
501.437	156.38
501.654	128.38
501.871	120.38
502.088	150.38
502.305	133.38
502.522	126.38
502.739	130.38
502.956	124.38
503.172	119.38
503.389	123.38
503.606	105.38
503.823	125.38
504.04	119.38
504.256	127.38
504.473	113.38
504.69	116.38
504.907	124.38
505.123	102.38
505.34	117.38
505.557	114.38
505.773	105.38
505.99	127.38
506.207	122.38
506.423	112.38
506.64	112.38
506.856	121.38
507.073	108.38
507.289	113.38
507.506	116.38
507.722	120.38
507.939	132.38
508.155	132.38
508.372	127.38
508.588	122.38
508.805	112.38
509.021	97.38
509.238	113.38
509.454	99.38
509.67	107.38
509.887	91.38
510.103	92.38
510.319	90.38
510.536	90.38
510.752	106.38
510.968	87.38
511.184	76.38
511.401	89.38
