Data from Location4.07152019.Energy5.Lamp.07192019.3%Agarose_HRD10591_16-18-56-925.txt Node
Date: Fri Jul 19 16:18:56 EDT 2019
User: cochatt
Spectrometer: HR+D1059
Trigger mode: 1
Integration Time (sec): 1.000000E-1
Scans to average: 1
Electric dark correction enabled: true
Nonlinearity correction enabled: false
Boxcar width: 0
XAxis mode: Wavelengths
Number of Pixels in Spectrum: 2048
>>>>>Begin Spectral Data<<<<<
223.165	-16.06
223.4	-16.06
223.635	-16.06
223.869	-17.06
224.104	-24.06
224.338	-2.06
224.573	-21.06
224.808	-13.06
225.042	-19.06
225.277	-5.06
225.511	-9.06
225.746	18.94
225.98	20.94
226.215	18.94
226.449	15.94
226.683	3.94
226.918	9.94
227.152	37.94
227.387	34.94
227.621	23.94
227.856	39.94
228.09	50.94
228.324	48.94
228.559	63.94
228.793	46.94
229.027	56.94
229.262	52.94
229.496	58.94
229.73	65.94
229.964	76.94
230.199	63.94
230.433	80.94
230.667	56.94
230.901	86.94
231.136	86.94
231.37	79.94
231.604	86.94
231.838	78.94
232.072	91.94
232.306	86.94
232.541	84.94
232.775	79.94
233.009	91.94
233.243	77.94
233.477	88.94
233.711	79.94
233.945	74.94
234.179	76.94
234.413	87.94
234.647	91.94
234.881	86.94
235.115	67.94
235.349	85.94
235.583	85.94
235.817	72.94
236.051	83.94
236.285	64.94
236.519	75.94
236.753	77.94
236.987	67.94
237.221	66.94
237.455	66.94
237.689	78.94
237.922	78.94
238.156	66.94
238.39	80.94
238.624	78.94
238.858	74.94
239.091	64.94
239.325	76.94
239.559	72.94
239.793	82.94
240.027	100.94
240.26	72.94
240.494	64.94
240.728	63.94
240.961	80.94
241.195	84.94
241.429	76.94
241.662	79.94
241.896	66.94
242.13	74.94
242.363	76.94
242.597	65.94
242.83	73.94
243.064	88.94
243.298	67.94
243.531	88.94
243.765	87.94
243.998	77.94
244.232	90.94
244.465	76.94
244.699	72.94
244.932	79.94
245.166	83.94
245.399	82.94
245.633	75.94
245.866	74.94
246.099	67.94
246.333	80.94
246.566	67.94
246.8	85.94
247.033	70.94
247.266	70.94
247.5	77.94
247.733	84.94
247.966	70.94
248.2	72.94
248.433	70.94
248.666	67.94
248.899	78.94
249.133	78.94
249.366	82.94
249.599	79.94
249.832	65.94
250.066	73.94
250.299	93.94
250.532	85.94
250.765	68.94
250.998	82.94
251.231	66.94
251.465	80.94
251.698	75.94
251.931	66.94
252.164	69.94
252.397	56.94
252.63	80.94
252.863	80.94
253.096	70.94
253.329	82.94
253.562	62.94
253.795	77.94
254.028	80.94
254.261	79.94
254.494	77.94
254.727	81.94
254.96	82.94
255.193	84.94
255.426	67.94
255.659	94.94
255.892	72.94
256.124	83.94
256.357	84.94
256.59	86.94
256.823	79.94
257.056	87.94
257.289	76.94
257.521	90.94
257.754	86.94
257.987	81.94
258.22	80.94
258.452	76.94
258.685	75.94
258.918	76.94
259.151	71.94
259.383	79.94
259.616	69.94
259.849	80.94
260.081	84.94
260.314	90.94
260.547	79.94
260.779	72.94
261.012	71.94
261.244	70.94
261.477	96.94
261.71	89.94
261.942	94.94
262.175	74.94
262.407	69.94
262.64	75.94
262.872	77.94
263.105	68.94
263.337	76.94
263.57	79.94
263.802	68.94
264.035	71.94
264.267	80.94
264.499	83.94
264.732	87.94
264.964	75.94
265.197	84.94
265.429	71.94
265.661	79.94
265.894	82.94
266.126	85.94
266.358	75.94
266.591	90.94
266.823	74.94
267.055	78.94
267.287	80.94
267.52	85.94
267.752	88.94
267.984	76.94
268.216	84.94
268.448	78.94
268.681	76.94
268.913	89.94
269.145	93.94
269.377	81.94
269.609	81.94
269.841	90.94
270.073	80.94
270.306	70.94
270.538	78.94
270.77	89.94
271.002	87.94
271.234	71.94
271.466	90.94
271.698	95.94
271.93	86.94
272.162	77.94
272.394	86.94
272.626	88.94
272.858	78.94
273.09	78.94
273.322	81.94
273.553	77.94
273.785	84.94
274.017	73.94
274.249	76.94
274.481	82.94
274.713	89.94
274.945	80.94
275.176	74.94
275.408	84.94
275.64	93.94
275.872	85.94
276.104	82.94
276.335	85.94
276.567	87.94
276.799	82.94
277.031	77.94
277.262	71.94
277.494	85.94
277.726	77.94
277.957	83.94
278.189	87.94
278.421	78.94
278.652	75.94
278.884	81.94
279.115	90.94
279.347	90.94
279.579	97.94
279.81	83.94
280.042	75.94
280.273	84.94
280.505	84.94
280.736	84.94
280.968	81.94
281.199	70.94
281.431	76.94
281.662	82.94
281.894	88.94
282.125	78.94
282.356	75.94
282.588	79.94
282.819	90.94
283.051	75.94
283.282	77.94
283.513	104.94
283.745	89.94
283.976	88.94
284.207	70.94
284.439	90.94
284.67	80.94
284.901	74.94
285.132	96.94
285.364	89.94
285.595	82.94
285.826	78.94
286.057	82.94
286.288	87.94
286.52	86.94
286.751	74.94
286.982	84.94
287.213	86.94
287.444	87.94
287.675	87.94
287.906	88.94
288.138	87.94
288.369	83.94
288.6	80.94
288.831	82.94
289.062	74.94
289.293	90.94
289.524	84.94
289.755	87.94
289.986	84.94
290.217	81.94
290.448	79.94
290.679	73.94
290.91	82.94
291.141	75.94
291.371	72.94
291.602	88.94
291.833	87.94
292.064	84.94
292.295	81.94
292.526	90.94
292.757	82.94
292.987	73.94
293.218	90.94
293.449	79.94
293.68	75.94
293.91	74.94
294.141	74.94
294.372	60.94
294.603	83.94
294.833	86.94
295.064	77.94
295.295	87.94
295.525	108.94
295.756	82.94
295.987	82.94
296.217	65.94
296.448	80.94
296.679	82.94
296.909	81.94
297.14	89.94
297.37	80.94
297.601	73.94
297.831	82.94
298.062	82.94
298.292	75.94
298.523	68.94
298.753	76.94
298.984	89.94
299.214	89.94
299.445	76.94
299.675	78.94
299.905	75.94
300.136	80.94
300.366	83.94
300.597	82.94
300.827	83.94
301.057	88.94
301.288	84.94
301.518	95.94
301.748	90.94
301.979	84.94
302.209	85.94
302.439	95.94
302.669	69.94
302.9	89.94
303.13	73.94
303.36	94.94
303.59	74.94
303.82	79.94
304.051	75.94
304.281	80.94
304.511	84.94
304.741	82.94
304.971	76.94
305.201	83.94
305.431	82.94
305.661	89.94
305.891	82.94
306.121	85.94
306.352	88.94
306.582	100.94
306.812	86.94
307.042	92.94
307.272	71.94
307.502	67.94
307.731	94.94
307.961	81.94
308.191	80.94
308.421	76.94
308.651	85.94
308.881	89.94
309.111	84.94
309.341	83.94
309.571	75.94
309.8	95.94
310.03	80.94
310.26	86.94
310.49	79.94
310.72	89.94
310.949	74.94
311.179	82.94
311.409	96.94
311.639	82.94
311.868	93.94
312.098	83.94
312.328	76.94
312.557	78.94
312.787	75.94
313.017	78.94
313.246	67.94
313.476	97.94
313.706	83.94
313.935	78.94
314.165	88.94
314.394	80.94
314.624	80.94
314.853	80.94
315.083	92.94
315.312	82.94
315.542	78.94
315.771	80.94
316.001	68.94
316.23	87.94
316.46	86.94
316.689	79.94
316.919	81.94
317.148	79.94
317.377	77.94
317.607	79.94
317.836	85.94
318.065	68.94
318.295	96.94
318.524	71.94
318.753	85.94
318.983	74.94
319.212	94.94
319.441	87.94
319.67	84.94
319.9	77.94
320.129	58.94
320.358	76.94
320.587	83.94
320.816	84.94
321.046	74.94
321.275	87.94
321.504	85.94
321.733	89.94
321.962	74.94
322.191	91.94
322.42	91.94
322.649	90.94
322.878	81.94
323.108	88.94
323.337	78.94
323.566	71.94
323.795	68.94
324.024	76.94
324.253	91.94
324.482	98.94
324.71	82.94
324.939	86.94
325.168	67.94
325.397	77.94
325.626	70.94
325.855	82.94
326.084	92.94
326.313	68.94
326.542	95.94
326.77	70.94
326.999	75.94
327.228	84.94
327.457	70.94
327.686	75.94
327.914	67.94
328.143	81.94
328.372	101.94
328.6	89.94
328.829	77.94
329.058	75.94
329.287	74.94
329.515	87.94
329.744	90.94
329.972	89.94
330.201	76.94
330.43	78.94
330.658	80.94
330.887	75.94
331.115	85.94
331.344	89.94
331.572	85.94
331.801	85.94
332.03	76.94
332.258	91.94
332.486	86.94
332.715	76.94
332.943	70.94
333.172	84.94
333.4	78.94
333.629	66.94
333.857	74.94
334.085	73.94
334.314	71.94
334.542	73.94
334.771	88.94
334.999	81.94
335.227	83.94
335.455	91.94
335.684	87.94
335.912	93.94
336.14	71.94
336.369	69.94
336.597	85.94
336.825	88.94
337.053	77.94
337.281	81.94
337.51	84.94
337.738	74.94
337.966	72.94
338.194	67.94
338.422	84.94
338.65	81.94
338.878	81.94
339.106	83.94
339.334	76.94
339.562	87.94
339.79	83.94
340.018	80.94
340.246	82.94
340.474	79.94
340.702	75.94
340.93	84.94
341.158	84.94
341.386	88.94
341.614	76.94
341.842	84.94
342.07	90.94
342.298	92.94
342.526	81.94
342.754	70.94
342.981	90.94
343.209	86.94
343.437	93.94
343.665	74.94
343.893	75.94
344.12	86.94
344.348	76.94
344.576	81.94
344.804	87.94
345.031	79.94
345.259	92.94
345.487	75.94
345.714	93.94
345.942	74.94
346.17	87.94
346.397	90.94
346.625	75.94
346.853	85.94
347.08	78.94
347.308	80.94
347.535	82.94
347.763	81.94
347.99	83.94
348.218	80.94
348.445	85.94
348.673	72.94
348.9	84.94
349.128	93.94
349.355	67.94
349.583	75.94
349.81	67.94
350.037	69.94
350.265	72.94
350.492	80.94
350.72	82.94
350.947	75.94
351.174	89.94
351.402	91.94
351.629	87.94
351.856	87.94
352.083	99.94
352.311	76.94
352.538	90.94
352.765	93.94
352.992	88.94
353.22	77.94
353.447	75.94
353.674	91.94
353.901	72.94
354.128	74.94
354.355	89.94
354.583	91.94
354.81	75.94
355.037	71.94
355.264	86.94
355.491	83.94
355.718	92.94
355.945	84.94
356.172	73.94
356.399	77.94
356.626	90.94
356.853	73.94
357.08	74.94
357.307	84.94
357.534	88.94
357.761	91.94
357.988	75.94
358.215	73.94
358.441	76.94
358.668	78.94
358.895	81.94
359.122	90.94
359.349	82.94
359.576	86.94
359.802	72.94
360.029	83.94
360.256	93.94
360.483	75.94
360.709	78.94
360.936	84.94
361.163	85.94
361.39	76.94
361.616	76.94
361.843	94.94
362.07	100.94
362.296	89.94
362.523	86.94
362.749	71.94
362.976	65.94
363.203	90.94
363.429	91.94
363.656	82.94
363.882	88.94
364.109	87.94
364.335	79.94
364.562	91.94
364.788	98.94
365.015	75.94
365.241	78.94
365.468	95.94
365.694	82.94
365.92	69.94
366.147	82.94
366.373	78.94
366.599	80.94
366.826	76.94
367.052	78.94
367.278	88.94
367.505	77.94
367.731	82.94
367.957	84.94
368.184	88.94
368.41	80.94
368.636	102.94
368.862	85.94
369.089	84.94
369.315	79.94
369.541	91.94
369.767	86.94
369.993	86.94
370.219	90.94
370.445	86.94
370.672	92.94
370.898	101.94
371.124	94.94
371.35	78.94
371.576	80.94
371.802	84.94
372.028	90.94
372.254	87.94
372.48	95.94
372.706	82.94
372.932	73.94
373.158	101.94
373.384	94.94
373.61	83.94
373.835	90.94
374.061	82.94
374.287	84.94
374.513	97.94
374.739	94.94
374.965	93.94
375.191	99.94
375.416	96.94
375.642	94.94
375.868	94.94
376.094	89.94
376.319	75.94
376.545	95.94
376.771	98.94
376.997	94.94
377.222	73.94
377.448	71.94
377.674	75.94
377.899	95.94
378.125	96.94
378.35	86.94
378.576	98.94
378.802	87.94
379.027	100.94
379.253	79.94
379.478	82.94
379.704	89.94
379.929	83.94
380.155	84.94
380.38	91.94
380.606	104.94
380.831	95.94
381.057	94.94
381.282	98.94
381.507	91.94
381.733	90.94
381.958	85.94
382.184	99.94
382.409	88.94
382.634	77.94
382.86	100.94
383.085	102.94
383.31	86.94
383.535	110.94
383.761	94.94
383.986	92.94
384.211	105.94
384.436	94.94
384.662	90.94
384.887	95.94
385.112	88.94
385.337	83.94
385.562	84.94
385.787	96.94
386.013	94.94
386.238	84.94
386.463	109.94
386.688	88.94
386.913	85.94
387.138	112.94
387.363	102.94
387.588	93.94
387.813	103.94
388.038	85.94
388.263	99.94
388.488	102.94
388.713	90.94
388.938	98.94
389.163	93.94
389.387	112.94
389.612	96.94
389.837	95.94
390.062	84.94
390.287	97.94
390.512	94.94
390.736	101.94
390.961	99.94
391.186	93.94
391.411	94.94
391.636	97.94
391.86	98.94
392.085	110.94
392.31	101.94
392.534	103.94
392.759	92.94
392.984	104.94
393.208	115.94
393.433	106.94
393.658	99.94
393.882	88.94
394.107	109.94
394.331	100.94
394.556	117.94
394.78	105.94
395.005	100.94
395.229	102.94
395.454	85.94
395.678	105.94
395.903	112.94
396.127	85.94
396.352	94.94
396.576	96.94
396.801	99.94
397.025	95.94
397.249	92.94
397.474	91.94
397.698	97.94
397.922	110.94
398.147	108.94
398.371	106.94
398.595	113.94
398.82	94.94
399.044	97.94
399.268	108.94
399.492	118.94
399.717	98.94
399.941	116.94
400.165	114.94
400.389	112.94
400.613	106.94
400.837	103.94
401.062	103.94
401.286	112.94
401.51	109.94
401.734	97.94
401.958	100.94
402.182	95.94
402.406	110.94
402.63	94.94
402.854	110.94
403.078	107.94
403.302	106.94
403.526	107.94
403.75	120.94
403.974	102.94
404.198	107.94
404.422	120.94
404.645	112.94
404.869	117.94
405.093	104.94
405.317	113.94
405.541	115.94
405.765	129.94
405.988	118.94
406.212	117.94
406.436	110.94
406.66	131.94
406.883	114.94
407.107	124.94
407.331	114.94
407.555	105.94
407.778	122.94
408.002	103.94
408.226	120.94
408.449	116.94
408.673	112.94
408.896	119.94
409.12	110.94
409.344	98.94
409.567	107.94
409.791	117.94
410.014	119.94
410.238	125.94
410.461	122.94
410.685	107.94
410.908	110.94
411.132	128.94
411.355	106.94
411.578	110.94
411.802	113.94
412.025	105.94
412.249	136.94
412.472	115.94
412.695	104.94
412.919	110.94
413.142	117.94
413.365	116.94
413.589	124.94
413.812	121.94
414.035	121.94
414.258	132.94
414.482	111.94
414.705	117.94
414.928	123.94
415.151	130.94
415.374	110.94
415.597	130.94
415.821	111.94
416.044	120.94
416.267	120.94
416.49	120.94
416.713	126.94
416.936	126.94
417.159	137.94
417.382	124.94
417.605	122.94
417.828	132.94
418.051	120.94
418.274	122.94
418.497	144.94
418.72	117.94
418.943	122.94
419.166	139.94
419.389	136.94
419.611	130.94
419.834	122.94
420.057	124.94
420.28	129.94
420.503	121.94
420.726	128.94
420.948	133.94
421.171	132.94
421.394	119.94
421.617	139.94
421.839	136.94
422.062	127.94
422.285	135.94
422.507	128.94
422.73	135.94
422.953	131.94
423.175	119.94
423.398	112.94
423.621	118.94
423.843	119.94
424.066	129.94
424.288	153.94
424.511	141.94
424.733	138.94
424.956	132.94
425.178	124.94
425.401	132.94
425.623	136.94
425.846	140.94
426.068	139.94
426.291	122.94
426.513	137.94
426.735	122.94
426.958	126.94
427.18	124.94
427.402	121.94
427.625	127.94
427.847	128.94
428.069	132.94
428.292	135.94
428.514	126.94
428.736	114.94
428.958	124.94
429.181	122.94
429.403	127.94
429.625	118.94
429.847	118.94
430.069	144.94
430.292	123.94
430.514	114.94
430.736	128.94
430.958	123.94
431.18	121.94
431.402	128.94
431.624	120.94
431.846	111.94
432.068	101.94
432.29	105.94
432.512	107.94
432.734	129.94
432.956	116.94
433.178	132.94
433.4	122.94
433.622	126.94
433.844	145.94
434.066	113.94
434.287	96.94
434.509	100.94
434.731	103.94
434.953	89.94
435.175	124.94
435.397	132.94
435.618	130.94
435.84	102.94
436.062	104.94
436.284	110.94
436.505	120.94
436.727	126.94
436.949	141.94
437.17	129.94
437.392	134.94
437.614	133.94
437.835	108.94
438.057	113.94
438.278	105.94
438.5	122.94
438.721	113.94
438.943	127.94
439.165	132.94
439.386	126.94
439.608	137.94
439.829	128.94
440.05	149.94
440.272	152.94
440.493	145.94
440.715	130.94
440.936	136.94
441.158	138.94
441.379	152.94
441.6	146.94
441.822	140.94
442.043	139.94
442.264	145.94
442.486	120.94
442.707	130.94
442.928	136.94
443.149	142.94
443.371	122.94
443.592	136.94
443.813	131.94
444.034	126.94
444.255	140.94
444.476	122.94
444.698	129.94
444.919	138.94
445.14	266.94
445.361	186.94
445.582	145.94
445.803	132.94
446.024	137.94
446.245	144.94
446.466	141.94
446.687	147.94
446.908	148.94
447.129	162.94
447.35	140.94
447.571	150.94
447.792	151.94
448.013	133.94
448.234	135.94
448.455	123.94
448.675	135.94
448.896	127.94
449.117	132.94
449.338	151.94
449.559	129.94
449.779	130.94
450	137.94
450.221	129.94
450.442	130.94
450.662	133.94
450.883	127.94
451.104	139.94
451.324	128.94
451.545	139.94
451.766	128.94
451.986	123.94
452.207	128.94
452.428	127.94
452.648	129.94
452.869	112.94
453.089	112.94
453.31	115.94
453.53	98.94
453.751	102.94
453.971	90.94
454.192	96.94
454.412	111.94
454.633	108.94
454.853	130.94
455.073	108.94
455.294	119.94
455.514	128.94
455.734	130.94
455.955	120.94
456.175	120.94
456.395	112.94
456.616	99.94
456.836	115.94
457.056	113.94
457.276	93.94
457.497	118.94
457.717	93.94
457.937	103.94
458.157	118.94
458.377	86.94
458.598	97.94
458.818	95.94
459.038	94.94
459.258	78.94
459.478	82.94
459.698	81.94
459.918	102.94
460.138	113.94
460.358	98.94
460.578	124.94
460.798	107.94
461.018	112.94
461.238	123.94
461.458	113.94
461.678	122.94
461.898	114.94
462.118	116.94
462.338	113.94
462.558	91.94
462.777	112.94
462.997	112.94
463.217	102.94
463.437	112.94
463.657	121.94
463.876	105.94
464.096	96.94
464.316	104.94
464.536	102.94
464.755	114.94
464.975	118.94
465.195	106.94
465.414	110.94
465.634	112.94
465.854	123.94
466.073	132.94
466.293	139.94
466.512	120.94
466.732	134.94
466.951	146.94
467.171	129.94
467.391	134.94
467.61	133.94
467.829	132.94
468.049	124.94
468.268	117.94
468.488	130.94
468.707	136.94
468.927	134.94
469.146	116.94
469.365	145.94
469.585	124.94
469.804	137.94
470.023	146.94
470.243	146.94
470.462	139.94
470.681	146.94
470.901	150.94
471.12	134.94
471.339	131.94
471.558	140.94
471.777	136.94
471.997	138.94
472.216	137.94
472.435	102.94
472.654	110.94
472.873	105.94
473.092	115.94
473.311	95.94
473.53	118.94
473.749	128.94
473.968	123.94
474.187	134.94
474.406	120.94
474.625	120.94
474.844	124.94
475.063	123.94
475.282	115.94
475.501	116.94
475.72	123.94
475.939	119.94
476.158	110.94
476.377	136.94
476.596	118.94
476.814	109.94
477.033	112.94
477.252	110.94
477.471	125.94
477.69	120.94
477.908	140.94
478.127	145.94
478.346	145.94
478.564	132.94
478.783	125.94
479.002	126.94
479.22	135.94
479.439	116.94
479.658	131.94
479.876	135.94
480.095	115.94
480.313	107.94
480.532	107.94
480.751	126.94
480.969	100.94
481.188	96.94
481.406	99.94
481.624	85.94
481.843	86.94
482.061	90.94
482.28	102.94
482.498	111.94
482.717	115.94
482.935	114.94
483.153	143.94
483.372	146.94
483.59	146.94
483.808	124.94
484.027	140.94
484.245	127.94
484.463	148.94
484.681	158.94
484.9	154.94
485.118	119.94
485.336	130.94
485.554	100.94
485.772	110.94
485.99	116.94
486.209	100.94
486.427	106.94
486.645	117.94
486.863	129.94
487.081	123.94
487.299	131.94
487.517	146.94
487.735	175.94
487.953	195.94
488.171	158.94
488.389	166.94
488.607	146.94
488.825	137.94
489.043	136.94
489.261	131.94
489.479	133.94
489.696	142.94
489.914	136.94
490.132	142.94
490.35	144.94
490.568	152.94
490.786	170.94
491.003	164.94
491.221	159.94
491.439	189.94
491.657	184.94
491.874	211.94
492.092	214.94
492.31	234.94
492.527	238.94
492.745	207.94
492.963	198.94
493.18	172.94
493.398	172.94
493.615	171.94
493.833	176.94
494.05	168.94
494.268	178.94
494.485	174.94
494.703	182.94
494.92	159.94
495.138	174.94
495.355	166.94
495.573	180.94
495.79	156.94
496.008	167.94
496.225	158.94
496.442	168.94
496.66	151.94
496.877	155.94
497.094	162.94
497.312	162.94
497.529	160.94
497.746	139.94
497.963	131.94
498.181	152.94
498.398	115.94
498.615	110.94
498.832	135.94
499.049	124.94
499.267	125.94
499.484	122.94
499.701	135.94
499.918	125.94
500.135	130.94
500.352	149.94
500.569	138.94
500.786	135.94
501.003	139.94
501.22	134.94
501.437	124.94
501.654	135.94
501.871	137.94
502.088	134.94
502.305	140.94
502.522	129.94
502.739	113.94
502.956	118.94
503.172	128.94
503.389	122.94
503.606	139.94
503.823	120.94
504.04	120.94
504.256	105.94
504.473	106.94
504.69	122.94
504.907	120.94
505.123	121.94
505.34	107.94
505.557	123.94
505.773	135.94
505.99	118.94
506.207	110.94
506.423	132.94
506.64	114.94
506.856	116.94
507.073	124.94
507.289	106.94
507.506	135.94
507.722	112.94
507.939	104.94
508.155	117.94
508.372	120.94
508.588	111.94
508.805	98.94
509.021	110.94
509.238	110.94
509.454	104.94
509.67	107.94
509.887	105.94
510.103	103.94
510.319	100.94
510.536	102.94
510.752	97.94
510.968	85.94
511.184	90.94
511.401	98.94
511.617	104.94
511.833	87.94
512.049	82.94
