Data from Location4.07152019.Energy5.Lamp.07192019.3%Agarose_HRD10591_16-20-39-926.txt Node
Date: Fri Jul 19 16:20:39 EDT 2019
User: cochatt
Spectrometer: HR+D1059
Trigger mode: 1
Integration Time (sec): 1.000000E-1
Scans to average: 1
Electric dark correction enabled: true
Nonlinearity correction enabled: false
Boxcar width: 0
XAxis mode: Wavelengths
Number of Pixels in Spectrum: 2048
>>>>>Begin Spectral Data<<<<<
223.165	-18.31
223.4	-18.31
223.635	-18.31
223.869	-5.31
224.104	-18.31
224.338	-12.31
224.573	-28.31
224.808	-16.31
225.042	-9.31
225.277	-10.31
225.511	1.69
225.746	25.69
225.98	4.69
226.215	6.69
226.449	5.69
226.683	18.69
226.918	22.69
227.152	32.69
227.387	38.69
227.621	32.69
227.856	35.69
228.09	40.69
228.324	38.69
228.559	50.69
228.793	48.69
229.027	73.69
229.262	73.69
229.496	66.69
229.73	61.69
229.964	64.69
230.199	90.69
230.433	72.69
230.667	76.69
230.901	78.69
231.136	68.69
231.37	74.69
231.604	70.69
231.838	83.69
232.072	78.69
232.306	64.69
232.541	90.69
232.775	85.69
233.009	72.69
233.243	73.69
233.477	89.69
233.711	83.69
233.945	73.69
234.179	85.69
234.413	59.69
234.647	72.69
234.881	78.69
235.115	95.69
235.349	80.69
235.583	87.69
235.817	71.69
236.051	79.69
236.285	79.69
236.519	68.69
236.753	84.69
236.987	84.69
237.221	82.69
237.455	74.69
237.689	86.69
237.922	84.69
238.156	73.69
238.39	58.69
238.624	71.69
238.858	72.69
239.091	71.69
239.325	73.69
239.559	78.69
239.793	70.69
240.027	67.69
240.26	75.69
240.494	86.69
240.728	73.69
240.961	88.69
241.195	80.69
241.429	85.69
241.662	88.69
241.896	84.69
242.13	87.69
242.363	69.69
242.597	72.69
242.83	79.69
243.064	92.69
243.298	88.69
243.531	78.69
243.765	81.69
243.998	78.69
244.232	89.69
244.465	82.69
244.699	84.69
244.932	65.69
245.166	77.69
245.399	82.69
245.633	71.69
245.866	78.69
246.099	86.69
246.333	77.69
246.566	78.69
246.8	76.69
247.033	71.69
247.266	68.69
247.5	67.69
247.733	76.69
247.966	88.69
248.2	73.69
248.433	88.69
248.666	74.69
248.899	87.69
249.133	87.69
249.366	78.69
249.599	73.69
249.832	81.69
250.066	76.69
250.299	69.69
250.532	75.69
250.765	77.69
250.998	91.69
251.231	73.69
251.465	73.69
251.698	69.69
251.931	89.69
252.164	96.69
252.397	84.69
252.63	85.69
252.863	71.69
253.096	85.69
253.329	90.69
253.562	69.69
253.795	89.69
254.028	78.69
254.261	79.69
254.494	75.69
254.727	82.69
254.96	82.69
255.193	85.69
255.426	79.69
255.659	76.69
255.892	91.69
256.124	91.69
256.357	78.69
256.59	95.69
256.823	78.69
257.056	78.69
257.289	70.69
257.521	81.69
257.754	82.69
257.987	85.69
258.22	91.69
258.452	77.69
258.685	84.69
258.918	87.69
259.151	67.69
259.383	87.69
259.616	77.69
259.849	78.69
260.081	73.69
260.314	97.69
260.547	83.69
260.779	89.69
261.012	83.69
261.244	92.69
261.477	75.69
261.71	79.69
261.942	89.69
262.175	79.69
262.407	69.69
262.64	74.69
262.872	71.69
263.105	73.69
263.337	82.69
263.57	77.69
263.802	78.69
264.035	82.69
264.267	85.69
264.499	75.69
264.732	85.69
264.964	64.69
265.197	65.69
265.429	84.69
265.661	82.69
265.894	94.69
266.126	100.69
266.358	76.69
266.591	76.69
266.823	84.69
267.055	76.69
267.287	74.69
267.52	92.69
267.752	83.69
267.984	89.69
268.216	87.69
268.448	76.69
268.681	84.69
268.913	90.69
269.145	93.69
269.377	85.69
269.609	75.69
269.841	86.69
270.073	95.69
270.306	75.69
270.538	75.69
270.77	84.69
271.002	68.69
271.234	65.69
271.466	88.69
271.698	89.69
271.93	87.69
272.162	82.69
272.394	84.69
272.626	66.69
272.858	77.69
273.09	74.69
273.322	86.69
273.553	82.69
273.785	92.69
274.017	74.69
274.249	92.69
274.481	80.69
274.713	88.69
274.945	91.69
275.176	75.69
275.408	105.69
275.64	82.69
275.872	78.69
276.104	88.69
276.335	86.69
276.567	80.69
276.799	92.69
277.031	84.69
277.262	87.69
277.494	81.69
277.726	79.69
277.957	75.69
278.189	97.69
278.421	85.69
278.652	90.69
278.884	84.69
279.115	80.69
279.347	89.69
279.579	82.69
279.81	78.69
280.042	85.69
280.273	82.69
280.505	77.69
280.736	84.69
280.968	86.69
281.199	89.69
281.431	80.69
281.662	84.69
281.894	86.69
282.125	89.69
282.356	87.69
282.588	92.69
282.819	83.69
283.051	81.69
283.282	84.69
283.513	96.69
283.745	77.69
283.976	88.69
284.207	92.69
284.439	77.69
284.67	97.69
284.901	77.69
285.132	82.69
285.364	91.69
285.595	88.69
285.826	104.69
286.057	95.69
286.288	80.69
286.52	77.69
286.751	60.69
286.982	84.69
287.213	72.69
287.444	94.69
287.675	80.69
287.906	71.69
288.138	78.69
288.369	95.69
288.6	80.69
288.831	85.69
289.062	84.69
289.293	84.69
289.524	82.69
289.755	88.69
289.986	76.69
290.217	97.69
290.448	94.69
290.679	82.69
290.91	80.69
291.141	73.69
291.371	76.69
291.602	82.69
291.833	86.69
292.064	96.69
292.295	90.69
292.526	86.69
292.757	84.69
292.987	80.69
293.218	92.69
293.449	76.69
293.68	82.69
293.91	88.69
294.141	78.69
294.372	75.69
294.603	89.69
294.833	84.69
295.064	80.69
295.295	89.69
295.525	93.69
295.756	68.69
295.987	78.69
296.217	87.69
296.448	80.69
296.679	95.69
296.909	78.69
297.14	85.69
297.37	72.69
297.601	88.69
297.831	76.69
298.062	91.69
298.292	83.69
298.523	84.69
298.753	77.69
298.984	83.69
299.214	71.69
299.445	83.69
299.675	87.69
299.905	88.69
300.136	82.69
300.366	86.69
300.597	89.69
300.827	86.69
301.057	86.69
301.288	101.69
301.518	73.69
301.748	84.69
301.979	86.69
302.209	86.69
302.439	84.69
302.669	78.69
302.9	91.69
303.13	73.69
303.36	93.69
303.59	85.69
303.82	78.69
304.051	98.69
304.281	92.69
304.511	95.69
304.741	74.69
304.971	67.69
305.201	84.69
305.431	93.69
305.661	70.69
305.891	89.69
306.121	91.69
306.352	81.69
306.582	67.69
306.812	77.69
307.042	76.69
307.272	78.69
307.502	80.69
307.731	76.69
307.961	93.69
308.191	82.69
308.421	81.69
308.651	90.69
308.881	77.69
309.111	76.69
309.341	78.69
309.571	76.69
309.8	83.69
310.03	84.69
310.26	78.69
310.49	83.69
310.72	84.69
310.949	84.69
311.179	85.69
311.409	80.69
311.639	93.69
311.868	83.69
312.098	85.69
312.328	81.69
312.557	73.69
312.787	89.69
313.017	80.69
313.246	83.69
313.476	89.69
313.706	76.69
313.935	95.69
314.165	75.69
314.394	86.69
314.624	98.69
314.853	77.69
315.083	77.69
315.312	89.69
315.542	89.69
315.771	82.69
316.001	69.69
316.23	78.69
316.46	97.69
316.689	79.69
316.919	78.69
317.148	91.69
317.377	88.69
317.607	76.69
317.836	96.69
318.065	72.69
318.295	85.69
318.524	80.69
318.753	83.69
318.983	80.69
319.212	82.69
319.441	88.69
319.67	97.69
319.9	96.69
320.129	90.69
320.358	75.69
320.587	93.69
320.816	67.69
321.046	85.69
321.275	98.69
321.504	89.69
321.733	82.69
321.962	107.69
322.191	84.69
322.42	91.69
322.649	78.69
322.878	89.69
323.108	85.69
323.337	87.69
323.566	89.69
323.795	78.69
324.024	92.69
324.253	85.69
324.482	96.69
324.71	69.69
324.939	89.69
325.168	96.69
325.397	81.69
325.626	85.69
325.855	96.69
326.084	81.69
326.313	94.69
326.542	88.69
326.77	98.69
326.999	81.69
327.228	83.69
327.457	71.69
327.686	87.69
327.914	79.69
328.143	94.69
328.372	88.69
328.6	93.69
328.829	86.69
329.058	79.69
329.287	84.69
329.515	84.69
329.744	84.69
329.972	66.69
330.201	92.69
330.43	77.69
330.658	86.69
330.887	72.69
331.115	90.69
331.344	85.69
331.572	96.69
331.801	91.69
332.03	90.69
332.258	72.69
332.486	76.69
332.715	89.69
332.943	81.69
333.172	84.69
333.4	98.69
333.629	85.69
333.857	76.69
334.085	83.69
334.314	90.69
334.542	88.69
334.771	73.69
334.999	82.69
335.227	81.69
335.455	82.69
335.684	106.69
335.912	93.69
336.14	88.69
336.369	73.69
336.597	86.69
336.825	89.69
337.053	80.69
337.281	87.69
337.51	100.69
337.738	78.69
337.966	92.69
338.194	88.69
338.422	85.69
338.65	77.69
338.878	96.69
339.106	85.69
339.334	87.69
339.562	68.69
339.79	83.69
340.018	94.69
340.246	92.69
340.474	81.69
340.702	80.69
340.93	91.69
341.158	87.69
341.386	78.69
341.614	80.69
341.842	94.69
342.07	93.69
342.298	87.69
342.526	92.69
342.754	86.69
342.981	72.69
343.209	85.69
343.437	77.69
343.665	77.69
343.893	86.69
344.12	85.69
344.348	87.69
344.576	88.69
344.804	76.69
345.031	85.69
345.259	79.69
345.487	74.69
345.714	68.69
345.942	87.69
346.17	82.69
346.397	83.69
346.625	90.69
346.853	67.69
347.08	83.69
347.308	96.69
347.535	73.69
347.763	72.69
347.99	75.69
348.218	93.69
348.445	76.69
348.673	85.69
348.9	79.69
349.128	92.69
349.355	92.69
349.583	84.69
349.81	83.69
350.037	81.69
350.265	78.69
350.492	90.69
350.72	97.69
350.947	96.69
351.174	82.69
351.402	83.69
351.629	72.69
351.856	81.69
352.083	76.69
352.311	81.69
352.538	78.69
352.765	82.69
352.992	85.69
353.22	87.69
353.447	94.69
353.674	95.69
353.901	82.69
354.128	77.69
354.355	79.69
354.583	98.69
354.81	82.69
355.037	82.69
355.264	85.69
355.491	75.69
355.718	88.69
355.945	88.69
356.172	78.69
356.399	82.69
356.626	87.69
356.853	90.69
357.08	92.69
357.307	96.69
357.534	78.69
357.761	90.69
357.988	85.69
358.215	99.69
358.441	88.69
358.668	74.69
358.895	80.69
359.122	73.69
359.349	91.69
359.576	87.69
359.802	88.69
360.029	75.69
360.256	81.69
360.483	75.69
360.709	84.69
360.936	94.69
361.163	79.69
361.39	82.69
361.616	77.69
361.843	93.69
362.07	81.69
362.296	78.69
362.523	77.69
362.749	64.69
362.976	87.69
363.203	72.69
363.429	87.69
363.656	85.69
363.882	93.69
364.109	88.69
364.335	80.69
364.562	78.69
364.788	84.69
365.015	77.69
365.241	87.69
365.468	84.69
365.694	88.69
365.92	77.69
366.147	91.69
366.373	85.69
366.599	84.69
366.826	92.69
367.052	103.69
367.278	98.69
367.505	94.69
367.731	86.69
367.957	82.69
368.184	82.69
368.41	85.69
368.636	97.69
368.862	105.69
369.089	86.69
369.315	92.69
369.541	78.69
369.767	74.69
369.993	85.69
370.219	100.69
370.445	73.69
370.672	88.69
370.898	83.69
371.124	99.69
371.35	85.69
371.576	96.69
371.802	86.69
372.028	91.69
372.254	96.69
372.48	90.69
372.706	86.69
372.932	75.69
373.158	90.69
373.384	90.69
373.61	87.69
373.835	92.69
374.061	96.69
374.287	92.69
374.513	86.69
374.739	100.69
374.965	84.69
375.191	89.69
375.416	98.69
375.642	91.69
375.868	89.69
376.094	104.69
376.319	90.69
376.545	90.69
376.771	97.69
376.997	93.69
377.222	104.69
377.448	89.69
377.674	91.69
377.899	96.69
378.125	101.69
378.35	98.69
378.576	97.69
378.802	107.69
379.027	86.69
379.253	89.69
379.478	88.69
379.704	92.69
379.929	84.69
380.155	90.69
380.38	82.69
380.606	91.69
380.831	87.69
381.057	98.69
381.282	101.69
381.507	92.69
381.733	97.69
381.958	78.69
382.184	87.69
382.409	87.69
382.634	106.69
382.86	82.69
383.085	93.69
383.31	105.69
383.535	99.69
383.761	82.69
383.986	101.69
384.211	90.69
384.436	88.69
384.662	90.69
384.887	87.69
385.112	99.69
385.337	90.69
385.562	90.69
385.787	96.69
386.013	100.69
386.238	94.69
386.463	112.69
386.688	91.69
386.913	102.69
387.138	99.69
387.363	96.69
387.588	102.69
387.813	92.69
388.038	88.69
388.263	108.69
388.488	100.69
388.713	103.69
388.938	107.69
389.163	103.69
389.387	97.69
389.612	101.69
389.837	94.69
390.062	104.69
390.287	109.69
390.512	97.69
390.736	107.69
390.961	93.69
391.186	100.69
391.411	87.69
391.636	91.69
391.86	90.69
392.085	120.69
392.31	97.69
392.534	94.69
392.759	94.69
392.984	105.69
393.208	104.69
393.433	112.69
393.658	105.69
393.882	105.69
394.107	97.69
394.331	93.69
394.556	109.69
394.78	104.69
395.005	78.69
395.229	119.69
395.454	105.69
395.678	109.69
395.903	108.69
396.127	119.69
396.352	105.69
396.576	108.69
396.801	114.69
397.025	105.69
397.249	109.69
397.474	109.69
397.698	111.69
397.922	108.69
398.147	102.69
398.371	121.69
398.595	120.69
398.82	105.69
399.044	112.69
399.268	103.69
399.492	103.69
399.717	120.69
399.941	98.69
400.165	93.69
400.389	105.69
400.613	106.69
400.837	113.69
401.062	102.69
401.286	112.69
401.51	94.69
401.734	108.69
401.958	108.69
402.182	118.69
402.406	114.69
402.63	112.69
402.854	106.69
403.078	113.69
403.302	110.69
403.526	108.69
403.75	125.69
403.974	109.69
404.198	118.69
404.422	107.69
404.645	114.69
404.869	105.69
405.093	116.69
405.317	114.69
405.541	97.69
405.765	124.69
405.988	108.69
406.212	120.69
406.436	99.69
406.66	124.69
406.883	132.69
407.107	106.69
407.331	105.69
407.555	124.69
407.778	107.69
408.002	119.69
408.226	112.69
408.449	124.69
408.673	113.69
408.896	106.69
409.12	114.69
409.344	117.69
409.567	122.69
409.791	110.69
410.014	125.69
410.238	113.69
410.461	104.69
410.685	109.69
410.908	127.69
411.132	124.69
411.355	107.69
411.578	114.69
411.802	116.69
412.025	116.69
412.249	122.69
412.472	115.69
412.695	132.69
412.919	109.69
413.142	110.69
413.365	118.69
413.589	124.69
413.812	122.69
414.035	115.69
414.258	103.69
414.482	110.69
414.705	107.69
414.928	125.69
415.151	103.69
415.374	121.69
415.597	122.69
415.821	116.69
416.044	123.69
416.267	115.69
416.49	122.69
416.713	128.69
416.936	134.69
417.159	114.69
417.382	126.69
417.605	130.69
417.828	118.69
418.051	135.69
418.274	122.69
418.497	127.69
418.72	118.69
418.943	143.69
419.166	128.69
419.389	124.69
419.611	138.69
419.834	148.69
420.057	142.69
420.28	123.69
420.503	125.69
420.726	122.69
420.948	123.69
421.171	125.69
421.394	143.69
421.617	140.69
421.839	157.69
422.062	142.69
422.285	120.69
422.507	134.69
422.73	128.69
422.953	141.69
423.175	128.69
423.398	120.69
423.621	116.69
423.843	126.69
424.066	134.69
424.288	128.69
424.511	140.69
424.733	146.69
424.956	144.69
425.178	134.69
425.401	132.69
425.623	131.69
425.846	105.69
426.068	141.69
426.291	116.69
426.513	124.69
426.735	120.69
426.958	122.69
427.18	118.69
427.402	127.69
427.625	128.69
427.847	149.69
428.069	130.69
428.292	126.69
428.514	133.69
428.736	102.69
428.958	112.69
429.181	110.69
429.403	109.69
429.625	125.69
429.847	135.69
430.069	123.69
430.292	136.69
430.514	138.69
430.736	144.69
430.958	139.69
431.18	140.69
431.402	132.69
431.624	121.69
431.846	107.69
432.068	92.69
432.29	99.69
432.512	128.69
432.734	120.69
432.956	134.69
433.178	132.69
433.4	121.69
433.622	124.69
433.844	133.69
434.066	130.69
434.287	106.69
434.509	101.69
434.731	88.69
434.953	120.69
435.175	118.69
435.397	115.69
435.618	126.69
435.84	90.69
436.062	104.69
436.284	126.69
436.505	124.69
436.727	123.69
436.949	149.69
437.17	142.69
437.392	132.69
437.614	127.69
437.835	131.69
438.057	116.69
438.278	120.69
438.5	121.69
438.721	125.69
438.943	147.69
439.165	133.69
439.386	139.69
439.608	132.69
439.829	130.69
440.05	146.69
440.272	147.69
440.493	148.69
440.715	144.69
440.936	131.69
441.158	144.69
441.379	141.69
441.6	127.69
441.822	143.69
442.043	147.69
442.264	138.69
442.486	137.69
442.707	134.69
442.928	138.69
443.149	137.69
443.371	140.69
443.592	153.69
443.813	130.69
444.034	136.69
444.255	132.69
444.476	136.69
444.698	129.69
444.919	136.69
445.14	274.69
445.361	201.69
445.582	148.69
445.803	143.69
446.024	147.69
446.245	153.69
446.466	145.69
446.687	152.69
446.908	160.69
447.129	151.69
447.35	150.69
447.571	146.69
447.792	125.69
448.013	156.69
448.234	150.69
448.455	129.69
448.675	149.69
448.896	124.69
449.117	132.69
449.338	119.69
449.559	134.69
449.779	134.69
450	123.69
450.221	137.69
450.442	141.69
450.662	147.69
450.883	142.69
451.104	126.69
451.324	125.69
451.545	128.69
451.766	144.69
451.986	122.69
452.207	124.69
452.428	121.69
452.648	130.69
452.869	113.69
453.089	120.69
453.31	106.69
453.53	101.69
453.751	110.69
453.971	109.69
454.192	107.69
454.412	107.69
454.633	112.69
454.853	124.69
455.073	123.69
455.294	117.69
455.514	120.69
455.734	119.69
455.955	117.69
456.175	122.69
456.395	105.69
456.616	107.69
456.836	103.69
457.056	108.69
457.276	112.69
457.497	114.69
457.717	116.69
457.937	107.69
458.157	109.69
458.377	113.69
458.598	103.69
458.818	92.69
459.038	90.69
459.258	86.69
459.478	91.69
459.698	93.69
459.918	99.69
460.138	103.69
460.358	105.69
460.578	105.69
460.798	121.69
461.018	124.69
461.238	122.69
461.458	109.69
461.678	119.69
461.898	126.69
462.118	109.69
462.338	113.69
462.558	110.69
462.777	104.69
462.997	116.69
463.217	112.69
463.437	120.69
463.657	103.69
463.876	105.69
464.096	101.69
464.316	114.69
464.536	112.69
464.755	116.69
464.975	108.69
465.195	103.69
465.414	106.69
465.634	112.69
465.854	113.69
466.073	129.69
466.293	124.69
466.512	118.69
466.732	138.69
466.951	122.69
467.171	120.69
467.391	138.69
467.61	125.69
467.829	131.69
468.049	140.69
468.268	135.69
468.488	127.69
468.707	133.69
468.927	122.69
469.146	132.69
469.365	121.69
469.585	128.69
469.804	124.69
470.023	122.69
470.243	141.69
470.462	141.69
470.681	138.69
470.901	142.69
471.12	134.69
471.339	135.69
471.558	139.69
471.777	136.69
471.997	136.69
472.216	134.69
472.435	115.69
472.654	102.69
472.873	110.69
473.092	120.69
473.311	117.69
473.53	120.69
473.749	126.69
473.968	132.69
474.187	121.69
474.406	125.69
474.625	130.69
474.844	145.69
475.063	127.69
475.282	130.69
475.501	130.69
475.72	128.69
475.939	114.69
476.158	128.69
476.377	124.69
476.596	120.69
476.814	112.69
477.033	112.69
477.252	118.69
477.471	112.69
477.69	124.69
477.908	140.69
478.127	133.69
478.346	138.69
478.564	127.69
478.783	141.69
479.002	134.69
479.22	133.69
479.439	124.69
479.658	121.69
479.876	114.69
480.095	105.69
480.313	116.69
480.532	122.69
480.751	108.69
480.969	102.69
481.188	90.69
481.406	84.69
481.624	92.69
481.843	94.69
482.061	89.69
482.28	111.69
482.498	118.69
482.717	87.69
482.935	124.69
483.153	137.69
483.372	158.69
483.59	152.69
483.808	126.69
484.027	120.69
484.245	121.69
484.463	150.69
484.681	154.69
484.9	162.69
485.118	133.69
485.336	117.69
485.554	116.69
485.772	117.69
485.99	102.69
486.209	98.69
486.427	117.69
486.645	113.69
486.863	130.69
487.081	119.69
487.299	124.69
487.517	120.69
487.735	158.69
487.953	178.69
488.171	185.69
488.389	180.69
488.607	162.69
488.825	150.69
489.043	114.69
489.261	130.69
489.479	120.69
489.696	146.69
489.914	140.69
490.132	151.69
490.35	152.69
490.568	159.69
490.786	169.69
491.003	158.69
491.221	184.69
491.439	181.69
491.657	186.69
491.874	208.69
492.092	212.69
492.31	244.69
492.527	233.69
492.745	190.69
492.963	188.69
493.18	186.69
493.398	166.69
493.615	171.69
493.833	167.69
494.05	181.69
494.268	172.69
494.485	173.69
494.703	180.69
494.92	173.69
495.138	165.69
495.355	181.69
495.573	154.69
495.79	165.69
496.008	169.69
496.225	160.69
496.442	164.69
496.66	157.69
496.877	161.69
497.094	155.69
497.312	178.69
497.529	176.69
497.746	131.69
497.963	134.69
498.181	132.69
498.398	118.69
498.615	125.69
498.832	114.69
499.049	126.69
499.267	116.69
499.484	130.69
499.701	128.69
499.918	133.69
500.135	134.69
500.352	143.69
500.569	137.69
500.786	132.69
501.003	141.69
501.22	128.69
501.437	134.69
501.654	127.69
501.871	136.69
502.088	130.69
502.305	134.69
502.522	119.69
502.739	138.69
502.956	127.69
503.172	138.69
503.389	126.69
503.606	122.69
503.823	122.69
504.04	107.69
504.256	120.69
504.473	126.69
504.69	114.69
504.907	121.69
505.123	127.69
505.34	136.69
505.557	119.69
505.773	129.69
505.99	114.69
506.207	125.69
506.423	128.69
506.64	112.69
506.856	103.69
507.073	117.69
507.289	112.69
507.506	121.69
507.722	125.69
507.939	101.69
508.155	112.69
508.372	122.69
508.588	125.69
508.805	112.69
509.021	114.69
509.238	100.69
509.454	95.69
509.67	99.69
509.887	109.69
510.103	94.69
510.319	92.69
510.536	94.69
510.752	86.69
510.968	78.69
511.184	90.69
511.401	77.69
511.617	73.69
511.833	94.69
