Data from Location4.07152019.Energy5.Lamp.07192019.3%Agarose_HRD10591_16-19-27-926.txt Node
Date: Fri Jul 19 16:19:27 EDT 2019
User: cochatt
Spectrometer: HR+D1059
Trigger mode: 1
Integration Time (sec): 1.000000E-1
Scans to average: 1
Electric dark correction enabled: true
Nonlinearity correction enabled: false
Boxcar width: 0
XAxis mode: Wavelengths
Number of Pixels in Spectrum: 2048
>>>>>Begin Spectral Data<<<<<
223.165	-26
223.4	-26
223.635	-26
223.869	-22
224.104	-15
224.338	-4
224.573	-18
224.808	0
225.042	-20
225.277	-6
225.511	7
225.746	3
225.98	-5
226.215	10
226.449	22
226.683	14
226.918	26
227.152	34
227.387	32
227.621	47
227.856	33
228.09	55
228.324	47
228.559	67
228.793	58
229.027	69
229.262	58
229.496	63
229.73	61
229.964	62
230.199	69
230.433	53
230.667	72
230.901	70
231.136	77
231.37	79
231.604	87
231.838	83
232.072	86
232.306	82
232.541	78
232.775	71
233.009	82
233.243	78
233.477	80
233.711	81
233.945	86
234.179	87
234.413	70
234.647	79
234.881	71
235.115	80
235.349	67
235.583	80
235.817	76
236.051	62
236.285	88
236.519	81
236.753	78
236.987	77
237.221	68
237.455	88
237.689	74
237.922	64
238.156	76
238.39	83
238.624	71
238.858	72
239.091	79
239.325	54
239.559	82
239.793	80
240.027	73
240.26	80
240.494	77
240.728	86
240.961	75
241.195	80
241.429	69
241.662	85
241.896	71
242.13	63
242.363	80
242.597	70
242.83	86
243.064	70
243.298	75
243.531	72
243.765	85
243.998	68
244.232	80
244.465	73
244.699	77
244.932	82
245.166	84
245.399	79
245.633	84
245.866	77
246.099	81
246.333	75
246.566	94
246.8	75
247.033	84
247.266	81
247.5	70
247.733	78
247.966	90
248.2	82
248.433	68
248.666	81
248.899	76
249.133	88
249.366	81
249.599	73
249.832	83
250.066	71
250.299	70
250.532	68
250.765	75
250.998	79
251.231	91
251.465	77
251.698	73
251.931	79
252.164	71
252.397	72
252.63	75
252.863	73
253.096	68
253.329	75
253.562	88
253.795	76
254.028	68
254.261	68
254.494	73
254.727	76
254.96	78
255.193	76
255.426	71
255.659	77
255.892	80
256.124	84
256.357	73
256.59	75
256.823	77
257.056	84
257.289	97
257.521	94
257.754	94
257.987	77
258.22	76
258.452	73
258.685	81
258.918	78
259.151	71
259.383	73
259.616	76
259.849	102
260.081	87
260.314	81
260.547	78
260.779	72
261.012	76
261.244	84
261.477	83
261.71	80
261.942	71
262.175	65
262.407	84
262.64	85
262.872	78
263.105	88
263.337	68
263.57	71
263.802	77
264.035	88
264.267	77
264.499	71
264.732	84
264.964	80
265.197	87
265.429	88
265.661	79
265.894	67
266.126	79
266.358	88
266.591	80
266.823	77
267.055	81
267.287	79
267.52	73
267.752	77
267.984	77
268.216	81
268.448	84
268.681	79
268.913	72
269.145	91
269.377	87
269.609	82
269.841	84
270.073	79
270.306	80
270.538	88
270.77	86
271.002	82
271.234	79
271.466	75
271.698	79
271.93	78
272.162	86
272.394	71
272.626	83
272.858	71
273.09	77
273.322	66
273.553	61
273.785	75
274.017	75
274.249	73
274.481	97
274.713	97
274.945	84
275.176	75
275.408	78
275.64	92
275.872	68
276.104	80
276.335	66
276.567	85
276.799	73
277.031	107
277.262	86
277.494	85
277.726	81
277.957	80
278.189	69
278.421	77
278.652	76
278.884	84
279.115	85
279.347	85
279.579	86
279.81	98
280.042	86
280.273	76
280.505	72
280.736	65
280.968	81
281.199	80
281.431	82
281.662	89
281.894	78
282.125	86
282.356	74
282.588	78
282.819	81
283.051	90
283.282	85
283.513	90
283.745	85
283.976	88
284.207	81
284.439	86
284.67	80
284.901	88
285.132	83
285.364	87
285.595	81
285.826	76
286.057	96
286.288	82
286.52	73
286.751	78
286.982	82
287.213	80
287.444	80
287.675	85
287.906	85
288.138	87
288.369	84
288.6	71
288.831	86
289.062	80
289.293	87
289.524	84
289.755	83
289.986	67
290.217	82
290.448	85
290.679	76
290.91	83
291.141	91
291.371	82
291.602	84
291.833	71
292.064	80
292.295	65
292.526	68
292.757	93
292.987	75
293.218	88
293.449	82
293.68	74
293.91	84
294.141	82
294.372	74
294.603	87
294.833	105
295.064	82
295.295	79
295.525	75
295.756	86
295.987	81
296.217	78
296.448	88
296.679	65
296.909	82
297.14	83
297.37	89
297.601	79
297.831	69
298.062	72
298.292	93
298.523	91
298.753	74
298.984	96
299.214	73
299.445	83
299.675	98
299.905	76
300.136	89
300.366	97
300.597	83
300.827	83
301.057	79
301.288	69
301.518	81
301.748	75
301.979	94
302.209	71
302.439	89
302.669	78
302.9	93
303.13	69
303.36	79
303.59	71
303.82	86
304.051	93
304.281	80
304.511	80
304.741	92
304.971	80
305.201	94
305.431	85
305.661	84
305.891	86
306.121	75
306.352	79
306.582	80
306.812	75
307.042	79
307.272	79
307.502	84
307.731	77
307.961	83
308.191	77
308.421	84
308.651	79
308.881	78
309.111	82
309.341	78
309.571	105
309.8	82
310.03	86
310.26	73
310.49	73
310.72	80
310.949	90
311.179	78
311.409	94
311.639	88
311.868	84
312.098	85
312.328	84
312.557	85
312.787	86
313.017	87
313.246	95
313.476	82
313.706	74
313.935	90
314.165	75
314.394	75
314.624	64
314.853	76
315.083	89
315.312	79
315.542	72
315.771	86
316.001	65
316.23	84
316.46	77
316.689	72
316.919	88
317.148	89
317.377	90
317.607	82
317.836	77
318.065	90
318.295	87
318.524	72
318.753	92
318.983	80
319.212	88
319.441	84
319.67	81
319.9	85
320.129	79
320.358	86
320.587	86
320.816	90
321.046	82
321.275	80
321.504	76
321.733	70
321.962	83
322.191	91
322.42	89
322.649	75
322.878	90
323.108	88
323.337	96
323.566	70
323.795	105
324.024	92
324.253	84
324.482	83
324.71	91
324.939	79
325.168	78
325.397	75
325.626	92
325.855	80
326.084	90
326.313	76
326.542	76
326.77	68
326.999	74
327.228	95
327.457	92
327.686	84
327.914	93
328.143	83
328.372	79
328.6	87
328.829	77
329.058	80
329.287	95
329.515	90
329.744	79
329.972	87
330.201	81
330.43	78
330.658	84
330.887	67
331.115	87
331.344	80
331.572	87
331.801	72
332.03	83
332.258	85
332.486	84
332.715	84
332.943	76
333.172	92
333.4	82
333.629	77
333.857	87
334.085	87
334.314	88
334.542	85
334.771	62
334.999	76
335.227	84
335.455	74
335.684	71
335.912	78
336.14	75
336.369	80
336.597	81
336.825	84
337.053	88
337.281	85
337.51	62
337.738	97
337.966	93
338.194	84
338.422	83
338.65	72
338.878	84
339.106	84
339.334	87
339.562	80
339.79	76
340.018	88
340.246	63
340.474	81
340.702	76
340.93	81
341.158	89
341.386	75
341.614	91
341.842	83
342.07	97
342.298	88
342.526	78
342.754	84
342.981	91
343.209	86
343.437	90
343.665	69
343.893	79
344.12	95
344.348	75
344.576	75
344.804	88
345.031	89
345.259	79
345.487	81
345.714	89
345.942	90
346.17	86
346.397	82
346.625	80
346.853	87
347.08	87
347.308	86
347.535	76
347.763	80
347.99	86
348.218	98
348.445	74
348.673	77
348.9	89
349.128	78
349.355	72
349.583	76
349.81	93
350.037	82
350.265	94
350.492	84
350.72	82
350.947	86
351.174	83
351.402	66
351.629	87
351.856	89
352.083	66
352.311	75
352.538	78
352.765	92
352.992	83
353.22	82
353.447	85
353.674	91
353.901	88
354.128	90
354.355	99
354.583	84
354.81	76
355.037	86
355.264	78
355.491	79
355.718	78
355.945	74
356.172	83
356.399	89
356.626	81
356.853	76
357.08	71
357.307	91
357.534	90
357.761	71
357.988	85
358.215	88
358.441	84
358.668	83
358.895	87
359.122	85
359.349	68
359.576	81
359.802	83
360.029	67
360.256	84
360.483	70
360.709	82
360.936	72
361.163	83
361.39	89
361.616	75
361.843	88
362.07	76
362.296	74
362.523	80
362.749	84
362.976	86
363.203	82
363.429	99
363.656	83
363.882	84
364.109	78
364.335	86
364.562	71
364.788	76
365.015	85
365.241	76
365.468	85
365.694	85
365.92	80
366.147	75
366.373	84
366.599	87
366.826	75
367.052	82
367.278	71
367.505	99
367.731	83
367.957	80
368.184	79
368.41	80
368.636	79
368.862	90
369.089	78
369.315	82
369.541	92
369.767	88
369.993	92
370.219	96
370.445	97
370.672	92
370.898	93
371.124	101
371.35	73
371.576	84
371.802	82
372.028	107
372.254	73
372.48	89
372.706	81
372.932	89
373.158	103
373.384	107
373.61	83
373.835	79
374.061	74
374.287	87
374.513	82
374.739	83
374.965	97
375.191	96
375.416	91
375.642	89
375.868	99
376.094	88
376.319	84
376.545	86
376.771	94
376.997	94
377.222	87
377.448	89
377.674	95
377.899	97
378.125	108
378.35	90
378.576	84
378.802	87
379.027	90
379.253	103
379.478	104
379.704	94
379.929	87
380.155	94
380.38	92
380.606	86
380.831	94
381.057	119
381.282	96
381.507	102
381.733	98
381.958	98
382.184	102
382.409	106
382.634	102
382.86	91
383.085	84
383.31	106
383.535	91
383.761	103
383.986	105
384.211	106
384.436	95
384.662	96
384.887	97
385.112	94
385.337	97
385.562	96
385.787	111
386.013	97
386.238	107
386.463	86
386.688	95
386.913	91
387.138	109
387.363	94
387.588	95
387.813	104
388.038	101
388.263	119
388.488	95
388.713	99
388.938	105
389.163	93
389.387	89
389.612	110
389.837	102
390.062	95
390.287	90
390.512	113
390.736	112
390.961	105
391.186	81
391.411	103
391.636	111
391.86	102
392.085	113
392.31	107
392.534	92
392.759	104
392.984	96
393.208	104
393.433	94
393.658	114
393.882	105
394.107	88
394.331	107
394.556	102
394.78	106
395.005	121
395.229	91
395.454	102
395.678	107
395.903	91
396.127	103
396.352	114
396.576	94
396.801	114
397.025	105
397.249	100
397.474	100
397.698	106
397.922	103
398.147	106
398.371	84
398.595	98
398.82	106
399.044	118
399.268	108
399.492	114
399.717	102
399.941	108
400.165	101
400.389	112
400.613	98
400.837	104
401.062	114
401.286	119
401.51	108
401.734	119
401.958	98
402.182	120
402.406	96
402.63	119
402.854	105
403.078	99
403.302	96
403.526	120
403.75	98
403.974	121
404.198	102
404.422	124
404.645	120
404.869	99
405.093	112
405.317	122
405.541	121
405.765	112
405.988	121
406.212	102
406.436	96
406.66	114
406.883	119
407.107	125
407.331	114
407.555	117
407.778	119
408.002	116
408.226	126
408.449	136
408.673	125
408.896	94
409.12	116
409.344	114
409.567	94
409.791	113
410.014	112
410.238	123
410.461	114
410.685	123
410.908	118
411.132	117
411.355	115
411.578	116
411.802	116
412.025	103
412.249	111
412.472	125
412.695	116
412.919	121
413.142	104
413.365	110
413.589	112
413.812	102
414.035	115
414.258	130
414.482	124
414.705	119
414.928	119
415.151	111
415.374	114
415.597	127
415.821	122
416.044	116
416.267	128
416.49	134
416.713	127
416.936	131
417.159	125
417.382	121
417.605	116
417.828	110
418.051	129
418.274	126
418.497	138
418.72	125
418.943	130
419.166	128
419.389	138
419.611	128
419.834	131
420.057	127
420.28	114
420.503	118
420.726	117
420.948	131
421.171	134
421.394	126
421.617	159
421.839	130
422.062	138
422.285	120
422.507	127
422.73	128
422.953	122
423.175	132
423.398	120
423.621	133
423.843	126
424.066	136
424.288	161
424.511	132
424.733	138
424.956	152
425.178	148
425.401	138
425.623	128
425.846	140
426.068	132
426.291	130
426.513	128
426.735	111
426.958	122
427.18	118
427.402	126
427.625	128
427.847	138
428.069	128
428.292	118
428.514	118
428.736	115
428.958	129
429.181	110
429.403	117
429.625	112
429.847	128
430.069	120
430.292	127
430.514	128
430.736	123
430.958	122
431.18	134
431.402	138
431.624	116
431.846	120
432.068	105
432.29	90
432.512	110
432.734	126
432.956	140
433.178	142
433.4	144
433.622	146
433.844	140
434.066	113
434.287	111
434.509	93
434.731	86
434.953	105
435.175	117
435.397	130
435.618	113
435.84	116
436.062	106
436.284	112
436.505	124
436.727	124
436.949	127
437.17	126
437.392	135
437.614	142
437.835	104
438.057	116
438.278	116
438.5	115
438.721	146
438.943	127
439.165	123
439.386	130
439.608	136
439.829	145
440.05	149
440.272	146
440.493	142
440.715	140
440.936	136
441.158	146
441.379	137
441.6	148
441.822	152
442.043	128
442.264	133
442.486	124
442.707	130
442.928	132
443.149	124
443.371	136
443.592	129
443.813	138
444.034	132
444.255	131
444.476	122
444.698	135
444.919	134
445.14	262
445.361	191
445.582	151
445.803	139
446.024	147
446.245	143
446.466	140
446.687	156
446.908	157
447.129	144
447.35	138
447.571	143
447.792	146
448.013	137
448.234	134
448.455	136
448.675	142
448.896	132
449.117	139
449.338	146
449.559	139
449.779	122
450	135
450.221	128
450.442	136
450.662	132
450.883	132
451.104	135
451.324	122
451.545	120
451.766	126
451.986	138
452.207	119
452.428	114
452.648	133
452.869	121
453.089	108
453.31	101
453.53	100
453.751	130
453.971	112
454.192	98
454.412	114
454.633	102
454.853	120
455.073	131
455.294	113
455.514	123
455.734	119
455.955	121
456.175	102
456.395	124
456.616	116
456.836	119
457.056	106
457.276	78
457.497	95
457.717	108
457.937	101
458.157	103
458.377	108
458.598	94
458.818	91
459.038	98
459.258	100
459.478	84
459.698	101
459.918	114
460.138	96
460.358	106
460.578	117
460.798	108
461.018	112
461.238	116
461.458	126
461.678	102
461.898	107
462.118	101
462.338	120
462.558	120
462.777	111
462.997	107
463.217	112
463.437	112
463.657	107
463.876	118
464.096	118
464.316	96
464.536	109
464.755	120
464.975	107
465.195	109
465.414	119
465.634	100
465.854	117
466.073	105
466.293	114
466.512	119
466.732	113
466.951	132
467.171	126
467.391	126
467.61	129
467.829	135
468.049	128
468.268	124
468.488	126
468.707	141
468.927	124
469.146	135
469.365	135
469.585	137
469.804	142
470.023	133
470.243	150
470.462	145
470.681	134
470.901	132
471.12	124
471.339	132
471.558	146
471.777	130
471.997	154
472.216	130
472.435	118
472.654	104
472.873	117
473.092	105
473.311	112
473.53	143
473.749	129
473.968	126
474.187	112
474.406	111
474.625	117
474.844	124
475.063	131
475.282	124
475.501	104
475.72	115
475.939	122
476.158	132
476.377	125
476.596	116
476.814	121
477.033	112
477.252	120
477.471	118
477.69	140
477.908	128
478.127	146
478.346	129
478.564	132
478.783	139
479.002	133
479.22	126
479.439	121
479.658	129
479.876	124
480.095	103
480.313	126
480.532	130
480.751	103
480.969	90
481.188	94
481.406	96
481.624	90
481.843	94
482.061	106
482.28	119
482.498	95
482.717	94
482.935	119
483.153	144
483.372	154
483.59	148
483.808	152
484.027	130
484.245	142
484.463	144
484.681	167
484.9	151
485.118	136
485.336	135
485.554	120
485.772	91
485.99	102
486.209	110
486.427	94
486.645	122
486.863	146
487.081	138
487.299	138
487.517	130
487.735	153
487.953	188
488.171	167
488.389	176
488.607	167
488.825	142
489.043	144
489.261	152
489.479	138
489.696	128
489.914	126
490.132	137
490.35	147
490.568	158
490.786	180
491.003	172
491.221	164
491.439	176
491.657	187
491.874	191
492.092	210
492.31	227
492.527	215
492.745	187
492.963	174
493.18	194
493.398	183
493.615	162
493.833	160
494.05	164
494.268	167
494.485	163
494.703	171
494.92	162
495.138	167
495.355	172
495.573	175
495.79	168
496.008	163
496.225	153
496.442	160
496.66	162
496.877	146
497.094	156
497.312	162
497.529	147
497.746	150
497.963	127
498.181	134
498.398	139
498.615	118
498.832	119
499.049	122
499.267	122
499.484	131
499.701	138
499.918	126
500.135	121
500.352	141
500.569	139
500.786	147
501.003	155
501.22	142
501.437	150
501.654	143
501.871	130
502.088	137
502.305	136
502.522	131
502.739	138
502.956	127
503.172	127
503.389	126
503.606	123
503.823	123
504.04	118
504.256	127
504.473	128
504.69	110
504.907	117
505.123	130
505.34	111
505.557	119
505.773	124
505.99	112
506.207	113
506.423	121
506.64	112
506.856	104
507.073	115
507.289	120
507.506	122
507.722	112
507.939	130
508.155	125
508.372	121
508.588	110
508.805	116
509.021	115
509.238	105
509.454	96
509.67	99
509.887	108
510.103	90
510.319	100
510.536	90
510.752	87
510.968	79
511.184	88
511.401	97
511.617	94
511.833	92
512.049	91
512.265	84
512.481	99
512.698	87
512.914	92
513.13	102
513.346	79
513.562	82
513.778	90
513.994	95
514.21	97
514.426	93
514.642	92
514.858	82
515.074	93
515.29	89
515.506	96
515.721	84
515.937	90
516.153	81
516.369	94
516.585	95
516.801	82
517.016	98
517.232	87
517.448	86
517.664	89
517.879	90
518.095	92
518.311	101
518.527	89
518.742	93
518.958	100
519.173	113
519.389	105
519.605	115
519.82	89
520.036	111
520.251	100
520.467	96
520.682	112
520.898	95
521.113	86
521.329	95
521.544	86
521.76	90
521.975	91
522.19	105
522.406	99
522.621	104
522.836	98
523.052	108
523.267	119
523.482	104
523.698	117
523.913	107
524.128	106
524.343	123
524.559	108
524.774	125
524.989	109
525.204	122
525.419	108
525.634	126
525.849	110
526.064	100
526.28	102
526.495	93
526.71	87
526.925	74
527.14	84
527.355	73
527.57	90
527.785	84
527.999	97
528.214	89
528.429	112
528.644	122
528.859	134
529.074	145
529.289	161
529.503	168
529.718	133
529.933	130
530.148	110
530.363	88
530.577	90
530.792	98
531.007	89
531.221	75
531.436	88
531.651	91
531.865	91
532.08	97
532.295	78
532.509	95
532.724	76
532.938	79
533.153	94
533.367	102
533.582	121
533.796	120
534.011	113
534.225	108
534.44	82
534.654	85
534.868	99
535.083	95
535.297	94
535.511	107
535.726	114
535.94	102
536.154	89
536.369	95
536.583	88
536.797	97
537.011	84
537.225	77
537.44	91
537.654	86
537.868	81
538.082	79
538.296	88
538.51	110
538.724	114
538.938	106
539.153	126
539.367	114
539.581	111
539.795	94
540.009	89
540.222	95
540.436	99
540.65	110
540.864	132
541.078	131
541.292	133
541.506	142
541.72	137
541.934	178
542.147	177
542.361	180
542.575	155
542.789	127
543.002	130
543.216	126
543.43	117
543.644	132
543.857	131
544.071	150
544.285	158
544.498	145
544.712	150
544.925	152
545.139	151
545.352	155
545.566	181
545.779	163
545.993	167
546.206	159
546.42	157
546.633	169
546.847	154
547.06	134
547.274	172
547.487	155
547.7	167
547.914	174
548.127	159
548.34	153
548.554	159
548.767	166
548.98	153
549.193	151
549.407	139
549.62	136
549.833	129
550.046	156
550.259	148
550.473	151
550.686	136
550.899	141
551.112	141
551.325	133
551.538	130
551.751	130
551.964	124
552.177	119
552.39	130
552.603	137
552.816	135
553.029	160
553.242	147
553.455	138
553.667	152
553.88	141
554.093	134
554.306	130
554.519	155
554.732	148
554.944	137
555.157	138
555.37	149
555.583	138
555.795	138
556.008	131
556.221	126
556.433	133
556.646	133
556.859	119
557.071	121
557.284	131
557.496	135
557.709	136
557.921	126
558.134	123
558.346	138
558.559	146
558.771	131
558.984	121
559.196	134
559.409	131
559.621	128
559.833	119
560.046	138
560.258	123
560.47	108
560.683	135
560.895	132
561.107	120
561.32	136
561.532	131
561.744	107
561.956	112
562.168	120
562.381	124
562.593	124
562.805	109
563.017	120
563.229	130
563.441	105
563.653	116
563.865	116
564.077	100
564.289	122
564.501	111
564.713	112
564.925	102
565.137	118
565.349	116
565.561	106
565.773	110
565.985	100
566.197	108
566.408	100
566.62	130
566.832	119
567.044	107
567.255	113
567.467	118
567.679	113
567.891	92
568.102	94
568.314	84
568.526	88
568.737	86
568.949	84
569.161	85
569.372	89
569.584	80
569.795	78
570.007	82
570.218	82
570.43	103
570.641	80
570.853	87
571.064	107
571.276	92
571.487	99
571.698	114
571.91	99
572.121	105
572.333	89
572.544	95
572.755	88
572.966	87
573.178	85
573.389	93
573.6	91
573.811	79
574.023	90
574.234	83
574.445	91
574.656	91
574.867	96
575.078	100
575.289	79
575.501	101
575.712	86
575.923	86
576.134	112
576.345	99
576.556	110
576.767	105
576.978	92
577.188	103
577.399	92
577.61	97
