Data from Location4.07152019.Energy5.Lamp.07192019.3%Agarose_HRD10591_16-18-46-925.txt Node
Date: Fri Jul 19 16:18:46 EDT 2019
User: cochatt
Spectrometer: HR+D1059
Trigger mode: 1
Integration Time (sec): 1.000000E-1
Scans to average: 1
Electric dark correction enabled: true
Nonlinearity correction enabled: false
Boxcar width: 0
XAxis mode: Wavelengths
Number of Pixels in Spectrum: 2048
>>>>>Begin Spectral Data<<<<<
223.165	-5.69
223.4	-5.69
223.635	-5.69
223.869	-2.69
224.104	-13.69
224.338	-18.69
224.573	-14.69
224.808	-11.69
225.042	-11.69
225.277	-20.69
225.511	0.31
225.746	24.31
225.98	9.31
226.215	-0.69
226.449	7.31
226.683	-3.69
226.918	31.31
227.152	31.31
227.387	29.31
227.621	19.31
227.856	51.31
228.09	57.31
228.324	50.31
228.559	51.31
228.793	52.31
229.027	55.31
229.262	78.31
229.496	77.31
229.73	67.31
229.964	76.31
230.199	75.31
230.433	79.31
230.667	80.31
230.901	63.31
231.136	86.31
231.37	64.31
231.604	82.31
231.838	74.31
232.072	74.31
232.306	76.31
232.541	75.31
232.775	79.31
233.009	77.31
233.243	75.31
233.477	72.31
233.711	75.31
233.945	78.31
234.179	60.31
234.413	74.31
234.647	80.31
234.881	84.31
235.115	88.31
235.349	83.31
235.583	87.31
235.817	89.31
236.051	85.31
236.285	67.31
236.519	71.31
236.753	85.31
236.987	89.31
237.221	79.31
237.455	67.31
237.689	79.31
237.922	72.31
238.156	69.31
238.39	82.31
238.624	66.31
238.858	74.31
239.091	69.31
239.325	80.31
239.559	70.31
239.793	81.31
240.027	89.31
240.26	66.31
240.494	81.31
240.728	61.31
240.961	61.31
241.195	77.31
241.429	83.31
241.662	73.31
241.896	82.31
242.13	70.31
242.363	71.31
242.597	84.31
242.83	75.31
243.064	84.31
243.298	86.31
243.531	72.31
243.765	73.31
243.998	69.31
244.232	75.31
244.465	81.31
244.699	85.31
244.932	72.31
245.166	73.31
245.399	59.31
245.633	85.31
245.866	73.31
246.099	76.31
246.333	87.31
246.566	72.31
246.8	83.31
247.033	89.31
247.266	83.31
247.5	74.31
247.733	67.31
247.966	79.31
248.2	87.31
248.433	88.31
248.666	82.31
248.899	72.31
249.133	74.31
249.366	83.31
249.599	69.31
249.832	79.31
250.066	92.31
250.299	85.31
250.532	92.31
250.765	72.31
250.998	84.31
251.231	79.31
251.465	69.31
251.698	67.31
251.931	68.31
252.164	72.31
252.397	77.31
252.63	85.31
252.863	85.31
253.096	77.31
253.329	78.31
253.562	79.31
253.795	89.31
254.028	76.31
254.261	77.31
254.494	84.31
254.727	73.31
254.96	77.31
255.193	73.31
255.426	80.31
255.659	71.31
255.892	75.31
256.124	77.31
256.357	96.31
256.59	77.31
256.823	89.31
257.056	91.31
257.289	77.31
257.521	79.31
257.754	77.31
257.987	88.31
258.22	70.31
258.452	95.31
258.685	81.31
258.918	73.31
259.151	89.31
259.383	69.31
259.616	91.31
259.849	82.31
260.081	89.31
260.314	85.31
260.547	93.31
260.779	91.31
261.012	69.31
261.244	87.31
261.477	73.31
261.71	74.31
261.942	77.31
262.175	77.31
262.407	73.31
262.64	84.31
262.872	89.31
263.105	68.31
263.337	81.31
263.57	91.31
263.802	72.31
264.035	69.31
264.267	65.31
264.499	79.31
264.732	83.31
264.964	82.31
265.197	84.31
265.429	81.31
265.661	87.31
265.894	86.31
266.126	97.31
266.358	85.31
266.591	80.31
266.823	97.31
267.055	78.31
267.287	87.31
267.52	65.31
267.752	99.31
267.984	83.31
268.216	85.31
268.448	77.31
268.681	83.31
268.913	69.31
269.145	74.31
269.377	82.31
269.609	70.31
269.841	79.31
270.073	79.31
270.306	76.31
270.538	74.31
270.77	62.31
271.002	64.31
271.234	89.31
271.466	90.31
271.698	79.31
271.93	85.31
272.162	86.31
272.394	85.31
272.626	76.31
272.858	92.31
273.09	88.31
273.322	84.31
273.553	93.31
273.785	85.31
274.017	76.31
274.249	77.31
274.481	86.31
274.713	77.31
274.945	81.31
275.176	74.31
275.408	92.31
275.64	67.31
275.872	80.31
276.104	73.31
276.335	85.31
276.567	84.31
276.799	74.31
277.031	73.31
277.262	78.31
277.494	76.31
277.726	81.31
277.957	96.31
278.189	90.31
278.421	67.31
278.652	93.31
278.884	73.31
279.115	61.31
279.347	88.31
279.579	67.31
279.81	78.31
280.042	73.31
280.273	89.31
280.505	74.31
280.736	88.31
280.968	85.31
281.199	92.31
281.431	83.31
281.662	69.31
281.894	84.31
282.125	79.31
282.356	89.31
282.588	87.31
282.819	83.31
283.051	76.31
283.282	88.31
283.513	85.31
283.745	91.31
283.976	81.31
284.207	75.31
284.439	94.31
284.67	85.31
284.901	77.31
285.132	86.31
285.364	84.31
285.595	93.31
285.826	87.31
286.057	86.31
286.288	81.31
286.52	83.31
286.751	74.31
286.982	88.31
287.213	86.31
287.444	77.31
287.675	87.31
287.906	82.31
288.138	89.31
288.369	91.31
288.6	84.31
288.831	79.31
289.062	84.31
289.293	82.31
289.524	94.31
289.755	89.31
289.986	84.31
290.217	82.31
290.448	79.31
290.679	86.31
290.91	90.31
291.141	77.31
291.371	82.31
291.602	79.31
291.833	79.31
292.064	82.31
292.295	75.31
292.526	100.31
292.757	85.31
292.987	99.31
293.218	84.31
293.449	65.31
293.68	81.31
293.91	81.31
294.141	91.31
294.372	83.31
294.603	82.31
294.833	75.31
295.064	89.31
295.295	76.31
295.525	79.31
295.756	83.31
295.987	93.31
296.217	87.31
296.448	85.31
296.679	93.31
296.909	85.31
297.14	88.31
297.37	84.31
297.601	78.31
297.831	96.31
298.062	81.31
298.292	76.31
298.523	94.31
298.753	64.31
298.984	88.31
299.214	74.31
299.445	99.31
299.675	77.31
299.905	83.31
300.136	87.31
300.366	99.31
300.597	80.31
300.827	72.31
301.057	89.31
301.288	86.31
301.518	82.31
301.748	93.31
301.979	61.31
302.209	85.31
302.439	83.31
302.669	79.31
302.9	69.31
303.13	92.31
303.36	83.31
303.59	81.31
303.82	77.31
304.051	77.31
304.281	86.31
304.511	104.31
304.741	84.31
304.971	74.31
305.201	77.31
305.431	82.31
305.661	79.31
305.891	77.31
306.121	88.31
306.352	91.31
306.582	91.31
306.812	78.31
307.042	87.31
307.272	92.31
307.502	73.31
307.731	82.31
307.961	90.31
308.191	84.31
308.421	91.31
308.651	81.31
308.881	79.31
309.111	82.31
309.341	87.31
309.571	76.31
309.8	90.31
310.03	77.31
310.26	81.31
310.49	84.31
310.72	82.31
310.949	93.31
311.179	90.31
311.409	83.31
311.639	96.31
311.868	81.31
312.098	76.31
312.328	92.31
312.557	86.31
312.787	71.31
313.017	80.31
313.246	75.31
313.476	79.31
313.706	85.31
313.935	98.31
314.165	84.31
314.394	85.31
314.624	76.31
314.853	88.31
315.083	80.31
315.312	84.31
315.542	92.31
315.771	84.31
316.001	81.31
316.23	81.31
316.46	102.31
316.689	82.31
316.919	92.31
317.148	91.31
317.377	81.31
317.607	78.31
317.836	82.31
318.065	91.31
318.295	85.31
318.524	83.31
318.753	78.31
318.983	87.31
319.212	90.31
319.441	87.31
319.67	92.31
319.9	90.31
320.129	88.31
320.358	84.31
320.587	82.31
320.816	67.31
321.046	84.31
321.275	92.31
321.504	81.31
321.733	87.31
321.962	87.31
322.191	86.31
322.42	83.31
322.649	82.31
322.878	82.31
323.108	84.31
323.337	83.31
323.566	73.31
323.795	81.31
324.024	88.31
324.253	76.31
324.482	74.31
324.71	71.31
324.939	76.31
325.168	74.31
325.397	85.31
325.626	81.31
325.855	86.31
326.084	79.31
326.313	92.31
326.542	95.31
326.77	99.31
326.999	80.31
327.228	82.31
327.457	81.31
327.686	76.31
327.914	71.31
328.143	87.31
328.372	76.31
328.6	90.31
328.829	83.31
329.058	86.31
329.287	87.31
329.515	81.31
329.744	83.31
329.972	102.31
330.201	87.31
330.43	89.31
330.658	92.31
330.887	86.31
331.115	93.31
331.344	87.31
331.572	90.31
331.801	85.31
332.03	83.31
332.258	86.31
332.486	73.31
332.715	86.31
332.943	77.31
333.172	108.31
333.4	93.31
333.629	86.31
333.857	75.31
334.085	87.31
334.314	83.31
334.542	77.31
334.771	86.31
334.999	73.31
335.227	93.31
335.455	75.31
335.684	99.31
335.912	77.31
336.14	83.31
336.369	88.31
336.597	83.31
336.825	95.31
337.053	85.31
337.281	89.31
337.51	76.31
337.738	90.31
337.966	102.31
338.194	82.31
338.422	96.31
338.65	94.31
338.878	88.31
339.106	83.31
339.334	84.31
339.562	86.31
339.79	81.31
340.018	87.31
340.246	65.31
340.474	87.31
340.702	90.31
340.93	77.31
341.158	82.31
341.386	94.31
341.614	83.31
341.842	87.31
342.07	77.31
342.298	83.31
342.526	68.31
342.754	82.31
342.981	76.31
343.209	88.31
343.437	76.31
343.665	77.31
343.893	95.31
344.12	79.31
344.348	96.31
344.576	82.31
344.804	80.31
345.031	82.31
345.259	84.31
345.487	69.31
345.714	82.31
345.942	71.31
346.17	80.31
346.397	78.31
346.625	71.31
346.853	84.31
347.08	91.31
347.308	77.31
347.535	71.31
347.763	84.31
347.99	75.31
348.218	95.31
348.445	94.31
348.673	79.31
348.9	79.31
349.128	95.31
349.355	83.31
349.583	81.31
349.81	83.31
350.037	76.31
350.265	89.31
350.492	83.31
350.72	85.31
350.947	89.31
351.174	87.31
351.402	76.31
351.629	76.31
351.856	80.31
352.083	75.31
352.311	77.31
352.538	87.31
352.765	81.31
352.992	82.31
353.22	83.31
353.447	84.31
353.674	83.31
353.901	90.31
354.128	86.31
354.355	76.31
354.583	79.31
354.81	76.31
355.037	91.31
355.264	92.31
355.491	89.31
355.718	73.31
355.945	84.31
356.172	85.31
356.399	83.31
356.626	81.31
356.853	75.31
357.08	87.31
357.307	92.31
357.534	79.31
357.761	83.31
357.988	88.31
358.215	89.31
358.441	73.31
358.668	83.31
358.895	78.31
359.122	88.31
359.349	84.31
359.576	74.31
359.802	65.31
360.029	90.31
360.256	81.31
360.483	88.31
360.709	93.31
360.936	83.31
361.163	78.31
361.39	80.31
361.616	80.31
361.843	95.31
362.07	80.31
362.296	87.31
362.523	79.31
362.749	85.31
362.976	73.31
363.203	75.31
363.429	89.31
363.656	84.31
363.882	72.31
364.109	68.31
364.335	94.31
364.562	80.31
364.788	87.31
365.015	78.31
365.241	78.31
365.468	84.31
365.694	87.31
365.92	88.31
366.147	86.31
366.373	79.31
366.599	89.31
366.826	87.31
367.052	80.31
367.278	84.31
367.505	83.31
367.731	89.31
367.957	84.31
368.184	86.31
368.41	93.31
368.636	75.31
368.862	75.31
369.089	69.31
369.315	86.31
369.541	75.31
369.767	91.31
369.993	78.31
370.219	86.31
370.445	86.31
370.672	99.31
370.898	81.31
371.124	81.31
371.35	90.31
371.576	80.31
371.802	78.31
372.028	86.31
372.254	85.31
372.48	103.31
372.706	87.31
372.932	100.31
373.158	92.31
373.384	94.31
373.61	107.31
373.835	91.31
374.061	88.31
374.287	90.31
374.513	93.31
374.739	81.31
374.965	87.31
375.191	90.31
375.416	100.31
375.642	99.31
375.868	81.31
376.094	89.31
376.319	88.31
376.545	93.31
376.771	101.31
376.997	83.31
377.222	92.31
377.448	90.31
377.674	101.31
377.899	84.31
378.125	91.31
378.35	107.31
378.576	97.31
378.802	98.31
379.027	85.31
379.253	103.31
379.478	92.31
379.704	93.31
379.929	95.31
380.155	81.31
380.38	90.31
380.606	95.31
380.831	87.31
381.057	92.31
381.282	91.31
381.507	97.31
381.733	106.31
381.958	88.31
382.184	99.31
382.409	99.31
382.634	83.31
382.86	98.31
383.085	106.31
383.31	96.31
383.535	94.31
383.761	95.31
383.986	106.31
384.211	99.31
384.436	103.31
384.662	90.31
384.887	88.31
385.112	98.31
385.337	91.31
385.562	99.31
385.787	86.31
386.013	104.31
386.238	97.31
386.463	100.31
386.688	93.31
386.913	108.31
387.138	95.31
387.363	97.31
387.588	101.31
387.813	106.31
388.038	87.31
388.263	90.31
388.488	99.31
388.713	104.31
388.938	97.31
389.163	87.31
389.387	99.31
389.612	97.31
389.837	108.31
390.062	115.31
390.287	99.31
390.512	98.31
390.736	87.31
390.961	105.31
391.186	124.31
391.411	101.31
391.636	98.31
391.86	98.31
392.085	94.31
392.31	104.31
392.534	99.31
392.759	94.31
392.984	106.31
393.208	96.31
393.433	115.31
393.658	121.31
393.882	122.31
394.107	109.31
394.331	108.31
394.556	103.31
394.78	98.31
395.005	107.31
395.229	101.31
395.454	114.31
395.678	107.31
395.903	109.31
396.127	106.31
396.352	95.31
396.576	107.31
396.801	105.31
397.025	95.31
397.249	108.31
397.474	108.31
397.698	101.31
397.922	107.31
398.147	106.31
398.371	108.31
398.595	108.31
398.82	104.31
399.044	108.31
399.268	104.31
399.492	112.31
399.717	106.31
399.941	115.31
400.165	113.31
400.389	111.31
400.613	118.31
400.837	102.31
401.062	109.31
401.286	109.31
401.51	122.31
401.734	107.31
401.958	109.31
402.182	121.31
402.406	106.31
402.63	101.31
402.854	109.31
403.078	120.31
403.302	120.31
403.526	113.31
403.75	105.31
403.974	106.31
404.198	121.31
404.422	116.31
404.645	121.31
404.869	111.31
405.093	125.31
405.317	115.31
405.541	122.31
405.765	102.31
405.988	129.31
406.212	125.31
406.436	115.31
406.66	127.31
406.883	125.31
407.107	127.31
407.331	133.31
407.555	132.31
407.778	123.31
408.002	127.31
408.226	113.31
408.449	139.31
408.673	105.31
408.896	119.31
409.12	116.31
409.344	131.31
409.567	115.31
409.791	111.31
410.014	127.31
410.238	124.31
410.461	121.31
410.685	124.31
410.908	119.31
411.132	115.31
411.355	114.31
411.578	112.31
411.802	122.31
412.025	107.31
412.249	114.31
412.472	116.31
412.695	114.31
412.919	112.31
413.142	123.31
413.365	131.31
413.589	131.31
413.812	125.31
414.035	119.31
414.258	124.31
414.482	106.31
414.705	117.31
414.928	114.31
415.151	129.31
415.374	120.31
415.597	123.31
415.821	120.31
416.044	116.31
416.267	118.31
416.49	122.31
416.713	125.31
416.936	136.31
417.159	125.31
417.382	123.31
417.605	121.31
417.828	127.31
418.051	132.31
418.274	135.31
418.497	121.31
418.72	124.31
418.943	124.31
419.166	125.31
419.389	125.31
419.611	127.31
419.834	127.31
420.057	130.31
420.28	129.31
420.503	138.31
420.726	128.31
420.948	130.31
421.171	134.31
421.394	128.31
421.617	146.31
421.839	137.31
422.062	131.31
422.285	128.31
422.507	131.31
422.73	123.31
422.953	102.31
423.175	113.31
423.398	119.31
423.621	122.31
423.843	130.31
424.066	155.31
424.288	147.31
424.511	146.31
424.733	147.31
424.956	116.31
425.178	140.31
425.401	135.31
425.623	143.31
425.846	135.31
426.068	129.31
426.291	129.31
426.513	132.31
426.735	135.31
426.958	128.31
427.18	120.31
427.402	127.31
427.625	127.31
427.847	130.31
428.069	123.31
428.292	139.31
428.514	122.31
428.736	129.31
428.958	124.31
429.181	124.31
429.403	124.31
429.625	139.31
429.847	125.31
430.069	118.31
430.292	116.31
430.514	127.31
430.736	133.31
430.958	135.31
431.18	121.31
431.402	115.31
431.624	126.31
431.846	104.31
432.068	91.31
432.29	98.31
432.512	125.31
432.734	120.31
432.956	126.31
433.178	145.31
433.4	129.31
433.622	141.31
433.844	117.31
434.066	128.31
434.287	121.31
434.509	98.31
434.731	92.31
434.953	96.31
435.175	120.31
435.397	140.31
435.618	108.31
435.84	115.31
436.062	117.31
436.284	118.31
436.505	119.31
436.727	146.31
436.949	138.31
437.17	113.31
437.392	124.31
437.614	129.31
437.835	108.31
438.057	121.31
438.278	115.31
438.5	113.31
438.721	130.31
438.943	133.31
439.165	141.31
439.386	133.31
439.608	140.31
439.829	135.31
440.05	151.31
440.272	153.31
440.493	141.31
440.715	134.31
440.936	142.31
441.158	145.31
441.379	137.31
441.6	138.31
441.822	176.31
442.043	145.31
442.264	141.31
442.486	131.31
442.707	146.31
442.928	142.31
443.149	145.31
443.371	147.31
443.592	131.31
443.813	145.31
444.034	131.31
444.255	139.31
444.476	150.31
444.698	144.31
444.919	148.31
445.14	266.31
445.361	213.31
445.582	147.31
445.803	156.31
446.024	154.31
446.245	157.31
446.466	147.31
446.687	149.31
446.908	152.31
447.129	143.31
447.35	137.31
447.571	150.31
447.792	151.31
448.013	150.31
448.234	151.31
448.455	131.31
448.675	122.31
448.896	137.31
449.117	131.31
449.338	133.31
449.559	138.31
449.779	129.31
450	135.31
450.221	132.31
450.442	133.31
450.662	139.31
450.883	132.31
451.104	139.31
451.324	138.31
451.545	132.31
451.766	136.31
451.986	119.31
452.207	127.31
452.428	125.31
452.648	131.31
452.869	99.31
453.089	105.31
453.31	103.31
453.53	119.31
453.751	94.31
453.971	118.31
454.192	109.31
454.412	101.31
454.633	105.31
454.853	116.31
455.073	121.31
455.294	123.31
455.514	117.31
455.734	117.31
455.955	114.31
456.175	100.31
456.395	97.31
456.616	107.31
456.836	117.31
457.056	115.31
457.276	106.31
457.497	113.31
457.717	115.31
457.937	114.31
458.157	104.31
458.377	109.31
458.598	92.31
458.818	99.31
459.038	74.31
459.258	85.31
459.478	87.31
459.698	107.31
459.918	84.31
460.138	110.31
460.358	118.31
460.578	119.31
460.798	123.31
461.018	120.31
461.238	118.31
461.458	118.31
461.678	120.31
461.898	119.31
462.118	114.31
462.338	121.31
462.558	107.31
462.777	113.31
462.997	101.31
463.217	104.31
463.437	111.31
463.657	121.31
463.876	124.31
464.096	114.31
464.316	102.31
464.536	111.31
464.755	101.31
464.975	97.31
465.195	122.31
465.414	115.31
465.634	125.31
465.854	114.31
466.073	110.31
466.293	109.31
466.512	127.31
466.732	127.31
466.951	133.31
467.171	141.31
467.391	127.31
467.61	131.31
467.829	131.31
468.049	159.31
468.268	147.31
468.488	131.31
468.707	119.31
468.927	136.31
469.146	138.31
469.365	141.31
469.585	140.31
469.804	151.31
470.023	129.31
470.243	136.31
470.462	137.31
470.681	135.31
470.901	147.31
471.12	140.31
471.339	138.31
471.558	148.31
471.777	148.31
471.997	143.31
472.216	111.31
472.435	114.31
472.654	101.31
472.873	98.31
473.092	113.31
473.311	136.31
473.53	116.31
473.749	119.31
473.968	141.31
474.187	114.31
474.406	127.31
474.625	131.31
474.844	131.31
475.063	123.31
475.282	119.31
475.501	111.31
475.72	122.31
475.939	131.31
476.158	122.31
476.377	133.31
476.596	126.31
476.814	123.31
477.033	113.31
477.252	116.31
477.471	122.31
477.69	124.31
477.908	140.31
478.127	153.31
478.346	139.31
478.564	120.31
478.783	132.31
479.002	142.31
479.22	129.31
479.439	137.31
479.658	127.31
479.876	118.31
480.095	109.31
480.313	107.31
480.532	113.31
480.751	102.31
480.969	92.31
481.188	88.31
481.406	95.31
481.624	86.31
481.843	82.31
482.061	95.31
482.28	111.31
482.498	113.31
482.717	99.31
482.935	129.31
483.153	128.31
483.372	136.31
483.59	161.31
483.808	138.31
484.027	132.31
484.245	142.31
484.463	152.31
484.681	182.31
484.9	153.31
485.118	155.31
485.336	139.31
485.554	123.31
485.772	93.31
485.99	109.31
486.209	105.31
486.427	123.31
486.645	130.31
486.863	128.31
487.081	140.31
487.299	134.31
487.517	144.31
487.735	161.31
487.953	178.31
488.171	181.31
488.389	165.31
488.607	161.31
488.825	141.31
489.043	143.31
489.261	133.31
489.479	133.31
489.696	131.31
489.914	140.31
490.132	151.31
490.35	149.31
490.568	151.31
490.786	173.31
491.003	185.31
491.221	187.31
491.439	177.31
491.657	189.31
491.874	196.31
492.092	205.31
492.31	239.31
492.527	222.31
492.745	215.31
492.963	198.31
493.18	181.31
493.398	184.31
493.615	182.31
493.833	179.31
494.05	162.31
494.268	160.31
494.485	162.31
494.703	167.31
494.92	166.31
495.138	164.31
495.355	168.31
495.573	153.31
495.79	165.31
496.008	176.31
496.225	160.31
496.442	163.31
496.66	163.31
496.877	155.31
497.094	161.31
497.312	146.31
497.529	141.31
497.746	149.31
497.963	127.31
498.181	124.31
498.398	123.31
498.615	123.31
498.832	117.31
499.049	101.31
499.267	115.31
499.484	128.31
499.701	130.31
499.918	132.31
500.135	122.31
500.352	145.31
500.569	153.31
500.786	147.31
501.003	127.31
501.22	136.31
501.437	136.31
501.654	135.31
501.871	127.31
502.088	137.31
502.305	128.31
502.522	123.31
502.739	133.31
502.956	119.31
503.172	125.31
503.389	122.31
503.606	100.31
503.823	113.31
504.04	121.31
504.256	118.31
504.473	136.31
504.69	120.31
504.907	124.31
505.123	118.31
505.34	121.31
505.557	129.31
505.773	125.31
505.99	125.31
506.207	116.31
506.423	100.31
506.64	119.31
506.856	139.31
507.073	116.31
507.289	125.31
507.506	112.31
507.722	133.31
507.939	101.31
508.155	111.31
508.372	107.31
508.588	108.31
508.805	120.31
509.021	105.31
509.238	104.31
509.454	87.31
509.67	84.31
509.887	98.31
510.103	103.31
510.319	99.31
510.536	104.31
510.752	98.31
510.968	95.31
511.184	91.31
511.401	77.31
511.617	101.31
511.833	90.31
