Data from Location4.07152019.Energy5.Lamp.07192019.3%Agarose_HRD10591_16-18-25-925.txt Node
Date: Fri Jul 19 16:18:25 EDT 2019
User: cochatt
Spectrometer: HR+D1059
Trigger mode: 1
Integration Time (sec): 1.000000E-1
Scans to average: 1
Electric dark correction enabled: true
Nonlinearity correction enabled: false
Boxcar width: 0
XAxis mode: Wavelengths
Number of Pixels in Spectrum: 2048
>>>>>Begin Spectral Data<<<<<
223.165	-11.81
223.4	-11.81
223.635	-11.81
223.869	-13.81
224.104	-22.81
224.338	-15.81
224.573	-35.81
224.808	-19.81
225.042	-3.81
225.277	1.19
225.511	-2.81
225.746	5.19
225.98	6.19
226.215	9.19
226.449	4.19
226.683	32.19
226.918	31.19
227.152	37.19
227.387	35.19
227.621	28.19
227.856	51.19
228.09	52.19
228.324	32.19
228.559	55.19
228.793	46.19
229.027	64.19
229.262	50.19
229.496	78.19
229.73	71.19
229.964	59.19
230.199	68.19
230.433	68.19
230.667	66.19
230.901	65.19
231.136	77.19
231.37	79.19
231.604	68.19
231.838	68.19
232.072	82.19
232.306	74.19
232.541	88.19
232.775	79.19
233.009	78.19
233.243	89.19
233.477	78.19
233.711	69.19
233.945	71.19
234.179	79.19
234.413	91.19
234.647	70.19
234.881	76.19
235.115	65.19
235.349	72.19
235.583	78.19
235.817	76.19
236.051	82.19
236.285	70.19
236.519	81.19
236.753	72.19
236.987	70.19
237.221	79.19
237.455	73.19
237.689	67.19
237.922	71.19
238.156	65.19
238.39	76.19
238.624	70.19
238.858	83.19
239.091	79.19
239.325	81.19
239.559	74.19
239.793	67.19
240.027	64.19
240.26	66.19
240.494	81.19
240.728	62.19
240.961	67.19
241.195	88.19
241.429	68.19
241.662	86.19
241.896	57.19
242.13	68.19
242.363	70.19
242.597	77.19
242.83	82.19
243.064	81.19
243.298	95.19
243.531	72.19
243.765	71.19
243.998	84.19
244.232	71.19
244.465	78.19
244.699	74.19
244.932	66.19
245.166	74.19
245.399	87.19
245.633	82.19
245.866	72.19
246.099	76.19
246.333	77.19
246.566	68.19
246.8	76.19
247.033	68.19
247.266	91.19
247.5	78.19
247.733	86.19
247.966	95.19
248.2	85.19
248.433	74.19
248.666	81.19
248.899	72.19
249.133	79.19
249.366	81.19
249.599	72.19
249.832	86.19
250.066	86.19
250.299	96.19
250.532	81.19
250.765	79.19
250.998	64.19
251.231	83.19
251.465	104.19
251.698	74.19
251.931	83.19
252.164	70.19
252.397	78.19
252.63	71.19
252.863	76.19
253.096	72.19
253.329	86.19
253.562	75.19
253.795	91.19
254.028	74.19
254.261	74.19
254.494	80.19
254.727	85.19
254.96	81.19
255.193	70.19
255.426	80.19
255.659	76.19
255.892	82.19
256.124	78.19
256.357	68.19
256.59	82.19
256.823	82.19
257.056	79.19
257.289	84.19
257.521	77.19
257.754	85.19
257.987	103.19
258.22	77.19
258.452	81.19
258.685	76.19
258.918	66.19
259.151	77.19
259.383	86.19
259.616	88.19
259.849	73.19
260.081	76.19
260.314	75.19
260.547	86.19
260.779	71.19
261.012	78.19
261.244	74.19
261.477	85.19
261.71	73.19
261.942	70.19
262.175	89.19
262.407	94.19
262.64	82.19
262.872	62.19
263.105	67.19
263.337	76.19
263.57	69.19
263.802	83.19
264.035	73.19
264.267	84.19
264.499	74.19
264.732	66.19
264.964	70.19
265.197	75.19
265.429	80.19
265.661	73.19
265.894	69.19
266.126	88.19
266.358	73.19
266.591	89.19
266.823	84.19
267.055	81.19
267.287	92.19
267.52	82.19
267.752	71.19
267.984	85.19
268.216	86.19
268.448	84.19
268.681	78.19
268.913	71.19
269.145	72.19
269.377	67.19
269.609	80.19
269.841	74.19
270.073	70.19
270.306	87.19
270.538	80.19
270.77	89.19
271.002	89.19
271.234	64.19
271.466	80.19
271.698	84.19
271.93	73.19
272.162	76.19
272.394	70.19
272.626	72.19
272.858	79.19
273.09	90.19
273.322	68.19
273.553	83.19
273.785	68.19
274.017	68.19
274.249	84.19
274.481	80.19
274.713	100.19
274.945	84.19
275.176	72.19
275.408	77.19
275.64	74.19
275.872	89.19
276.104	91.19
276.335	88.19
276.567	76.19
276.799	73.19
277.031	78.19
277.262	79.19
277.494	80.19
277.726	86.19
277.957	78.19
278.189	81.19
278.421	74.19
278.652	74.19
278.884	69.19
279.115	78.19
279.347	83.19
279.579	68.19
279.81	80.19
280.042	66.19
280.273	75.19
280.505	76.19
280.736	77.19
280.968	78.19
281.199	78.19
281.431	86.19
281.662	76.19
281.894	73.19
282.125	66.19
282.356	82.19
282.588	88.19
282.819	70.19
283.051	77.19
283.282	83.19
283.513	85.19
283.745	97.19
283.976	89.19
284.207	73.19
284.439	71.19
284.67	81.19
284.901	82.19
285.132	79.19
285.364	74.19
285.595	78.19
285.826	70.19
286.057	75.19
286.288	68.19
286.52	84.19
286.751	74.19
286.982	86.19
287.213	75.19
287.444	85.19
287.675	78.19
287.906	85.19
288.138	71.19
288.369	81.19
288.6	88.19
288.831	76.19
289.062	78.19
289.293	79.19
289.524	80.19
289.755	77.19
289.986	84.19
290.217	84.19
290.448	82.19
290.679	88.19
290.91	75.19
291.141	68.19
291.371	88.19
291.602	100.19
291.833	74.19
292.064	80.19
292.295	80.19
292.526	87.19
292.757	92.19
292.987	74.19
293.218	66.19
293.449	78.19
293.68	79.19
293.91	80.19
294.141	94.19
294.372	72.19
294.603	86.19
294.833	88.19
295.064	78.19
295.295	85.19
295.525	85.19
295.756	86.19
295.987	81.19
296.217	87.19
296.448	70.19
296.679	74.19
296.909	76.19
297.14	80.19
297.37	85.19
297.601	66.19
297.831	76.19
298.062	97.19
298.292	93.19
298.523	91.19
298.753	90.19
298.984	81.19
299.214	78.19
299.445	87.19
299.675	79.19
299.905	77.19
300.136	80.19
300.366	68.19
300.597	83.19
300.827	92.19
301.057	83.19
301.288	93.19
301.518	60.19
301.748	80.19
301.979	81.19
302.209	70.19
302.439	82.19
302.669	93.19
302.9	86.19
303.13	78.19
303.36	93.19
303.59	81.19
303.82	99.19
304.051	84.19
304.281	84.19
304.511	81.19
304.741	93.19
304.971	72.19
305.201	88.19
305.431	73.19
305.661	68.19
305.891	83.19
306.121	80.19
306.352	72.19
306.582	82.19
306.812	71.19
307.042	83.19
307.272	81.19
307.502	80.19
307.731	84.19
307.961	65.19
308.191	78.19
308.421	73.19
308.651	83.19
308.881	86.19
309.111	84.19
309.341	93.19
309.571	88.19
309.8	85.19
310.03	82.19
310.26	85.19
310.49	83.19
310.72	83.19
310.949	79.19
311.179	78.19
311.409	80.19
311.639	81.19
311.868	74.19
312.098	81.19
312.328	77.19
312.557	79.19
312.787	78.19
313.017	74.19
313.246	79.19
313.476	74.19
313.706	78.19
313.935	80.19
314.165	81.19
314.394	82.19
314.624	77.19
314.853	91.19
315.083	82.19
315.312	81.19
315.542	82.19
315.771	86.19
316.001	83.19
316.23	89.19
316.46	83.19
316.689	89.19
316.919	76.19
317.148	82.19
317.377	88.19
317.607	93.19
317.836	83.19
318.065	85.19
318.295	80.19
318.524	84.19
318.753	86.19
318.983	79.19
319.212	100.19
319.441	87.19
319.67	80.19
319.9	68.19
320.129	77.19
320.358	81.19
320.587	84.19
320.816	65.19
321.046	76.19
321.275	80.19
321.504	86.19
321.733	100.19
321.962	88.19
322.191	77.19
322.42	92.19
322.649	55.19
322.878	77.19
323.108	80.19
323.337	77.19
323.566	77.19
323.795	86.19
324.024	87.19
324.253	83.19
324.482	82.19
324.71	76.19
324.939	84.19
325.168	85.19
325.397	79.19
325.626	64.19
325.855	85.19
326.084	80.19
326.313	66.19
326.542	75.19
326.77	80.19
326.999	84.19
327.228	91.19
327.457	84.19
327.686	74.19
327.914	77.19
328.143	86.19
328.372	81.19
328.6	73.19
328.829	95.19
329.058	71.19
329.287	72.19
329.515	72.19
329.744	81.19
329.972	79.19
330.201	93.19
330.43	74.19
330.658	76.19
330.887	78.19
331.115	87.19
331.344	79.19
331.572	78.19
331.801	94.19
332.03	80.19
332.258	76.19
332.486	74.19
332.715	70.19
332.943	87.19
333.172	77.19
333.4	73.19
333.629	85.19
333.857	73.19
334.085	80.19
334.314	67.19
334.542	73.19
334.771	86.19
334.999	86.19
335.227	75.19
335.455	74.19
335.684	87.19
335.912	70.19
336.14	83.19
336.369	87.19
336.597	82.19
336.825	77.19
337.053	78.19
337.281	82.19
337.51	79.19
337.738	86.19
337.966	73.19
338.194	81.19
338.422	78.19
338.65	87.19
338.878	81.19
339.106	84.19
339.334	101.19
339.562	91.19
339.79	84.19
340.018	74.19
340.246	79.19
340.474	67.19
340.702	66.19
340.93	83.19
341.158	85.19
341.386	87.19
341.614	79.19
341.842	73.19
342.07	85.19
342.298	91.19
342.526	82.19
342.754	79.19
342.981	78.19
343.209	73.19
343.437	76.19
343.665	82.19
343.893	93.19
344.12	91.19
344.348	72.19
344.576	71.19
344.804	65.19
345.031	82.19
345.259	94.19
345.487	81.19
345.714	77.19
345.942	84.19
346.17	84.19
346.397	82.19
346.625	87.19
346.853	72.19
347.08	84.19
347.308	84.19
347.535	70.19
347.763	91.19
347.99	82.19
348.218	82.19
348.445	78.19
348.673	60.19
348.9	72.19
349.128	72.19
349.355	81.19
349.583	78.19
349.81	73.19
350.037	77.19
350.265	60.19
350.492	77.19
350.72	76.19
350.947	90.19
351.174	72.19
351.402	64.19
351.629	80.19
351.856	93.19
352.083	79.19
352.311	68.19
352.538	75.19
352.765	85.19
352.992	84.19
353.22	83.19
353.447	106.19
353.674	92.19
353.901	73.19
354.128	73.19
354.355	81.19
354.583	81.19
354.81	64.19
355.037	82.19
355.264	62.19
355.491	74.19
355.718	75.19
355.945	72.19
356.172	77.19
356.399	80.19
356.626	74.19
356.853	78.19
357.08	73.19
357.307	82.19
357.534	82.19
357.761	92.19
357.988	78.19
358.215	83.19
358.441	74.19
358.668	70.19
358.895	79.19
359.122	82.19
359.349	72.19
359.576	73.19
359.802	70.19
360.029	82.19
360.256	78.19
360.483	80.19
360.709	79.19
360.936	75.19
361.163	82.19
361.39	68.19
361.616	83.19
361.843	73.19
362.07	80.19
362.296	79.19
362.523	77.19
362.749	89.19
362.976	81.19
363.203	100.19
363.429	74.19
363.656	72.19
363.882	69.19
364.109	97.19
364.335	84.19
364.562	68.19
364.788	77.19
365.015	84.19
365.241	82.19
365.468	97.19
365.694	84.19
365.92	80.19
366.147	90.19
366.373	90.19
366.599	96.19
366.826	73.19
367.052	69.19
367.278	78.19
367.505	79.19
367.731	84.19
367.957	74.19
368.184	77.19
368.41	84.19
368.636	86.19
368.862	89.19
369.089	83.19
369.315	78.19
369.541	85.19
369.767	82.19
369.993	84.19
370.219	79.19
370.445	88.19
370.672	81.19
370.898	95.19
371.124	71.19
371.35	89.19
371.576	87.19
371.802	92.19
372.028	69.19
372.254	76.19
372.48	90.19
372.706	79.19
372.932	81.19
373.158	89.19
373.384	86.19
373.61	84.19
373.835	92.19
374.061	84.19
374.287	76.19
374.513	90.19
374.739	84.19
374.965	93.19
375.191	82.19
375.416	98.19
375.642	87.19
375.868	97.19
376.094	77.19
376.319	93.19
376.545	84.19
376.771	106.19
376.997	94.19
377.222	89.19
377.448	92.19
377.674	99.19
377.899	82.19
378.125	87.19
378.35	92.19
378.576	85.19
378.802	84.19
379.027	97.19
379.253	101.19
379.478	89.19
379.704	91.19
379.929	80.19
380.155	95.19
380.38	83.19
380.606	95.19
380.831	101.19
381.057	114.19
381.282	86.19
381.507	83.19
381.733	93.19
381.958	101.19
382.184	86.19
382.409	90.19
382.634	91.19
382.86	98.19
383.085	92.19
383.31	98.19
383.535	109.19
383.761	107.19
383.986	111.19
384.211	86.19
384.436	86.19
384.662	86.19
384.887	93.19
385.112	78.19
385.337	86.19
385.562	94.19
385.787	89.19
386.013	100.19
386.238	100.19
386.463	106.19
386.688	99.19
386.913	83.19
387.138	79.19
387.363	95.19
387.588	99.19
387.813	86.19
388.038	96.19
388.263	99.19
388.488	101.19
388.713	89.19
388.938	84.19
389.163	90.19
389.387	97.19
389.612	101.19
389.837	94.19
390.062	109.19
390.287	82.19
390.512	99.19
390.736	98.19
390.961	93.19
391.186	101.19
391.411	115.19
391.636	108.19
391.86	113.19
392.085	118.19
392.31	102.19
392.534	92.19
392.759	92.19
392.984	98.19
393.208	96.19
393.433	103.19
393.658	108.19
393.882	110.19
394.107	101.19
394.331	100.19
394.556	111.19
394.78	96.19
395.005	112.19
395.229	91.19
395.454	105.19
395.678	99.19
395.903	104.19
396.127	100.19
396.352	105.19
396.576	86.19
396.801	104.19
397.025	111.19
397.249	112.19
397.474	106.19
397.698	108.19
397.922	114.19
398.147	89.19
398.371	99.19
398.595	109.19
398.82	103.19
399.044	102.19
399.268	115.19
399.492	108.19
399.717	114.19
399.941	104.19
400.165	100.19
400.389	97.19
400.613	117.19
400.837	102.19
401.062	115.19
401.286	106.19
401.51	113.19
401.734	110.19
401.958	97.19
402.182	102.19
402.406	126.19
402.63	102.19
402.854	104.19
403.078	122.19
403.302	95.19
403.526	110.19
403.75	112.19
403.974	105.19
404.198	126.19
404.422	122.19
404.645	112.19
404.869	106.19
405.093	121.19
405.317	120.19
405.541	112.19
405.765	110.19
405.988	116.19
406.212	92.19
406.436	114.19
406.66	110.19
406.883	114.19
407.107	104.19
407.331	110.19
407.555	121.19
407.778	116.19
408.002	116.19
408.226	121.19
408.449	122.19
408.673	113.19
408.896	118.19
409.12	110.19
409.344	123.19
409.567	108.19
409.791	118.19
410.014	113.19
410.238	113.19
410.461	123.19
410.685	123.19
410.908	122.19
411.132	108.19
411.355	106.19
411.578	125.19
411.802	116.19
412.025	106.19
412.249	99.19
412.472	109.19
412.695	119.19
412.919	119.19
413.142	110.19
413.365	121.19
413.589	109.19
413.812	113.19
414.035	109.19
414.258	121.19
414.482	116.19
414.705	130.19
414.928	126.19
415.151	110.19
415.374	113.19
415.597	118.19
415.821	119.19
416.044	123.19
416.267	129.19
416.49	126.19
416.713	113.19
416.936	124.19
417.159	117.19
417.382	134.19
417.605	124.19
417.828	132.19
418.051	116.19
418.274	144.19
418.497	121.19
418.72	132.19
418.943	125.19
419.166	114.19
419.389	115.19
419.611	118.19
419.834	131.19
420.057	125.19
420.28	122.19
420.503	132.19
420.726	127.19
420.948	130.19
421.171	138.19
421.394	134.19
421.617	138.19
421.839	156.19
422.062	141.19
422.285	138.19
422.507	121.19
422.73	129.19
422.953	95.19
423.175	118.19
423.398	122.19
423.621	127.19
423.843	140.19
424.066	122.19
424.288	138.19
424.511	137.19
424.733	130.19
424.956	138.19
425.178	125.19
425.401	153.19
425.623	127.19
425.846	121.19
426.068	112.19
426.291	118.19
426.513	121.19
426.735	116.19
426.958	132.19
427.18	121.19
427.402	135.19
427.625	119.19
427.847	127.19
428.069	114.19
428.292	115.19
428.514	117.19
428.736	120.19
428.958	127.19
429.181	130.19
429.403	126.19
429.625	120.19
429.847	128.19
430.069	132.19
430.292	131.19
430.514	108.19
430.736	116.19
430.958	132.19
431.18	125.19
431.402	122.19
431.624	124.19
431.846	111.19
432.068	94.19
432.29	93.19
432.512	117.19
432.734	120.19
432.956	125.19
433.178	130.19
433.4	124.19
433.622	128.19
433.844	126.19
434.066	110.19
434.287	115.19
434.509	85.19
434.731	93.19
434.953	118.19
435.175	107.19
435.397	116.19
435.618	119.19
435.84	121.19
436.062	103.19
436.284	110.19
436.505	124.19
436.727	124.19
436.949	118.19
437.17	135.19
437.392	126.19
437.614	120.19
437.835	106.19
438.057	126.19
438.278	108.19
438.5	133.19
438.721	113.19
438.943	130.19
439.165	139.19
439.386	140.19
439.608	133.19
439.829	140.19
440.05	133.19
440.272	146.19
440.493	142.19
440.715	134.19
440.936	134.19
441.158	138.19
441.379	143.19
441.6	124.19
441.822	135.19
442.043	124.19
442.264	137.19
442.486	149.19
442.707	139.19
442.928	124.19
443.149	118.19
443.371	139.19
443.592	134.19
443.813	128.19
444.034	142.19
444.255	146.19
444.476	138.19
444.698	129.19
444.919	130.19
445.14	269.19
445.361	196.19
445.582	146.19
445.803	138.19
446.024	140.19
446.245	154.19
446.466	144.19
446.687	148.19
446.908	138.19
447.129	138.19
447.35	138.19
447.571	135.19
447.792	127.19
448.013	134.19
448.234	133.19
448.455	140.19
448.675	136.19
448.896	140.19
449.117	136.19
449.338	122.19
449.559	137.19
449.779	117.19
450	138.19
450.221	125.19
450.442	142.19
450.662	133.19
450.883	132.19
451.104	110.19
451.324	126.19
451.545	125.19
451.766	122.19
451.986	136.19
452.207	128.19
452.428	124.19
452.648	125.19
452.869	121.19
453.089	108.19
453.31	105.19
453.53	126.19
453.751	96.19
453.971	106.19
454.192	105.19
454.412	93.19
454.633	107.19
454.853	122.19
455.073	125.19
455.294	123.19
455.514	123.19
455.734	117.19
455.955	111.19
456.175	108.19
456.395	103.19
456.616	98.19
456.836	99.19
457.056	104.19
457.276	100.19
457.497	98.19
457.717	100.19
457.937	108.19
458.157	110.19
458.377	95.19
458.598	104.19
458.818	108.19
459.038	98.19
459.258	91.19
459.478	87.19
459.698	94.19
459.918	99.19
460.138	112.19
460.358	103.19
460.578	112.19
460.798	112.19
461.018	104.19
461.238	119.19
461.458	130.19
461.678	121.19
461.898	110.19
462.118	124.19
462.338	129.19
462.558	111.19
462.777	114.19
462.997	108.19
463.217	108.19
463.437	117.19
463.657	119.19
463.876	113.19
464.096	104.19
464.316	91.19
464.536	114.19
464.755	100.19
464.975	116.19
465.195	109.19
465.414	102.19
465.634	108.19
465.854	128.19
466.073	122.19
466.293	121.19
466.512	118.19
466.732	125.19
466.951	136.19
467.171	130.19
467.391	132.19
467.61	116.19
467.829	127.19
468.049	135.19
468.268	127.19
468.488	139.19
468.707	136.19
468.927	128.19
469.146	144.19
469.365	126.19
469.585	138.19
469.804	133.19
470.023	137.19
470.243	127.19
470.462	126.19
470.681	142.19
470.901	136.19
471.12	126.19
471.339	143.19
471.558	120.19
471.777	129.19
471.997	146.19
472.216	115.19
472.435	114.19
472.654	98.19
472.873	111.19
473.092	102.19
473.311	101.19
473.53	120.19
473.749	130.19
473.968	129.19
474.187	118.19
474.406	131.19
474.625	132.19
474.844	130.19
475.063	138.19
475.282	121.19
475.501	116.19
475.72	111.19
475.939	111.19
476.158	118.19
476.377	132.19
476.596	122.19
476.814	96.19
477.033	100.19
477.252	111.19
477.471	100.19
477.69	124.19
477.908	127.19
478.127	136.19
478.346	128.19
478.564	119.19
478.783	146.19
479.002	142.19
479.22	130.19
479.439	124.19
479.658	126.19
479.876	108.19
480.095	118.19
480.313	121.19
480.532	111.19
480.751	102.19
480.969	97.19
481.188	88.19
481.406	96.19
481.624	94.19
481.843	79.19
482.061	90.19
482.28	110.19
482.498	119.19
482.717	96.19
482.935	106.19
483.153	140.19
483.372	141.19
483.59	139.19
483.808	122.19
484.027	121.19
484.245	117.19
484.463	154.19
484.681	146.19
484.9	143.19
485.118	124.19
485.336	135.19
485.554	101.19
485.772	89.19
485.99	111.19
486.209	118.19
486.427	108.19
486.645	128.19
486.863	135.19
487.081	143.19
487.299	132.19
487.517	124.19
487.735	150.19
487.953	190.19
488.171	192.19
488.389	174.19
488.607	160.19
488.825	140.19
489.043	134.19
489.261	132.19
489.479	138.19
489.696	134.19
489.914	136.19
490.132	153.19
490.35	144.19
490.568	147.19
490.786	156.19
491.003	176.19
491.221	160.19
491.439	193.19
491.657	186.19
491.874	192.19
492.092	200.19
492.31	236.19
492.527	231.19
492.745	194.19
492.963	185.19
493.18	189.19
493.398	175.19
493.615	188.19
493.833	180.19
494.05	174.19
494.268	186.19
494.485	168.19
494.703	172.19
494.92	180.19
495.138	163.19
495.355	152.19
495.573	170.19
495.79	167.19
496.008	162.19
496.225	152.19
496.442	156.19
496.66	161.19
496.877	140.19
497.094	167.19
497.312	160.19
497.529	165.19
497.746	158.19
497.963	128.19
498.181	126.19
498.398	132.19
498.615	119.19
498.832	101.19
499.049	105.19
499.267	121.19
499.484	113.19
499.701	122.19
499.918	136.19
500.135	139.19
500.352	145.19
500.569	130.19
500.786	146.19
501.003	130.19
501.22	140.19
501.437	121.19
501.654	126.19
501.871	136.19
502.088	127.19
502.305	121.19
502.522	136.19
502.739	125.19
502.956	127.19
503.172	119.19
503.389	111.19
503.606	106.19
503.823	121.19
504.04	110.19
504.256	101.19
504.473	118.19
504.69	125.19
504.907	110.19
505.123	111.19
505.34	125.19
505.557	120.19
505.773	123.19
505.99	120.19
506.207	108.19
506.423	128.19
506.64	120.19
506.856	117.19
507.073	111.19
507.289	108.19
507.506	116.19
507.722	103.19
507.939	120.19
508.155	116.19
508.372	110.19
508.588	111.19
508.805	115.19
509.021	116.19
509.238	104.19
509.454	98.19
509.67	93.19
509.887	95.19
510.103	94.19
510.319	82.19
510.536	99.19
510.752	81.19
510.968	84.19
511.184	78.19
511.401	70.19
511.617	80.19
511.833	88.19
512.049	94.19
