Data from Location4.07152019.Energy5.Lamp.07192019.3%Agarose_HRD10591_16-18-40-926.txt Node
Date: Fri Jul 19 16:18:40 EDT 2019
User: cochatt
Spectrometer: HR+D1059
Trigger mode: 1
Integration Time (sec): 1.000000E-1
Scans to average: 1
Electric dark correction enabled: true
Nonlinearity correction enabled: false
Boxcar width: 0
XAxis mode: Wavelengths
Number of Pixels in Spectrum: 2048
>>>>>Begin Spectral Data<<<<<
223.165	-20.44
223.4	-20.44
223.635	-20.44
223.869	-17.44
224.104	-23.44
224.338	-17.44
224.573	-10.44
224.808	-1.44
225.042	-4.44
225.277	-17.44
225.511	0.56
225.746	5.56
225.98	4.56
226.215	12.56
226.449	12.56
226.683	12.56
226.918	24.56
227.152	39.56
227.387	36.56
227.621	35.56
227.856	38.56
228.09	32.56
228.324	48.56
228.559	49.56
228.793	55.56
229.027	57.56
229.262	60.56
229.496	72.56
229.73	64.56
229.964	74.56
230.199	86.56
230.433	66.56
230.667	59.56
230.901	65.56
231.136	69.56
231.37	80.56
231.604	94.56
231.838	83.56
232.072	82.56
232.306	89.56
232.541	85.56
232.775	73.56
233.009	81.56
233.243	77.56
233.477	75.56
233.711	90.56
233.945	73.56
234.179	72.56
234.413	82.56
234.647	82.56
234.881	78.56
235.115	67.56
235.349	81.56
235.583	83.56
235.817	65.56
236.051	83.56
236.285	91.56
236.519	76.56
236.753	75.56
236.987	68.56
237.221	87.56
237.455	79.56
237.689	84.56
237.922	69.56
238.156	65.56
238.39	77.56
238.624	75.56
238.858	69.56
239.091	62.56
239.325	74.56
239.559	72.56
239.793	79.56
240.027	82.56
240.26	68.56
240.494	67.56
240.728	54.56
240.961	78.56
241.195	70.56
241.429	75.56
241.662	80.56
241.896	78.56
242.13	70.56
242.363	77.56
242.597	82.56
242.83	78.56
243.064	75.56
243.298	76.56
243.531	77.56
243.765	73.56
243.998	67.56
244.232	73.56
244.465	72.56
244.699	75.56
244.932	94.56
245.166	74.56
245.399	73.56
245.633	81.56
245.866	79.56
246.099	72.56
246.333	82.56
246.566	82.56
246.8	65.56
247.033	61.56
247.266	72.56
247.5	85.56
247.733	85.56
247.966	72.56
248.2	76.56
248.433	79.56
248.666	74.56
248.899	69.56
249.133	75.56
249.366	78.56
249.599	76.56
249.832	82.56
250.066	69.56
250.299	74.56
250.532	69.56
250.765	83.56
250.998	76.56
251.231	59.56
251.465	67.56
251.698	81.56
251.931	81.56
252.164	84.56
252.397	80.56
252.63	74.56
252.863	83.56
253.096	75.56
253.329	74.56
253.562	67.56
253.795	63.56
254.028	83.56
254.261	70.56
254.494	82.56
254.727	80.56
254.96	76.56
255.193	69.56
255.426	73.56
255.659	92.56
255.892	84.56
256.124	89.56
256.357	88.56
256.59	86.56
256.823	74.56
257.056	82.56
257.289	86.56
257.521	82.56
257.754	73.56
257.987	76.56
258.22	83.56
258.452	88.56
258.685	80.56
258.918	81.56
259.151	77.56
259.383	63.56
259.616	68.56
259.849	78.56
260.081	85.56
260.314	77.56
260.547	76.56
260.779	76.56
261.012	76.56
261.244	72.56
261.477	92.56
261.71	65.56
261.942	84.56
262.175	87.56
262.407	74.56
262.64	74.56
262.872	81.56
263.105	87.56
263.337	77.56
263.57	95.56
263.802	81.56
264.035	83.56
264.267	82.56
264.499	89.56
264.732	68.56
264.964	90.56
265.197	85.56
265.429	76.56
265.661	86.56
265.894	80.56
266.126	95.56
266.358	83.56
266.591	94.56
266.823	88.56
267.055	76.56
267.287	81.56
267.52	72.56
267.752	81.56
267.984	74.56
268.216	76.56
268.448	70.56
268.681	63.56
268.913	76.56
269.145	75.56
269.377	82.56
269.609	70.56
269.841	75.56
270.073	78.56
270.306	85.56
270.538	87.56
270.77	74.56
271.002	64.56
271.234	81.56
271.466	78.56
271.698	103.56
271.93	93.56
272.162	79.56
272.394	86.56
272.626	90.56
272.858	82.56
273.09	84.56
273.322	86.56
273.553	76.56
273.785	92.56
274.017	86.56
274.249	81.56
274.481	81.56
274.713	91.56
274.945	85.56
275.176	87.56
275.408	77.56
275.64	67.56
275.872	79.56
276.104	83.56
276.335	79.56
276.567	74.56
276.799	81.56
277.031	64.56
277.262	82.56
277.494	84.56
277.726	74.56
277.957	81.56
278.189	75.56
278.421	90.56
278.652	94.56
278.884	85.56
279.115	80.56
279.347	74.56
279.579	71.56
279.81	70.56
280.042	77.56
280.273	95.56
280.505	80.56
280.736	86.56
280.968	80.56
281.199	82.56
281.431	80.56
281.662	88.56
281.894	82.56
282.125	78.56
282.356	86.56
282.588	83.56
282.819	84.56
283.051	88.56
283.282	79.56
283.513	81.56
283.745	84.56
283.976	86.56
284.207	91.56
284.439	91.56
284.67	70.56
284.901	74.56
285.132	75.56
285.364	86.56
285.595	96.56
285.826	80.56
286.057	85.56
286.288	79.56
286.52	80.56
286.751	66.56
286.982	78.56
287.213	70.56
287.444	80.56
287.675	78.56
287.906	88.56
288.138	95.56
288.369	74.56
288.6	71.56
288.831	79.56
289.062	82.56
289.293	81.56
289.524	90.56
289.755	88.56
289.986	86.56
290.217	63.56
290.448	73.56
290.679	85.56
290.91	85.56
291.141	92.56
291.371	82.56
291.602	90.56
291.833	78.56
292.064	87.56
292.295	86.56
292.526	73.56
292.757	63.56
292.987	82.56
293.218	90.56
293.449	71.56
293.68	85.56
293.91	73.56
294.141	67.56
294.372	95.56
294.603	78.56
294.833	80.56
295.064	87.56
295.295	83.56
295.525	82.56
295.756	83.56
295.987	76.56
296.217	84.56
296.448	87.56
296.679	88.56
296.909	91.56
297.14	84.56
297.37	67.56
297.601	91.56
297.831	84.56
298.062	84.56
298.292	86.56
298.523	83.56
298.753	95.56
298.984	82.56
299.214	80.56
299.445	74.56
299.675	68.56
299.905	89.56
300.136	80.56
300.366	82.56
300.597	84.56
300.827	79.56
301.057	80.56
301.288	81.56
301.518	77.56
301.748	88.56
301.979	72.56
302.209	87.56
302.439	81.56
302.669	65.56
302.9	75.56
303.13	96.56
303.36	83.56
303.59	74.56
303.82	80.56
304.051	91.56
304.281	80.56
304.511	65.56
304.741	80.56
304.971	95.56
305.201	94.56
305.431	75.56
305.661	80.56
305.891	86.56
306.121	98.56
306.352	88.56
306.582	80.56
306.812	87.56
307.042	77.56
307.272	83.56
307.502	75.56
307.731	74.56
307.961	82.56
308.191	75.56
308.421	83.56
308.651	70.56
308.881	92.56
309.111	82.56
309.341	73.56
309.571	78.56
309.8	81.56
310.03	83.56
310.26	89.56
310.49	76.56
310.72	90.56
310.949	72.56
311.179	92.56
311.409	86.56
311.639	75.56
311.868	81.56
312.098	83.56
312.328	81.56
312.557	82.56
312.787	85.56
313.017	87.56
313.246	87.56
313.476	92.56
313.706	73.56
313.935	84.56
314.165	95.56
314.394	87.56
314.624	108.56
314.853	89.56
315.083	90.56
315.312	72.56
315.542	86.56
315.771	88.56
316.001	88.56
316.23	86.56
316.46	68.56
316.689	72.56
316.919	78.56
317.148	86.56
317.377	90.56
317.607	76.56
317.836	59.56
318.065	66.56
318.295	84.56
318.524	98.56
318.753	90.56
318.983	80.56
319.212	83.56
319.441	79.56
319.67	91.56
319.9	71.56
320.129	80.56
320.358	77.56
320.587	76.56
320.816	81.56
321.046	81.56
321.275	87.56
321.504	76.56
321.733	70.56
321.962	94.56
322.191	90.56
322.42	79.56
322.649	69.56
322.878	74.56
323.108	87.56
323.337	96.56
323.566	83.56
323.795	83.56
324.024	85.56
324.253	84.56
324.482	75.56
324.71	74.56
324.939	92.56
325.168	85.56
325.397	82.56
325.626	88.56
325.855	79.56
326.084	76.56
326.313	89.56
326.542	80.56
326.77	75.56
326.999	73.56
327.228	82.56
327.457	78.56
327.686	83.56
327.914	86.56
328.143	78.56
328.372	78.56
328.6	91.56
328.829	78.56
329.058	83.56
329.287	99.56
329.515	93.56
329.744	82.56
329.972	74.56
330.201	91.56
330.43	72.56
330.658	84.56
330.887	87.56
331.115	70.56
331.344	79.56
331.572	90.56
331.801	95.56
332.03	82.56
332.258	85.56
332.486	83.56
332.715	64.56
332.943	71.56
333.172	72.56
333.4	87.56
333.629	77.56
333.857	82.56
334.085	89.56
334.314	72.56
334.542	87.56
334.771	83.56
334.999	68.56
335.227	79.56
335.455	76.56
335.684	87.56
335.912	77.56
336.14	91.56
336.369	102.56
336.597	95.56
336.825	79.56
337.053	96.56
337.281	92.56
337.51	75.56
337.738	87.56
337.966	81.56
338.194	80.56
338.422	81.56
338.65	85.56
338.878	81.56
339.106	84.56
339.334	82.56
339.562	87.56
339.79	92.56
340.018	84.56
340.246	87.56
340.474	80.56
340.702	80.56
340.93	77.56
341.158	83.56
341.386	83.56
341.614	88.56
341.842	65.56
342.07	78.56
342.298	76.56
342.526	84.56
342.754	75.56
342.981	70.56
343.209	80.56
343.437	79.56
343.665	85.56
343.893	76.56
344.12	73.56
344.348	76.56
344.576	73.56
344.804	87.56
345.031	88.56
345.259	75.56
345.487	86.56
345.714	78.56
345.942	72.56
346.17	93.56
346.397	88.56
346.625	80.56
346.853	88.56
347.08	80.56
347.308	94.56
347.535	80.56
347.763	78.56
347.99	94.56
348.218	81.56
348.445	81.56
348.673	81.56
348.9	91.56
349.128	87.56
349.355	85.56
349.583	83.56
349.81	82.56
350.037	82.56
350.265	86.56
350.492	74.56
350.72	76.56
350.947	62.56
351.174	73.56
351.402	85.56
351.629	71.56
351.856	81.56
352.083	89.56
352.311	86.56
352.538	77.56
352.765	95.56
352.992	67.56
353.22	78.56
353.447	75.56
353.674	85.56
353.901	87.56
354.128	90.56
354.355	73.56
354.583	100.56
354.81	78.56
355.037	82.56
355.264	88.56
355.491	91.56
355.718	86.56
355.945	89.56
356.172	98.56
356.399	80.56
356.626	81.56
356.853	81.56
357.08	75.56
357.307	72.56
357.534	67.56
357.761	81.56
357.988	80.56
358.215	85.56
358.441	83.56
358.668	82.56
358.895	86.56
359.122	71.56
359.349	87.56
359.576	77.56
359.802	87.56
360.029	89.56
360.256	92.56
360.483	79.56
360.709	81.56
360.936	97.56
361.163	86.56
361.39	85.56
361.616	83.56
361.843	82.56
362.07	79.56
362.296	87.56
362.523	92.56
362.749	81.56
362.976	76.56
363.203	83.56
363.429	87.56
363.656	85.56
363.882	82.56
364.109	92.56
364.335	89.56
364.562	92.56
364.788	86.56
365.015	89.56
365.241	87.56
365.468	78.56
365.694	71.56
365.92	83.56
366.147	79.56
366.373	90.56
366.599	85.56
366.826	79.56
367.052	87.56
367.278	84.56
367.505	76.56
367.731	79.56
367.957	75.56
368.184	77.56
368.41	96.56
368.636	91.56
368.862	90.56
369.089	84.56
369.315	88.56
369.541	81.56
369.767	95.56
369.993	77.56
370.219	76.56
370.445	75.56
370.672	83.56
370.898	81.56
371.124	92.56
371.35	92.56
371.576	91.56
371.802	89.56
372.028	78.56
372.254	89.56
372.48	76.56
372.706	87.56
372.932	76.56
373.158	83.56
373.384	96.56
373.61	101.56
373.835	87.56
374.061	74.56
374.287	98.56
374.513	101.56
374.739	81.56
374.965	84.56
375.191	82.56
375.416	96.56
375.642	96.56
375.868	87.56
376.094	84.56
376.319	97.56
376.545	85.56
376.771	84.56
376.997	91.56
377.222	89.56
377.448	92.56
377.674	89.56
377.899	91.56
378.125	102.56
378.35	99.56
378.576	69.56
378.802	93.56
379.027	82.56
379.253	99.56
379.478	89.56
379.704	95.56
379.929	103.56
380.155	85.56
380.38	84.56
380.606	83.56
380.831	86.56
381.057	85.56
381.282	93.56
381.507	94.56
381.733	97.56
381.958	87.56
382.184	92.56
382.409	101.56
382.634	90.56
382.86	96.56
383.085	100.56
383.31	105.56
383.535	98.56
383.761	98.56
383.986	98.56
384.211	98.56
384.436	99.56
384.662	94.56
384.887	94.56
385.112	97.56
385.337	87.56
385.562	92.56
385.787	99.56
386.013	104.56
386.238	82.56
386.463	91.56
386.688	103.56
386.913	99.56
387.138	96.56
387.363	84.56
387.588	93.56
387.813	99.56
388.038	105.56
388.263	115.56
388.488	97.56
388.713	96.56
388.938	99.56
389.163	88.56
389.387	104.56
389.612	91.56
389.837	99.56
390.062	95.56
390.287	88.56
390.512	103.56
390.736	92.56
390.961	101.56
391.186	95.56
391.411	105.56
391.636	100.56
391.86	94.56
392.085	106.56
392.31	112.56
392.534	95.56
392.759	99.56
392.984	88.56
393.208	94.56
393.433	97.56
393.658	98.56
393.882	91.56
394.107	115.56
394.331	86.56
394.556	104.56
394.78	100.56
395.005	104.56
395.229	101.56
395.454	94.56
395.678	90.56
395.903	96.56
396.127	108.56
396.352	110.56
396.576	97.56
396.801	101.56
397.025	95.56
397.249	108.56
397.474	105.56
397.698	109.56
397.922	120.56
398.147	88.56
398.371	96.56
398.595	92.56
398.82	110.56
399.044	104.56
399.268	93.56
399.492	107.56
399.717	99.56
399.941	113.56
400.165	122.56
400.389	114.56
400.613	105.56
400.837	120.56
401.062	102.56
401.286	114.56
401.51	105.56
401.734	115.56
401.958	102.56
402.182	97.56
402.406	118.56
402.63	127.56
402.854	96.56
403.078	116.56
403.302	122.56
403.526	106.56
403.75	117.56
403.974	110.56
404.198	110.56
404.422	114.56
404.645	106.56
404.869	126.56
405.093	113.56
405.317	120.56
405.541	106.56
405.765	116.56
405.988	116.56
406.212	120.56
406.436	130.56
406.66	133.56
406.883	111.56
407.107	106.56
407.331	98.56
407.555	112.56
407.778	119.56
408.002	114.56
408.226	124.56
408.449	97.56
408.673	111.56
408.896	124.56
409.12	114.56
409.344	105.56
409.567	112.56
409.791	124.56
410.014	120.56
410.238	106.56
410.461	110.56
410.685	128.56
410.908	119.56
411.132	128.56
411.355	113.56
411.578	123.56
411.802	120.56
412.025	115.56
412.249	103.56
412.472	119.56
412.695	132.56
412.919	111.56
413.142	118.56
413.365	118.56
413.589	103.56
413.812	126.56
414.035	114.56
414.258	115.56
414.482	115.56
414.705	108.56
414.928	118.56
415.151	97.56
415.374	104.56
415.597	112.56
415.821	136.56
416.044	139.56
416.267	130.56
416.49	117.56
416.713	126.56
416.936	140.56
417.159	128.56
417.382	131.56
417.605	112.56
417.828	122.56
418.051	116.56
418.274	130.56
418.497	130.56
418.72	120.56
418.943	126.56
419.166	128.56
419.389	127.56
419.611	119.56
419.834	123.56
420.057	128.56
420.28	129.56
420.503	130.56
420.726	140.56
420.948	131.56
421.171	132.56
421.394	120.56
421.617	137.56
421.839	139.56
422.062	148.56
422.285	127.56
422.507	122.56
422.73	113.56
422.953	123.56
423.175	124.56
423.398	126.56
423.621	122.56
423.843	122.56
424.066	126.56
424.288	131.56
424.511	138.56
424.733	142.56
424.956	140.56
425.178	149.56
425.401	130.56
425.623	146.56
425.846	121.56
426.068	137.56
426.291	124.56
426.513	137.56
426.735	128.56
426.958	126.56
427.18	111.56
427.402	126.56
427.625	116.56
427.847	105.56
428.069	114.56
428.292	124.56
428.514	140.56
428.736	122.56
428.958	140.56
429.181	126.56
429.403	118.56
429.625	114.56
429.847	123.56
430.069	121.56
430.292	122.56
430.514	135.56
430.736	134.56
430.958	124.56
431.18	121.56
431.402	110.56
431.624	102.56
431.846	105.56
432.068	102.56
432.29	95.56
432.512	107.56
432.734	121.56
432.956	118.56
433.178	133.56
433.4	135.56
433.622	139.56
433.844	125.56
434.066	134.56
434.287	106.56
434.509	86.56
434.731	111.56
434.953	108.56
435.175	132.56
435.397	116.56
435.618	104.56
435.84	106.56
436.062	104.56
436.284	118.56
436.505	128.56
436.727	127.56
436.949	130.56
437.17	123.56
437.392	116.56
437.614	124.56
437.835	100.56
438.057	115.56
438.278	114.56
438.5	118.56
438.721	138.56
438.943	126.56
439.165	126.56
439.386	121.56
439.608	139.56
439.829	133.56
440.05	159.56
440.272	145.56
440.493	146.56
440.715	127.56
440.936	154.56
441.158	138.56
441.379	139.56
441.6	140.56
441.822	135.56
442.043	138.56
442.264	130.56
442.486	135.56
442.707	130.56
442.928	141.56
443.149	132.56
443.371	141.56
443.592	128.56
443.813	140.56
444.034	132.56
444.255	138.56
444.476	141.56
444.698	152.56
444.919	139.56
445.14	269.56
445.361	188.56
445.582	141.56
445.803	130.56
446.024	147.56
446.245	155.56
446.466	145.56
446.687	146.56
446.908	144.56
447.129	164.56
447.35	161.56
447.571	140.56
447.792	163.56
448.013	132.56
448.234	137.56
448.455	128.56
448.675	138.56
448.896	141.56
449.117	134.56
449.338	141.56
449.559	142.56
449.779	136.56
450	128.56
450.221	124.56
450.442	132.56
450.662	139.56
450.883	125.56
451.104	127.56
451.324	124.56
451.545	128.56
451.766	127.56
451.986	123.56
452.207	120.56
452.428	111.56
452.648	117.56
452.869	140.56
453.089	127.56
453.31	108.56
453.53	107.56
453.751	97.56
453.971	98.56
454.192	97.56
454.412	114.56
454.633	114.56
454.853	121.56
455.073	114.56
455.294	110.56
455.514	122.56
455.734	120.56
455.955	126.56
456.175	119.56
456.395	106.56
456.616	111.56
456.836	102.56
457.056	108.56
457.276	101.56
457.497	92.56
457.717	112.56
457.937	96.56
458.157	98.56
458.377	104.56
458.598	100.56
458.818	88.56
459.038	91.56
459.258	96.56
459.478	86.56
459.698	85.56
459.918	93.56
460.138	121.56
460.358	114.56
460.578	113.56
460.798	96.56
461.018	114.56
461.238	116.56
461.458	116.56
461.678	98.56
461.898	101.56
462.118	98.56
462.338	112.56
462.558	114.56
462.777	98.56
462.997	106.56
463.217	107.56
463.437	112.56
463.657	123.56
463.876	122.56
464.096	105.56
464.316	104.56
464.536	106.56
464.755	113.56
464.975	115.56
465.195	118.56
465.414	116.56
465.634	113.56
465.854	108.56
466.073	120.56
466.293	106.56
466.512	118.56
466.732	136.56
466.951	139.56
467.171	120.56
467.391	134.56
467.61	125.56
467.829	134.56
468.049	137.56
468.268	140.56
468.488	135.56
468.707	148.56
468.927	142.56
469.146	134.56
469.365	153.56
469.585	115.56
469.804	138.56
470.023	138.56
470.243	143.56
470.462	152.56
470.681	143.56
470.901	131.56
471.12	142.56
471.339	132.56
471.558	139.56
471.777	134.56
471.997	122.56
472.216	129.56
472.435	115.56
472.654	85.56
472.873	114.56
473.092	106.56
473.311	111.56
473.53	114.56
473.749	116.56
473.968	120.56
474.187	110.56
474.406	118.56
474.625	129.56
474.844	130.56
475.063	130.56
475.282	128.56
475.501	111.56
475.72	134.56
475.939	139.56
476.158	131.56
476.377	130.56
476.596	107.56
476.814	96.56
477.033	95.56
477.252	96.56
477.471	116.56
477.69	134.56
477.908	134.56
478.127	130.56
478.346	121.56
478.564	123.56
478.783	126.56
479.002	134.56
479.22	124.56
479.439	146.56
479.658	128.56
479.876	111.56
480.095	104.56
480.313	108.56
480.532	110.56
480.751	120.56
480.969	100.56
481.188	85.56
481.406	90.56
481.624	91.56
481.843	80.56
482.061	89.56
482.28	110.56
482.498	110.56
482.717	120.56
482.935	130.56
483.153	140.56
483.372	142.56
483.59	154.56
483.808	142.56
484.027	120.56
484.245	141.56
484.463	134.56
484.681	153.56
484.9	142.56
485.118	140.56
485.336	112.56
485.554	104.56
485.772	116.56
485.99	102.56
486.209	98.56
486.427	116.56
486.645	112.56
486.863	132.56
487.081	132.56
487.299	123.56
487.517	143.56
487.735	155.56
487.953	180.56
488.171	171.56
488.389	180.56
488.607	158.56
488.825	140.56
489.043	130.56
489.261	141.56
489.479	154.56
489.696	146.56
489.914	129.56
490.132	138.56
490.35	163.56
490.568	157.56
490.786	172.56
491.003	162.56
491.221	177.56
491.439	187.56
491.657	179.56
491.874	201.56
492.092	227.56
492.31	246.56
492.527	208.56
492.745	202.56
492.963	203.56
493.18	174.56
493.398	172.56
493.615	164.56
493.833	165.56
494.05	165.56
494.268	191.56
494.485	165.56
494.703	162.56
494.92	175.56
495.138	167.56
495.355	163.56
495.573	174.56
495.79	168.56
496.008	161.56
496.225	162.56
496.442	158.56
496.66	171.56
496.877	174.56
497.094	178.56
497.312	155.56
497.529	152.56
497.746	132.56
497.963	139.56
498.181	131.56
498.398	116.56
498.615	124.56
498.832	110.56
499.049	111.56
499.267	121.56
499.484	127.56
499.701	129.56
499.918	127.56
500.135	132.56
500.352	120.56
500.569	138.56
500.786	140.56
501.003	145.56
501.22	130.56
501.437	145.56
501.654	140.56
501.871	127.56
502.088	129.56
502.305	110.56
502.522	130.56
502.739	122.56
502.956	118.56
503.172	123.56
503.389	130.56
503.606	124.56
503.823	115.56
504.04	115.56
504.256	122.56
504.473	134.56
504.69	113.56
504.907	122.56
505.123	126.56
505.34	118.56
505.557	117.56
505.773	119.56
505.99	100.56
506.207	118.56
506.423	134.56
506.64	119.56
506.856	120.56
507.073	103.56
507.289	115.56
507.506	114.56
507.722	111.56
507.939	121.56
508.155	130.56
508.372	124.56
508.588	117.56
508.805	124.56
509.021	111.56
509.238	112.56
509.454	102.56
509.67	102.56
509.887	98.56
510.103	92.56
510.319	97.56
510.536	89.56
510.752	87.56
510.968	90.56
511.184	75.56
511.401	82.56
511.617	84.56
511.833	94.56
512.049	86.56
512.265	90.56
