Data from Location4.07152019.Energy5.Lamp.07192019.3%Agarose_HRD10591_16-18-44-925.txt Node
Date: Fri Jul 19 16:18:44 EDT 2019
User: cochatt
Spectrometer: HR+D1059
Trigger mode: 1
Integration Time (sec): 1.000000E-1
Scans to average: 1
Electric dark correction enabled: true
Nonlinearity correction enabled: false
Boxcar width: 0
XAxis mode: Wavelengths
Number of Pixels in Spectrum: 2048
>>>>>Begin Spectral Data<<<<<
223.165	-18.5
223.4	-18.5
223.635	-18.5
223.869	-12.5
224.104	-24.5
224.338	-23.5
224.573	-11.5
224.808	-22.5
225.042	5.5
225.277	-10.5
225.511	-4.5
225.746	1.5
225.98	8.5
226.215	13.5
226.449	20.5
226.683	19.5
226.918	35.5
227.152	23.5
227.387	34.5
227.621	29.5
227.856	20.5
228.09	43.5
228.324	45.5
228.559	64.5
228.793	63.5
229.027	66.5
229.262	54.5
229.496	58.5
229.73	68.5
229.964	68.5
230.199	66.5
230.433	70.5
230.667	64.5
230.901	75.5
231.136	73.5
231.37	84.5
231.604	81.5
231.838	87.5
232.072	88.5
232.306	87.5
232.541	70.5
232.775	83.5
233.009	80.5
233.243	87.5
233.477	77.5
233.711	66.5
233.945	67.5
234.179	86.5
234.413	77.5
234.647	66.5
234.881	82.5
235.115	73.5
235.349	68.5
235.583	83.5
235.817	68.5
236.051	74.5
236.285	73.5
236.519	85.5
236.753	78.5
236.987	78.5
237.221	94.5
237.455	76.5
237.689	87.5
237.922	70.5
238.156	71.5
238.39	78.5
238.624	82.5
238.858	69.5
239.091	67.5
239.325	78.5
239.559	65.5
239.793	79.5
240.027	85.5
240.26	80.5
240.494	81.5
240.728	73.5
240.961	70.5
241.195	82.5
241.429	77.5
241.662	67.5
241.896	80.5
242.13	84.5
242.363	89.5
242.597	66.5
242.83	73.5
243.064	64.5
243.298	69.5
243.531	75.5
243.765	65.5
243.998	78.5
244.232	84.5
244.465	83.5
244.699	69.5
244.932	80.5
245.166	74.5
245.399	81.5
245.633	76.5
245.866	86.5
246.099	63.5
246.333	78.5
246.566	84.5
246.8	79.5
247.033	64.5
247.266	84.5
247.5	71.5
247.733	97.5
247.966	77.5
248.2	74.5
248.433	75.5
248.666	81.5
248.899	83.5
249.133	73.5
249.366	70.5
249.599	85.5
249.832	68.5
250.066	76.5
250.299	69.5
250.532	75.5
250.765	72.5
250.998	93.5
251.231	71.5
251.465	88.5
251.698	77.5
251.931	71.5
252.164	75.5
252.397	86.5
252.63	81.5
252.863	81.5
253.096	79.5
253.329	87.5
253.562	73.5
253.795	67.5
254.028	78.5
254.261	75.5
254.494	81.5
254.727	88.5
254.96	90.5
255.193	87.5
255.426	82.5
255.659	76.5
255.892	89.5
256.124	79.5
256.357	76.5
256.59	74.5
256.823	77.5
257.056	85.5
257.289	86.5
257.521	74.5
257.754	77.5
257.987	83.5
258.22	66.5
258.452	75.5
258.685	86.5
258.918	81.5
259.151	93.5
259.383	80.5
259.616	75.5
259.849	75.5
260.081	78.5
260.314	74.5
260.547	72.5
260.779	83.5
261.012	80.5
261.244	73.5
261.477	76.5
261.71	86.5
261.942	64.5
262.175	61.5
262.407	86.5
262.64	77.5
262.872	69.5
263.105	95.5
263.337	85.5
263.57	84.5
263.802	75.5
264.035	82.5
264.267	70.5
264.499	92.5
264.732	81.5
264.964	85.5
265.197	83.5
265.429	83.5
265.661	81.5
265.894	96.5
266.126	97.5
266.358	102.5
266.591	89.5
266.823	81.5
267.055	86.5
267.287	78.5
267.52	85.5
267.752	70.5
267.984	83.5
268.216	87.5
268.448	85.5
268.681	76.5
268.913	75.5
269.145	79.5
269.377	87.5
269.609	71.5
269.841	90.5
270.073	75.5
270.306	85.5
270.538	87.5
270.77	84.5
271.002	87.5
271.234	83.5
271.466	85.5
271.698	94.5
271.93	80.5
272.162	75.5
272.394	79.5
272.626	79.5
272.858	76.5
273.09	80.5
273.322	80.5
273.553	85.5
273.785	82.5
274.017	77.5
274.249	80.5
274.481	74.5
274.713	66.5
274.945	74.5
275.176	75.5
275.408	66.5
275.64	68.5
275.872	80.5
276.104	77.5
276.335	97.5
276.567	71.5
276.799	67.5
277.031	85.5
277.262	74.5
277.494	77.5
277.726	86.5
277.957	85.5
278.189	86.5
278.421	98.5
278.652	81.5
278.884	80.5
279.115	78.5
279.347	78.5
279.579	90.5
279.81	77.5
280.042	85.5
280.273	91.5
280.505	78.5
280.736	73.5
280.968	84.5
281.199	72.5
281.431	86.5
281.662	81.5
281.894	80.5
282.125	103.5
282.356	101.5
282.588	79.5
282.819	77.5
283.051	98.5
283.282	81.5
283.513	61.5
283.745	96.5
283.976	68.5
284.207	73.5
284.439	81.5
284.67	88.5
284.901	86.5
285.132	97.5
285.364	93.5
285.595	87.5
285.826	63.5
286.057	87.5
286.288	95.5
286.52	77.5
286.751	88.5
286.982	79.5
287.213	90.5
287.444	88.5
287.675	88.5
287.906	81.5
288.138	79.5
288.369	83.5
288.6	90.5
288.831	82.5
289.062	73.5
289.293	76.5
289.524	85.5
289.755	88.5
289.986	73.5
290.217	88.5
290.448	75.5
290.679	78.5
290.91	87.5
291.141	86.5
291.371	101.5
291.602	87.5
291.833	95.5
292.064	87.5
292.295	88.5
292.526	77.5
292.757	78.5
292.987	96.5
293.218	86.5
293.449	78.5
293.68	82.5
293.91	86.5
294.141	89.5
294.372	84.5
294.603	81.5
294.833	77.5
295.064	72.5
295.295	80.5
295.525	89.5
295.756	86.5
295.987	92.5
296.217	80.5
296.448	79.5
296.679	61.5
296.909	85.5
297.14	75.5
297.37	80.5
297.601	81.5
297.831	68.5
298.062	89.5
298.292	77.5
298.523	84.5
298.753	76.5
298.984	79.5
299.214	73.5
299.445	79.5
299.675	85.5
299.905	72.5
300.136	83.5
300.366	82.5
300.597	83.5
300.827	86.5
301.057	94.5
301.288	78.5
301.518	86.5
301.748	85.5
301.979	77.5
302.209	80.5
302.439	71.5
302.669	87.5
302.9	81.5
303.13	82.5
303.36	91.5
303.59	79.5
303.82	71.5
304.051	86.5
304.281	82.5
304.511	83.5
304.741	78.5
304.971	81.5
305.201	82.5
305.431	83.5
305.661	78.5
305.891	79.5
306.121	83.5
306.352	92.5
306.582	81.5
306.812	85.5
307.042	87.5
307.272	90.5
307.502	77.5
307.731	83.5
307.961	73.5
308.191	77.5
308.421	85.5
308.651	82.5
308.881	83.5
309.111	66.5
309.341	83.5
309.571	78.5
309.8	78.5
310.03	71.5
310.26	84.5
310.49	92.5
310.72	94.5
310.949	95.5
311.179	70.5
311.409	74.5
311.639	83.5
311.868	86.5
312.098	86.5
312.328	95.5
312.557	87.5
312.787	80.5
313.017	76.5
313.246	89.5
313.476	98.5
313.706	88.5
313.935	85.5
314.165	91.5
314.394	69.5
314.624	92.5
314.853	97.5
315.083	84.5
315.312	82.5
315.542	88.5
315.771	75.5
316.001	91.5
316.23	75.5
316.46	74.5
316.689	85.5
316.919	94.5
317.148	73.5
317.377	91.5
317.607	74.5
317.836	79.5
318.065	71.5
318.295	89.5
318.524	82.5
318.753	87.5
318.983	97.5
319.212	81.5
319.441	72.5
319.67	79.5
319.9	76.5
320.129	66.5
320.358	74.5
320.587	93.5
320.816	91.5
321.046	83.5
321.275	79.5
321.504	88.5
321.733	67.5
321.962	87.5
322.191	85.5
322.42	94.5
322.649	77.5
322.878	93.5
323.108	70.5
323.337	89.5
323.566	92.5
323.795	94.5
324.024	88.5
324.253	86.5
324.482	91.5
324.71	90.5
324.939	84.5
325.168	85.5
325.397	87.5
325.626	83.5
325.855	87.5
326.084	101.5
326.313	82.5
326.542	74.5
326.77	75.5
326.999	71.5
327.228	81.5
327.457	62.5
327.686	85.5
327.914	106.5
328.143	82.5
328.372	82.5
328.6	73.5
328.829	81.5
329.058	78.5
329.287	81.5
329.515	87.5
329.744	73.5
329.972	97.5
330.201	78.5
330.43	67.5
330.658	76.5
330.887	88.5
331.115	76.5
331.344	86.5
331.572	78.5
331.801	85.5
332.03	83.5
332.258	69.5
332.486	91.5
332.715	86.5
332.943	86.5
333.172	72.5
333.4	67.5
333.629	96.5
333.857	92.5
334.085	90.5
334.314	78.5
334.542	75.5
334.771	86.5
334.999	96.5
335.227	69.5
335.455	79.5
335.684	67.5
335.912	72.5
336.14	64.5
336.369	79.5
336.597	88.5
336.825	93.5
337.053	71.5
337.281	86.5
337.51	79.5
337.738	89.5
337.966	75.5
338.194	83.5
338.422	81.5
338.65	67.5
338.878	83.5
339.106	79.5
339.334	96.5
339.562	85.5
339.79	91.5
340.018	90.5
340.246	81.5
340.474	92.5
340.702	80.5
340.93	81.5
341.158	72.5
341.386	82.5
341.614	88.5
341.842	72.5
342.07	82.5
342.298	83.5
342.526	79.5
342.754	83.5
342.981	84.5
343.209	81.5
343.437	79.5
343.665	89.5
343.893	86.5
344.12	84.5
344.348	91.5
344.576	81.5
344.804	69.5
345.031	76.5
345.259	85.5
345.487	80.5
345.714	90.5
345.942	82.5
346.17	95.5
346.397	88.5
346.625	74.5
346.853	80.5
347.08	99.5
347.308	87.5
347.535	82.5
347.763	81.5
347.99	85.5
348.218	90.5
348.445	83.5
348.673	82.5
348.9	90.5
349.128	82.5
349.355	83.5
349.583	81.5
349.81	73.5
350.037	88.5
350.265	69.5
350.492	80.5
350.72	74.5
350.947	80.5
351.174	104.5
351.402	90.5
351.629	87.5
351.856	78.5
352.083	81.5
352.311	85.5
352.538	90.5
352.765	86.5
352.992	71.5
353.22	75.5
353.447	77.5
353.674	81.5
353.901	81.5
354.128	95.5
354.355	73.5
354.583	72.5
354.81	70.5
355.037	90.5
355.264	92.5
355.491	85.5
355.718	86.5
355.945	90.5
356.172	78.5
356.399	83.5
356.626	70.5
356.853	71.5
357.08	75.5
357.307	86.5
357.534	89.5
357.761	63.5
357.988	87.5
358.215	86.5
358.441	81.5
358.668	71.5
358.895	85.5
359.122	75.5
359.349	72.5
359.576	83.5
359.802	83.5
360.029	96.5
360.256	93.5
360.483	87.5
360.709	80.5
360.936	80.5
361.163	81.5
361.39	87.5
361.616	74.5
361.843	74.5
362.07	86.5
362.296	68.5
362.523	88.5
362.749	80.5
362.976	86.5
363.203	93.5
363.429	81.5
363.656	88.5
363.882	85.5
364.109	82.5
364.335	86.5
364.562	70.5
364.788	87.5
365.015	88.5
365.241	92.5
365.468	94.5
365.694	79.5
365.92	79.5
366.147	80.5
366.373	89.5
366.599	84.5
366.826	89.5
367.052	80.5
367.278	103.5
367.505	73.5
367.731	98.5
367.957	93.5
368.184	101.5
368.41	91.5
368.636	93.5
368.862	94.5
369.089	86.5
369.315	77.5
369.541	88.5
369.767	95.5
369.993	83.5
370.219	87.5
370.445	79.5
370.672	74.5
370.898	82.5
371.124	90.5
371.35	78.5
371.576	93.5
371.802	88.5
372.028	90.5
372.254	100.5
372.48	109.5
372.706	75.5
372.932	107.5
373.158	111.5
373.384	89.5
373.61	86.5
373.835	88.5
374.061	78.5
374.287	84.5
374.513	104.5
374.739	76.5
374.965	90.5
375.191	88.5
375.416	104.5
375.642	101.5
375.868	97.5
376.094	94.5
376.319	84.5
376.545	90.5
376.771	88.5
376.997	96.5
377.222	81.5
377.448	109.5
377.674	98.5
377.899	90.5
378.125	99.5
378.35	89.5
378.576	83.5
378.802	94.5
379.027	112.5
379.253	83.5
379.478	78.5
379.704	88.5
379.929	90.5
380.155	102.5
380.38	83.5
380.606	85.5
380.831	83.5
381.057	95.5
381.282	98.5
381.507	98.5
381.733	92.5
381.958	89.5
382.184	76.5
382.409	82.5
382.634	105.5
382.86	92.5
383.085	112.5
383.31	79.5
383.535	90.5
383.761	100.5
383.986	78.5
384.211	89.5
384.436	93.5
384.662	83.5
384.887	106.5
385.112	91.5
385.337	107.5
385.562	80.5
385.787	96.5
386.013	95.5
386.238	95.5
386.463	103.5
386.688	93.5
386.913	90.5
387.138	87.5
387.363	95.5
387.588	99.5
387.813	96.5
388.038	100.5
388.263	98.5
388.488	103.5
388.713	100.5
388.938	101.5
389.163	82.5
389.387	90.5
389.612	114.5
389.837	90.5
390.062	88.5
390.287	97.5
390.512	103.5
390.736	90.5
390.961	105.5
391.186	87.5
391.411	99.5
391.636	115.5
391.86	102.5
392.085	104.5
392.31	91.5
392.534	96.5
392.759	101.5
392.984	90.5
393.208	100.5
393.433	96.5
393.658	102.5
393.882	117.5
394.107	104.5
394.331	109.5
394.556	99.5
394.78	101.5
395.005	96.5
395.229	106.5
395.454	107.5
395.678	96.5
395.903	107.5
396.127	107.5
396.352	110.5
396.576	95.5
396.801	94.5
397.025	98.5
397.249	100.5
397.474	112.5
397.698	112.5
397.922	109.5
398.147	114.5
398.371	114.5
398.595	103.5
398.82	97.5
399.044	94.5
399.268	121.5
399.492	108.5
399.717	105.5
399.941	95.5
400.165	109.5
400.389	100.5
400.613	98.5
400.837	110.5
401.062	122.5
401.286	107.5
401.51	105.5
401.734	103.5
401.958	95.5
402.182	124.5
402.406	118.5
402.63	111.5
402.854	106.5
403.078	113.5
403.302	105.5
403.526	122.5
403.75	102.5
403.974	102.5
404.198	116.5
404.422	109.5
404.645	104.5
404.869	114.5
405.093	109.5
405.317	104.5
405.541	105.5
405.765	95.5
405.988	124.5
406.212	120.5
406.436	113.5
406.66	123.5
406.883	129.5
407.107	116.5
407.331	107.5
407.555	113.5
407.778	123.5
408.002	127.5
408.226	118.5
408.449	106.5
408.673	113.5
408.896	103.5
409.12	113.5
409.344	116.5
409.567	119.5
409.791	118.5
410.014	112.5
410.238	102.5
410.461	113.5
410.685	99.5
410.908	111.5
411.132	117.5
411.355	120.5
411.578	119.5
411.802	125.5
412.025	119.5
412.249	122.5
412.472	117.5
412.695	118.5
412.919	119.5
413.142	137.5
413.365	110.5
413.589	112.5
413.812	121.5
414.035	140.5
414.258	112.5
414.482	99.5
414.705	115.5
414.928	117.5
415.151	117.5
415.374	110.5
415.597	109.5
415.821	127.5
416.044	122.5
416.267	121.5
416.49	117.5
416.713	122.5
416.936	127.5
417.159	129.5
417.382	123.5
417.605	129.5
417.828	126.5
418.051	142.5
418.274	133.5
418.497	121.5
418.72	129.5
418.943	128.5
419.166	139.5
419.389	135.5
419.611	140.5
419.834	119.5
420.057	140.5
420.28	125.5
420.503	120.5
420.726	132.5
420.948	129.5
421.171	125.5
421.394	130.5
421.617	126.5
421.839	149.5
422.062	118.5
422.285	126.5
422.507	129.5
422.73	123.5
422.953	117.5
423.175	123.5
423.398	123.5
423.621	133.5
423.843	126.5
424.066	124.5
424.288	131.5
424.511	137.5
424.733	132.5
424.956	138.5
425.178	153.5
425.401	128.5
425.623	149.5
425.846	137.5
426.068	126.5
426.291	131.5
426.513	133.5
426.735	136.5
426.958	122.5
427.18	128.5
427.402	140.5
427.625	126.5
427.847	111.5
428.069	122.5
428.292	121.5
428.514	125.5
428.736	118.5
428.958	124.5
429.181	128.5
429.403	114.5
429.625	132.5
429.847	115.5
430.069	128.5
430.292	116.5
430.514	130.5
430.736	123.5
430.958	131.5
431.18	134.5
431.402	149.5
431.624	110.5
431.846	115.5
432.068	103.5
432.29	86.5
432.512	122.5
432.734	125.5
432.956	121.5
433.178	135.5
433.4	151.5
433.622	148.5
433.844	124.5
434.066	125.5
434.287	109.5
434.509	108.5
434.731	116.5
434.953	110.5
435.175	127.5
435.397	122.5
435.618	118.5
435.84	110.5
436.062	111.5
436.284	126.5
436.505	125.5
436.727	140.5
436.949	144.5
437.17	131.5
437.392	127.5
437.614	125.5
437.835	111.5
438.057	120.5
438.278	115.5
438.5	130.5
438.721	114.5
438.943	123.5
439.165	126.5
439.386	130.5
439.608	128.5
439.829	131.5
440.05	141.5
440.272	139.5
440.493	134.5
440.715	137.5
440.936	152.5
441.158	140.5
441.379	158.5
441.6	159.5
441.822	158.5
442.043	134.5
442.264	149.5
442.486	136.5
442.707	139.5
442.928	140.5
443.149	129.5
443.371	135.5
443.592	122.5
443.813	130.5
444.034	133.5
444.255	142.5
444.476	148.5
444.698	137.5
444.919	153.5
445.14	267.5
445.361	201.5
445.582	143.5
445.803	143.5
446.024	151.5
446.245	165.5
446.466	146.5
446.687	143.5
446.908	152.5
447.129	138.5
447.35	146.5
447.571	158.5
447.792	139.5
448.013	141.5
448.234	139.5
448.455	129.5
448.675	152.5
448.896	148.5
449.117	132.5
449.338	139.5
449.559	123.5
449.779	133.5
450	133.5
450.221	134.5
450.442	147.5
450.662	139.5
450.883	125.5
451.104	158.5
451.324	127.5
451.545	128.5
451.766	147.5
451.986	131.5
452.207	131.5
452.428	119.5
452.648	131.5
452.869	114.5
453.089	121.5
453.31	106.5
453.53	122.5
453.751	103.5
453.971	100.5
454.192	95.5
454.412	123.5
454.633	121.5
454.853	107.5
455.073	127.5
455.294	122.5
455.514	137.5
455.734	108.5
455.955	123.5
456.175	112.5
456.395	94.5
456.616	99.5
456.836	111.5
457.056	116.5
457.276	110.5
457.497	115.5
457.717	93.5
457.937	106.5
458.157	125.5
458.377	113.5
458.598	113.5
458.818	85.5
459.038	95.5
459.258	81.5
459.478	74.5
459.698	99.5
459.918	96.5
460.138	104.5
460.358	103.5
460.578	100.5
460.798	109.5
461.018	109.5
461.238	134.5
461.458	118.5
461.678	121.5
461.898	112.5
462.118	113.5
462.338	117.5
462.558	109.5
462.777	105.5
462.997	117.5
463.217	103.5
463.437	115.5
463.657	105.5
463.876	107.5
464.096	118.5
464.316	103.5
464.536	108.5
464.755	109.5
464.975	119.5
465.195	113.5
465.414	136.5
465.634	117.5
465.854	117.5
466.073	123.5
466.293	112.5
466.512	125.5
466.732	125.5
466.951	135.5
467.171	128.5
467.391	138.5
467.61	126.5
467.829	154.5
468.049	126.5
468.268	129.5
468.488	123.5
468.707	139.5
468.927	131.5
469.146	122.5
469.365	139.5
469.585	122.5
469.804	154.5
470.023	132.5
470.243	142.5
470.462	133.5
470.681	147.5
470.901	150.5
471.12	155.5
471.339	139.5
471.558	134.5
471.777	137.5
471.997	122.5
472.216	125.5
472.435	112.5
472.654	94.5
472.873	105.5
473.092	112.5
473.311	126.5
473.53	113.5
473.749	135.5
473.968	140.5
474.187	129.5
474.406	119.5
474.625	106.5
474.844	130.5
475.063	133.5
475.282	125.5
475.501	113.5
475.72	122.5
475.939	111.5
476.158	127.5
476.377	138.5
476.596	134.5
476.814	115.5
477.033	97.5
477.252	118.5
477.471	117.5
477.69	126.5
477.908	147.5
478.127	135.5
478.346	143.5
478.564	134.5
478.783	114.5
479.002	135.5
479.22	135.5
479.439	122.5
479.658	137.5
479.876	122.5
480.095	114.5
480.313	110.5
480.532	116.5
480.751	103.5
480.969	87.5
481.188	91.5
481.406	89.5
481.624	86.5
481.843	74.5
482.061	101.5
482.28	119.5
482.498	115.5
482.717	118.5
482.935	119.5
483.153	132.5
483.372	154.5
483.59	147.5
483.808	127.5
484.027	137.5
484.245	134.5
484.463	130.5
484.681	141.5
484.9	141.5
485.118	153.5
485.336	131.5
485.554	104.5
485.772	112.5
485.99	96.5
486.209	102.5
486.427	121.5
486.645	121.5
486.863	131.5
487.081	143.5
487.299	143.5
487.517	146.5
487.735	182.5
487.953	175.5
488.171	184.5
488.389	165.5
488.607	139.5
488.825	145.5
489.043	118.5
489.261	130.5
489.479	129.5
489.696	149.5
489.914	147.5
490.132	156.5
490.35	150.5
490.568	163.5
490.786	156.5
491.003	172.5
491.221	175.5
491.439	177.5
491.657	187.5
491.874	190.5
492.092	214.5
492.31	231.5
492.527	237.5
492.745	203.5
492.963	213.5
493.18	197.5
493.398	177.5
493.615	163.5
493.833	189.5
494.05	157.5
494.268	182.5
494.485	185.5
494.703	183.5
494.92	157.5
495.138	152.5
495.355	169.5
495.573	164.5
495.79	159.5
496.008	182.5
496.225	174.5
496.442	161.5
496.66	168.5
496.877	169.5
497.094	162.5
497.312	155.5
497.529	143.5
497.746	146.5
497.963	138.5
498.181	142.5
498.398	136.5
498.615	117.5
498.832	125.5
499.049	118.5
499.267	109.5
499.484	129.5
499.701	133.5
499.918	123.5
500.135	143.5
500.352	137.5
500.569	142.5
500.786	161.5
501.003	145.5
501.22	143.5
501.437	149.5
501.654	133.5
501.871	122.5
502.088	131.5
502.305	137.5
502.522	125.5
502.739	116.5
502.956	114.5
503.172	125.5
503.389	120.5
503.606	115.5
503.823	112.5
504.04	111.5
504.256	123.5
504.473	119.5
504.69	128.5
504.907	123.5
505.123	111.5
505.34	123.5
505.557	124.5
505.773	122.5
505.99	125.5
506.207	119.5
506.423	120.5
506.64	129.5
506.856	127.5
507.073	130.5
507.289	109.5
507.506	94.5
507.722	126.5
507.939	118.5
508.155	115.5
508.372	118.5
508.588	121.5
508.805	112.5
509.021	109.5
509.238	93.5
509.454	100.5
509.67	115.5
509.887	106.5
510.103	77.5
510.319	94.5
510.536	98.5
510.752	88.5
510.968	85.5
511.184	81.5
511.401	98.5
511.617	83.5
511.833	76.5
512.049	89.5
512.265	93.5
512.481	88.5
512.698	86.5
512.914	99.5
513.13	90.5
513.346	89.5
513.562	99.5
513.778	84.5
513.994	96.5
514.21	103.5
514.426	86.5
514.642	81.5
514.858	69.5
515.074	86.5
515.29	70.5
515.506	90.5
515.721	104.5
515.937	97.5
516.153	86.5
516.369	80.5
516.585	87.5
516.801	85.5
517.016	89.5
517.232	83.5
517.448	86.5
517.664	87.5
517.879	94.5
518.095	96.5
518.311	89.5
518.527	96.5
518.742	115.5
518.958	97.5
519.173	115.5
519.389	104.5
519.605	100.5
519.82	94.5
520.036	102.5
520.251	107.5
520.467	100.5
520.682	101.5
520.898	93.5
521.113	99.5
521.329	84.5
521.544	94.5
521.76	90.5
521.975	98.5
522.19	98.5
522.406	90.5
522.621	105.5
522.836	97.5
523.052	115.5
523.267	101.5
523.482	99.5
523.698	113.5
523.913	115.5
524.128	109.5
524.343	108.5
524.559	114.5
524.774	109.5
524.989	125.5
525.204	103.5
525.419	121.5
525.634	102.5
525.849	95.5
526.064	98.5
526.28	96.5
526.495	97.5
526.71	74.5
526.925	84.5
527.14	72.5
527.355	89.5
527.57	85.5
527.785	81.5
527.999	95.5
528.214	95.5
528.429	105.5
528.644	118.5
528.859	137.5
529.074	152.5
529.289	172.5
529.503	150.5
529.718	133.5
529.933	114.5
530.148	107.5
530.363	89.5
530.577	84.5
530.792	73.5
531.007	87.5
531.221	91.5
