Data from Location4.07152019.Energy5.Lamp.07192019.3%Agarose_HRD10591_16-19-43-926.txt Node
Date: Fri Jul 19 16:19:43 EDT 2019
User: cochatt
Spectrometer: HR+D1059
Trigger mode: 1
Integration Time (sec): 1.000000E-1
Scans to average: 1
Electric dark correction enabled: true
Nonlinearity correction enabled: false
Boxcar width: 0
XAxis mode: Wavelengths
Number of Pixels in Spectrum: 2048
>>>>>Begin Spectral Data<<<<<
223.165	-26.5
223.4	-26.5
223.635	-26.5
223.869	-16.5
224.104	-18.5
224.338	-10.5
224.573	-10.5
224.808	-3.5
225.042	2.5
225.277	0.5
225.511	-0.5
225.746	11.5
225.98	11.5
226.215	-12.5
226.449	7.5
226.683	18.5
226.918	19.5
227.152	27.5
227.387	31.5
227.621	34.5
227.856	45.5
228.09	33.5
228.324	42.5
228.559	53.5
228.793	53.5
229.027	53.5
229.262	69.5
229.496	66.5
229.73	90.5
229.964	70.5
230.199	71.5
230.433	60.5
230.667	72.5
230.901	50.5
231.136	76.5
231.37	86.5
231.604	90.5
231.838	85.5
232.072	81.5
232.306	65.5
232.541	83.5
232.775	81.5
233.009	87.5
233.243	77.5
233.477	82.5
233.711	81.5
233.945	91.5
234.179	87.5
234.413	77.5
234.647	88.5
234.881	76.5
235.115	64.5
235.349	84.5
235.583	84.5
235.817	70.5
236.051	77.5
236.285	83.5
236.519	67.5
236.753	65.5
236.987	68.5
237.221	68.5
237.455	86.5
237.689	65.5
237.922	81.5
238.156	74.5
238.39	52.5
238.624	65.5
238.858	75.5
239.091	72.5
239.325	80.5
239.559	66.5
239.793	80.5
240.027	82.5
240.26	76.5
240.494	71.5
240.728	66.5
240.961	78.5
241.195	68.5
241.429	79.5
241.662	82.5
241.896	74.5
242.13	78.5
242.363	75.5
242.597	78.5
242.83	71.5
243.064	68.5
243.298	78.5
243.531	77.5
243.765	69.5
243.998	81.5
244.232	79.5
244.465	72.5
244.699	73.5
244.932	75.5
245.166	80.5
245.399	78.5
245.633	69.5
245.866	80.5
246.099	65.5
246.333	79.5
246.566	83.5
246.8	71.5
247.033	82.5
247.266	78.5
247.5	73.5
247.733	67.5
247.966	84.5
248.2	80.5
248.433	81.5
248.666	88.5
248.899	84.5
249.133	70.5
249.366	77.5
249.599	67.5
249.832	86.5
250.066	65.5
250.299	88.5
250.532	84.5
250.765	75.5
250.998	58.5
251.231	75.5
251.465	55.5
251.698	74.5
251.931	78.5
252.164	81.5
252.397	81.5
252.63	81.5
252.863	73.5
253.096	87.5
253.329	95.5
253.562	79.5
253.795	74.5
254.028	69.5
254.261	78.5
254.494	72.5
254.727	84.5
254.96	83.5
255.193	74.5
255.426	74.5
255.659	83.5
255.892	73.5
256.124	75.5
256.357	76.5
256.59	76.5
256.823	56.5
257.056	73.5
257.289	81.5
257.521	87.5
257.754	83.5
257.987	87.5
258.22	87.5
258.452	70.5
258.685	82.5
258.918	82.5
259.151	70.5
259.383	84.5
259.616	65.5
259.849	84.5
260.081	93.5
260.314	87.5
260.547	86.5
260.779	82.5
261.012	82.5
261.244	87.5
261.477	74.5
261.71	74.5
261.942	86.5
262.175	92.5
262.407	81.5
262.64	72.5
262.872	75.5
263.105	75.5
263.337	94.5
263.57	82.5
263.802	69.5
264.035	93.5
264.267	84.5
264.499	76.5
264.732	79.5
264.964	90.5
265.197	78.5
265.429	75.5
265.661	80.5
265.894	67.5
266.126	79.5
266.358	91.5
266.591	110.5
266.823	72.5
267.055	78.5
267.287	67.5
267.52	84.5
267.752	90.5
267.984	75.5
268.216	69.5
268.448	79.5
268.681	81.5
268.913	90.5
269.145	83.5
269.377	86.5
269.609	82.5
269.841	73.5
270.073	88.5
270.306	86.5
270.538	75.5
270.77	79.5
271.002	80.5
271.234	81.5
271.466	79.5
271.698	82.5
271.93	79.5
272.162	77.5
272.394	75.5
272.626	68.5
272.858	79.5
273.09	78.5
273.322	81.5
273.553	66.5
273.785	71.5
274.017	87.5
274.249	96.5
274.481	86.5
274.713	75.5
274.945	88.5
275.176	81.5
275.408	81.5
275.64	85.5
275.872	80.5
276.104	82.5
276.335	67.5
276.567	79.5
276.799	86.5
277.031	71.5
277.262	75.5
277.494	89.5
277.726	98.5
277.957	74.5
278.189	80.5
278.421	85.5
278.652	81.5
278.884	80.5
279.115	91.5
279.347	106.5
279.579	81.5
279.81	87.5
280.042	96.5
280.273	79.5
280.505	75.5
280.736	80.5
280.968	86.5
281.199	89.5
281.431	84.5
281.662	80.5
281.894	88.5
282.125	91.5
282.356	79.5
282.588	84.5
282.819	83.5
283.051	76.5
283.282	70.5
283.513	76.5
283.745	93.5
283.976	82.5
284.207	67.5
284.439	77.5
284.67	95.5
284.901	96.5
285.132	88.5
285.364	69.5
285.595	89.5
285.826	81.5
286.057	91.5
286.288	80.5
286.52	85.5
286.751	88.5
286.982	90.5
287.213	79.5
287.444	78.5
287.675	96.5
287.906	83.5
288.138	80.5
288.369	82.5
288.6	84.5
288.831	88.5
289.062	78.5
289.293	79.5
289.524	83.5
289.755	79.5
289.986	72.5
290.217	88.5
290.448	102.5
290.679	94.5
290.91	96.5
291.141	74.5
291.371	72.5
291.602	76.5
291.833	82.5
292.064	78.5
292.295	78.5
292.526	79.5
292.757	84.5
292.987	73.5
293.218	86.5
293.449	97.5
293.68	80.5
293.91	99.5
294.141	96.5
294.372	68.5
294.603	74.5
294.833	75.5
295.064	85.5
295.295	78.5
295.525	87.5
295.756	82.5
295.987	77.5
296.217	94.5
296.448	70.5
296.679	86.5
296.909	75.5
297.14	87.5
297.37	84.5
297.601	75.5
297.831	83.5
298.062	100.5
298.292	91.5
298.523	89.5
298.753	86.5
298.984	82.5
299.214	87.5
299.445	76.5
299.675	76.5
299.905	82.5
300.136	88.5
300.366	86.5
300.597	94.5
300.827	88.5
301.057	78.5
301.288	79.5
301.518	78.5
301.748	98.5
301.979	80.5
302.209	78.5
302.439	86.5
302.669	85.5
302.9	89.5
303.13	82.5
303.36	95.5
303.59	99.5
303.82	94.5
304.051	93.5
304.281	70.5
304.511	71.5
304.741	105.5
304.971	101.5
305.201	85.5
305.431	74.5
305.661	66.5
305.891	80.5
306.121	80.5
306.352	82.5
306.582	87.5
306.812	89.5
307.042	78.5
307.272	88.5
307.502	79.5
307.731	92.5
307.961	74.5
308.191	90.5
308.421	74.5
308.651	88.5
308.881	83.5
309.111	87.5
309.341	82.5
309.571	83.5
309.8	88.5
310.03	84.5
310.26	87.5
310.49	85.5
310.72	84.5
310.949	91.5
311.179	82.5
311.409	90.5
311.639	75.5
311.868	81.5
312.098	88.5
312.328	87.5
312.557	83.5
312.787	80.5
313.017	79.5
313.246	82.5
313.476	66.5
313.706	83.5
313.935	89.5
314.165	80.5
314.394	82.5
314.624	76.5
314.853	88.5
315.083	88.5
315.312	94.5
315.542	82.5
315.771	82.5
316.001	74.5
316.23	89.5
316.46	84.5
316.689	78.5
316.919	82.5
317.148	83.5
317.377	80.5
317.607	85.5
317.836	73.5
318.065	82.5
318.295	91.5
318.524	73.5
318.753	80.5
318.983	79.5
319.212	90.5
319.441	88.5
319.67	88.5
319.9	91.5
320.129	81.5
320.358	83.5
320.587	89.5
320.816	90.5
321.046	87.5
321.275	79.5
321.504	81.5
321.733	85.5
321.962	89.5
322.191	73.5
322.42	101.5
322.649	84.5
322.878	87.5
323.108	89.5
323.337	86.5
323.566	94.5
323.795	83.5
324.024	80.5
324.253	87.5
324.482	84.5
324.71	94.5
324.939	77.5
325.168	82.5
325.397	92.5
325.626	99.5
325.855	78.5
326.084	84.5
326.313	75.5
326.542	74.5
326.77	78.5
326.999	75.5
327.228	88.5
327.457	65.5
327.686	71.5
327.914	86.5
328.143	91.5
328.372	74.5
328.6	90.5
328.829	79.5
329.058	86.5
329.287	84.5
329.515	75.5
329.744	84.5
329.972	78.5
330.201	91.5
330.43	82.5
330.658	78.5
330.887	81.5
331.115	85.5
331.344	83.5
331.572	79.5
331.801	73.5
332.03	81.5
332.258	92.5
332.486	82.5
332.715	83.5
332.943	84.5
333.172	85.5
333.4	83.5
333.629	78.5
333.857	78.5
334.085	70.5
334.314	82.5
334.542	77.5
334.771	99.5
334.999	79.5
335.227	85.5
335.455	81.5
335.684	85.5
335.912	87.5
336.14	79.5
336.369	90.5
336.597	74.5
336.825	80.5
337.053	80.5
337.281	80.5
337.51	77.5
337.738	76.5
337.966	81.5
338.194	85.5
338.422	81.5
338.65	78.5
338.878	92.5
339.106	85.5
339.334	85.5
339.562	87.5
339.79	80.5
340.018	94.5
340.246	94.5
340.474	97.5
340.702	87.5
340.93	93.5
341.158	86.5
341.386	93.5
341.614	79.5
341.842	80.5
342.07	76.5
342.298	75.5
342.526	88.5
342.754	76.5
342.981	90.5
343.209	83.5
343.437	84.5
343.665	93.5
343.893	69.5
344.12	71.5
344.348	82.5
344.576	100.5
344.804	79.5
345.031	81.5
345.259	72.5
345.487	73.5
345.714	88.5
345.942	79.5
346.17	90.5
346.397	82.5
346.625	83.5
346.853	90.5
347.08	79.5
347.308	95.5
347.535	70.5
347.763	76.5
347.99	97.5
348.218	96.5
348.445	71.5
348.673	81.5
348.9	75.5
349.128	76.5
349.355	83.5
349.583	80.5
349.81	82.5
350.037	83.5
350.265	76.5
350.492	81.5
350.72	79.5
350.947	81.5
351.174	90.5
351.402	82.5
351.629	86.5
351.856	88.5
352.083	88.5
352.311	83.5
352.538	78.5
352.765	83.5
352.992	72.5
353.22	84.5
353.447	84.5
353.674	87.5
353.901	80.5
354.128	76.5
354.355	80.5
354.583	74.5
354.81	86.5
355.037	93.5
355.264	88.5
355.491	88.5
355.718	82.5
355.945	72.5
356.172	81.5
356.399	76.5
356.626	80.5
356.853	75.5
357.08	84.5
357.307	90.5
357.534	92.5
357.761	96.5
357.988	82.5
358.215	93.5
358.441	82.5
358.668	78.5
358.895	85.5
359.122	86.5
359.349	74.5
359.576	92.5
359.802	89.5
360.029	81.5
360.256	92.5
360.483	95.5
360.709	91.5
360.936	99.5
361.163	85.5
361.39	96.5
361.616	83.5
361.843	65.5
362.07	70.5
362.296	77.5
362.523	79.5
362.749	84.5
362.976	80.5
363.203	86.5
363.429	86.5
363.656	80.5
363.882	86.5
364.109	88.5
364.335	71.5
364.562	76.5
364.788	83.5
365.015	86.5
365.241	95.5
365.468	95.5
365.694	90.5
365.92	73.5
366.147	81.5
366.373	80.5
366.599	100.5
366.826	91.5
367.052	86.5
367.278	74.5
367.505	91.5
367.731	94.5
367.957	86.5
368.184	88.5
368.41	87.5
368.636	89.5
368.862	91.5
369.089	86.5
369.315	81.5
369.541	87.5
369.767	88.5
369.993	89.5
370.219	93.5
370.445	82.5
370.672	89.5
370.898	93.5
371.124	86.5
371.35	92.5
371.576	82.5
371.802	83.5
372.028	85.5
372.254	81.5
372.48	84.5
372.706	90.5
372.932	100.5
373.158	94.5
373.384	107.5
373.61	89.5
373.835	99.5
374.061	107.5
374.287	84.5
374.513	104.5
374.739	89.5
374.965	88.5
375.191	84.5
375.416	101.5
375.642	98.5
375.868	97.5
376.094	99.5
376.319	92.5
376.545	90.5
376.771	90.5
376.997	97.5
377.222	89.5
377.448	84.5
377.674	85.5
377.899	89.5
378.125	102.5
378.35	108.5
378.576	81.5
378.802	84.5
379.027	84.5
379.253	86.5
379.478	86.5
379.704	93.5
379.929	83.5
380.155	96.5
380.38	105.5
380.606	89.5
380.831	105.5
381.057	106.5
381.282	101.5
381.507	97.5
381.733	88.5
381.958	89.5
382.184	86.5
382.409	92.5
382.634	98.5
382.86	102.5
383.085	98.5
383.31	92.5
383.535	95.5
383.761	114.5
383.986	85.5
384.211	95.5
384.436	99.5
384.662	102.5
384.887	85.5
385.112	111.5
385.337	106.5
385.562	103.5
385.787	106.5
386.013	111.5
386.238	95.5
386.463	106.5
386.688	88.5
386.913	97.5
387.138	94.5
387.363	87.5
387.588	110.5
387.813	81.5
388.038	106.5
388.263	81.5
388.488	96.5
388.713	113.5
388.938	113.5
389.163	95.5
389.387	100.5
389.612	95.5
389.837	110.5
390.062	102.5
390.287	99.5
390.512	94.5
390.736	91.5
390.961	92.5
391.186	93.5
391.411	103.5
391.636	99.5
391.86	100.5
392.085	93.5
392.31	91.5
392.534	100.5
392.759	111.5
392.984	93.5
393.208	123.5
393.433	115.5
393.658	96.5
393.882	110.5
394.107	105.5
394.331	102.5
394.556	101.5
394.78	107.5
395.005	98.5
395.229	103.5
395.454	114.5
395.678	102.5
395.903	109.5
396.127	105.5
396.352	95.5
396.576	98.5
396.801	90.5
397.025	94.5
397.249	101.5
397.474	104.5
397.698	111.5
397.922	108.5
398.147	117.5
398.371	95.5
398.595	99.5
398.82	110.5
399.044	99.5
399.268	104.5
399.492	115.5
399.717	110.5
399.941	118.5
400.165	97.5
400.389	116.5
400.613	112.5
400.837	106.5
401.062	118.5
401.286	100.5
401.51	119.5
401.734	108.5
401.958	111.5
402.182	106.5
402.406	106.5
402.63	100.5
402.854	102.5
403.078	94.5
403.302	102.5
403.526	112.5
403.75	111.5
403.974	121.5
404.198	118.5
404.422	117.5
404.645	110.5
404.869	109.5
405.093	118.5
405.317	109.5
405.541	113.5
405.765	111.5
405.988	110.5
406.212	113.5
406.436	115.5
406.66	110.5
406.883	108.5
407.107	113.5
407.331	119.5
407.555	112.5
407.778	103.5
408.002	113.5
408.226	115.5
408.449	109.5
408.673	106.5
408.896	113.5
409.12	115.5
409.344	129.5
409.567	111.5
409.791	97.5
410.014	118.5
410.238	113.5
410.461	125.5
410.685	120.5
410.908	113.5
411.132	117.5
411.355	114.5
411.578	129.5
411.802	104.5
412.025	102.5
412.249	112.5
412.472	119.5
412.695	130.5
412.919	107.5
413.142	114.5
413.365	98.5
413.589	107.5
413.812	114.5
414.035	112.5
414.258	114.5
414.482	124.5
414.705	116.5
414.928	109.5
415.151	116.5
415.374	117.5
415.597	113.5
415.821	123.5
416.044	123.5
416.267	120.5
416.49	116.5
416.713	122.5
416.936	121.5
417.159	115.5
417.382	120.5
417.605	137.5
417.828	131.5
418.051	121.5
418.274	119.5
418.497	132.5
418.72	123.5
418.943	132.5
419.166	127.5
419.389	120.5
419.611	135.5
419.834	138.5
420.057	117.5
420.28	128.5
420.503	129.5
420.726	126.5
420.948	126.5
421.171	122.5
421.394	138.5
421.617	128.5
421.839	146.5
422.062	145.5
422.285	125.5
422.507	123.5
422.73	119.5
422.953	112.5
423.175	130.5
423.398	125.5
423.621	132.5
423.843	137.5
424.066	130.5
424.288	132.5
424.511	131.5
424.733	140.5
424.956	124.5
425.178	126.5
425.401	134.5
425.623	123.5
425.846	133.5
426.068	136.5
426.291	127.5
426.513	125.5
426.735	122.5
426.958	133.5
427.18	137.5
427.402	121.5
427.625	117.5
427.847	119.5
428.069	129.5
428.292	119.5
428.514	126.5
428.736	135.5
428.958	139.5
429.181	121.5
429.403	120.5
429.625	127.5
429.847	133.5
430.069	125.5
430.292	122.5
430.514	129.5
430.736	127.5
430.958	132.5
431.18	124.5
431.402	112.5
431.624	123.5
431.846	103.5
432.068	87.5
432.29	99.5
432.512	113.5
432.734	120.5
432.956	121.5
433.178	145.5
433.4	140.5
433.622	125.5
433.844	128.5
434.066	117.5
434.287	117.5
434.509	93.5
434.731	101.5
434.953	107.5
435.175	114.5
435.397	131.5
435.618	112.5
435.84	106.5
436.062	119.5
436.284	121.5
436.505	117.5
436.727	145.5
436.949	125.5
437.17	122.5
437.392	116.5
437.614	132.5
437.835	99.5
438.057	107.5
438.278	116.5
438.5	118.5
438.721	119.5
438.943	123.5
439.165	142.5
439.386	120.5
439.608	138.5
439.829	130.5
440.05	143.5
440.272	147.5
440.493	130.5
440.715	132.5
440.936	140.5
441.158	139.5
441.379	127.5
441.6	142.5
441.822	157.5
442.043	146.5
442.264	127.5
442.486	138.5
442.707	142.5
442.928	137.5
443.149	137.5
443.371	121.5
443.592	140.5
443.813	135.5
444.034	123.5
444.255	132.5
444.476	120.5
444.698	116.5
444.919	126.5
445.14	269.5
445.361	193.5
445.582	149.5
445.803	150.5
446.024	144.5
446.245	151.5
446.466	145.5
446.687	154.5
446.908	132.5
447.129	150.5
447.35	143.5
447.571	137.5
447.792	133.5
448.013	134.5
448.234	130.5
448.455	121.5
448.675	139.5
448.896	141.5
449.117	121.5
449.338	123.5
449.559	126.5
449.779	138.5
450	123.5
450.221	131.5
450.442	132.5
450.662	132.5
450.883	134.5
451.104	140.5
451.324	135.5
451.545	121.5
451.766	113.5
451.986	117.5
452.207	113.5
452.428	130.5
452.648	136.5
452.869	106.5
453.089	97.5
453.31	118.5
453.53	106.5
453.751	95.5
453.971	99.5
454.192	104.5
454.412	113.5
454.633	106.5
454.853	113.5
455.073	114.5
455.294	121.5
455.514	124.5
455.734	110.5
455.955	105.5
456.175	112.5
456.395	111.5
456.616	105.5
456.836	104.5
457.056	104.5
457.276	105.5
457.497	97.5
457.717	111.5
457.937	117.5
458.157	102.5
458.377	98.5
458.598	94.5
458.818	91.5
459.038	79.5
459.258	90.5
459.478	95.5
459.698	90.5
459.918	101.5
460.138	117.5
460.358	104.5
460.578	125.5
460.798	130.5
461.018	117.5
461.238	115.5
461.458	123.5
461.678	105.5
461.898	97.5
462.118	126.5
462.338	108.5
462.558	104.5
462.777	102.5
462.997	114.5
463.217	89.5
463.437	106.5
463.657	113.5
463.876	104.5
464.096	119.5
464.316	92.5
464.536	100.5
464.755	114.5
464.975	109.5
465.195	106.5
465.414	126.5
465.634	117.5
465.854	126.5
466.073	113.5
466.293	124.5
466.512	127.5
466.732	132.5
466.951	139.5
467.171	134.5
467.391	126.5
467.61	145.5
467.829	129.5
468.049	127.5
468.268	126.5
468.488	132.5
468.707	128.5
468.927	120.5
469.146	135.5
469.365	143.5
469.585	121.5
469.804	125.5
470.023	135.5
470.243	136.5
470.462	139.5
470.681	129.5
470.901	135.5
471.12	133.5
471.339	134.5
471.558	147.5
471.777	128.5
471.997	137.5
472.216	133.5
472.435	133.5
472.654	102.5
472.873	94.5
473.092	118.5
473.311	122.5
473.53	111.5
473.749	127.5
473.968	129.5
474.187	119.5
474.406	114.5
474.625	123.5
474.844	135.5
475.063	127.5
475.282	103.5
475.501	118.5
475.72	116.5
475.939	114.5
476.158	127.5
476.377	129.5
476.596	129.5
476.814	129.5
477.033	115.5
477.252	106.5
477.471	121.5
477.69	138.5
477.908	137.5
478.127	129.5
478.346	137.5
478.564	130.5
478.783	138.5
479.002	127.5
479.22	133.5
479.439	130.5
479.658	115.5
479.876	121.5
480.095	107.5
480.313	118.5
480.532	103.5
480.751	101.5
480.969	100.5
481.188	90.5
481.406	93.5
481.624	95.5
481.843	87.5
482.061	97.5
482.28	112.5
482.498	117.5
482.717	101.5
482.935	123.5
483.153	133.5
483.372	139.5
483.59	153.5
483.808	138.5
484.027	133.5
484.245	144.5
484.463	142.5
484.681	150.5
484.9	133.5
485.118	150.5
485.336	130.5
485.554	123.5
485.772	103.5
485.99	106.5
486.209	98.5
486.427	95.5
486.645	127.5
486.863	145.5
487.081	152.5
487.299	140.5
487.517	131.5
487.735	173.5
487.953	190.5
488.171	170.5
488.389	170.5
488.607	146.5
488.825	134.5
489.043	147.5
489.261	131.5
489.479	138.5
489.696	137.5
489.914	130.5
490.132	140.5
490.35	163.5
490.568	151.5
490.786	157.5
491.003	177.5
491.221	166.5
491.439	181.5
491.657	167.5
491.874	170.5
492.092	219.5
492.31	239.5
492.527	210.5
492.745	191.5
492.963	183.5
493.18	158.5
493.398	185.5
493.615	169.5
493.833	170.5
494.05	177.5
494.268	170.5
494.485	165.5
494.703	168.5
494.92	158.5
495.138	167.5
495.355	162.5
495.573	162.5
495.79	156.5
496.008	163.5
496.225	161.5
496.442	145.5
496.66	168.5
496.877	166.5
497.094	163.5
497.312	151.5
497.529	126.5
497.746	148.5
497.963	145.5
498.181	130.5
498.398	119.5
498.615	110.5
498.832	119.5
499.049	113.5
499.267	123.5
499.484	117.5
499.701	128.5
499.918	130.5
500.135	134.5
500.352	145.5
500.569	145.5
500.786	129.5
501.003	122.5
501.22	125.5
501.437	123.5
501.654	128.5
501.871	130.5
502.088	123.5
502.305	118.5
502.522	124.5
502.739	129.5
502.956	119.5
503.172	111.5
503.389	113.5
503.606	127.5
503.823	111.5
504.04	112.5
504.256	109.5
504.473	106.5
504.69	115.5
504.907	117.5
505.123	114.5
505.34	130.5
505.557	120.5
505.773	106.5
505.99	109.5
506.207	109.5
506.423	125.5
506.64	126.5
506.856	126.5
507.073	120.5
507.289	114.5
507.506	110.5
507.722	125.5
507.939	110.5
508.155	105.5
508.372	107.5
508.588	123.5
508.805	120.5
509.021	116.5
509.238	106.5
509.454	119.5
509.67	98.5
509.887	85.5
510.103	93.5
510.319	104.5
510.536	99.5
510.752	87.5
510.968	88.5
511.184	80.5
511.401	80.5
511.617	94.5
511.833	98.5
512.049	109.5
512.265	88.5
512.481	79.5
512.698	93.5
512.914	96.5
513.13	85.5
513.346	95.5
513.562	99.5
513.778	101.5
513.994	98.5
514.21	98.5
514.426	88.5
514.642	88.5
514.858	91.5
515.074	86.5
515.29	89.5
515.506	95.5
515.721	97.5
515.937	84.5
516.153	82.5
516.369	76.5
516.585	97.5
516.801	88.5
517.016	96.5
517.232	79.5
517.448	86.5
517.664	93.5
517.879	82.5
518.095	101.5
518.311	93.5
518.527	83.5
518.742	84.5
518.958	101.5
519.173	100.5
519.389	115.5
519.605	116.5
519.82	111.5
520.036	113.5
520.251	104.5
520.467	95.5
520.682	81.5
520.898	102.5
521.113	70.5
521.329	83.5
521.544	95.5
521.76	95.5
521.975	90.5
522.19	95.5
522.406	98.5
522.621	91.5
522.836	114.5
523.052	87.5
523.267	105.5
523.482	101.5
523.698	112.5
523.913	106.5
524.128	102.5
524.343	116.5
524.559	108.5
524.774	102.5
524.989	118.5
525.204	128.5
525.419	114.5
525.634	111.5
525.849	107.5
526.064	111.5
526.28	95.5
526.495	94.5
526.71	63.5
526.925	94.5
527.14	74.5
527.355	82.5
527.57	81.5
527.785	80.5
527.999	79.5
528.214	100.5
528.429	105.5
528.644	117.5
528.859	150.5
529.074	134.5
529.289	165.5
529.503	152.5
529.718	133.5
529.933	121.5
530.148	120.5
530.363	104.5
530.577	90.5
530.792	95.5
531.007	95.5
531.221	93.5
