Data from Location4.07152019.Energy5.Lamp.07192019.3%Agarose_HRD10591_16-21-13-927.txt Node
Date: Fri Jul 19 16:21:13 EDT 2019
User: cochatt
Spectrometer: HR+D1059
Trigger mode: 1
Integration Time (sec): 1.000000E-1
Scans to average: 1
Electric dark correction enabled: true
Nonlinearity correction enabled: false
Boxcar width: 0
XAxis mode: Wavelengths
Number of Pixels in Spectrum: 2048
>>>>>Begin Spectral Data<<<<<
223.165	-20.25
223.4	-20.25
223.635	-20.25
223.869	0.75
224.104	-15.25
224.338	1.75
224.573	-20.25
224.808	-15.25
225.042	-20.25
225.277	1.75
225.511	-14.25
225.746	5.75
225.98	5.75
226.215	7.75
226.449	13.75
226.683	12.75
226.918	25.75
227.152	29.75
227.387	33.75
227.621	40.75
227.856	43.75
228.09	54.75
228.324	58.75
228.559	59.75
228.793	54.75
229.027	70.75
229.262	83.75
229.496	55.75
229.73	76.75
229.964	57.75
230.199	66.75
230.433	81.75
230.667	77.75
230.901	93.75
231.136	84.75
231.37	75.75
231.604	76.75
231.838	72.75
232.072	71.75
232.306	85.75
232.541	92.75
232.775	97.75
233.009	86.75
233.243	89.75
233.477	82.75
233.711	84.75
233.945	89.75
234.179	82.75
234.413	79.75
234.647	75.75
234.881	84.75
235.115	86.75
235.349	81.75
235.583	66.75
235.817	78.75
236.051	83.75
236.285	79.75
236.519	71.75
236.753	80.75
236.987	74.75
237.221	76.75
237.455	75.75
237.689	71.75
237.922	73.75
238.156	98.75
238.39	100.75
238.624	85.75
238.858	81.75
239.091	67.75
239.325	75.75
239.559	82.75
239.793	88.75
240.027	76.75
240.26	75.75
240.494	85.75
240.728	68.75
240.961	75.75
241.195	90.75
241.429	66.75
241.662	66.75
241.896	64.75
242.13	64.75
242.363	82.75
242.597	73.75
242.83	67.75
243.064	84.75
243.298	76.75
243.531	79.75
243.765	81.75
243.998	71.75
244.232	70.75
244.465	82.75
244.699	65.75
244.932	85.75
245.166	66.75
245.399	89.75
245.633	75.75
245.866	77.75
246.099	92.75
246.333	73.75
246.566	87.75
246.8	79.75
247.033	74.75
247.266	86.75
247.5	74.75
247.733	77.75
247.966	76.75
248.2	64.75
248.433	79.75
248.666	97.75
248.899	93.75
249.133	78.75
249.366	83.75
249.599	74.75
249.832	89.75
250.066	85.75
250.299	64.75
250.532	79.75
250.765	78.75
250.998	75.75
251.231	79.75
251.465	76.75
251.698	81.75
251.931	86.75
252.164	78.75
252.397	80.75
252.63	81.75
252.863	86.75
253.096	81.75
253.329	92.75
253.562	89.75
253.795	75.75
254.028	91.75
254.261	76.75
254.494	73.75
254.727	88.75
254.96	78.75
255.193	76.75
255.426	82.75
255.659	99.75
255.892	84.75
256.124	80.75
256.357	71.75
256.59	79.75
256.823	84.75
257.056	84.75
257.289	88.75
257.521	67.75
257.754	89.75
257.987	82.75
258.22	93.75
258.452	75.75
258.685	84.75
258.918	66.75
259.151	75.75
259.383	66.75
259.616	88.75
259.849	88.75
260.081	81.75
260.314	75.75
260.547	76.75
260.779	84.75
261.012	73.75
261.244	83.75
261.477	89.75
261.71	75.75
261.942	77.75
262.175	83.75
262.407	82.75
262.64	88.75
262.872	73.75
263.105	81.75
263.337	82.75
263.57	78.75
263.802	73.75
264.035	91.75
264.267	62.75
264.499	78.75
264.732	80.75
264.964	88.75
265.197	82.75
265.429	88.75
265.661	88.75
265.894	74.75
266.126	79.75
266.358	84.75
266.591	78.75
266.823	91.75
267.055	72.75
267.287	78.75
267.52	87.75
267.752	83.75
267.984	92.75
268.216	88.75
268.448	99.75
268.681	69.75
268.913	82.75
269.145	87.75
269.377	87.75
269.609	85.75
269.841	87.75
270.073	86.75
270.306	85.75
270.538	78.75
270.77	77.75
271.002	72.75
271.234	82.75
271.466	79.75
271.698	91.75
271.93	80.75
272.162	81.75
272.394	85.75
272.626	93.75
272.858	79.75
273.09	88.75
273.322	102.75
273.553	87.75
273.785	80.75
274.017	93.75
274.249	84.75
274.481	90.75
274.713	89.75
274.945	101.75
275.176	72.75
275.408	84.75
275.64	86.75
275.872	87.75
276.104	88.75
276.335	94.75
276.567	84.75
276.799	72.75
277.031	88.75
277.262	76.75
277.494	83.75
277.726	87.75
277.957	75.75
278.189	70.75
278.421	68.75
278.652	82.75
278.884	89.75
279.115	80.75
279.347	75.75
279.579	77.75
279.81	90.75
280.042	86.75
280.273	71.75
280.505	72.75
280.736	78.75
280.968	81.75
281.199	97.75
281.431	96.75
281.662	93.75
281.894	80.75
282.125	91.75
282.356	90.75
282.588	85.75
282.819	80.75
283.051	80.75
283.282	96.75
283.513	98.75
283.745	84.75
283.976	81.75
284.207	91.75
284.439	96.75
284.67	96.75
284.901	89.75
285.132	74.75
285.364	74.75
285.595	86.75
285.826	92.75
286.057	85.75
286.288	89.75
286.52	81.75
286.751	82.75
286.982	79.75
287.213	96.75
287.444	80.75
287.675	83.75
287.906	85.75
288.138	93.75
288.369	93.75
288.6	83.75
288.831	92.75
289.062	71.75
289.293	84.75
289.524	80.75
289.755	90.75
289.986	77.75
290.217	82.75
290.448	98.75
290.679	89.75
290.91	84.75
291.141	68.75
291.371	88.75
291.602	92.75
291.833	76.75
292.064	86.75
292.295	94.75
292.526	89.75
292.757	76.75
292.987	75.75
293.218	76.75
293.449	76.75
293.68	78.75
293.91	90.75
294.141	83.75
294.372	78.75
294.603	80.75
294.833	72.75
295.064	85.75
295.295	90.75
295.525	70.75
295.756	90.75
295.987	76.75
296.217	75.75
296.448	79.75
296.679	80.75
296.909	83.75
297.14	81.75
297.37	100.75
297.601	75.75
297.831	93.75
298.062	85.75
298.292	79.75
298.523	84.75
298.753	84.75
298.984	86.75
299.214	85.75
299.445	97.75
299.675	86.75
299.905	86.75
300.136	89.75
300.366	88.75
300.597	90.75
300.827	78.75
301.057	83.75
301.288	92.75
301.518	86.75
301.748	86.75
301.979	97.75
302.209	85.75
302.439	81.75
302.669	78.75
302.9	90.75
303.13	82.75
303.36	79.75
303.59	88.75
303.82	80.75
304.051	75.75
304.281	69.75
304.511	85.75
304.741	76.75
304.971	92.75
305.201	85.75
305.431	86.75
305.661	86.75
305.891	83.75
306.121	98.75
306.352	81.75
306.582	79.75
306.812	87.75
307.042	85.75
307.272	89.75
307.502	81.75
307.731	98.75
307.961	87.75
308.191	82.75
308.421	84.75
308.651	86.75
308.881	89.75
309.111	78.75
309.341	83.75
309.571	81.75
309.8	94.75
310.03	71.75
310.26	90.75
310.49	103.75
310.72	81.75
310.949	74.75
311.179	74.75
311.409	83.75
311.639	86.75
311.868	88.75
312.098	97.75
312.328	85.75
312.557	82.75
312.787	87.75
313.017	80.75
313.246	85.75
313.476	73.75
313.706	89.75
313.935	85.75
314.165	76.75
314.394	90.75
314.624	77.75
314.853	89.75
315.083	78.75
315.312	77.75
315.542	85.75
315.771	92.75
316.001	85.75
316.23	77.75
316.46	78.75
316.689	91.75
316.919	89.75
317.148	81.75
317.377	97.75
317.607	81.75
317.836	89.75
318.065	97.75
318.295	85.75
318.524	87.75
318.753	87.75
318.983	85.75
319.212	73.75
319.441	80.75
319.67	84.75
319.9	83.75
320.129	73.75
320.358	83.75
320.587	68.75
320.816	82.75
321.046	89.75
321.275	102.75
321.504	94.75
321.733	84.75
321.962	72.75
322.191	73.75
322.42	76.75
322.649	89.75
322.878	79.75
323.108	91.75
323.337	84.75
323.566	83.75
323.795	75.75
324.024	81.75
324.253	93.75
324.482	101.75
324.71	79.75
324.939	89.75
325.168	92.75
325.397	62.75
325.626	70.75
325.855	85.75
326.084	84.75
326.313	85.75
326.542	66.75
326.77	82.75
326.999	82.75
327.228	88.75
327.457	78.75
327.686	92.75
327.914	84.75
328.143	78.75
328.372	71.75
328.6	84.75
328.829	89.75
329.058	69.75
329.287	89.75
329.515	81.75
329.744	73.75
329.972	72.75
330.201	75.75
330.43	78.75
330.658	93.75
330.887	81.75
331.115	78.75
331.344	88.75
331.572	96.75
331.801	93.75
332.03	85.75
332.258	94.75
332.486	84.75
332.715	82.75
332.943	83.75
333.172	84.75
333.4	93.75
333.629	82.75
333.857	84.75
334.085	71.75
334.314	85.75
334.542	78.75
334.771	90.75
334.999	79.75
335.227	89.75
335.455	91.75
335.684	83.75
335.912	91.75
336.14	97.75
336.369	90.75
336.597	99.75
336.825	79.75
337.053	81.75
337.281	87.75
337.51	98.75
337.738	89.75
337.966	69.75
338.194	85.75
338.422	81.75
338.65	91.75
338.878	75.75
339.106	80.75
339.334	91.75
339.562	77.75
339.79	82.75
340.018	88.75
340.246	85.75
340.474	84.75
340.702	90.75
340.93	80.75
341.158	71.75
341.386	80.75
341.614	85.75
341.842	88.75
342.07	86.75
342.298	69.75
342.526	73.75
342.754	85.75
342.981	93.75
343.209	74.75
343.437	81.75
343.665	93.75
343.893	75.75
344.12	82.75
344.348	90.75
344.576	89.75
344.804	89.75
345.031	79.75
345.259	79.75
345.487	65.75
345.714	77.75
345.942	93.75
346.17	76.75
346.397	94.75
346.625	86.75
346.853	84.75
347.08	89.75
347.308	96.75
347.535	75.75
347.763	82.75
347.99	86.75
348.218	84.75
348.445	81.75
348.673	80.75
348.9	78.75
349.128	83.75
349.355	78.75
349.583	89.75
349.81	84.75
350.037	71.75
350.265	79.75
350.492	88.75
350.72	75.75
350.947	84.75
351.174	78.75
351.402	73.75
351.629	81.75
351.856	92.75
352.083	87.75
352.311	83.75
352.538	78.75
352.765	63.75
352.992	72.75
353.22	83.75
353.447	85.75
353.674	83.75
353.901	68.75
354.128	78.75
354.355	75.75
354.583	82.75
354.81	88.75
355.037	113.75
355.264	80.75
355.491	80.75
355.718	95.75
355.945	79.75
356.172	94.75
356.399	86.75
356.626	93.75
356.853	94.75
357.08	78.75
357.307	97.75
357.534	84.75
357.761	86.75
357.988	95.75
358.215	78.75
358.441	85.75
358.668	92.75
358.895	85.75
359.122	93.75
359.349	81.75
359.576	84.75
359.802	78.75
360.029	89.75
360.256	80.75
360.483	83.75
360.709	92.75
360.936	100.75
361.163	77.75
361.39	86.75
361.616	99.75
361.843	77.75
362.07	82.75
362.296	90.75
362.523	80.75
362.749	83.75
362.976	84.75
363.203	75.75
363.429	93.75
363.656	78.75
363.882	100.75
364.109	94.75
364.335	85.75
364.562	88.75
364.788	89.75
365.015	78.75
365.241	88.75
365.468	82.75
365.694	87.75
365.92	93.75
366.147	89.75
366.373	91.75
366.599	91.75
366.826	97.75
367.052	89.75
367.278	90.75
367.505	83.75
367.731	80.75
367.957	87.75
368.184	92.75
368.41	78.75
368.636	84.75
368.862	82.75
369.089	80.75
369.315	86.75
369.541	90.75
369.767	100.75
369.993	97.75
370.219	85.75
370.445	89.75
370.672	81.75
370.898	87.75
371.124	85.75
371.35	85.75
371.576	78.75
371.802	92.75
372.028	88.75
372.254	90.75
372.48	92.75
372.706	105.75
372.932	85.75
373.158	86.75
373.384	85.75
373.61	85.75
373.835	88.75
374.061	82.75
374.287	94.75
374.513	72.75
374.739	96.75
374.965	96.75
375.191	82.75
375.416	92.75
375.642	78.75
375.868	88.75
376.094	88.75
376.319	88.75
376.545	86.75
376.771	92.75
376.997	101.75
377.222	106.75
377.448	77.75
377.674	95.75
377.899	93.75
378.125	86.75
378.35	105.75
378.576	91.75
378.802	102.75
379.027	80.75
379.253	103.75
379.478	91.75
379.704	88.75
379.929	102.75
380.155	92.75
380.38	85.75
380.606	97.75
380.831	101.75
381.057	107.75
381.282	101.75
381.507	88.75
381.733	94.75
381.958	94.75
382.184	99.75
382.409	103.75
382.634	104.75
382.86	93.75
383.085	101.75
383.31	72.75
383.535	94.75
383.761	95.75
383.986	88.75
384.211	82.75
384.436	89.75
384.662	99.75
384.887	89.75
385.112	100.75
385.337	100.75
385.562	83.75
385.787	106.75
386.013	102.75
386.238	98.75
386.463	97.75
386.688	96.75
386.913	101.75
387.138	116.75
387.363	101.75
387.588	109.75
387.813	107.75
388.038	91.75
388.263	95.75
388.488	97.75
388.713	86.75
388.938	116.75
389.163	90.75
389.387	104.75
389.612	94.75
389.837	101.75
390.062	101.75
390.287	103.75
390.512	98.75
390.736	114.75
390.961	98.75
391.186	93.75
391.411	91.75
391.636	118.75
391.86	112.75
392.085	94.75
392.31	89.75
392.534	100.75
392.759	104.75
392.984	111.75
393.208	100.75
393.433	103.75
393.658	107.75
393.882	91.75
394.107	98.75
394.331	119.75
394.556	113.75
394.78	93.75
395.005	95.75
395.229	101.75
395.454	111.75
395.678	91.75
395.903	89.75
396.127	99.75
396.352	94.75
396.576	122.75
396.801	104.75
397.025	95.75
397.249	107.75
397.474	92.75
397.698	102.75
397.922	114.75
398.147	99.75
398.371	98.75
398.595	102.75
398.82	114.75
399.044	114.75
399.268	99.75
399.492	108.75
399.717	104.75
399.941	104.75
400.165	120.75
400.389	94.75
400.613	100.75
400.837	121.75
401.062	116.75
401.286	110.75
401.51	110.75
401.734	110.75
401.958	129.75
402.182	101.75
402.406	116.75
402.63	109.75
402.854	118.75
403.078	116.75
403.302	117.75
403.526	112.75
403.75	116.75
403.974	115.75
404.198	121.75
404.422	96.75
404.645	93.75
404.869	109.75
405.093	112.75
405.317	104.75
405.541	128.75
405.765	110.75
405.988	118.75
406.212	116.75
406.436	117.75
406.66	117.75
406.883	120.75
407.107	109.75
407.331	120.75
407.555	104.75
407.778	120.75
408.002	128.75
408.226	108.75
408.449	128.75
408.673	108.75
408.896	115.75
409.12	112.75
409.344	109.75
409.567	136.75
409.791	107.75
410.014	121.75
410.238	122.75
410.461	109.75
410.685	106.75
410.908	130.75
411.132	120.75
411.355	111.75
411.578	121.75
411.802	124.75
412.025	112.75
412.249	113.75
412.472	120.75
412.695	117.75
412.919	109.75
413.142	118.75
413.365	122.75
413.589	127.75
413.812	121.75
414.035	116.75
414.258	125.75
414.482	128.75
414.705	123.75
414.928	107.75
415.151	117.75
415.374	115.75
415.597	132.75
415.821	125.75
416.044	121.75
416.267	112.75
416.49	132.75
416.713	119.75
416.936	136.75
417.159	139.75
417.382	117.75
417.605	106.75
417.828	127.75
418.051	126.75
418.274	128.75
418.497	114.75
418.72	124.75
418.943	130.75
419.166	117.75
419.389	135.75
419.611	120.75
419.834	116.75
420.057	133.75
420.28	115.75
420.503	110.75
420.726	140.75
420.948	130.75
421.171	132.75
421.394	128.75
421.617	152.75
421.839	142.75
422.062	142.75
422.285	125.75
422.507	126.75
422.73	126.75
422.953	137.75
423.175	122.75
423.398	123.75
423.621	123.75
423.843	133.75
424.066	135.75
424.288	131.75
424.511	136.75
424.733	134.75
424.956	136.75
425.178	128.75
425.401	149.75
425.623	132.75
425.846	128.75
426.068	126.75
426.291	120.75
426.513	123.75
426.735	125.75
426.958	137.75
427.18	139.75
427.402	127.75
427.625	140.75
427.847	121.75
428.069	123.75
428.292	125.75
428.514	133.75
428.736	112.75
428.958	109.75
429.181	134.75
429.403	123.75
429.625	123.75
429.847	140.75
430.069	131.75
430.292	115.75
430.514	130.75
430.736	130.75
430.958	125.75
431.18	125.75
431.402	131.75
431.624	100.75
431.846	122.75
432.068	90.75
432.29	105.75
432.512	127.75
432.734	118.75
432.956	129.75
433.178	132.75
433.4	132.75
433.622	134.75
433.844	125.75
434.066	121.75
434.287	117.75
434.509	110.75
434.731	104.75
434.953	114.75
435.175	120.75
435.397	125.75
435.618	105.75
435.84	114.75
436.062	117.75
436.284	131.75
436.505	125.75
436.727	143.75
436.949	128.75
437.17	124.75
437.392	137.75
437.614	120.75
437.835	112.75
438.057	106.75
438.278	114.75
438.5	122.75
438.721	144.75
438.943	146.75
439.165	133.75
439.386	137.75
439.608	136.75
439.829	135.75
440.05	139.75
440.272	157.75
440.493	127.75
440.715	130.75
440.936	137.75
441.158	126.75
441.379	136.75
441.6	133.75
441.822	142.75
442.043	141.75
442.264	140.75
442.486	133.75
442.707	133.75
442.928	130.75
443.149	143.75
443.371	138.75
443.592	130.75
443.813	148.75
444.034	144.75
444.255	124.75
444.476	130.75
444.698	137.75
444.919	142.75
445.14	265.75
445.361	192.75
445.582	144.75
445.803	135.75
446.024	139.75
446.245	139.75
446.466	170.75
446.687	168.75
446.908	153.75
447.129	158.75
447.35	148.75
447.571	141.75
447.792	145.75
448.013	128.75
448.234	143.75
448.455	153.75
448.675	145.75
448.896	146.75
449.117	147.75
449.338	123.75
449.559	127.75
449.779	144.75
450	121.75
450.221	139.75
450.442	126.75
450.662	132.75
450.883	125.75
451.104	140.75
451.324	133.75
451.545	131.75
451.766	135.75
451.986	117.75
452.207	128.75
452.428	139.75
452.648	138.75
452.869	124.75
453.089	116.75
453.31	117.75
453.53	121.75
453.751	106.75
453.971	98.75
454.192	101.75
454.412	97.75
454.633	107.75
454.853	109.75
455.073	122.75
455.294	114.75
455.514	117.75
455.734	124.75
455.955	126.75
456.175	106.75
456.395	106.75
456.616	108.75
456.836	112.75
457.056	120.75
457.276	107.75
457.497	109.75
457.717	111.75
457.937	115.75
458.157	101.75
458.377	112.75
458.598	97.75
458.818	90.75
459.038	86.75
459.258	77.75
459.478	98.75
459.698	99.75
459.918	105.75
460.138	121.75
460.358	112.75
460.578	114.75
460.798	123.75
461.018	115.75
461.238	119.75
461.458	110.75
461.678	116.75
461.898	110.75
462.118	104.75
462.338	113.75
462.558	121.75
462.777	108.75
462.997	84.75
463.217	107.75
463.437	110.75
463.657	112.75
463.876	97.75
464.096	100.75
464.316	105.75
464.536	108.75
464.755	112.75
464.975	109.75
465.195	105.75
465.414	124.75
465.634	104.75
465.854	118.75
466.073	102.75
466.293	116.75
466.512	121.75
466.732	116.75
466.951	128.75
467.171	137.75
467.391	142.75
467.61	129.75
467.829	134.75
468.049	126.75
468.268	131.75
468.488	152.75
468.707	134.75
468.927	130.75
469.146	137.75
469.365	138.75
469.585	132.75
469.804	140.75
470.023	141.75
470.243	135.75
470.462	134.75
470.681	143.75
470.901	135.75
471.12	132.75
471.339	132.75
471.558	133.75
471.777	137.75
471.997	134.75
472.216	135.75
472.435	114.75
472.654	119.75
472.873	116.75
473.092	127.75
473.311	116.75
473.53	123.75
473.749	133.75
473.968	120.75
474.187	122.75
474.406	123.75
474.625	125.75
474.844	133.75
475.063	134.75
475.282	124.75
475.501	117.75
475.72	122.75
475.939	113.75
476.158	132.75
476.377	141.75
476.596	107.75
476.814	121.75
477.033	100.75
477.252	120.75
477.471	126.75
477.69	135.75
477.908	140.75
478.127	127.75
478.346	143.75
478.564	134.75
478.783	139.75
479.002	120.75
479.22	130.75
479.439	121.75
479.658	123.75
479.876	128.75
480.095	98.75
480.313	132.75
480.532	120.75
480.751	107.75
480.969	100.75
481.188	92.75
481.406	86.75
481.624	87.75
481.843	94.75
482.061	99.75
482.28	116.75
482.498	94.75
482.717	104.75
482.935	118.75
483.153	131.75
483.372	146.75
483.59	160.75
483.808	139.75
484.027	138.75
484.245	140.75
484.463	147.75
484.681	165.75
484.9	137.75
485.118	132.75
485.336	137.75
485.554	109.75
485.772	95.75
485.99	96.75
486.209	105.75
486.427	119.75
486.645	130.75
486.863	130.75
487.081	140.75
487.299	134.75
487.517	117.75
487.735	153.75
487.953	179.75
488.171	169.75
488.389	173.75
488.607	159.75
488.825	144.75
489.043	139.75
489.261	137.75
489.479	137.75
489.696	155.75
489.914	128.75
490.132	142.75
490.35	144.75
490.568	162.75
490.786	154.75
491.003	178.75
491.221	180.75
491.439	178.75
491.657	188.75
491.874	198.75
492.092	207.75
492.31	234.75
492.527	232.75
492.745	218.75
492.963	189.75
493.18	188.75
493.398	172.75
493.615	167.75
493.833	166.75
494.05	180.75
494.268	194.75
494.485	164.75
494.703	174.75
494.92	171.75
495.138	176.75
495.355	170.75
495.573	168.75
495.79	149.75
496.008	161.75
496.225	162.75
496.442	160.75
496.66	165.75
496.877	156.75
497.094	161.75
497.312	178.75
497.529	155.75
497.746	141.75
497.963	129.75
498.181	121.75
498.398	124.75
498.615	122.75
498.832	107.75
499.049	116.75
499.267	131.75
499.484	136.75
499.701	129.75
499.918	132.75
500.135	129.75
500.352	155.75
500.569	142.75
500.786	130.75
501.003	141.75
501.22	148.75
501.437	153.75
501.654	147.75
501.871	136.75
502.088	132.75
502.305	109.75
502.522	118.75
502.739	133.75
502.956	148.75
503.172	118.75
503.389	124.75
503.606	128.75
503.823	106.75
504.04	121.75
504.256	108.75
504.473	113.75
504.69	110.75
504.907	122.75
505.123	112.75
505.34	124.75
505.557	119.75
505.773	119.75
505.99	125.75
506.207	114.75
506.423	113.75
506.64	125.75
506.856	115.75
507.073	127.75
507.289	121.75
507.506	108.75
507.722	108.75
507.939	103.75
508.155	104.75
508.372	102.75
508.588	123.75
508.805	108.75
509.021	112.75
509.238	103.75
509.454	102.75
509.67	123.75
509.887	86.75
510.103	97.75
510.319	83.75
510.536	92.75
510.752	92.75
510.968	97.75
511.184	82.75
511.401	92.75
511.617	96.75
511.833	84.75
