Data from Location4.07152019.Energy5.Lamp.07192019.3%Agarose_HRD10591_16-18-18-925.txt Node
Date: Fri Jul 19 16:18:18 EDT 2019
User: cochatt
Spectrometer: HR+D1059
Trigger mode: 1
Integration Time (sec): 1.000000E-1
Scans to average: 1
Electric dark correction enabled: true
Nonlinearity correction enabled: false
Boxcar width: 0
XAxis mode: Wavelengths
Number of Pixels in Spectrum: 2048
>>>>>Begin Spectral Data<<<<<
223.165	-10.12
223.4	-10.12
223.635	-10.12
223.869	-31.12
224.104	-17.12
224.338	-22.12
224.573	6.88
224.808	-9.12
225.042	0.88
225.277	-2.12
225.511	-0.12
225.746	6.88
225.98	7.88
226.215	-3.12
226.449	21.88
226.683	15.88
226.918	11.88
227.152	22.88
227.387	42.88
227.621	41.88
227.856	35.88
228.09	39.88
228.324	42.88
228.559	59.88
228.793	71.88
229.027	52.88
229.262	61.88
229.496	47.88
229.73	76.88
229.964	81.88
230.199	74.88
230.433	85.88
230.667	68.88
230.901	76.88
231.136	71.88
231.37	77.88
231.604	73.88
231.838	74.88
232.072	93.88
232.306	83.88
232.541	78.88
232.775	83.88
233.009	86.88
233.243	90.88
233.477	80.88
233.711	73.88
233.945	87.88
234.179	87.88
234.413	74.88
234.647	93.88
234.881	72.88
235.115	99.88
235.349	75.88
235.583	76.88
235.817	75.88
236.051	81.88
236.285	75.88
236.519	70.88
236.753	70.88
236.987	75.88
237.221	74.88
237.455	80.88
237.689	69.88
237.922	69.88
238.156	74.88
238.39	70.88
238.624	70.88
238.858	71.88
239.091	67.88
239.325	88.88
239.559	80.88
239.793	71.88
240.027	84.88
240.26	61.88
240.494	80.88
240.728	73.88
240.961	67.88
241.195	90.88
241.429	73.88
241.662	79.88
241.896	86.88
242.13	79.88
242.363	79.88
242.597	81.88
242.83	85.88
243.064	74.88
243.298	84.88
243.531	77.88
243.765	72.88
243.998	79.88
244.232	79.88
244.465	74.88
244.699	81.88
244.932	64.88
245.166	68.88
245.399	65.88
245.633	81.88
245.866	83.88
246.099	71.88
246.333	79.88
246.566	80.88
246.8	74.88
247.033	75.88
247.266	78.88
247.5	77.88
247.733	73.88
247.966	78.88
248.2	81.88
248.433	69.88
248.666	80.88
248.899	77.88
249.133	71.88
249.366	77.88
249.599	75.88
249.832	77.88
250.066	85.88
250.299	74.88
250.532	82.88
250.765	87.88
250.998	84.88
251.231	58.88
251.465	71.88
251.698	86.88
251.931	85.88
252.164	76.88
252.397	73.88
252.63	80.88
252.863	80.88
253.096	75.88
253.329	79.88
253.562	86.88
253.795	72.88
254.028	75.88
254.261	79.88
254.494	87.88
254.727	73.88
254.96	80.88
255.193	72.88
255.426	86.88
255.659	82.88
255.892	94.88
256.124	77.88
256.357	83.88
256.59	69.88
256.823	85.88
257.056	80.88
257.289	72.88
257.521	86.88
257.754	78.88
257.987	76.88
258.22	75.88
258.452	82.88
258.685	74.88
258.918	66.88
259.151	79.88
259.383	83.88
259.616	86.88
259.849	99.88
260.081	90.88
260.314	70.88
260.547	65.88
260.779	75.88
261.012	85.88
261.244	79.88
261.477	87.88
261.71	76.88
261.942	102.88
262.175	98.88
262.407	78.88
262.64	84.88
262.872	80.88
263.105	72.88
263.337	77.88
263.57	85.88
263.802	86.88
264.035	69.88
264.267	84.88
264.499	79.88
264.732	83.88
264.964	87.88
265.197	82.88
265.429	88.88
265.661	80.88
265.894	67.88
266.126	80.88
266.358	77.88
266.591	73.88
266.823	94.88
267.055	89.88
267.287	75.88
267.52	87.88
267.752	95.88
267.984	94.88
268.216	83.88
268.448	101.88
268.681	88.88
268.913	85.88
269.145	72.88
269.377	73.88
269.609	82.88
269.841	81.88
270.073	70.88
270.306	91.88
270.538	90.88
270.77	110.88
271.002	91.88
271.234	90.88
271.466	91.88
271.698	76.88
271.93	82.88
272.162	74.88
272.394	80.88
272.626	78.88
272.858	96.88
273.09	89.88
273.322	80.88
273.553	74.88
273.785	79.88
274.017	94.88
274.249	83.88
274.481	77.88
274.713	81.88
274.945	78.88
275.176	68.88
275.408	78.88
275.64	88.88
275.872	78.88
276.104	93.88
276.335	73.88
276.567	71.88
276.799	93.88
277.031	81.88
277.262	79.88
277.494	80.88
277.726	75.88
277.957	83.88
278.189	86.88
278.421	85.88
278.652	93.88
278.884	91.88
279.115	82.88
279.347	81.88
279.579	74.88
279.81	72.88
280.042	79.88
280.273	76.88
280.505	75.88
280.736	92.88
280.968	78.88
281.199	78.88
281.431	96.88
281.662	94.88
281.894	77.88
282.125	88.88
282.356	86.88
282.588	87.88
282.819	91.88
283.051	94.88
283.282	58.88
283.513	79.88
283.745	82.88
283.976	89.88
284.207	86.88
284.439	66.88
284.67	66.88
284.901	78.88
285.132	92.88
285.364	83.88
285.595	86.88
285.826	78.88
286.057	81.88
286.288	77.88
286.52	77.88
286.751	95.88
286.982	84.88
287.213	90.88
287.444	78.88
287.675	79.88
287.906	85.88
288.138	67.88
288.369	84.88
288.6	79.88
288.831	71.88
289.062	85.88
289.293	87.88
289.524	75.88
289.755	76.88
289.986	81.88
290.217	83.88
290.448	81.88
290.679	87.88
290.91	97.88
291.141	86.88
291.371	95.88
291.602	82.88
291.833	86.88
292.064	90.88
292.295	75.88
292.526	86.88
292.757	95.88
292.987	86.88
293.218	79.88
293.449	94.88
293.68	87.88
293.91	85.88
294.141	85.88
294.372	75.88
294.603	81.88
294.833	94.88
295.064	70.88
295.295	70.88
295.525	86.88
295.756	78.88
295.987	82.88
296.217	82.88
296.448	85.88
296.679	80.88
296.909	89.88
297.14	87.88
297.37	75.88
297.601	86.88
297.831	81.88
298.062	76.88
298.292	78.88
298.523	94.88
298.753	89.88
298.984	79.88
299.214	83.88
299.445	91.88
299.675	90.88
299.905	82.88
300.136	84.88
300.366	90.88
300.597	71.88
300.827	93.88
301.057	100.88
301.288	80.88
301.518	83.88
301.748	74.88
301.979	89.88
302.209	93.88
302.439	95.88
302.669	96.88
302.9	83.88
303.13	80.88
303.36	87.88
303.59	94.88
303.82	85.88
304.051	87.88
304.281	80.88
304.511	82.88
304.741	70.88
304.971	80.88
305.201	84.88
305.431	74.88
305.661	82.88
305.891	91.88
306.121	93.88
306.352	69.88
306.582	85.88
306.812	87.88
307.042	89.88
307.272	90.88
307.502	89.88
307.731	90.88
307.961	93.88
308.191	90.88
308.421	87.88
308.651	87.88
308.881	76.88
309.111	89.88
309.341	96.88
309.571	66.88
309.8	57.88
310.03	77.88
310.26	88.88
310.49	98.88
310.72	83.88
310.949	88.88
311.179	71.88
311.409	75.88
311.639	90.88
311.868	77.88
312.098	82.88
312.328	84.88
312.557	83.88
312.787	80.88
313.017	106.88
313.246	92.88
313.476	90.88
313.706	100.88
313.935	78.88
314.165	95.88
314.394	91.88
314.624	90.88
314.853	83.88
315.083	91.88
315.312	85.88
315.542	88.88
315.771	69.88
316.001	72.88
316.23	82.88
316.46	77.88
316.689	95.88
316.919	82.88
317.148	84.88
317.377	96.88
317.607	77.88
317.836	94.88
318.065	87.88
318.295	85.88
318.524	74.88
318.753	83.88
318.983	85.88
319.212	84.88
319.441	80.88
319.67	77.88
319.9	74.88
320.129	67.88
320.358	81.88
320.587	88.88
320.816	85.88
321.046	95.88
321.275	82.88
321.504	80.88
321.733	83.88
321.962	95.88
322.191	80.88
322.42	83.88
322.649	88.88
322.878	84.88
323.108	81.88
323.337	87.88
323.566	87.88
323.795	82.88
324.024	83.88
324.253	74.88
324.482	76.88
324.71	87.88
324.939	71.88
325.168	96.88
325.397	86.88
325.626	101.88
325.855	84.88
326.084	84.88
326.313	79.88
326.542	87.88
326.77	85.88
326.999	82.88
327.228	63.88
327.457	70.88
327.686	92.88
327.914	91.88
328.143	95.88
328.372	86.88
328.6	73.88
328.829	79.88
329.058	87.88
329.287	90.88
329.515	84.88
329.744	80.88
329.972	77.88
330.201	94.88
330.43	78.88
330.658	75.88
330.887	75.88
331.115	83.88
331.344	89.88
331.572	76.88
331.801	88.88
332.03	79.88
332.258	72.88
332.486	85.88
332.715	81.88
332.943	89.88
333.172	89.88
333.4	101.88
333.629	90.88
333.857	83.88
334.085	91.88
334.314	88.88
334.542	76.88
334.771	81.88
334.999	66.88
335.227	89.88
335.455	74.88
335.684	83.88
335.912	74.88
336.14	81.88
336.369	85.88
336.597	75.88
336.825	79.88
337.053	78.88
337.281	70.88
337.51	89.88
337.738	96.88
337.966	86.88
338.194	77.88
338.422	82.88
338.65	92.88
338.878	96.88
339.106	81.88
339.334	75.88
339.562	84.88
339.79	93.88
340.018	81.88
340.246	74.88
340.474	77.88
340.702	91.88
340.93	85.88
341.158	75.88
341.386	80.88
341.614	87.88
341.842	77.88
342.07	82.88
342.298	89.88
342.526	88.88
342.754	82.88
342.981	90.88
343.209	91.88
343.437	87.88
343.665	73.88
343.893	75.88
344.12	102.88
344.348	94.88
344.576	77.88
344.804	87.88
345.031	83.88
345.259	78.88
345.487	81.88
345.714	76.88
345.942	82.88
346.17	74.88
346.397	85.88
346.625	96.88
346.853	87.88
347.08	89.88
347.308	86.88
347.535	75.88
347.763	80.88
347.99	103.88
348.218	83.88
348.445	86.88
348.673	84.88
348.9	89.88
349.128	97.88
349.355	97.88
349.583	95.88
349.81	85.88
350.037	79.88
350.265	88.88
350.492	68.88
350.72	83.88
350.947	94.88
351.174	68.88
351.402	74.88
351.629	82.88
351.856	83.88
352.083	90.88
352.311	87.88
352.538	87.88
352.765	81.88
352.992	75.88
353.22	74.88
353.447	74.88
353.674	77.88
353.901	82.88
354.128	82.88
354.355	93.88
354.583	65.88
354.81	81.88
355.037	84.88
355.264	88.88
355.491	75.88
355.718	84.88
355.945	71.88
356.172	90.88
356.399	74.88
356.626	75.88
356.853	84.88
357.08	83.88
357.307	83.88
357.534	78.88
357.761	95.88
357.988	90.88
358.215	86.88
358.441	83.88
358.668	79.88
358.895	74.88
359.122	79.88
359.349	79.88
359.576	80.88
359.802	77.88
360.029	84.88
360.256	77.88
360.483	88.88
360.709	68.88
360.936	90.88
361.163	81.88
361.39	78.88
361.616	88.88
361.843	73.88
362.07	74.88
362.296	94.88
362.523	80.88
362.749	78.88
362.976	87.88
363.203	84.88
363.429	80.88
363.656	84.88
363.882	87.88
364.109	85.88
364.335	92.88
364.562	89.88
364.788	89.88
365.015	64.88
365.241	87.88
365.468	87.88
365.694	69.88
365.92	85.88
366.147	80.88
366.373	95.88
366.599	80.88
366.826	97.88
367.052	93.88
367.278	76.88
367.505	96.88
367.731	90.88
367.957	83.88
368.184	93.88
368.41	97.88
368.636	83.88
368.862	81.88
369.089	91.88
369.315	77.88
369.541	84.88
369.767	82.88
369.993	93.88
370.219	81.88
370.445	75.88
370.672	97.88
370.898	91.88
371.124	80.88
371.35	88.88
371.576	107.88
371.802	89.88
372.028	91.88
372.254	88.88
372.48	102.88
372.706	92.88
372.932	91.88
373.158	88.88
373.384	89.88
373.61	84.88
373.835	97.88
374.061	97.88
374.287	86.88
374.513	82.88
374.739	93.88
374.965	89.88
375.191	83.88
375.416	94.88
375.642	99.88
375.868	86.88
376.094	82.88
376.319	79.88
376.545	82.88
376.771	94.88
376.997	88.88
377.222	88.88
377.448	89.88
377.674	76.88
377.899	86.88
378.125	93.88
378.35	86.88
378.576	98.88
378.802	77.88
379.027	74.88
379.253	81.88
379.478	80.88
379.704	100.88
379.929	85.88
380.155	85.88
380.38	86.88
380.606	91.88
380.831	96.88
381.057	87.88
381.282	93.88
381.507	97.88
381.733	96.88
381.958	101.88
382.184	102.88
382.409	96.88
382.634	102.88
382.86	95.88
383.085	98.88
383.31	101.88
383.535	110.88
383.761	88.88
383.986	98.88
384.211	104.88
384.436	98.88
384.662	98.88
384.887	93.88
385.112	89.88
385.337	82.88
385.562	98.88
385.787	91.88
386.013	85.88
386.238	88.88
386.463	91.88
386.688	94.88
386.913	90.88
387.138	83.88
387.363	88.88
387.588	98.88
387.813	106.88
388.038	94.88
388.263	111.88
388.488	106.88
388.713	95.88
388.938	103.88
389.163	100.88
389.387	91.88
389.612	85.88
389.837	98.88
390.062	82.88
390.287	93.88
390.512	90.88
390.736	107.88
390.961	101.88
391.186	90.88
391.411	93.88
391.636	117.88
391.86	99.88
392.085	94.88
392.31	100.88
392.534	98.88
392.759	115.88
392.984	105.88
393.208	94.88
393.433	95.88
393.658	100.88
393.882	104.88
394.107	104.88
394.331	101.88
394.556	111.88
394.78	120.88
395.005	109.88
395.229	101.88
395.454	129.88
395.678	93.88
395.903	104.88
396.127	111.88
396.352	105.88
396.576	99.88
396.801	95.88
397.025	105.88
397.249	103.88
397.474	106.88
397.698	95.88
397.922	113.88
398.147	110.88
398.371	110.88
398.595	107.88
398.82	113.88
399.044	110.88
399.268	101.88
399.492	94.88
399.717	112.88
399.941	103.88
400.165	105.88
400.389	107.88
400.613	110.88
400.837	102.88
401.062	101.88
401.286	88.88
401.51	118.88
401.734	109.88
401.958	110.88
402.182	95.88
402.406	113.88
402.63	120.88
402.854	113.88
403.078	98.88
403.302	106.88
403.526	95.88
403.75	111.88
403.974	114.88
404.198	113.88
404.422	119.88
404.645	95.88
404.869	124.88
405.093	117.88
405.317	110.88
405.541	124.88
405.765	130.88
405.988	121.88
406.212	110.88
406.436	106.88
406.66	117.88
406.883	121.88
407.107	122.88
407.331	115.88
407.555	109.88
407.778	107.88
408.002	106.88
408.226	105.88
408.449	116.88
408.673	104.88
408.896	129.88
409.12	121.88
409.344	115.88
409.567	121.88
409.791	113.88
410.014	124.88
410.238	109.88
410.461	110.88
410.685	127.88
410.908	118.88
411.132	111.88
411.355	115.88
411.578	131.88
411.802	119.88
412.025	119.88
412.249	120.88
412.472	105.88
412.695	118.88
412.919	122.88
413.142	125.88
413.365	137.88
413.589	127.88
413.812	127.88
414.035	121.88
414.258	120.88
414.482	109.88
414.705	115.88
414.928	119.88
415.151	114.88
415.374	135.88
415.597	135.88
415.821	126.88
416.044	128.88
416.267	118.88
416.49	127.88
416.713	127.88
416.936	129.88
417.159	122.88
417.382	122.88
417.605	130.88
417.828	113.88
418.051	139.88
418.274	129.88
418.497	139.88
418.72	126.88
418.943	119.88
419.166	132.88
419.389	123.88
419.611	127.88
419.834	136.88
420.057	134.88
420.28	141.88
420.503	133.88
420.726	127.88
420.948	135.88
421.171	132.88
421.394	132.88
421.617	129.88
421.839	129.88
422.062	132.88
422.285	123.88
422.507	122.88
422.73	115.88
422.953	118.88
423.175	114.88
423.398	125.88
423.621	129.88
423.843	137.88
424.066	133.88
424.288	121.88
424.511	138.88
424.733	148.88
424.956	139.88
425.178	143.88
425.401	137.88
425.623	143.88
425.846	136.88
426.068	135.88
426.291	130.88
426.513	122.88
426.735	120.88
426.958	121.88
427.18	130.88
427.402	140.88
427.625	142.88
427.847	138.88
428.069	133.88
428.292	109.88
428.514	127.88
428.736	133.88
428.958	110.88
429.181	130.88
429.403	123.88
429.625	118.88
429.847	132.88
430.069	105.88
430.292	130.88
430.514	123.88
430.736	122.88
430.958	133.88
431.18	129.88
431.402	134.88
431.624	127.88
431.846	122.88
432.068	100.88
432.29	109.88
432.512	112.88
432.734	125.88
432.956	122.88
433.178	139.88
433.4	128.88
433.622	123.88
433.844	124.88
434.066	117.88
434.287	115.88
434.509	93.88
434.731	105.88
434.953	117.88
435.175	120.88
435.397	125.88
435.618	117.88
435.84	107.88
436.062	117.88
436.284	124.88
436.505	128.88
436.727	130.88
436.949	131.88
437.17	128.88
437.392	135.88
437.614	131.88
437.835	122.88
438.057	105.88
438.278	107.88
438.5	118.88
438.721	144.88
438.943	150.88
439.165	125.88
439.386	133.88
439.608	154.88
439.829	152.88
440.05	140.88
440.272	143.88
440.493	132.88
440.715	137.88
440.936	136.88
441.158	132.88
441.379	132.88
441.6	140.88
441.822	144.88
442.043	145.88
442.264	142.88
442.486	136.88
442.707	139.88
442.928	145.88
443.149	155.88
443.371	140.88
443.592	129.88
443.813	128.88
444.034	136.88
444.255	141.88
444.476	144.88
444.698	161.88
444.919	134.88
445.14	281.88
445.361	200.88
445.582	146.88
445.803	146.88
446.024	127.88
446.245	146.88
446.466	151.88
446.687	154.88
446.908	151.88
447.129	155.88
447.35	156.88
447.571	144.88
447.792	142.88
448.013	138.88
448.234	136.88
448.455	137.88
448.675	131.88
448.896	120.88
449.117	137.88
449.338	119.88
449.559	146.88
449.779	133.88
450	131.88
450.221	143.88
450.442	143.88
450.662	140.88
450.883	130.88
451.104	127.88
451.324	129.88
451.545	125.88
451.766	119.88
451.986	121.88
452.207	144.88
452.428	126.88
452.648	127.88
452.869	125.88
453.089	95.88
453.31	92.88
453.53	111.88
453.751	97.88
453.971	106.88
454.192	94.88
454.412	122.88
454.633	118.88
454.853	121.88
455.073	109.88
455.294	118.88
455.514	122.88
455.734	111.88
455.955	121.88
456.175	117.88
456.395	104.88
456.616	102.88
456.836	103.88
457.056	104.88
457.276	103.88
457.497	109.88
457.717	112.88
457.937	111.88
458.157	107.88
458.377	106.88
458.598	112.88
458.818	100.88
459.038	99.88
459.258	82.88
459.478	88.88
459.698	84.88
459.918	107.88
460.138	97.88
460.358	112.88
460.578	119.88
460.798	115.88
461.018	106.88
461.238	111.88
461.458	123.88
461.678	112.88
461.898	118.88
462.118	113.88
462.338	98.88
462.558	120.88
462.777	97.88
462.997	110.88
463.217	113.88
463.437	106.88
463.657	99.88
463.876	108.88
464.096	99.88
464.316	101.88
464.536	98.88
464.755	109.88
464.975	104.88
465.195	105.88
465.414	111.88
465.634	114.88
465.854	118.88
466.073	117.88
466.293	113.88
466.512	119.88
466.732	128.88
466.951	134.88
467.171	150.88
467.391	127.88
467.61	135.88
467.829	134.88
468.049	138.88
468.268	139.88
468.488	124.88
468.707	141.88
468.927	139.88
469.146	145.88
469.365	130.88
469.585	148.88
469.804	133.88
470.023	139.88
470.243	142.88
470.462	136.88
470.681	134.88
470.901	131.88
471.12	129.88
471.339	136.88
471.558	124.88
471.777	131.88
471.997	125.88
472.216	126.88
472.435	125.88
472.654	115.88
472.873	105.88
473.092	119.88
473.311	134.88
473.53	119.88
473.749	119.88
473.968	125.88
474.187	137.88
474.406	125.88
474.625	113.88
474.844	136.88
475.063	126.88
475.282	131.88
475.501	117.88
475.72	117.88
475.939	115.88
476.158	133.88
476.377	139.88
476.596	116.88
476.814	102.88
477.033	112.88
477.252	121.88
477.471	136.88
477.69	121.88
477.908	125.88
478.127	150.88
478.346	126.88
478.564	128.88
478.783	128.88
479.002	120.88
479.22	151.88
479.439	135.88
479.658	102.88
479.876	100.88
480.095	106.88
480.313	101.88
480.532	109.88
480.751	100.88
480.969	98.88
481.188	90.88
481.406	81.88
481.624	82.88
481.843	78.88
482.061	96.88
482.28	111.88
482.498	123.88
482.717	111.88
482.935	119.88
483.153	130.88
483.372	133.88
483.59	141.88
483.808	134.88
484.027	139.88
484.245	138.88
484.463	159.88
484.681	159.88
484.9	136.88
485.118	140.88
485.336	145.88
485.554	119.88
485.772	107.88
485.99	93.88
486.209	122.88
486.427	122.88
486.645	119.88
486.863	142.88
487.081	141.88
487.299	153.88
487.517	133.88
487.735	173.88
487.953	187.88
488.171	163.88
488.389	163.88
488.607	165.88
488.825	159.88
489.043	133.88
489.261	137.88
489.479	137.88
489.696	140.88
489.914	136.88
490.132	140.88
490.35	136.88
490.568	165.88
490.786	176.88
491.003	162.88
491.221	174.88
491.439	191.88
491.657	174.88
491.874	208.88
492.092	240.88
492.31	237.88
492.527	217.88
492.745	197.88
492.963	194.88
493.18	184.88
493.398	181.88
493.615	169.88
493.833	176.88
494.05	183.88
494.268	166.88
494.485	166.88
494.703	164.88
494.92	175.88
495.138	168.88
495.355	159.88
495.573	166.88
495.79	189.88
496.008	167.88
496.225	164.88
496.442	160.88
496.66	161.88
496.877	147.88
497.094	163.88
497.312	150.88
497.529	165.88
497.746	148.88
497.963	145.88
498.181	151.88
498.398	127.88
498.615	123.88
498.832	138.88
499.049	114.88
499.267	121.88
499.484	122.88
499.701	139.88
499.918	131.88
500.135	139.88
500.352	133.88
500.569	139.88
500.786	135.88
501.003	145.88
501.22	143.88
501.437	131.88
501.654	123.88
501.871	149.88
502.088	149.88
502.305	119.88
502.522	121.88
502.739	131.88
502.956	139.88
503.172	134.88
503.389	139.88
503.606	127.88
503.823	118.88
504.04	123.88
504.256	119.88
504.473	121.88
504.69	129.88
504.907	130.88
505.123	125.88
505.34	121.88
505.557	105.88
505.773	115.88
505.99	125.88
506.207	128.88
506.423	121.88
506.64	105.88
506.856	125.88
507.073	117.88
507.289	119.88
507.506	121.88
507.722	104.88
507.939	115.88
508.155	118.88
508.372	109.88
508.588	117.88
508.805	130.88
509.021	106.88
509.238	115.88
509.454	92.88
509.67	91.88
509.887	93.88
510.103	93.88
510.319	99.88
510.536	101.88
510.752	97.88
510.968	78.88
511.184	86.88
511.401	77.88
511.617	95.88
511.833	88.88
512.049	96.88
