Data from Location4.07152019.Energy5.Lamp.07192019.3%Agarose_HRD10591_16-19-07-925.txt Node
Date: Fri Jul 19 16:19:07 EDT 2019
User: cochatt
Spectrometer: HR+D1059
Trigger mode: 1
Integration Time (sec): 1.000000E-1
Scans to average: 1
Electric dark correction enabled: true
Nonlinearity correction enabled: false
Boxcar width: 0
XAxis mode: Wavelengths
Number of Pixels in Spectrum: 2048
>>>>>Begin Spectral Data<<<<<
223.165	-17.69
223.4	-17.69
223.635	-17.69
223.869	-11.69
224.104	-20.69
224.338	0.31
224.573	-7.69
224.808	0.31
225.042	-14.69
225.277	-7.69
225.511	-2.69
225.746	-7.69
225.98	4.31
226.215	5.31
226.449	5.31
226.683	18.31
226.918	25.31
227.152	31.31
227.387	35.31
227.621	31.31
227.856	49.31
228.09	32.31
228.324	48.31
228.559	52.31
228.793	67.31
229.027	42.31
229.262	61.31
229.496	55.31
229.73	77.31
229.964	65.31
230.199	78.31
230.433	74.31
230.667	88.31
230.901	87.31
231.136	64.31
231.37	84.31
231.604	89.31
231.838	74.31
232.072	89.31
232.306	96.31
232.541	90.31
232.775	78.31
233.009	83.31
233.243	75.31
233.477	83.31
233.711	75.31
233.945	89.31
234.179	79.31
234.413	97.31
234.647	74.31
234.881	74.31
235.115	82.31
235.349	78.31
235.583	81.31
235.817	80.31
236.051	74.31
236.285	78.31
236.519	84.31
236.753	73.31
236.987	77.31
237.221	76.31
237.455	82.31
237.689	76.31
237.922	76.31
238.156	85.31
238.39	72.31
238.624	69.31
238.858	81.31
239.091	82.31
239.325	69.31
239.559	77.31
239.793	73.31
240.027	76.31
240.26	77.31
240.494	69.31
240.728	74.31
240.961	70.31
241.195	80.31
241.429	91.31
241.662	95.31
241.896	77.31
242.13	78.31
242.363	69.31
242.597	78.31
242.83	72.31
243.064	70.31
243.298	82.31
243.531	79.31
243.765	79.31
243.998	69.31
244.232	82.31
244.465	78.31
244.699	72.31
244.932	70.31
245.166	66.31
245.399	73.31
245.633	85.31
245.866	72.31
246.099	95.31
246.333	81.31
246.566	89.31
246.8	87.31
247.033	73.31
247.266	78.31
247.5	77.31
247.733	88.31
247.966	90.31
248.2	93.31
248.433	62.31
248.666	82.31
248.899	74.31
249.133	88.31
249.366	80.31
249.599	75.31
249.832	78.31
250.066	79.31
250.299	75.31
250.532	73.31
250.765	79.31
250.998	94.31
251.231	85.31
251.465	80.31
251.698	81.31
251.931	79.31
252.164	85.31
252.397	71.31
252.63	78.31
252.863	75.31
253.096	76.31
253.329	77.31
253.562	78.31
253.795	79.31
254.028	77.31
254.261	71.31
254.494	78.31
254.727	84.31
254.96	78.31
255.193	88.31
255.426	78.31
255.659	77.31
255.892	59.31
256.124	85.31
256.357	68.31
256.59	79.31
256.823	77.31
257.056	78.31
257.289	83.31
257.521	79.31
257.754	84.31
257.987	79.31
258.22	100.31
258.452	92.31
258.685	74.31
258.918	84.31
259.151	74.31
259.383	63.31
259.616	96.31
259.849	85.31
260.081	79.31
260.314	84.31
260.547	83.31
260.779	83.31
261.012	85.31
261.244	76.31
261.477	80.31
261.71	83.31
261.942	88.31
262.175	91.31
262.407	87.31
262.64	81.31
262.872	80.31
263.105	81.31
263.337	77.31
263.57	82.31
263.802	84.31
264.035	82.31
264.267	84.31
264.499	83.31
264.732	72.31
264.964	91.31
265.197	87.31
265.429	89.31
265.661	73.31
265.894	82.31
266.126	91.31
266.358	88.31
266.591	79.31
266.823	86.31
267.055	84.31
267.287	88.31
267.52	97.31
267.752	77.31
267.984	90.31
268.216	83.31
268.448	85.31
268.681	96.31
268.913	91.31
269.145	84.31
269.377	92.31
269.609	75.31
269.841	72.31
270.073	94.31
270.306	73.31
270.538	77.31
270.77	81.31
271.002	81.31
271.234	89.31
271.466	96.31
271.698	64.31
271.93	84.31
272.162	84.31
272.394	86.31
272.626	98.31
272.858	96.31
273.09	80.31
273.322	81.31
273.553	82.31
273.785	74.31
274.017	76.31
274.249	86.31
274.481	98.31
274.713	79.31
274.945	86.31
275.176	80.31
275.408	86.31
275.64	78.31
275.872	95.31
276.104	80.31
276.335	81.31
276.567	69.31
276.799	84.31
277.031	104.31
277.262	88.31
277.494	84.31
277.726	86.31
277.957	91.31
278.189	95.31
278.421	79.31
278.652	72.31
278.884	93.31
279.115	89.31
279.347	84.31
279.579	91.31
279.81	92.31
280.042	71.31
280.273	80.31
280.505	69.31
280.736	83.31
280.968	86.31
281.199	90.31
281.431	78.31
281.662	93.31
281.894	73.31
282.125	88.31
282.356	89.31
282.588	97.31
282.819	82.31
283.051	79.31
283.282	85.31
283.513	81.31
283.745	96.31
283.976	77.31
284.207	77.31
284.439	89.31
284.67	84.31
284.901	85.31
285.132	84.31
285.364	86.31
285.595	85.31
285.826	76.31
286.057	79.31
286.288	84.31
286.52	67.31
286.751	79.31
286.982	80.31
287.213	81.31
287.444	91.31
287.675	91.31
287.906	92.31
288.138	75.31
288.369	90.31
288.6	96.31
288.831	91.31
289.062	89.31
289.293	73.31
289.524	82.31
289.755	90.31
289.986	81.31
290.217	78.31
290.448	79.31
290.679	86.31
290.91	81.31
291.141	81.31
291.371	97.31
291.602	76.31
291.833	81.31
292.064	86.31
292.295	92.31
292.526	87.31
292.757	84.31
292.987	77.31
293.218	65.31
293.449	71.31
293.68	80.31
293.91	87.31
294.141	80.31
294.372	89.31
294.603	84.31
294.833	88.31
295.064	88.31
295.295	87.31
295.525	82.31
295.756	90.31
295.987	89.31
296.217	88.31
296.448	84.31
296.679	100.31
296.909	96.31
297.14	91.31
297.37	84.31
297.601	81.31
297.831	76.31
298.062	82.31
298.292	95.31
298.523	91.31
298.753	90.31
298.984	84.31
299.214	101.31
299.445	84.31
299.675	86.31
299.905	79.31
300.136	73.31
300.366	91.31
300.597	83.31
300.827	84.31
301.057	88.31
301.288	80.31
301.518	86.31
301.748	90.31
301.979	78.31
302.209	81.31
302.439	71.31
302.669	76.31
302.9	85.31
303.13	83.31
303.36	84.31
303.59	89.31
303.82	85.31
304.051	85.31
304.281	102.31
304.511	83.31
304.741	82.31
304.971	71.31
305.201	77.31
305.431	75.31
305.661	89.31
305.891	77.31
306.121	97.31
306.352	82.31
306.582	88.31
306.812	82.31
307.042	85.31
307.272	95.31
307.502	83.31
307.731	89.31
307.961	83.31
308.191	91.31
308.421	91.31
308.651	77.31
308.881	82.31
309.111	71.31
309.341	85.31
309.571	73.31
309.8	82.31
310.03	102.31
310.26	78.31
310.49	82.31
310.72	88.31
310.949	97.31
311.179	85.31
311.409	84.31
311.639	83.31
311.868	73.31
312.098	84.31
312.328	90.31
312.557	88.31
312.787	94.31
313.017	77.31
313.246	92.31
313.476	87.31
313.706	87.31
313.935	87.31
314.165	87.31
314.394	76.31
314.624	91.31
314.853	92.31
315.083	86.31
315.312	77.31
315.542	73.31
315.771	88.31
316.001	92.31
316.23	85.31
316.46	77.31
316.689	80.31
316.919	98.31
317.148	83.31
317.377	101.31
317.607	78.31
317.836	86.31
318.065	78.31
318.295	76.31
318.524	87.31
318.753	78.31
318.983	85.31
319.212	100.31
319.441	93.31
319.67	91.31
319.9	76.31
320.129	82.31
320.358	79.31
320.587	89.31
320.816	81.31
321.046	80.31
321.275	88.31
321.504	96.31
321.733	75.31
321.962	84.31
322.191	86.31
322.42	88.31
322.649	94.31
322.878	96.31
323.108	81.31
323.337	72.31
323.566	87.31
323.795	82.31
324.024	100.31
324.253	93.31
324.482	88.31
324.71	82.31
324.939	82.31
325.168	92.31
325.397	90.31
325.626	86.31
325.855	87.31
326.084	74.31
326.313	86.31
326.542	96.31
326.77	84.31
326.999	86.31
327.228	80.31
327.457	88.31
327.686	71.31
327.914	82.31
328.143	84.31
328.372	78.31
328.6	83.31
328.829	87.31
329.058	79.31
329.287	87.31
329.515	83.31
329.744	88.31
329.972	87.31
330.201	88.31
330.43	82.31
330.658	81.31
330.887	76.31
331.115	82.31
331.344	82.31
331.572	95.31
331.801	89.31
332.03	82.31
332.258	77.31
332.486	91.31
332.715	72.31
332.943	82.31
333.172	93.31
333.4	92.31
333.629	92.31
333.857	87.31
334.085	71.31
334.314	89.31
334.542	85.31
334.771	88.31
334.999	86.31
335.227	83.31
335.455	92.31
335.684	77.31
335.912	91.31
336.14	71.31
336.369	96.31
336.597	82.31
336.825	90.31
337.053	80.31
337.281	89.31
337.51	94.31
337.738	92.31
337.966	75.31
338.194	79.31
338.422	82.31
338.65	97.31
338.878	95.31
339.106	73.31
339.334	92.31
339.562	90.31
339.79	88.31
340.018	93.31
340.246	77.31
340.474	78.31
340.702	76.31
340.93	79.31
341.158	91.31
341.386	99.31
341.614	76.31
341.842	77.31
342.07	89.31
342.298	93.31
342.526	93.31
342.754	83.31
342.981	89.31
343.209	83.31
343.437	88.31
343.665	80.31
343.893	78.31
344.12	83.31
344.348	82.31
344.576	84.31
344.804	82.31
345.031	85.31
345.259	91.31
345.487	108.31
345.714	94.31
345.942	87.31
346.17	88.31
346.397	83.31
346.625	85.31
346.853	85.31
347.08	89.31
347.308	91.31
347.535	80.31
347.763	80.31
347.99	99.31
348.218	103.31
348.445	85.31
348.673	88.31
348.9	92.31
349.128	89.31
349.355	85.31
349.583	77.31
349.81	91.31
350.037	74.31
350.265	86.31
350.492	88.31
350.72	92.31
350.947	91.31
351.174	81.31
351.402	97.31
351.629	81.31
351.856	83.31
352.083	83.31
352.311	74.31
352.538	82.31
352.765	81.31
352.992	81.31
353.22	88.31
353.447	74.31
353.674	98.31
353.901	86.31
354.128	91.31
354.355	83.31
354.583	87.31
354.81	93.31
355.037	81.31
355.264	98.31
355.491	83.31
355.718	85.31
355.945	69.31
356.172	97.31
356.399	74.31
356.626	73.31
356.853	83.31
357.08	73.31
357.307	85.31
357.534	86.31
357.761	77.31
357.988	86.31
358.215	77.31
358.441	90.31
358.668	86.31
358.895	85.31
359.122	97.31
359.349	90.31
359.576	89.31
359.802	89.31
360.029	90.31
360.256	79.31
360.483	84.31
360.709	81.31
360.936	72.31
361.163	84.31
361.39	66.31
361.616	89.31
361.843	85.31
362.07	71.31
362.296	75.31
362.523	82.31
362.749	79.31
362.976	95.31
363.203	87.31
363.429	82.31
363.656	72.31
363.882	99.31
364.109	80.31
364.335	85.31
364.562	68.31
364.788	88.31
365.015	107.31
365.241	77.31
365.468	89.31
365.694	81.31
365.92	84.31
366.147	96.31
366.373	91.31
366.599	84.31
366.826	83.31
367.052	91.31
367.278	73.31
367.505	88.31
367.731	89.31
367.957	90.31
368.184	85.31
368.41	88.31
368.636	92.31
368.862	89.31
369.089	84.31
369.315	77.31
369.541	97.31
369.767	84.31
369.993	93.31
370.219	96.31
370.445	95.31
370.672	81.31
370.898	77.31
371.124	97.31
371.35	81.31
371.576	93.31
371.802	89.31
372.028	92.31
372.254	96.31
372.48	94.31
372.706	98.31
372.932	84.31
373.158	90.31
373.384	87.31
373.61	91.31
373.835	97.31
374.061	96.31
374.287	88.31
374.513	89.31
374.739	101.31
374.965	101.31
375.191	86.31
375.416	81.31
375.642	87.31
375.868	91.31
376.094	107.31
376.319	98.31
376.545	93.31
376.771	98.31
376.997	84.31
377.222	93.31
377.448	86.31
377.674	90.31
377.899	89.31
378.125	95.31
378.35	96.31
378.576	91.31
378.802	99.31
379.027	89.31
379.253	97.31
379.478	82.31
379.704	77.31
379.929	87.31
380.155	98.31
380.38	100.31
380.606	111.31
380.831	99.31
381.057	93.31
381.282	96.31
381.507	108.31
381.733	107.31
381.958	90.31
382.184	110.31
382.409	106.31
382.634	104.31
382.86	91.31
383.085	101.31
383.31	93.31
383.535	85.31
383.761	91.31
383.986	84.31
384.211	89.31
384.436	96.31
384.662	93.31
384.887	99.31
385.112	94.31
385.337	116.31
385.562	98.31
385.787	110.31
386.013	92.31
386.238	101.31
386.463	89.31
386.688	97.31
386.913	96.31
387.138	107.31
387.363	102.31
387.588	98.31
387.813	114.31
388.038	118.31
388.263	116.31
388.488	102.31
388.713	97.31
388.938	109.31
389.163	115.31
389.387	102.31
389.612	100.31
389.837	94.31
390.062	116.31
390.287	104.31
390.512	91.31
390.736	93.31
390.961	117.31
391.186	111.31
391.411	92.31
391.636	104.31
391.86	92.31
392.085	109.31
392.31	115.31
392.534	93.31
392.759	96.31
392.984	92.31
393.208	94.31
393.433	104.31
393.658	88.31
393.882	106.31
394.107	105.31
394.331	104.31
394.556	102.31
394.78	105.31
395.005	99.31
395.229	106.31
395.454	102.31
395.678	100.31
395.903	105.31
396.127	113.31
396.352	114.31
396.576	116.31
396.801	103.31
397.025	98.31
397.249	109.31
397.474	102.31
397.698	113.31
397.922	116.31
398.147	114.31
398.371	107.31
398.595	96.31
398.82	103.31
399.044	110.31
399.268	99.31
399.492	105.31
399.717	112.31
399.941	92.31
400.165	112.31
400.389	102.31
400.613	114.31
400.837	112.31
401.062	115.31
401.286	121.31
401.51	106.31
401.734	107.31
401.958	107.31
402.182	122.31
402.406	114.31
402.63	107.31
402.854	103.31
403.078	110.31
403.302	103.31
403.526	103.31
403.75	105.31
403.974	113.31
404.198	118.31
404.422	131.31
404.645	116.31
404.869	102.31
405.093	116.31
405.317	110.31
405.541	113.31
405.765	118.31
405.988	103.31
406.212	115.31
406.436	109.31
406.66	109.31
406.883	108.31
407.107	108.31
407.331	115.31
407.555	116.31
407.778	120.31
408.002	110.31
408.226	114.31
408.449	121.31
408.673	117.31
408.896	122.31
409.12	129.31
409.344	105.31
409.567	114.31
409.791	117.31
410.014	105.31
410.238	140.31
410.461	125.31
410.685	124.31
410.908	121.31
411.132	117.31
411.355	119.31
411.578	131.31
411.802	120.31
412.025	116.31
412.249	117.31
412.472	109.31
412.695	120.31
412.919	116.31
413.142	109.31
413.365	116.31
413.589	140.31
413.812	122.31
414.035	117.31
414.258	129.31
414.482	115.31
414.705	114.31
414.928	116.31
415.151	111.31
415.374	120.31
415.597	122.31
415.821	116.31
416.044	132.31
416.267	135.31
416.49	124.31
416.713	132.31
416.936	127.31
417.159	113.31
417.382	129.31
417.605	125.31
417.828	120.31
418.051	118.31
418.274	130.31
418.497	124.31
418.72	123.31
418.943	108.31
419.166	133.31
419.389	134.31
419.611	134.31
419.834	143.31
420.057	121.31
420.28	119.31
420.503	134.31
420.726	138.31
420.948	135.31
421.171	128.31
421.394	137.31
421.617	146.31
421.839	126.31
422.062	121.31
422.285	128.31
422.507	121.31
422.73	124.31
422.953	122.31
423.175	119.31
423.398	126.31
423.621	116.31
423.843	134.31
424.066	127.31
424.288	141.31
424.511	140.31
424.733	135.31
424.956	134.31
425.178	141.31
425.401	134.31
425.623	138.31
425.846	124.31
426.068	127.31
426.291	139.31
426.513	146.31
426.735	132.31
426.958	133.31
427.18	134.31
427.402	135.31
427.625	120.31
427.847	124.31
428.069	129.31
428.292	116.31
428.514	106.31
428.736	128.31
428.958	105.31
429.181	121.31
429.403	128.31
429.625	105.31
429.847	116.31
430.069	130.31
430.292	126.31
430.514	121.31
430.736	136.31
430.958	138.31
431.18	129.31
431.402	142.31
431.624	125.31
431.846	108.31
432.068	99.31
432.29	99.31
432.512	107.31
432.734	128.31
432.956	134.31
433.178	135.31
433.4	148.31
433.622	128.31
433.844	132.31
434.066	124.31
434.287	125.31
434.509	98.31
434.731	102.31
434.953	102.31
435.175	125.31
435.397	130.31
435.618	106.31
435.84	115.31
436.062	113.31
436.284	117.31
436.505	122.31
436.727	125.31
436.949	121.31
437.17	128.31
437.392	117.31
437.614	135.31
437.835	116.31
438.057	114.31
438.278	106.31
438.5	138.31
438.721	127.31
438.943	145.31
439.165	137.31
439.386	146.31
439.608	130.31
439.829	133.31
440.05	140.31
440.272	131.31
440.493	131.31
440.715	132.31
440.936	146.31
441.158	129.31
441.379	145.31
441.6	146.31
441.822	134.31
442.043	132.31
442.264	143.31
442.486	128.31
442.707	138.31
442.928	137.31
443.149	135.31
443.371	141.31
443.592	126.31
443.813	139.31
444.034	133.31
444.255	143.31
444.476	137.31
444.698	148.31
444.919	140.31
445.14	264.31
445.361	205.31
445.582	144.31
445.803	140.31
446.024	138.31
446.245	150.31
446.466	146.31
446.687	151.31
446.908	154.31
447.129	141.31
447.35	144.31
447.571	154.31
447.792	141.31
448.013	148.31
448.234	149.31
448.455	151.31
448.675	145.31
448.896	145.31
449.117	143.31
449.338	131.31
449.559	141.31
449.779	141.31
450	144.31
450.221	135.31
450.442	134.31
450.662	133.31
450.883	119.31
451.104	140.31
451.324	140.31
451.545	135.31
451.766	140.31
451.986	133.31
452.207	131.31
452.428	139.31
452.648	119.31
452.869	124.31
453.089	118.31
453.31	117.31
453.53	118.31
453.751	105.31
453.971	96.31
454.192	122.31
454.412	93.31
454.633	122.31
454.853	114.31
455.073	108.31
455.294	116.31
455.514	116.31
455.734	123.31
455.955	104.31
456.175	120.31
456.395	98.31
456.616	118.31
456.836	117.31
457.056	96.31
457.276	104.31
457.497	100.31
457.717	104.31
457.937	115.31
458.157	124.31
458.377	107.31
458.598	104.31
458.818	97.31
459.038	90.31
459.258	102.31
459.478	81.31
459.698	90.31
459.918	102.31
460.138	106.31
460.358	101.31
460.578	124.31
460.798	117.31
461.018	114.31
461.238	129.31
461.458	102.31
461.678	104.31
461.898	128.31
462.118	109.31
462.338	124.31
462.558	112.31
462.777	125.31
462.997	103.31
463.217	115.31
463.437	98.31
463.657	112.31
463.876	110.31
464.096	108.31
464.316	114.31
464.536	115.31
464.755	121.31
464.975	125.31
465.195	124.31
465.414	128.31
465.634	109.31
465.854	121.31
466.073	124.31
466.293	114.31
466.512	122.31
466.732	132.31
466.951	139.31
467.171	135.31
467.391	133.31
467.61	137.31
467.829	147.31
468.049	144.31
468.268	143.31
468.488	138.31
468.707	132.31
468.927	145.31
469.146	133.31
469.365	134.31
469.585	142.31
469.804	144.31
470.023	136.31
470.243	149.31
470.462	140.31
470.681	131.31
470.901	144.31
471.12	130.31
471.339	136.31
471.558	157.31
471.777	152.31
471.997	155.31
472.216	126.31
472.435	107.31
472.654	107.31
472.873	113.31
473.092	118.31
473.311	118.31
473.53	121.31
473.749	128.31
473.968	135.31
474.187	126.31
474.406	124.31
474.625	136.31
474.844	137.31
475.063	138.31
475.282	121.31
475.501	120.31
475.72	119.31
475.939	134.31
476.158	128.31
476.377	136.31
476.596	114.31
476.814	109.31
477.033	98.31
477.252	121.31
477.471	127.31
477.69	130.31
477.908	126.31
478.127	145.31
478.346	136.31
478.564	132.31
478.783	122.31
479.002	140.31
479.22	140.31
479.439	139.31
479.658	124.31
479.876	134.31
480.095	109.31
480.313	102.31
480.532	125.31
480.751	107.31
480.969	93.31
481.188	108.31
481.406	89.31
481.624	92.31
481.843	80.31
482.061	104.31
482.28	97.31
482.498	121.31
482.717	114.31
482.935	120.31
483.153	152.31
483.372	155.31
483.59	148.31
483.808	142.31
484.027	126.31
484.245	129.31
484.463	140.31
484.681	168.31
484.9	152.31
485.118	146.31
485.336	118.31
485.554	114.31
485.772	114.31
485.99	110.31
486.209	119.31
486.427	112.31
486.645	117.31
486.863	130.31
487.081	144.31
487.299	131.31
487.517	139.31
487.735	154.31
487.953	172.31
488.171	181.31
488.389	170.31
488.607	171.31
488.825	147.31
489.043	131.31
489.261	122.31
489.479	152.31
489.696	126.31
489.914	142.31
490.132	142.31
490.35	147.31
490.568	163.31
490.786	165.31
491.003	169.31
491.221	177.31
491.439	180.31
491.657	193.31
491.874	201.31
492.092	204.31
492.31	229.31
492.527	224.31
492.745	209.31
492.963	185.31
493.18	191.31
493.398	170.31
493.615	170.31
493.833	178.31
494.05	178.31
494.268	172.31
494.485	158.31
494.703	171.31
494.92	178.31
495.138	174.31
495.355	178.31
495.573	172.31
495.79	163.31
496.008	171.31
496.225	171.31
496.442	153.31
496.66	172.31
496.877	168.31
497.094	166.31
497.312	157.31
497.529	157.31
497.746	149.31
497.963	146.31
498.181	131.31
498.398	113.31
498.615	121.31
498.832	129.31
499.049	122.31
499.267	113.31
499.484	125.31
499.701	137.31
499.918	164.31
500.135	130.31
500.352	153.31
500.569	139.31
500.786	147.31
501.003	141.31
501.22	136.31
501.437	136.31
501.654	135.31
501.871	132.31
502.088	141.31
502.305	125.31
502.522	147.31
502.739	130.31
502.956	140.31
503.172	136.31
503.389	123.31
503.606	121.31
503.823	125.31
504.04	119.31
504.256	128.31
504.473	133.31
504.69	132.31
504.907	116.31
505.123	121.31
505.34	131.31
505.557	109.31
505.773	137.31
505.99	116.31
506.207	126.31
506.423	119.31
506.64	116.31
506.856	128.31
507.073	117.31
507.289	125.31
507.506	123.31
507.722	112.31
507.939	106.31
508.155	124.31
508.372	107.31
508.588	126.31
508.805	113.31
509.021	104.31
509.238	106.31
509.454	116.31
509.67	115.31
509.887	105.31
510.103	90.31
510.319	74.31
510.536	86.31
510.752	78.31
510.968	87.31
511.184	85.31
511.401	85.31
511.617	80.31
