Data from Location4.07152019.Energy5.Lamp.07192019.3%Agarose_HRD10591_16-18-57-925.txt Node
Date: Fri Jul 19 16:18:57 EDT 2019
User: cochatt
Spectrometer: HR+D1059
Trigger mode: 1
Integration Time (sec): 1.000000E-1
Scans to average: 1
Electric dark correction enabled: true
Nonlinearity correction enabled: false
Boxcar width: 0
XAxis mode: Wavelengths
Number of Pixels in Spectrum: 2048
>>>>>Begin Spectral Data<<<<<
223.165	-5.31
223.4	-5.31
223.635	-5.31
223.869	-21.31
224.104	-17.31
224.338	-15.31
224.573	-3.31
224.808	-22.31
225.042	-17.31
225.277	-7.31
225.511	2.69
225.746	7.69
225.98	7.69
226.215	7.69
226.449	8.69
226.683	14.69
226.918	33.69
227.152	26.69
227.387	32.69
227.621	25.69
227.856	33.69
228.09	28.69
228.324	39.69
228.559	68.69
228.793	58.69
229.027	58.69
229.262	49.69
229.496	69.69
229.73	63.69
229.964	70.69
230.199	62.69
230.433	73.69
230.667	68.69
230.901	88.69
231.136	73.69
231.37	69.69
231.604	80.69
231.838	85.69
232.072	89.69
232.306	82.69
232.541	76.69
232.775	91.69
233.009	83.69
233.243	78.69
233.477	82.69
233.711	85.69
233.945	66.69
234.179	69.69
234.413	85.69
234.647	75.69
234.881	77.69
235.115	82.69
235.349	63.69
235.583	76.69
235.817	78.69
236.051	74.69
236.285	60.69
236.519	71.69
236.753	75.69
236.987	85.69
237.221	67.69
237.455	68.69
237.689	73.69
237.922	83.69
238.156	71.69
238.39	74.69
238.624	74.69
238.858	86.69
239.091	71.69
239.325	66.69
239.559	80.69
239.793	71.69
240.027	78.69
240.26	81.69
240.494	83.69
240.728	56.69
240.961	80.69
241.195	77.69
241.429	70.69
241.662	74.69
241.896	76.69
242.13	75.69
242.363	71.69
242.597	83.69
242.83	68.69
243.064	70.69
243.298	79.69
243.531	83.69
243.765	80.69
243.998	68.69
244.232	78.69
244.465	67.69
244.699	84.69
244.932	92.69
245.166	73.69
245.399	61.69
245.633	71.69
245.866	73.69
246.099	71.69
246.333	62.69
246.566	67.69
246.8	87.69
247.033	73.69
247.266	81.69
247.5	74.69
247.733	73.69
247.966	74.69
248.2	72.69
248.433	76.69
248.666	72.69
248.899	82.69
249.133	86.69
249.366	67.69
249.599	77.69
249.832	80.69
250.066	89.69
250.299	91.69
250.532	72.69
250.765	85.69
250.998	84.69
251.231	83.69
251.465	91.69
251.698	75.69
251.931	71.69
252.164	59.69
252.397	78.69
252.63	71.69
252.863	76.69
253.096	77.69
253.329	78.69
253.562	81.69
253.795	75.69
254.028	81.69
254.261	77.69
254.494	93.69
254.727	79.69
254.96	77.69
255.193	75.69
255.426	84.69
255.659	84.69
255.892	86.69
256.124	80.69
256.357	84.69
256.59	88.69
256.823	70.69
257.056	79.69
257.289	82.69
257.521	77.69
257.754	86.69
257.987	78.69
258.22	90.69
258.452	66.69
258.685	85.69
258.918	80.69
259.151	84.69
259.383	66.69
259.616	71.69
259.849	82.69
260.081	80.69
260.314	82.69
260.547	73.69
260.779	78.69
261.012	87.69
261.244	72.69
261.477	92.69
261.71	77.69
261.942	82.69
262.175	77.69
262.407	81.69
262.64	78.69
262.872	75.69
263.105	85.69
263.337	75.69
263.57	94.69
263.802	69.69
264.035	74.69
264.267	76.69
264.499	84.69
264.732	85.69
264.964	76.69
265.197	93.69
265.429	72.69
265.661	67.69
265.894	74.69
266.126	73.69
266.358	79.69
266.591	91.69
266.823	67.69
267.055	83.69
267.287	80.69
267.52	86.69
267.752	76.69
267.984	79.69
268.216	76.69
268.448	77.69
268.681	67.69
268.913	81.69
269.145	80.69
269.377	69.69
269.609	83.69
269.841	92.69
270.073	70.69
270.306	76.69
270.538	66.69
270.77	85.69
271.002	92.69
271.234	83.69
271.466	63.69
271.698	77.69
271.93	91.69
272.162	63.69
272.394	78.69
272.626	80.69
272.858	73.69
273.09	78.69
273.322	82.69
273.553	63.69
273.785	73.69
274.017	80.69
274.249	90.69
274.481	80.69
274.713	75.69
274.945	88.69
275.176	88.69
275.408	81.69
275.64	75.69
275.872	86.69
276.104	71.69
276.335	81.69
276.567	80.69
276.799	89.69
277.031	90.69
277.262	84.69
277.494	71.69
277.726	88.69
277.957	94.69
278.189	94.69
278.421	88.69
278.652	87.69
278.884	72.69
279.115	81.69
279.347	86.69
279.579	86.69
279.81	74.69
280.042	83.69
280.273	73.69
280.505	83.69
280.736	87.69
280.968	85.69
281.199	87.69
281.431	65.69
281.662	83.69
281.894	87.69
282.125	68.69
282.356	85.69
282.588	89.69
282.819	72.69
283.051	83.69
283.282	74.69
283.513	82.69
283.745	89.69
283.976	82.69
284.207	79.69
284.439	89.69
284.67	101.69
284.901	80.69
285.132	81.69
285.364	79.69
285.595	72.69
285.826	89.69
286.057	95.69
286.288	83.69
286.52	87.69
286.751	76.69
286.982	83.69
287.213	80.69
287.444	79.69
287.675	82.69
287.906	88.69
288.138	79.69
288.369	81.69
288.6	82.69
288.831	76.69
289.062	89.69
289.293	73.69
289.524	74.69
289.755	79.69
289.986	75.69
290.217	94.69
290.448	94.69
290.679	79.69
290.91	83.69
291.141	80.69
291.371	82.69
291.602	98.69
291.833	73.69
292.064	87.69
292.295	73.69
292.526	92.69
292.757	78.69
292.987	82.69
293.218	81.69
293.449	83.69
293.68	82.69
293.91	89.69
294.141	85.69
294.372	71.69
294.603	92.69
294.833	83.69
295.064	89.69
295.295	85.69
295.525	84.69
295.756	92.69
295.987	78.69
296.217	73.69
296.448	89.69
296.679	91.69
296.909	88.69
297.14	88.69
297.37	69.69
297.601	112.69
297.831	82.69
298.062	95.69
298.292	72.69
298.523	74.69
298.753	73.69
298.984	72.69
299.214	85.69
299.445	81.69
299.675	92.69
299.905	73.69
300.136	91.69
300.366	92.69
300.597	81.69
300.827	95.69
301.057	82.69
301.288	60.69
301.518	76.69
301.748	71.69
301.979	88.69
302.209	89.69
302.439	88.69
302.669	76.69
302.9	76.69
303.13	86.69
303.36	68.69
303.59	87.69
303.82	75.69
304.051	87.69
304.281	83.69
304.511	88.69
304.741	86.69
304.971	86.69
305.201	81.69
305.431	88.69
305.661	90.69
305.891	67.69
306.121	86.69
306.352	80.69
306.582	91.69
306.812	95.69
307.042	89.69
307.272	73.69
307.502	82.69
307.731	85.69
307.961	78.69
308.191	81.69
308.421	79.69
308.651	89.69
308.881	101.69
309.111	87.69
309.341	87.69
309.571	82.69
309.8	75.69
310.03	76.69
310.26	83.69
310.49	79.69
310.72	88.69
310.949	81.69
311.179	94.69
311.409	80.69
311.639	81.69
311.868	93.69
312.098	81.69
312.328	88.69
312.557	97.69
312.787	90.69
313.017	89.69
313.246	95.69
313.476	81.69
313.706	79.69
313.935	89.69
314.165	82.69
314.394	81.69
314.624	85.69
314.853	81.69
315.083	75.69
315.312	77.69
315.542	83.69
315.771	80.69
316.001	66.69
316.23	80.69
316.46	83.69
316.689	79.69
316.919	89.69
317.148	78.69
317.377	74.69
317.607	83.69
317.836	95.69
318.065	92.69
318.295	84.69
318.524	87.69
318.753	75.69
318.983	91.69
319.212	71.69
319.441	96.69
319.67	76.69
319.9	95.69
320.129	88.69
320.358	78.69
320.587	77.69
320.816	75.69
321.046	76.69
321.275	83.69
321.504	82.69
321.733	96.69
321.962	98.69
322.191	86.69
322.42	85.69
322.649	90.69
322.878	90.69
323.108	99.69
323.337	83.69
323.566	73.69
323.795	73.69
324.024	92.69
324.253	75.69
324.482	91.69
324.71	74.69
324.939	92.69
325.168	83.69
325.397	88.69
325.626	86.69
325.855	79.69
326.084	81.69
326.313	79.69
326.542	74.69
326.77	97.69
326.999	78.69
327.228	74.69
327.457	71.69
327.686	66.69
327.914	88.69
328.143	84.69
328.372	84.69
328.6	91.69
328.829	71.69
329.058	83.69
329.287	85.69
329.515	84.69
329.744	92.69
329.972	86.69
330.201	79.69
330.43	72.69
330.658	90.69
330.887	89.69
331.115	72.69
331.344	83.69
331.572	71.69
331.801	78.69
332.03	77.69
332.258	80.69
332.486	74.69
332.715	73.69
332.943	86.69
333.172	80.69
333.4	87.69
333.629	88.69
333.857	85.69
334.085	89.69
334.314	65.69
334.542	80.69
334.771	77.69
334.999	84.69
335.227	73.69
335.455	97.69
335.684	89.69
335.912	80.69
336.14	80.69
336.369	80.69
336.597	87.69
336.825	86.69
337.053	77.69
337.281	88.69
337.51	75.69
337.738	81.69
337.966	84.69
338.194	79.69
338.422	89.69
338.65	76.69
338.878	95.69
339.106	88.69
339.334	90.69
339.562	86.69
339.79	81.69
340.018	85.69
340.246	85.69
340.474	91.69
340.702	71.69
340.93	83.69
341.158	83.69
341.386	75.69
341.614	91.69
341.842	93.69
342.07	86.69
342.298	91.69
342.526	86.69
342.754	70.69
342.981	81.69
343.209	83.69
343.437	72.69
343.665	91.69
343.893	89.69
344.12	86.69
344.348	76.69
344.576	67.69
344.804	73.69
345.031	80.69
345.259	67.69
345.487	95.69
345.714	73.69
345.942	86.69
346.17	82.69
346.397	71.69
346.625	77.69
346.853	84.69
347.08	70.69
347.308	92.69
347.535	81.69
347.763	87.69
347.99	84.69
348.218	105.69
348.445	85.69
348.673	80.69
348.9	86.69
349.128	82.69
349.355	80.69
349.583	88.69
349.81	76.69
350.037	64.69
350.265	73.69
350.492	76.69
350.72	86.69
350.947	86.69
351.174	74.69
351.402	80.69
351.629	80.69
351.856	84.69
352.083	72.69
352.311	92.69
352.538	69.69
352.765	81.69
352.992	79.69
353.22	78.69
353.447	80.69
353.674	79.69
353.901	87.69
354.128	89.69
354.355	93.69
354.583	82.69
354.81	84.69
355.037	86.69
355.264	82.69
355.491	80.69
355.718	79.69
355.945	83.69
356.172	88.69
356.399	66.69
356.626	75.69
356.853	85.69
357.08	79.69
357.307	80.69
357.534	79.69
357.761	79.69
357.988	82.69
358.215	68.69
358.441	76.69
358.668	85.69
358.895	82.69
359.122	76.69
359.349	77.69
359.576	96.69
359.802	82.69
360.029	92.69
360.256	78.69
360.483	66.69
360.709	86.69
360.936	95.69
361.163	79.69
361.39	83.69
361.616	67.69
361.843	71.69
362.07	75.69
362.296	71.69
362.523	89.69
362.749	82.69
362.976	74.69
363.203	81.69
363.429	88.69
363.656	75.69
363.882	87.69
364.109	77.69
364.335	73.69
364.562	102.69
364.788	82.69
365.015	87.69
365.241	91.69
365.468	87.69
365.694	79.69
365.92	79.69
366.147	81.69
366.373	87.69
366.599	87.69
366.826	85.69
367.052	70.69
367.278	80.69
367.505	94.69
367.731	90.69
367.957	88.69
368.184	74.69
368.41	78.69
368.636	85.69
368.862	94.69
369.089	84.69
369.315	78.69
369.541	88.69
369.767	100.69
369.993	82.69
370.219	98.69
370.445	68.69
370.672	82.69
370.898	92.69
371.124	81.69
371.35	90.69
371.576	89.69
371.802	98.69
372.028	83.69
372.254	84.69
372.48	89.69
372.706	86.69
372.932	84.69
373.158	96.69
373.384	87.69
373.61	79.69
373.835	84.69
374.061	95.69
374.287	87.69
374.513	94.69
374.739	94.69
374.965	90.69
375.191	88.69
375.416	94.69
375.642	91.69
375.868	96.69
376.094	90.69
376.319	89.69
376.545	97.69
376.771	82.69
376.997	85.69
377.222	94.69
377.448	92.69
377.674	80.69
377.899	98.69
378.125	86.69
378.35	92.69
378.576	87.69
378.802	87.69
379.027	87.69
379.253	83.69
379.478	87.69
379.704	89.69
379.929	84.69
380.155	98.69
380.38	99.69
380.606	96.69
380.831	89.69
381.057	96.69
381.282	100.69
381.507	88.69
381.733	85.69
381.958	92.69
382.184	89.69
382.409	86.69
382.634	108.69
382.86	100.69
383.085	82.69
383.31	99.69
383.535	87.69
383.761	78.69
383.986	95.69
384.211	98.69
384.436	112.69
384.662	89.69
384.887	98.69
385.112	88.69
385.337	98.69
385.562	104.69
385.787	98.69
386.013	111.69
386.238	89.69
386.463	84.69
386.688	98.69
386.913	106.69
387.138	97.69
387.363	102.69
387.588	86.69
387.813	92.69
388.038	87.69
388.263	104.69
388.488	79.69
388.713	92.69
388.938	84.69
389.163	113.69
389.387	104.69
389.612	105.69
389.837	110.69
390.062	108.69
390.287	99.69
390.512	96.69
390.736	99.69
390.961	111.69
391.186	118.69
391.411	103.69
391.636	103.69
391.86	86.69
392.085	89.69
392.31	113.69
392.534	104.69
392.759	86.69
392.984	95.69
393.208	116.69
393.433	102.69
393.658	93.69
393.882	114.69
394.107	105.69
394.331	107.69
394.556	106.69
394.78	86.69
395.005	101.69
395.229	92.69
395.454	101.69
395.678	104.69
395.903	108.69
396.127	110.69
396.352	110.69
396.576	90.69
396.801	114.69
397.025	93.69
397.249	117.69
397.474	92.69
397.698	94.69
397.922	101.69
398.147	89.69
398.371	98.69
398.595	98.69
398.82	105.69
399.044	95.69
399.268	104.69
399.492	100.69
399.717	124.69
399.941	120.69
400.165	103.69
400.389	100.69
400.613	107.69
400.837	111.69
401.062	121.69
401.286	120.69
401.51	96.69
401.734	108.69
401.958	99.69
402.182	107.69
402.406	124.69
402.63	125.69
402.854	106.69
403.078	120.69
403.302	115.69
403.526	94.69
403.75	115.69
403.974	120.69
404.198	112.69
404.422	124.69
404.645	112.69
404.869	117.69
405.093	97.69
405.317	122.69
405.541	115.69
405.765	104.69
405.988	122.69
406.212	102.69
406.436	112.69
406.66	129.69
406.883	105.69
407.107	104.69
407.331	121.69
407.555	114.69
407.778	111.69
408.002	114.69
408.226	102.69
408.449	106.69
408.673	96.69
408.896	124.69
409.12	120.69
409.344	130.69
409.567	118.69
409.791	132.69
410.014	122.69
410.238	122.69
410.461	112.69
410.685	114.69
410.908	119.69
411.132	111.69
411.355	110.69
411.578	118.69
411.802	126.69
412.025	104.69
412.249	114.69
412.472	118.69
412.695	107.69
412.919	123.69
413.142	130.69
413.365	107.69
413.589	125.69
413.812	116.69
414.035	123.69
414.258	113.69
414.482	116.69
414.705	127.69
414.928	115.69
415.151	112.69
415.374	112.69
415.597	137.69
415.821	124.69
416.044	120.69
416.267	123.69
416.49	139.69
416.713	130.69
416.936	114.69
417.159	112.69
417.382	108.69
417.605	126.69
417.828	126.69
418.051	116.69
418.274	113.69
418.497	125.69
418.72	130.69
418.943	121.69
419.166	118.69
419.389	136.69
419.611	126.69
419.834	118.69
420.057	146.69
420.28	134.69
420.503	134.69
420.726	127.69
420.948	122.69
421.171	123.69
421.394	129.69
421.617	132.69
421.839	144.69
422.062	132.69
422.285	120.69
422.507	123.69
422.73	119.69
422.953	135.69
423.175	131.69
423.398	121.69
423.621	126.69
423.843	134.69
424.066	133.69
424.288	123.69
424.511	144.69
424.733	121.69
424.956	135.69
425.178	151.69
425.401	130.69
425.623	131.69
425.846	110.69
426.068	122.69
426.291	111.69
426.513	122.69
426.735	146.69
426.958	124.69
427.18	135.69
427.402	116.69
427.625	146.69
427.847	118.69
428.069	123.69
428.292	123.69
428.514	128.69
428.736	123.69
428.958	135.69
429.181	113.69
429.403	124.69
429.625	134.69
429.847	126.69
430.069	113.69
430.292	127.69
430.514	121.69
430.736	138.69
430.958	122.69
431.18	110.69
431.402	118.69
431.624	133.69
431.846	100.69
432.068	95.69
432.29	91.69
432.512	104.69
432.734	118.69
432.956	123.69
433.178	108.69
433.4	136.69
433.622	126.69
433.844	124.69
434.066	121.69
434.287	105.69
434.509	95.69
434.731	98.69
434.953	94.69
435.175	118.69
435.397	111.69
435.618	121.69
435.84	93.69
436.062	113.69
436.284	126.69
436.505	127.69
436.727	120.69
436.949	118.69
437.17	110.69
437.392	122.69
437.614	124.69
437.835	101.69
438.057	110.69
438.278	110.69
438.5	106.69
438.721	135.69
438.943	122.69
439.165	136.69
439.386	145.69
439.608	137.69
439.829	144.69
440.05	143.69
440.272	145.69
440.493	126.69
440.715	136.69
440.936	128.69
441.158	144.69
441.379	146.69
441.6	145.69
441.822	146.69
442.043	145.69
442.264	149.69
442.486	128.69
442.707	144.69
442.928	151.69
443.149	141.69
443.371	133.69
443.592	132.69
443.813	126.69
444.034	140.69
444.255	137.69
444.476	131.69
444.698	139.69
444.919	136.69
445.14	275.69
445.361	204.69
445.582	154.69
445.803	136.69
446.024	140.69
446.245	160.69
446.466	158.69
446.687	152.69
446.908	161.69
447.129	167.69
447.35	158.69
447.571	145.69
447.792	138.69
448.013	123.69
448.234	151.69
448.455	148.69
448.675	137.69
448.896	140.69
449.117	128.69
449.338	137.69
449.559	133.69
449.779	133.69
450	139.69
450.221	124.69
450.442	135.69
450.662	134.69
450.883	139.69
451.104	134.69
451.324	144.69
451.545	115.69
451.766	131.69
451.986	130.69
452.207	131.69
452.428	126.69
452.648	130.69
452.869	115.69
453.089	114.69
453.31	103.69
453.53	110.69
453.751	114.69
453.971	91.69
454.192	94.69
454.412	112.69
454.633	110.69
454.853	132.69
455.073	121.69
455.294	118.69
455.514	121.69
455.734	113.69
455.955	120.69
456.175	101.69
456.395	115.69
456.616	107.69
456.836	112.69
457.056	105.69
457.276	110.69
457.497	112.69
457.717	113.69
457.937	96.69
458.157	114.69
458.377	92.69
458.598	94.69
458.818	96.69
459.038	92.69
459.258	84.69
459.478	101.69
459.698	90.69
459.918	86.69
460.138	110.69
460.358	124.69
460.578	118.69
460.798	115.69
461.018	105.69
461.238	114.69
461.458	118.69
461.678	114.69
461.898	110.69
462.118	113.69
462.338	115.69
462.558	113.69
462.777	114.69
462.997	98.69
463.217	107.69
463.437	113.69
463.657	90.69
463.876	117.69
464.096	99.69
464.316	99.69
464.536	108.69
464.755	110.69
464.975	125.69
465.195	101.69
465.414	122.69
465.634	117.69
465.854	122.69
466.073	118.69
466.293	120.69
466.512	108.69
466.732	125.69
466.951	126.69
467.171	130.69
467.391	125.69
467.61	137.69
467.829	140.69
468.049	139.69
468.268	136.69
468.488	118.69
468.707	143.69
468.927	137.69
469.146	136.69
469.365	155.69
469.585	124.69
469.804	126.69
470.023	134.69
470.243	138.69
470.462	140.69
470.681	143.69
470.901	142.69
471.12	137.69
471.339	143.69
471.558	130.69
471.777	121.69
471.997	150.69
472.216	128.69
472.435	110.69
472.654	98.69
472.873	96.69
473.092	118.69
473.311	122.69
473.53	125.69
473.749	131.69
473.968	146.69
474.187	116.69
474.406	135.69
474.625	126.69
474.844	130.69
475.063	119.69
475.282	138.69
475.501	117.69
475.72	105.69
475.939	134.69
476.158	123.69
476.377	110.69
476.596	120.69
476.814	116.69
477.033	101.69
477.252	124.69
477.471	134.69
477.69	130.69
477.908	127.69
478.127	133.69
478.346	132.69
478.564	136.69
478.783	129.69
479.002	150.69
479.22	148.69
479.439	140.69
479.658	136.69
479.876	113.69
480.095	105.69
480.313	112.69
480.532	111.69
480.751	100.69
480.969	101.69
481.188	97.69
481.406	84.69
481.624	81.69
481.843	74.69
482.061	93.69
482.28	115.69
482.498	97.69
482.717	87.69
482.935	115.69
483.153	148.69
483.372	156.69
483.59	144.69
483.808	131.69
484.027	136.69
484.245	135.69
484.463	152.69
484.681	161.69
484.9	132.69
485.118	125.69
485.336	126.69
485.554	122.69
485.772	94.69
485.99	98.69
486.209	112.69
486.427	98.69
486.645	112.69
486.863	137.69
487.081	150.69
487.299	128.69
487.517	139.69
487.735	178.69
487.953	193.69
488.171	194.69
488.389	170.69
488.607	165.69
488.825	136.69
489.043	144.69
489.261	142.69
489.479	132.69
489.696	137.69
489.914	144.69
490.132	154.69
490.35	154.69
490.568	145.69
490.786	162.69
491.003	168.69
491.221	180.69
491.439	200.69
491.657	185.69
491.874	199.69
492.092	216.69
492.31	259.69
492.527	231.69
492.745	193.69
492.963	186.69
493.18	179.69
493.398	191.69
493.615	184.69
493.833	160.69
494.05	171.69
494.268	162.69
494.485	164.69
494.703	155.69
494.92	175.69
495.138	178.69
495.355	168.69
495.573	160.69
495.79	163.69
496.008	165.69
496.225	152.69
496.442	171.69
496.66	174.69
496.877	158.69
497.094	158.69
497.312	167.69
497.529	148.69
497.746	146.69
497.963	144.69
498.181	144.69
498.398	131.69
498.615	122.69
498.832	121.69
499.049	134.69
499.267	128.69
499.484	117.69
499.701	123.69
499.918	138.69
500.135	136.69
500.352	122.69
500.569	136.69
500.786	139.69
501.003	136.69
501.22	129.69
501.437	133.69
501.654	130.69
501.871	130.69
502.088	138.69
502.305	147.69
502.522	114.69
502.739	121.69
502.956	132.69
503.172	126.69
503.389	114.69
503.606	103.69
503.823	114.69
504.04	123.69
504.256	119.69
504.473	106.69
504.69	114.69
504.907	106.69
505.123	114.69
505.34	122.69
505.557	120.69
505.773	126.69
505.99	113.69
506.207	122.69
506.423	121.69
506.64	112.69
506.856	114.69
507.073	118.69
507.289	104.69
507.506	116.69
507.722	122.69
507.939	112.69
508.155	114.69
508.372	99.69
508.588	116.69
508.805	100.69
509.021	102.69
509.238	118.69
509.454	99.69
509.67	106.69
509.887	99.69
510.103	98.69
510.319	91.69
510.536	96.69
510.752	90.69
510.968	75.69
511.184	67.69
511.401	91.69
511.617	78.69
511.833	90.69
512.049	100.69
512.265	98.69
