Data from Location4.07152019.Energy5.Lamp.07192019.3%Agarose_HRD10591_16-18-47-925.txt Node
Date: Fri Jul 19 16:18:47 EDT 2019
User: cochatt
Spectrometer: HR+D1059
Trigger mode: 1
Integration Time (sec): 1.000000E-1
Scans to average: 1
Electric dark correction enabled: true
Nonlinearity correction enabled: false
Boxcar width: 0
XAxis mode: Wavelengths
Number of Pixels in Spectrum: 2048
>>>>>Begin Spectral Data<<<<<
223.165	-19.75
223.4	-19.75
223.635	-19.75
223.869	-9.75
224.104	-5.75
224.338	-18.75
224.573	-20.75
224.808	-18.75
225.042	-2.75
225.277	-0.75
225.511	-9.75
225.746	15.25
225.98	8.25
226.215	20.25
226.449	8.25
226.683	18.25
226.918	12.25
227.152	24.25
227.387	47.25
227.621	36.25
227.856	64.25
228.09	46.25
228.324	60.25
228.559	66.25
228.793	44.25
229.027	53.25
229.262	62.25
229.496	63.25
229.73	77.25
229.964	64.25
230.199	71.25
230.433	75.25
230.667	85.25
230.901	77.25
231.136	77.25
231.37	72.25
231.604	74.25
231.838	96.25
232.072	82.25
232.306	86.25
232.541	66.25
232.775	92.25
233.009	83.25
233.243	79.25
233.477	79.25
233.711	93.25
233.945	91.25
234.179	80.25
234.413	80.25
234.647	80.25
234.881	73.25
235.115	67.25
235.349	70.25
235.583	74.25
235.817	78.25
236.051	71.25
236.285	79.25
236.519	71.25
236.753	80.25
236.987	78.25
237.221	83.25
237.455	79.25
237.689	88.25
237.922	93.25
238.156	79.25
238.39	76.25
238.624	65.25
238.858	81.25
239.091	79.25
239.325	90.25
239.559	98.25
239.793	74.25
240.027	94.25
240.26	79.25
240.494	81.25
240.728	79.25
240.961	87.25
241.195	74.25
241.429	79.25
241.662	70.25
241.896	84.25
242.13	89.25
242.363	77.25
242.597	70.25
242.83	83.25
243.064	77.25
243.298	80.25
243.531	80.25
243.765	85.25
243.998	84.25
244.232	81.25
244.465	91.25
244.699	78.25
244.932	73.25
245.166	63.25
245.399	81.25
245.633	81.25
245.866	66.25
246.099	70.25
246.333	80.25
246.566	69.25
246.8	70.25
247.033	75.25
247.266	74.25
247.5	93.25
247.733	85.25
247.966	71.25
248.2	82.25
248.433	75.25
248.666	90.25
248.899	90.25
249.133	78.25
249.366	83.25
249.599	74.25
249.832	86.25
250.066	87.25
250.299	89.25
250.532	79.25
250.765	68.25
250.998	85.25
251.231	84.25
251.465	90.25
251.698	80.25
251.931	79.25
252.164	79.25
252.397	89.25
252.63	86.25
252.863	85.25
253.096	84.25
253.329	84.25
253.562	85.25
253.795	98.25
254.028	84.25
254.261	82.25
254.494	85.25
254.727	89.25
254.96	77.25
255.193	73.25
255.426	71.25
255.659	77.25
255.892	86.25
256.124	94.25
256.357	81.25
256.59	79.25
256.823	74.25
257.056	71.25
257.289	70.25
257.521	90.25
257.754	97.25
257.987	97.25
258.22	95.25
258.452	83.25
258.685	99.25
258.918	87.25
259.151	79.25
259.383	70.25
259.616	89.25
259.849	90.25
260.081	79.25
260.314	85.25
260.547	76.25
260.779	79.25
261.012	75.25
261.244	78.25
261.477	96.25
261.71	86.25
261.942	71.25
262.175	86.25
262.407	77.25
262.64	84.25
262.872	87.25
263.105	84.25
263.337	89.25
263.57	93.25
263.802	78.25
264.035	87.25
264.267	91.25
264.499	76.25
264.732	92.25
264.964	86.25
265.197	75.25
265.429	71.25
265.661	91.25
265.894	83.25
266.126	78.25
266.358	78.25
266.591	80.25
266.823	89.25
267.055	76.25
267.287	83.25
267.52	94.25
267.752	75.25
267.984	82.25
268.216	79.25
268.448	82.25
268.681	91.25
268.913	89.25
269.145	95.25
269.377	76.25
269.609	72.25
269.841	76.25
270.073	87.25
270.306	85.25
270.538	69.25
270.77	77.25
271.002	88.25
271.234	90.25
271.466	95.25
271.698	85.25
271.93	85.25
272.162	91.25
272.394	87.25
272.626	84.25
272.858	107.25
273.09	87.25
273.322	92.25
273.553	81.25
273.785	80.25
274.017	93.25
274.249	83.25
274.481	79.25
274.713	82.25
274.945	74.25
275.176	89.25
275.408	95.25
275.64	92.25
275.872	95.25
276.104	88.25
276.335	90.25
276.567	82.25
276.799	94.25
277.031	92.25
277.262	82.25
277.494	93.25
277.726	80.25
277.957	84.25
278.189	81.25
278.421	89.25
278.652	91.25
278.884	77.25
279.115	85.25
279.347	82.25
279.579	95.25
279.81	77.25
280.042	89.25
280.273	80.25
280.505	90.25
280.736	95.25
280.968	84.25
281.199	78.25
281.431	84.25
281.662	79.25
281.894	83.25
282.125	87.25
282.356	85.25
282.588	92.25
282.819	92.25
283.051	83.25
283.282	85.25
283.513	90.25
283.745	81.25
283.976	85.25
284.207	89.25
284.439	86.25
284.67	93.25
284.901	98.25
285.132	87.25
285.364	86.25
285.595	80.25
285.826	80.25
286.057	92.25
286.288	88.25
286.52	86.25
286.751	80.25
286.982	80.25
287.213	104.25
287.444	82.25
287.675	72.25
287.906	79.25
288.138	89.25
288.369	94.25
288.6	78.25
288.831	89.25
289.062	79.25
289.293	87.25
289.524	86.25
289.755	81.25
289.986	69.25
290.217	83.25
290.448	84.25
290.679	78.25
290.91	78.25
291.141	82.25
291.371	89.25
291.602	71.25
291.833	66.25
292.064	83.25
292.295	97.25
292.526	84.25
292.757	94.25
292.987	87.25
293.218	78.25
293.449	80.25
293.68	101.25
293.91	88.25
294.141	80.25
294.372	87.25
294.603	89.25
294.833	83.25
295.064	91.25
295.295	83.25
295.525	93.25
295.756	76.25
295.987	78.25
296.217	82.25
296.448	75.25
296.679	73.25
296.909	89.25
297.14	83.25
297.37	97.25
297.601	93.25
297.831	95.25
298.062	91.25
298.292	81.25
298.523	84.25
298.753	80.25
298.984	82.25
299.214	67.25
299.445	86.25
299.675	94.25
299.905	75.25
300.136	92.25
300.366	104.25
300.597	89.25
300.827	75.25
301.057	92.25
301.288	76.25
301.518	94.25
301.748	96.25
301.979	82.25
302.209	71.25
302.439	68.25
302.669	89.25
302.9	87.25
303.13	86.25
303.36	90.25
303.59	83.25
303.82	74.25
304.051	78.25
304.281	88.25
304.511	70.25
304.741	80.25
304.971	85.25
305.201	98.25
305.431	79.25
305.661	104.25
305.891	86.25
306.121	88.25
306.352	76.25
306.582	91.25
306.812	89.25
307.042	82.25
307.272	69.25
307.502	84.25
307.731	85.25
307.961	91.25
308.191	86.25
308.421	86.25
308.651	85.25
308.881	88.25
309.111	83.25
309.341	91.25
309.571	82.25
309.8	70.25
310.03	84.25
310.26	86.25
310.49	81.25
310.72	90.25
310.949	96.25
311.179	89.25
311.409	79.25
311.639	83.25
311.868	96.25
312.098	93.25
312.328	89.25
312.557	99.25
312.787	93.25
313.017	98.25
313.246	91.25
313.476	89.25
313.706	87.25
313.935	90.25
314.165	78.25
314.394	97.25
314.624	90.25
314.853	88.25
315.083	98.25
315.312	88.25
315.542	93.25
315.771	91.25
316.001	93.25
316.23	81.25
316.46	88.25
316.689	85.25
316.919	104.25
317.148	77.25
317.377	79.25
317.607	90.25
317.836	93.25
318.065	97.25
318.295	78.25
318.524	87.25
318.753	89.25
318.983	92.25
319.212	94.25
319.441	82.25
319.67	90.25
319.9	98.25
320.129	88.25
320.358	86.25
320.587	94.25
320.816	84.25
321.046	86.25
321.275	78.25
321.504	99.25
321.733	92.25
321.962	95.25
322.191	89.25
322.42	85.25
322.649	93.25
322.878	82.25
323.108	83.25
323.337	92.25
323.566	79.25
323.795	87.25
324.024	69.25
324.253	88.25
324.482	81.25
324.71	80.25
324.939	88.25
325.168	82.25
325.397	80.25
325.626	79.25
325.855	90.25
326.084	94.25
326.313	91.25
326.542	91.25
326.77	95.25
326.999	88.25
327.228	79.25
327.457	70.25
327.686	84.25
327.914	91.25
328.143	82.25
328.372	78.25
328.6	76.25
328.829	87.25
329.058	81.25
329.287	79.25
329.515	85.25
329.744	92.25
329.972	80.25
330.201	77.25
330.43	64.25
330.658	87.25
330.887	76.25
331.115	86.25
331.344	97.25
331.572	90.25
331.801	81.25
332.03	83.25
332.258	91.25
332.486	95.25
332.715	84.25
332.943	95.25
333.172	78.25
333.4	90.25
333.629	85.25
333.857	79.25
334.085	84.25
334.314	84.25
334.542	86.25
334.771	96.25
334.999	83.25
335.227	91.25
335.455	80.25
335.684	87.25
335.912	88.25
336.14	76.25
336.369	84.25
336.597	81.25
336.825	90.25
337.053	80.25
337.281	86.25
337.51	88.25
337.738	96.25
337.966	85.25
338.194	82.25
338.422	89.25
338.65	90.25
338.878	95.25
339.106	87.25
339.334	83.25
339.562	91.25
339.79	93.25
340.018	75.25
340.246	93.25
340.474	82.25
340.702	91.25
340.93	93.25
341.158	74.25
341.386	92.25
341.614	90.25
341.842	86.25
342.07	94.25
342.298	82.25
342.526	90.25
342.754	82.25
342.981	93.25
343.209	80.25
343.437	78.25
343.665	79.25
343.893	95.25
344.12	86.25
344.348	73.25
344.576	77.25
344.804	93.25
345.031	70.25
345.259	78.25
345.487	87.25
345.714	92.25
345.942	85.25
346.17	76.25
346.397	84.25
346.625	93.25
346.853	89.25
347.08	85.25
347.308	79.25
347.535	85.25
347.763	78.25
347.99	84.25
348.218	94.25
348.445	92.25
348.673	92.25
348.9	84.25
349.128	92.25
349.355	78.25
349.583	91.25
349.81	91.25
350.037	89.25
350.265	86.25
350.492	77.25
350.72	84.25
350.947	78.25
351.174	91.25
351.402	85.25
351.629	79.25
351.856	76.25
352.083	94.25
352.311	80.25
352.538	94.25
352.765	90.25
352.992	88.25
353.22	80.25
353.447	84.25
353.674	90.25
353.901	110.25
354.128	90.25
354.355	81.25
354.583	65.25
354.81	79.25
355.037	97.25
355.264	94.25
355.491	94.25
355.718	82.25
355.945	101.25
356.172	77.25
356.399	71.25
356.626	87.25
356.853	71.25
357.08	85.25
357.307	92.25
357.534	79.25
357.761	76.25
357.988	97.25
358.215	86.25
358.441	72.25
358.668	79.25
358.895	69.25
359.122	83.25
359.349	88.25
359.576	84.25
359.802	92.25
360.029	93.25
360.256	78.25
360.483	85.25
360.709	81.25
360.936	95.25
361.163	92.25
361.39	82.25
361.616	97.25
361.843	81.25
362.07	78.25
362.296	74.25
362.523	70.25
362.749	82.25
362.976	100.25
363.203	95.25
363.429	79.25
363.656	96.25
363.882	86.25
364.109	93.25
364.335	102.25
364.562	78.25
364.788	93.25
365.015	87.25
365.241	81.25
365.468	78.25
365.694	98.25
365.92	98.25
366.147	86.25
366.373	89.25
366.599	88.25
366.826	100.25
367.052	82.25
367.278	93.25
367.505	98.25
367.731	93.25
367.957	69.25
368.184	89.25
368.41	77.25
368.636	98.25
368.862	84.25
369.089	85.25
369.315	86.25
369.541	92.25
369.767	94.25
369.993	86.25
370.219	103.25
370.445	86.25
370.672	90.25
370.898	97.25
371.124	89.25
371.35	93.25
371.576	87.25
371.802	82.25
372.028	98.25
372.254	86.25
372.48	101.25
372.706	103.25
372.932	85.25
373.158	93.25
373.384	100.25
373.61	99.25
373.835	103.25
374.061	89.25
374.287	101.25
374.513	82.25
374.739	74.25
374.965	101.25
375.191	108.25
375.416	77.25
375.642	75.25
375.868	82.25
376.094	102.25
376.319	101.25
376.545	97.25
376.771	97.25
376.997	96.25
377.222	88.25
377.448	110.25
377.674	102.25
377.899	102.25
378.125	89.25
378.35	79.25
378.576	93.25
378.802	105.25
379.027	100.25
379.253	97.25
379.478	97.25
379.704	94.25
379.929	100.25
380.155	107.25
380.38	118.25
380.606	98.25
380.831	87.25
381.057	78.25
381.282	95.25
381.507	75.25
381.733	97.25
381.958	89.25
382.184	102.25
382.409	97.25
382.634	98.25
382.86	101.25
383.085	103.25
383.31	93.25
383.535	101.25
383.761	101.25
383.986	97.25
384.211	93.25
384.436	107.25
384.662	105.25
384.887	83.25
385.112	95.25
385.337	109.25
385.562	97.25
385.787	97.25
386.013	108.25
386.238	99.25
386.463	110.25
386.688	103.25
386.913	105.25
387.138	91.25
387.363	85.25
387.588	96.25
387.813	99.25
388.038	103.25
388.263	100.25
388.488	95.25
388.713	91.25
388.938	93.25
389.163	117.25
389.387	115.25
389.612	94.25
389.837	117.25
390.062	104.25
390.287	108.25
390.512	113.25
390.736	98.25
390.961	109.25
391.186	105.25
391.411	97.25
391.636	98.25
391.86	107.25
392.085	108.25
392.31	104.25
392.534	86.25
392.759	108.25
392.984	103.25
393.208	109.25
393.433	95.25
393.658	102.25
393.882	101.25
394.107	107.25
394.331	107.25
394.556	107.25
394.78	118.25
395.005	103.25
395.229	115.25
395.454	127.25
395.678	109.25
395.903	110.25
396.127	108.25
396.352	109.25
396.576	110.25
396.801	110.25
397.025	108.25
397.249	124.25
397.474	107.25
397.698	113.25
397.922	106.25
398.147	96.25
398.371	110.25
398.595	107.25
398.82	107.25
399.044	106.25
399.268	124.25
399.492	109.25
399.717	102.25
399.941	88.25
400.165	113.25
400.389	110.25
400.613	116.25
400.837	119.25
401.062	111.25
401.286	105.25
401.51	116.25
401.734	120.25
401.958	106.25
402.182	125.25
402.406	118.25
402.63	128.25
402.854	101.25
403.078	110.25
403.302	96.25
403.526	110.25
403.75	105.25
403.974	108.25
404.198	117.25
404.422	123.25
404.645	115.25
404.869	107.25
405.093	114.25
405.317	109.25
405.541	117.25
405.765	110.25
405.988	121.25
406.212	119.25
406.436	126.25
406.66	122.25
406.883	115.25
407.107	122.25
407.331	117.25
407.555	126.25
407.778	136.25
408.002	120.25
408.226	108.25
408.449	124.25
408.673	111.25
408.896	123.25
409.12	117.25
409.344	119.25
409.567	124.25
409.791	116.25
410.014	126.25
410.238	130.25
410.461	123.25
410.685	126.25
410.908	134.25
411.132	126.25
411.355	125.25
411.578	117.25
411.802	120.25
412.025	121.25
412.249	132.25
412.472	121.25
412.695	115.25
412.919	107.25
413.142	117.25
413.365	117.25
413.589	133.25
413.812	117.25
414.035	103.25
414.258	123.25
414.482	114.25
414.705	135.25
414.928	122.25
415.151	120.25
415.374	118.25
415.597	126.25
415.821	126.25
416.044	113.25
416.267	125.25
416.49	129.25
416.713	127.25
416.936	123.25
417.159	113.25
417.382	127.25
417.605	118.25
417.828	128.25
418.051	111.25
418.274	117.25
418.497	124.25
418.72	131.25
418.943	118.25
419.166	133.25
419.389	127.25
419.611	129.25
419.834	120.25
420.057	133.25
420.28	123.25
420.503	132.25
420.726	117.25
420.948	127.25
421.171	138.25
421.394	135.25
421.617	129.25
421.839	135.25
422.062	140.25
422.285	139.25
422.507	131.25
422.73	140.25
422.953	131.25
423.175	129.25
423.398	123.25
423.621	137.25
423.843	123.25
424.066	137.25
424.288	135.25
424.511	140.25
424.733	128.25
424.956	136.25
425.178	148.25
425.401	135.25
425.623	132.25
425.846	134.25
426.068	137.25
426.291	133.25
426.513	139.25
426.735	131.25
426.958	138.25
427.18	136.25
427.402	117.25
427.625	127.25
427.847	138.25
428.069	117.25
428.292	125.25
428.514	128.25
428.736	135.25
428.958	131.25
429.181	126.25
429.403	141.25
429.625	125.25
429.847	136.25
430.069	138.25
430.292	142.25
430.514	126.25
430.736	133.25
430.958	119.25
431.18	121.25
431.402	132.25
431.624	122.25
431.846	111.25
432.068	89.25
432.29	102.25
432.512	119.25
432.734	125.25
432.956	135.25
433.178	127.25
433.4	136.25
433.622	131.25
433.844	140.25
434.066	126.25
434.287	117.25
434.509	101.25
434.731	94.25
434.953	125.25
435.175	128.25
435.397	126.25
435.618	120.25
435.84	106.25
436.062	114.25
436.284	126.25
436.505	125.25
436.727	117.25
436.949	131.25
437.17	119.25
437.392	120.25
437.614	135.25
437.835	101.25
438.057	104.25
438.278	124.25
438.5	129.25
438.721	110.25
438.943	133.25
439.165	128.25
439.386	155.25
439.608	145.25
439.829	134.25
440.05	128.25
440.272	147.25
440.493	144.25
440.715	124.25
440.936	139.25
441.158	137.25
441.379	150.25
441.6	146.25
441.822	157.25
442.043	150.25
442.264	133.25
442.486	138.25
442.707	142.25
442.928	141.25
443.149	127.25
443.371	133.25
443.592	143.25
443.813	153.25
444.034	129.25
444.255	132.25
444.476	149.25
444.698	141.25
444.919	129.25
445.14	277.25
445.361	207.25
445.582	153.25
445.803	147.25
446.024	142.25
446.245	157.25
446.466	151.25
446.687	154.25
446.908	156.25
447.129	142.25
447.35	150.25
447.571	141.25
447.792	133.25
448.013	141.25
448.234	138.25
448.455	146.25
448.675	156.25
448.896	126.25
449.117	138.25
449.338	127.25
449.559	134.25
449.779	138.25
450	122.25
450.221	141.25
450.442	133.25
450.662	132.25
450.883	135.25
451.104	130.25
451.324	129.25
451.545	141.25
451.766	134.25
451.986	129.25
452.207	136.25
452.428	135.25
452.648	113.25
452.869	125.25
453.089	100.25
453.31	116.25
453.53	99.25
453.751	103.25
453.971	108.25
454.192	100.25
454.412	98.25
454.633	117.25
454.853	125.25
455.073	107.25
455.294	122.25
455.514	133.25
455.734	119.25
455.955	117.25
456.175	117.25
456.395	111.25
456.616	108.25
456.836	110.25
457.056	109.25
457.276	109.25
457.497	95.25
457.717	105.25
457.937	105.25
458.157	117.25
458.377	120.25
458.598	102.25
458.818	115.25
459.038	95.25
459.258	100.25
459.478	90.25
459.698	92.25
459.918	105.25
460.138	104.25
460.358	129.25
460.578	120.25
460.798	120.25
461.018	116.25
461.238	115.25
461.458	131.25
461.678	123.25
461.898	108.25
462.118	114.25
462.338	119.25
462.558	102.25
462.777	107.25
462.997	121.25
463.217	102.25
463.437	113.25
463.657	100.25
463.876	118.25
464.096	109.25
464.316	115.25
464.536	108.25
464.755	124.25
464.975	109.25
465.195	104.25
465.414	114.25
465.634	123.25
465.854	129.25
466.073	118.25
466.293	137.25
466.512	127.25
466.732	118.25
466.951	135.25
467.171	133.25
467.391	129.25
467.61	133.25
467.829	127.25
468.049	137.25
468.268	128.25
468.488	139.25
468.707	127.25
468.927	151.25
469.146	138.25
469.365	141.25
469.585	126.25
469.804	145.25
470.023	135.25
470.243	140.25
470.462	123.25
470.681	149.25
470.901	152.25
471.12	129.25
471.339	146.25
471.558	139.25
471.777	143.25
471.997	133.25
472.216	124.25
472.435	108.25
472.654	125.25
472.873	104.25
473.092	116.25
473.311	120.25
473.53	109.25
473.749	132.25
473.968	142.25
474.187	129.25
474.406	129.25
474.625	106.25
474.844	133.25
475.063	127.25
475.282	135.25
475.501	121.25
475.72	131.25
475.939	117.25
476.158	126.25
476.377	129.25
476.596	124.25
476.814	114.25
477.033	108.25
477.252	112.25
477.471	119.25
477.69	129.25
477.908	117.25
478.127	140.25
478.346	133.25
478.564	124.25
478.783	121.25
479.002	145.25
479.22	128.25
479.439	137.25
479.658	133.25
479.876	106.25
480.095	120.25
480.313	118.25
480.532	122.25
480.751	123.25
480.969	83.25
481.188	93.25
481.406	95.25
481.624	93.25
481.843	76.25
482.061	97.25
482.28	118.25
482.498	108.25
482.717	106.25
482.935	142.25
483.153	152.25
483.372	158.25
483.59	144.25
483.808	139.25
484.027	121.25
484.245	133.25
484.463	155.25
484.681	161.25
484.9	143.25
485.118	138.25
485.336	119.25
485.554	107.25
485.772	103.25
485.99	118.25
486.209	100.25
486.427	111.25
486.645	121.25
486.863	146.25
487.081	145.25
487.299	142.25
487.517	149.25
487.735	170.25
487.953	180.25
488.171	179.25
488.389	156.25
488.607	149.25
488.825	134.25
489.043	134.25
489.261	141.25
489.479	126.25
489.696	144.25
489.914	125.25
490.132	138.25
490.35	145.25
490.568	151.25
490.786	171.25
491.003	180.25
491.221	179.25
491.439	191.25
491.657	185.25
491.874	207.25
492.092	207.25
492.31	235.25
492.527	219.25
492.745	210.25
492.963	203.25
493.18	185.25
493.398	183.25
493.615	185.25
493.833	184.25
494.05	167.25
494.268	167.25
494.485	173.25
494.703	169.25
494.92	157.25
495.138	162.25
495.355	157.25
495.573	177.25
495.79	173.25
496.008	171.25
496.225	154.25
496.442	155.25
496.66	161.25
496.877	163.25
497.094	165.25
497.312	175.25
497.529	166.25
497.746	148.25
497.963	133.25
498.181	142.25
498.398	143.25
498.615	126.25
498.832	121.25
499.049	127.25
499.267	132.25
499.484	127.25
499.701	125.25
499.918	135.25
500.135	133.25
500.352	139.25
500.569	157.25
500.786	142.25
501.003	135.25
501.22	120.25
501.437	139.25
501.654	134.25
501.871	133.25
502.088	134.25
502.305	118.25
502.522	130.25
502.739	137.25
502.956	137.25
503.172	127.25
503.389	107.25
503.606	123.25
503.823	121.25
504.04	129.25
504.256	128.25
504.473	125.25
504.69	119.25
504.907	119.25
505.123	118.25
505.34	131.25
505.557	120.25
505.773	133.25
505.99	127.25
506.207	109.25
506.423	130.25
506.64	109.25
506.856	139.25
507.073	131.25
507.289	118.25
507.506	120.25
507.722	136.25
507.939	106.25
508.155	109.25
508.372	126.25
508.588	108.25
508.805	108.25
509.021	110.25
509.238	101.25
509.454	105.25
509.67	109.25
509.887	107.25
510.103	101.25
510.319	73.25
510.536	95.25
510.752	88.25
510.968	89.25
511.184	90.25
511.401	91.25
