Data from Location4.07152019.Energy5.Lamp.07192019.3%Agarose_HRD10591_16-20-35-927.txt Node
Date: Fri Jul 19 16:20:35 EDT 2019
User: cochatt
Spectrometer: HR+D1059
Trigger mode: 1
Integration Time (sec): 1.000000E-1
Scans to average: 1
Electric dark correction enabled: true
Nonlinearity correction enabled: false
Boxcar width: 0
XAxis mode: Wavelengths
Number of Pixels in Spectrum: 2048
>>>>>Begin Spectral Data<<<<<
223.165	-9.56
223.4	-9.56
223.635	-9.56
223.869	-20.56
224.104	-32.56
224.338	-6.56
224.573	-24.56
224.808	-21.56
225.042	-5.56
225.277	1.44
225.511	-0.56
225.746	5.44
225.98	4.44
226.215	4.44
226.449	14.44
226.683	33.44
226.918	29.44
227.152	28.44
227.387	28.44
227.621	52.44
227.856	55.44
228.09	57.44
228.324	54.44
228.559	56.44
228.793	57.44
229.027	61.44
229.262	63.44
229.496	53.44
229.73	69.44
229.964	76.44
230.199	76.44
230.433	77.44
230.667	87.44
230.901	85.44
231.136	83.44
231.37	69.44
231.604	75.44
231.838	96.44
232.072	99.44
232.306	83.44
232.541	83.44
232.775	88.44
233.009	75.44
233.243	92.44
233.477	91.44
233.711	78.44
233.945	73.44
234.179	82.44
234.413	83.44
234.647	75.44
234.881	88.44
235.115	84.44
235.349	79.44
235.583	95.44
235.817	77.44
236.051	77.44
236.285	86.44
236.519	82.44
236.753	76.44
236.987	89.44
237.221	89.44
237.455	86.44
237.689	80.44
237.922	72.44
238.156	73.44
238.39	84.44
238.624	70.44
238.858	65.44
239.091	73.44
239.325	78.44
239.559	88.44
239.793	76.44
240.027	73.44
240.26	79.44
240.494	85.44
240.728	72.44
240.961	80.44
241.195	88.44
241.429	87.44
241.662	70.44
241.896	88.44
242.13	96.44
242.363	95.44
242.597	83.44
242.83	97.44
243.064	87.44
243.298	73.44
243.531	85.44
243.765	70.44
243.998	76.44
244.232	98.44
244.465	67.44
244.699	76.44
244.932	85.44
245.166	65.44
245.399	74.44
245.633	79.44
245.866	80.44
246.099	73.44
246.333	88.44
246.566	78.44
246.8	82.44
247.033	93.44
247.266	86.44
247.5	93.44
247.733	79.44
247.966	77.44
248.2	77.44
248.433	84.44
248.666	73.44
248.899	75.44
249.133	81.44
249.366	101.44
249.599	82.44
249.832	83.44
250.066	78.44
250.299	56.44
250.532	89.44
250.765	80.44
250.998	82.44
251.231	75.44
251.465	84.44
251.698	79.44
251.931	74.44
252.164	89.44
252.397	74.44
252.63	74.44
252.863	67.44
253.096	73.44
253.329	90.44
253.562	94.44
253.795	85.44
254.028	101.44
254.261	90.44
254.494	78.44
254.727	78.44
254.96	96.44
255.193	95.44
255.426	102.44
255.659	86.44
255.892	91.44
256.124	95.44
256.357	94.44
256.59	84.44
256.823	90.44
257.056	76.44
257.289	93.44
257.521	83.44
257.754	72.44
257.987	82.44
258.22	85.44
258.452	79.44
258.685	90.44
258.918	77.44
259.151	92.44
259.383	86.44
259.616	84.44
259.849	79.44
260.081	77.44
260.314	81.44
260.547	79.44
260.779	89.44
261.012	88.44
261.244	103.44
261.477	97.44
261.71	83.44
261.942	91.44
262.175	96.44
262.407	82.44
262.64	75.44
262.872	83.44
263.105	79.44
263.337	84.44
263.57	82.44
263.802	98.44
264.035	98.44
264.267	100.44
264.499	85.44
264.732	86.44
264.964	88.44
265.197	95.44
265.429	85.44
265.661	88.44
265.894	81.44
266.126	74.44
266.358	88.44
266.591	85.44
266.823	87.44
267.055	89.44
267.287	87.44
267.52	78.44
267.752	84.44
267.984	84.44
268.216	79.44
268.448	85.44
268.681	79.44
268.913	68.44
269.145	92.44
269.377	92.44
269.609	88.44
269.841	86.44
270.073	92.44
270.306	74.44
270.538	91.44
270.77	89.44
271.002	68.44
271.234	78.44
271.466	78.44
271.698	83.44
271.93	81.44
272.162	89.44
272.394	87.44
272.626	77.44
272.858	87.44
273.09	91.44
273.322	90.44
273.553	84.44
273.785	80.44
274.017	91.44
274.249	87.44
274.481	89.44
274.713	73.44
274.945	77.44
275.176	93.44
275.408	94.44
275.64	80.44
275.872	84.44
276.104	80.44
276.335	94.44
276.567	81.44
276.799	87.44
277.031	91.44
277.262	86.44
277.494	93.44
277.726	82.44
277.957	77.44
278.189	62.44
278.421	92.44
278.652	88.44
278.884	80.44
279.115	89.44
279.347	98.44
279.579	90.44
279.81	94.44
280.042	93.44
280.273	84.44
280.505	92.44
280.736	86.44
280.968	87.44
281.199	89.44
281.431	90.44
281.662	88.44
281.894	86.44
282.125	109.44
282.356	93.44
282.588	81.44
282.819	81.44
283.051	86.44
283.282	79.44
283.513	79.44
283.745	87.44
283.976	82.44
284.207	84.44
284.439	87.44
284.67	92.44
284.901	72.44
285.132	76.44
285.364	77.44
285.595	82.44
285.826	93.44
286.057	90.44
286.288	85.44
286.52	69.44
286.751	90.44
286.982	84.44
287.213	84.44
287.444	63.44
287.675	87.44
287.906	71.44
288.138	87.44
288.369	93.44
288.6	87.44
288.831	73.44
289.062	87.44
289.293	91.44
289.524	105.44
289.755	87.44
289.986	84.44
290.217	101.44
290.448	86.44
290.679	80.44
290.91	88.44
291.141	86.44
291.371	87.44
291.602	78.44
291.833	95.44
292.064	91.44
292.295	77.44
292.526	66.44
292.757	79.44
292.987	80.44
293.218	85.44
293.449	83.44
293.68	86.44
293.91	81.44
294.141	72.44
294.372	87.44
294.603	89.44
294.833	95.44
295.064	99.44
295.295	87.44
295.525	66.44
295.756	75.44
295.987	73.44
296.217	86.44
296.448	81.44
296.679	80.44
296.909	85.44
297.14	95.44
297.37	92.44
297.601	82.44
297.831	91.44
298.062	77.44
298.292	87.44
298.523	87.44
298.753	76.44
298.984	82.44
299.214	97.44
299.445	91.44
299.675	96.44
299.905	96.44
300.136	85.44
300.366	89.44
300.597	73.44
300.827	89.44
301.057	75.44
301.288	85.44
301.518	79.44
301.748	87.44
301.979	90.44
302.209	86.44
302.439	82.44
302.669	88.44
302.9	90.44
303.13	95.44
303.36	65.44
303.59	85.44
303.82	86.44
304.051	97.44
304.281	89.44
304.511	93.44
304.741	84.44
304.971	87.44
305.201	80.44
305.431	80.44
305.661	90.44
305.891	94.44
306.121	87.44
306.352	82.44
306.582	81.44
306.812	100.44
307.042	96.44
307.272	92.44
307.502	107.44
307.731	91.44
307.961	94.44
308.191	93.44
308.421	95.44
308.651	88.44
308.881	91.44
309.111	78.44
309.341	82.44
309.571	104.44
309.8	75.44
310.03	89.44
310.26	99.44
310.49	83.44
310.72	78.44
310.949	93.44
311.179	88.44
311.409	84.44
311.639	81.44
311.868	77.44
312.098	85.44
312.328	85.44
312.557	76.44
312.787	82.44
313.017	92.44
313.246	90.44
313.476	87.44
313.706	95.44
313.935	91.44
314.165	89.44
314.394	96.44
314.624	86.44
314.853	88.44
315.083	103.44
315.312	87.44
315.542	99.44
315.771	78.44
316.001	95.44
316.23	92.44
316.46	78.44
316.689	96.44
316.919	82.44
317.148	71.44
317.377	84.44
317.607	86.44
317.836	80.44
318.065	73.44
318.295	97.44
318.524	92.44
318.753	86.44
318.983	92.44
319.212	76.44
319.441	85.44
319.67	79.44
319.9	95.44
320.129	85.44
320.358	91.44
320.587	94.44
320.816	74.44
321.046	76.44
321.275	85.44
321.504	80.44
321.733	88.44
321.962	87.44
322.191	78.44
322.42	81.44
322.649	102.44
322.878	87.44
323.108	81.44
323.337	82.44
323.566	96.44
323.795	87.44
324.024	89.44
324.253	90.44
324.482	96.44
324.71	103.44
324.939	99.44
325.168	85.44
325.397	82.44
325.626	105.44
325.855	88.44
326.084	89.44
326.313	91.44
326.542	91.44
326.77	79.44
326.999	90.44
327.228	89.44
327.457	96.44
327.686	91.44
327.914	99.44
328.143	78.44
328.372	79.44
328.6	68.44
328.829	86.44
329.058	93.44
329.287	76.44
329.515	94.44
329.744	88.44
329.972	96.44
330.201	87.44
330.43	100.44
330.658	105.44
330.887	78.44
331.115	68.44
331.344	85.44
331.572	96.44
331.801	81.44
332.03	91.44
332.258	84.44
332.486	90.44
332.715	87.44
332.943	85.44
333.172	85.44
333.4	73.44
333.629	81.44
333.857	82.44
334.085	80.44
334.314	90.44
334.542	85.44
334.771	102.44
334.999	80.44
335.227	84.44
335.455	85.44
335.684	108.44
335.912	93.44
336.14	88.44
336.369	85.44
336.597	87.44
336.825	82.44
337.053	75.44
337.281	93.44
337.51	94.44
337.738	89.44
337.966	89.44
338.194	77.44
338.422	89.44
338.65	91.44
338.878	85.44
339.106	87.44
339.334	94.44
339.562	90.44
339.79	94.44
340.018	87.44
340.246	92.44
340.474	75.44
340.702	87.44
340.93	88.44
341.158	88.44
341.386	79.44
341.614	74.44
341.842	88.44
342.07	103.44
342.298	94.44
342.526	84.44
342.754	79.44
342.981	84.44
343.209	83.44
343.437	87.44
343.665	83.44
343.893	87.44
344.12	95.44
344.348	83.44
344.576	69.44
344.804	98.44
345.031	85.44
345.259	86.44
345.487	79.44
345.714	88.44
345.942	98.44
346.17	84.44
346.397	93.44
346.625	98.44
346.853	91.44
347.08	84.44
347.308	87.44
347.535	67.44
347.763	85.44
347.99	86.44
348.218	84.44
348.445	80.44
348.673	95.44
348.9	75.44
349.128	90.44
349.355	81.44
349.583	93.44
349.81	82.44
350.037	93.44
350.265	88.44
350.492	79.44
350.72	79.44
350.947	84.44
351.174	81.44
351.402	90.44
351.629	87.44
351.856	84.44
352.083	92.44
352.311	88.44
352.538	89.44
352.765	87.44
352.992	94.44
353.22	88.44
353.447	83.44
353.674	86.44
353.901	93.44
354.128	85.44
354.355	92.44
354.583	90.44
354.81	99.44
355.037	87.44
355.264	95.44
355.491	85.44
355.718	86.44
355.945	99.44
356.172	87.44
356.399	96.44
356.626	87.44
356.853	79.44
357.08	81.44
357.307	87.44
357.534	96.44
357.761	85.44
357.988	91.44
358.215	89.44
358.441	86.44
358.668	99.44
358.895	96.44
359.122	95.44
359.349	108.44
359.576	96.44
359.802	82.44
360.029	79.44
360.256	87.44
360.483	73.44
360.709	80.44
360.936	89.44
361.163	91.44
361.39	65.44
361.616	73.44
361.843	79.44
362.07	78.44
362.296	87.44
362.523	73.44
362.749	90.44
362.976	76.44
363.203	90.44
363.429	89.44
363.656	90.44
363.882	103.44
364.109	94.44
364.335	77.44
364.562	86.44
364.788	83.44
365.015	91.44
365.241	97.44
365.468	86.44
365.694	81.44
365.92	81.44
366.147	90.44
366.373	84.44
366.599	95.44
366.826	84.44
367.052	96.44
367.278	89.44
367.505	89.44
367.731	81.44
367.957	99.44
368.184	103.44
368.41	91.44
368.636	99.44
368.862	91.44
369.089	79.44
369.315	111.44
369.541	91.44
369.767	104.44
369.993	88.44
370.219	91.44
370.445	97.44
370.672	91.44
370.898	87.44
371.124	101.44
371.35	93.44
371.576	93.44
371.802	96.44
372.028	90.44
372.254	89.44
372.48	102.44
372.706	90.44
372.932	95.44
373.158	98.44
373.384	103.44
373.61	84.44
373.835	91.44
374.061	90.44
374.287	103.44
374.513	91.44
374.739	89.44
374.965	88.44
375.191	90.44
375.416	89.44
375.642	80.44
375.868	93.44
376.094	92.44
376.319	82.44
376.545	82.44
376.771	99.44
376.997	87.44
377.222	89.44
377.448	102.44
377.674	95.44
377.899	94.44
378.125	103.44
378.35	110.44
378.576	87.44
378.802	95.44
379.027	93.44
379.253	98.44
379.478	98.44
379.704	89.44
379.929	98.44
380.155	101.44
380.38	95.44
380.606	87.44
380.831	99.44
381.057	117.44
381.282	95.44
381.507	105.44
381.733	102.44
381.958	101.44
382.184	104.44
382.409	103.44
382.634	100.44
382.86	95.44
383.085	107.44
383.31	94.44
383.535	116.44
383.761	110.44
383.986	101.44
384.211	87.44
384.436	104.44
384.662	104.44
384.887	100.44
385.112	104.44
385.337	97.44
385.562	105.44
385.787	90.44
386.013	119.44
386.238	101.44
386.463	100.44
386.688	94.44
386.913	86.44
387.138	93.44
387.363	110.44
387.588	97.44
387.813	111.44
388.038	93.44
388.263	95.44
388.488	95.44
388.713	92.44
388.938	98.44
389.163	103.44
389.387	105.44
389.612	101.44
389.837	99.44
390.062	108.44
390.287	119.44
390.512	107.44
390.736	112.44
390.961	114.44
391.186	106.44
391.411	104.44
391.636	99.44
391.86	108.44
392.085	95.44
392.31	99.44
392.534	103.44
392.759	113.44
392.984	105.44
393.208	95.44
393.433	90.44
393.658	96.44
393.882	85.44
394.107	109.44
394.331	104.44
394.556	87.44
394.78	92.44
395.005	103.44
395.229	118.44
395.454	117.44
395.678	102.44
395.903	102.44
396.127	101.44
396.352	102.44
396.576	110.44
396.801	103.44
397.025	103.44
397.249	86.44
397.474	101.44
397.698	99.44
397.922	109.44
398.147	119.44
398.371	111.44
398.595	121.44
398.82	125.44
399.044	109.44
399.268	120.44
399.492	113.44
399.717	109.44
399.941	111.44
400.165	115.44
400.389	99.44
400.613	100.44
400.837	108.44
401.062	110.44
401.286	114.44
401.51	111.44
401.734	113.44
401.958	100.44
402.182	120.44
402.406	110.44
402.63	101.44
402.854	115.44
403.078	118.44
403.302	131.44
403.526	119.44
403.75	123.44
403.974	124.44
404.198	109.44
404.422	128.44
404.645	125.44
404.869	111.44
405.093	119.44
405.317	123.44
405.541	111.44
405.765	109.44
405.988	125.44
406.212	114.44
406.436	113.44
406.66	111.44
406.883	120.44
407.107	118.44
407.331	115.44
407.555	125.44
407.778	117.44
408.002	119.44
408.226	105.44
408.449	127.44
408.673	121.44
408.896	123.44
409.12	122.44
409.344	121.44
409.567	127.44
409.791	116.44
410.014	133.44
410.238	136.44
410.461	128.44
410.685	109.44
410.908	146.44
411.132	125.44
411.355	127.44
411.578	121.44
411.802	129.44
412.025	113.44
412.249	112.44
412.472	100.44
412.695	129.44
412.919	109.44
413.142	118.44
413.365	117.44
413.589	116.44
413.812	131.44
414.035	128.44
414.258	129.44
414.482	126.44
414.705	110.44
414.928	131.44
415.151	117.44
415.374	140.44
415.597	139.44
415.821	119.44
416.044	130.44
416.267	124.44
416.49	121.44
416.713	133.44
416.936	127.44
417.159	119.44
417.382	140.44
417.605	135.44
417.828	133.44
418.051	128.44
418.274	125.44
418.497	123.44
418.72	132.44
418.943	126.44
419.166	146.44
419.389	134.44
419.611	124.44
419.834	131.44
420.057	126.44
420.28	129.44
420.503	132.44
420.726	140.44
420.948	135.44
421.171	135.44
421.394	132.44
421.617	148.44
421.839	135.44
422.062	140.44
422.285	134.44
422.507	146.44
422.73	149.44
422.953	134.44
423.175	137.44
423.398	132.44
423.621	137.44
423.843	148.44
424.066	115.44
424.288	136.44
424.511	143.44
424.733	139.44
424.956	152.44
425.178	129.44
425.401	135.44
425.623	151.44
425.846	139.44
426.068	141.44
426.291	125.44
426.513	135.44
426.735	119.44
426.958	127.44
427.18	135.44
427.402	125.44
427.625	119.44
427.847	125.44
428.069	127.44
428.292	128.44
428.514	124.44
428.736	134.44
428.958	134.44
429.181	125.44
429.403	123.44
429.625	122.44
429.847	120.44
430.069	124.44
430.292	141.44
430.514	121.44
430.736	123.44
430.958	131.44
431.18	135.44
431.402	123.44
431.624	112.44
431.846	112.44
432.068	105.44
432.29	112.44
432.512	127.44
432.734	122.44
432.956	136.44
433.178	141.44
433.4	143.44
433.622	133.44
433.844	126.44
434.066	133.44
434.287	123.44
434.509	111.44
434.731	95.44
434.953	114.44
435.175	123.44
435.397	128.44
435.618	112.44
435.84	110.44
436.062	105.44
436.284	135.44
436.505	124.44
436.727	143.44
436.949	128.44
437.17	124.44
437.392	116.44
437.614	107.44
437.835	115.44
438.057	119.44
438.278	120.44
438.5	136.44
438.721	142.44
438.943	131.44
439.165	147.44
439.386	142.44
439.608	143.44
439.829	139.44
440.05	149.44
440.272	142.44
440.493	141.44
440.715	132.44
440.936	142.44
441.158	141.44
441.379	134.44
441.6	149.44
441.822	147.44
442.043	145.44
442.264	139.44
442.486	139.44
442.707	138.44
442.928	155.44
443.149	143.44
443.371	139.44
443.592	134.44
443.813	131.44
444.034	136.44
444.255	147.44
444.476	143.44
444.698	129.44
444.919	145.44
445.14	272.44
445.361	211.44
445.582	160.44
445.803	138.44
446.024	157.44
446.245	149.44
446.466	157.44
446.687	159.44
446.908	153.44
447.129	160.44
447.35	157.44
447.571	149.44
447.792	148.44
448.013	148.44
448.234	148.44
448.455	133.44
448.675	139.44
448.896	143.44
449.117	134.44
449.338	138.44
449.559	146.44
449.779	140.44
450	133.44
450.221	140.44
450.442	139.44
450.662	127.44
450.883	133.44
451.104	129.44
451.324	131.44
451.545	133.44
451.766	146.44
451.986	125.44
452.207	131.44
452.428	135.44
452.648	113.44
452.869	119.44
453.089	97.44
453.31	137.44
453.53	106.44
453.751	112.44
453.971	105.44
454.192	111.44
454.412	119.44
454.633	131.44
454.853	112.44
455.073	126.44
455.294	115.44
455.514	113.44
455.734	114.44
455.955	125.44
456.175	117.44
456.395	131.44
456.616	111.44
456.836	112.44
457.056	102.44
457.276	105.44
457.497	107.44
457.717	107.44
457.937	108.44
458.157	125.44
458.377	111.44
458.598	104.44
458.818	98.44
459.038	95.44
459.258	96.44
459.478	96.44
459.698	90.44
459.918	95.44
460.138	100.44
460.358	122.44
460.578	112.44
460.798	117.44
461.018	110.44
461.238	119.44
461.458	130.44
461.678	104.44
461.898	97.44
462.118	121.44
462.338	106.44
462.558	115.44
462.777	121.44
462.997	121.44
463.217	108.44
463.437	104.44
463.657	105.44
463.876	112.44
464.096	115.44
464.316	96.44
464.536	119.44
464.755	126.44
464.975	120.44
465.195	116.44
465.414	127.44
465.634	124.44
465.854	129.44
466.073	96.44
466.293	122.44
466.512	125.44
466.732	120.44
466.951	120.44
467.171	125.44
467.391	141.44
467.61	135.44
467.829	133.44
468.049	130.44
468.268	141.44
468.488	120.44
468.707	133.44
468.927	141.44
469.146	146.44
469.365	142.44
469.585	144.44
469.804	144.44
470.023	127.44
470.243	133.44
470.462	141.44
470.681	156.44
470.901	145.44
471.12	141.44
471.339	157.44
471.558	136.44
471.777	131.44
471.997	135.44
472.216	126.44
472.435	110.44
472.654	128.44
472.873	122.44
473.092	107.44
473.311	119.44
473.53	123.44
473.749	129.44
473.968	142.44
474.187	127.44
474.406	120.44
474.625	127.44
474.844	139.44
475.063	141.44
475.282	116.44
475.501	111.44
475.72	125.44
475.939	133.44
476.158	131.44
476.377	127.44
476.596	122.44
476.814	116.44
477.033	117.44
477.252	116.44
477.471	116.44
477.69	128.44
477.908	143.44
478.127	150.44
478.346	139.44
478.564	149.44
478.783	120.44
479.002	168.44
479.22	132.44
479.439	130.44
479.658	129.44
479.876	113.44
480.095	109.44
480.313	128.44
480.532	135.44
480.751	128.44
480.969	106.44
481.188	83.44
481.406	82.44
481.624	97.44
481.843	87.44
482.061	102.44
482.28	119.44
482.498	109.44
482.717	110.44
482.935	137.44
483.153	140.44
483.372	156.44
483.59	148.44
483.808	133.44
484.027	124.44
484.245	137.44
484.463	144.44
484.681	160.44
484.9	144.44
485.118	140.44
485.336	152.44
485.554	122.44
485.772	100.44
485.99	97.44
486.209	127.44
486.427	115.44
486.645	131.44
486.863	137.44
487.081	157.44
487.299	142.44
487.517	143.44
487.735	166.44
487.953	192.44
488.171	178.44
488.389	177.44
488.607	176.44
488.825	135.44
489.043	133.44
489.261	131.44
489.479	146.44
489.696	132.44
489.914	135.44
490.132	144.44
490.35	155.44
490.568	172.44
490.786	168.44
491.003	171.44
491.221	179.44
491.439	186.44
491.657	198.44
491.874	201.44
492.092	223.44
492.31	244.44
492.527	236.44
492.745	208.44
492.963	206.44
493.18	195.44
493.398	187.44
493.615	192.44
493.833	175.44
494.05	174.44
494.268	166.44
494.485	160.44
494.703	167.44
494.92	179.44
495.138	173.44
495.355	179.44
495.573	172.44
495.79	160.44
496.008	163.44
496.225	166.44
496.442	169.44
496.66	159.44
496.877	173.44
497.094	176.44
497.312	170.44
497.529	164.44
497.746	160.44
497.963	156.44
498.181	130.44
498.398	137.44
498.615	103.44
498.832	125.44
499.049	107.44
499.267	120.44
499.484	124.44
499.701	142.44
499.918	116.44
500.135	131.44
500.352	139.44
500.569	127.44
500.786	140.44
501.003	143.44
501.22	135.44
501.437	142.44
501.654	133.44
501.871	133.44
502.088	132.44
502.305	130.44
502.522	134.44
502.739	143.44
502.956	144.44
503.172	137.44
503.389	126.44
503.606	125.44
503.823	128.44
504.04	121.44
504.256	125.44
504.473	122.44
504.69	126.44
504.907	124.44
505.123	123.44
505.34	119.44
505.557	119.44
505.773	124.44
505.99	122.44
506.207	111.44
506.423	131.44
506.64	117.44
506.856	128.44
507.073	131.44
507.289	116.44
507.506	116.44
507.722	120.44
507.939	119.44
508.155	119.44
508.372	121.44
508.588	107.44
508.805	124.44
509.021	110.44
509.238	116.44
509.454	106.44
509.67	112.44
509.887	104.44
510.103	98.44
510.319	102.44
510.536	87.44
510.752	87.44
510.968	89.44
511.184	84.44
511.401	84.44
