Data from Location4.07152019.Energy5.Lamp.07192019.3%Agarose_HRD10591_16-20-34-926.txt Node
Date: Fri Jul 19 16:20:34 EDT 2019
User: cochatt
Spectrometer: HR+D1059
Trigger mode: 1
Integration Time (sec): 1.000000E-1
Scans to average: 1
Electric dark correction enabled: true
Nonlinearity correction enabled: false
Boxcar width: 0
XAxis mode: Wavelengths
Number of Pixels in Spectrum: 2048
>>>>>Begin Spectral Data<<<<<
223.165	-11.94
223.4	-11.94
223.635	-11.94
223.869	-17.94
224.104	-23.94
224.338	-30.94
224.573	-16.94
224.808	1.06
225.042	-8.94
225.277	-3.94
225.511	-2.94
225.746	1.06
225.98	3.06
226.215	17.06
226.449	12.06
226.683	23.06
226.918	35.06
227.152	25.06
227.387	28.06
227.621	29.06
227.856	43.06
228.09	36.06
228.324	59.06
228.559	67.06
228.793	60.06
229.027	60.06
229.262	60.06
229.496	65.06
229.73	46.06
229.964	59.06
230.199	72.06
230.433	79.06
230.667	78.06
230.901	87.06
231.136	75.06
231.37	67.06
231.604	81.06
231.838	76.06
232.072	72.06
232.306	82.06
232.541	73.06
232.775	75.06
233.009	88.06
233.243	83.06
233.477	81.06
233.711	89.06
233.945	77.06
234.179	75.06
234.413	90.06
234.647	69.06
234.881	79.06
235.115	84.06
235.349	64.06
235.583	79.06
235.817	82.06
236.051	77.06
236.285	67.06
236.519	65.06
236.753	71.06
236.987	83.06
237.221	76.06
237.455	72.06
237.689	73.06
237.922	77.06
238.156	71.06
238.39	83.06
238.624	81.06
238.858	67.06
239.091	78.06
239.325	73.06
239.559	76.06
239.793	80.06
240.027	74.06
240.26	74.06
240.494	71.06
240.728	66.06
240.961	72.06
241.195	83.06
241.429	74.06
241.662	82.06
241.896	76.06
242.13	83.06
242.363	79.06
242.597	71.06
242.83	82.06
243.064	91.06
243.298	69.06
243.531	72.06
243.765	88.06
243.998	81.06
244.232	84.06
244.465	69.06
244.699	84.06
244.932	79.06
245.166	81.06
245.399	84.06
245.633	75.06
245.866	74.06
246.099	81.06
246.333	81.06
246.566	92.06
246.8	73.06
247.033	82.06
247.266	77.06
247.5	81.06
247.733	91.06
247.966	95.06
248.2	87.06
248.433	86.06
248.666	96.06
248.899	61.06
249.133	79.06
249.366	75.06
249.599	72.06
249.832	73.06
250.066	75.06
250.299	80.06
250.532	86.06
250.765	77.06
250.998	85.06
251.231	72.06
251.465	82.06
251.698	75.06
251.931	57.06
252.164	77.06
252.397	74.06
252.63	67.06
252.863	65.06
253.096	66.06
253.329	77.06
253.562	75.06
253.795	79.06
254.028	81.06
254.261	88.06
254.494	80.06
254.727	66.06
254.96	71.06
255.193	91.06
255.426	84.06
255.659	75.06
255.892	72.06
256.124	82.06
256.357	76.06
256.59	72.06
256.823	80.06
257.056	97.06
257.289	92.06
257.521	73.06
257.754	82.06
257.987	61.06
258.22	70.06
258.452	86.06
258.685	76.06
258.918	85.06
259.151	79.06
259.383	80.06
259.616	83.06
259.849	72.06
260.081	85.06
260.314	79.06
260.547	93.06
260.779	79.06
261.012	85.06
261.244	77.06
261.477	91.06
261.71	66.06
261.942	85.06
262.175	72.06
262.407	76.06
262.64	96.06
262.872	80.06
263.105	89.06
263.337	76.06
263.57	83.06
263.802	83.06
264.035	82.06
264.267	61.06
264.499	78.06
264.732	68.06
264.964	72.06
265.197	79.06
265.429	95.06
265.661	85.06
265.894	80.06
266.126	73.06
266.358	82.06
266.591	83.06
266.823	88.06
267.055	78.06
267.287	82.06
267.52	81.06
267.752	83.06
267.984	70.06
268.216	68.06
268.448	80.06
268.681	83.06
268.913	95.06
269.145	71.06
269.377	73.06
269.609	77.06
269.841	84.06
270.073	81.06
270.306	64.06
270.538	82.06
270.77	81.06
271.002	67.06
271.234	87.06
271.466	83.06
271.698	66.06
271.93	89.06
272.162	67.06
272.394	65.06
272.626	79.06
272.858	79.06
273.09	76.06
273.322	84.06
273.553	68.06
273.785	71.06
274.017	82.06
274.249	93.06
274.481	97.06
274.713	72.06
274.945	78.06
275.176	65.06
275.408	82.06
275.64	87.06
275.872	79.06
276.104	92.06
276.335	82.06
276.567	77.06
276.799	95.06
277.031	92.06
277.262	85.06
277.494	84.06
277.726	82.06
277.957	69.06
278.189	83.06
278.421	75.06
278.652	76.06
278.884	68.06
279.115	86.06
279.347	87.06
279.579	70.06
279.81	88.06
280.042	81.06
280.273	89.06
280.505	84.06
280.736	82.06
280.968	60.06
281.199	83.06
281.431	83.06
281.662	88.06
281.894	97.06
282.125	74.06
282.356	97.06
282.588	87.06
282.819	79.06
283.051	81.06
283.282	83.06
283.513	96.06
283.745	86.06
283.976	77.06
284.207	90.06
284.439	75.06
284.67	67.06
284.901	76.06
285.132	84.06
285.364	88.06
285.595	86.06
285.826	93.06
286.057	78.06
286.288	93.06
286.52	76.06
286.751	92.06
286.982	91.06
287.213	77.06
287.444	83.06
287.675	83.06
287.906	91.06
288.138	84.06
288.369	88.06
288.6	91.06
288.831	75.06
289.062	87.06
289.293	94.06
289.524	75.06
289.755	68.06
289.986	85.06
290.217	89.06
290.448	89.06
290.679	95.06
290.91	76.06
291.141	76.06
291.371	75.06
291.602	87.06
291.833	86.06
292.064	81.06
292.295	86.06
292.526	80.06
292.757	96.06
292.987	85.06
293.218	80.06
293.449	86.06
293.68	89.06
293.91	79.06
294.141	78.06
294.372	74.06
294.603	77.06
294.833	77.06
295.064	86.06
295.295	83.06
295.525	83.06
295.756	90.06
295.987	85.06
296.217	89.06
296.448	90.06
296.679	75.06
296.909	75.06
297.14	76.06
297.37	87.06
297.601	77.06
297.831	98.06
298.062	96.06
298.292	88.06
298.523	73.06
298.753	73.06
298.984	69.06
299.214	88.06
299.445	87.06
299.675	85.06
299.905	74.06
300.136	90.06
300.366	67.06
300.597	79.06
300.827	85.06
301.057	92.06
301.288	78.06
301.518	77.06
301.748	76.06
301.979	79.06
302.209	82.06
302.439	85.06
302.669	85.06
302.9	60.06
303.13	68.06
303.36	79.06
303.59	80.06
303.82	80.06
304.051	85.06
304.281	60.06
304.511	87.06
304.741	85.06
304.971	93.06
305.201	80.06
305.431	82.06
305.661	82.06
305.891	83.06
306.121	87.06
306.352	88.06
306.582	83.06
306.812	83.06
307.042	80.06
307.272	76.06
307.502	76.06
307.731	82.06
307.961	79.06
308.191	88.06
308.421	70.06
308.651	92.06
308.881	97.06
309.111	90.06
309.341	76.06
309.571	86.06
309.8	79.06
310.03	84.06
310.26	91.06
310.49	85.06
310.72	69.06
310.949	91.06
311.179	98.06
311.409	71.06
311.639	82.06
311.868	82.06
312.098	81.06
312.328	75.06
312.557	96.06
312.787	91.06
313.017	76.06
313.246	86.06
313.476	88.06
313.706	76.06
313.935	80.06
314.165	84.06
314.394	97.06
314.624	94.06
314.853	75.06
315.083	90.06
315.312	80.06
315.542	83.06
315.771	77.06
316.001	80.06
316.23	102.06
316.46	97.06
316.689	81.06
316.919	82.06
317.148	82.06
317.377	77.06
317.607	77.06
317.836	86.06
318.065	90.06
318.295	85.06
318.524	73.06
318.753	82.06
318.983	88.06
319.212	85.06
319.441	74.06
319.67	92.06
319.9	90.06
320.129	101.06
320.358	97.06
320.587	89.06
320.816	89.06
321.046	90.06
321.275	77.06
321.504	72.06
321.733	78.06
321.962	85.06
322.191	83.06
322.42	77.06
322.649	74.06
322.878	82.06
323.108	85.06
323.337	96.06
323.566	95.06
323.795	66.06
324.024	85.06
324.253	91.06
324.482	90.06
324.71	84.06
324.939	76.06
325.168	77.06
325.397	95.06
325.626	81.06
325.855	85.06
326.084	91.06
326.313	80.06
326.542	92.06
326.77	82.06
326.999	91.06
327.228	74.06
327.457	74.06
327.686	71.06
327.914	76.06
328.143	79.06
328.372	84.06
328.6	75.06
328.829	91.06
329.058	85.06
329.287	70.06
329.515	65.06
329.744	80.06
329.972	85.06
330.201	94.06
330.43	77.06
330.658	81.06
330.887	74.06
331.115	83.06
331.344	92.06
331.572	87.06
331.801	83.06
332.03	94.06
332.258	73.06
332.486	81.06
332.715	80.06
332.943	81.06
333.172	77.06
333.4	86.06
333.629	91.06
333.857	82.06
334.085	89.06
334.314	87.06
334.542	94.06
334.771	87.06
334.999	77.06
335.227	86.06
335.455	92.06
335.684	77.06
335.912	88.06
336.14	83.06
336.369	75.06
336.597	86.06
336.825	91.06
337.053	78.06
337.281	74.06
337.51	92.06
337.738	85.06
337.966	81.06
338.194	83.06
338.422	87.06
338.65	82.06
338.878	96.06
339.106	82.06
339.334	87.06
339.562	92.06
339.79	73.06
340.018	85.06
340.246	85.06
340.474	78.06
340.702	91.06
340.93	99.06
341.158	77.06
341.386	86.06
341.614	84.06
341.842	86.06
342.07	82.06
342.298	89.06
342.526	75.06
342.754	93.06
342.981	88.06
343.209	91.06
343.437	72.06
343.665	65.06
343.893	74.06
344.12	84.06
344.348	85.06
344.576	81.06
344.804	81.06
345.031	91.06
345.259	82.06
345.487	79.06
345.714	86.06
345.942	87.06
346.17	87.06
346.397	82.06
346.625	69.06
346.853	81.06
347.08	89.06
347.308	105.06
347.535	72.06
347.763	89.06
347.99	66.06
348.218	83.06
348.445	77.06
348.673	83.06
348.9	69.06
349.128	88.06
349.355	73.06
349.583	81.06
349.81	82.06
350.037	68.06
350.265	87.06
350.492	77.06
350.72	81.06
350.947	76.06
351.174	86.06
351.402	74.06
351.629	73.06
351.856	83.06
352.083	74.06
352.311	94.06
352.538	84.06
352.765	79.06
352.992	67.06
353.22	71.06
353.447	87.06
353.674	90.06
353.901	83.06
354.128	78.06
354.355	88.06
354.583	87.06
354.81	82.06
355.037	73.06
355.264	59.06
355.491	90.06
355.718	74.06
355.945	87.06
356.172	69.06
356.399	72.06
356.626	69.06
356.853	73.06
357.08	83.06
357.307	92.06
357.534	73.06
357.761	73.06
357.988	82.06
358.215	81.06
358.441	75.06
358.668	89.06
358.895	90.06
359.122	82.06
359.349	92.06
359.576	94.06
359.802	83.06
360.029	80.06
360.256	85.06
360.483	78.06
360.709	86.06
360.936	90.06
361.163	90.06
361.39	90.06
361.616	92.06
361.843	95.06
362.07	90.06
362.296	76.06
362.523	85.06
362.749	80.06
362.976	80.06
363.203	85.06
363.429	81.06
363.656	95.06
363.882	85.06
364.109	93.06
364.335	85.06
364.562	85.06
364.788	74.06
365.015	87.06
365.241	86.06
365.468	92.06
365.694	86.06
365.92	83.06
366.147	94.06
366.373	76.06
366.599	88.06
366.826	95.06
367.052	77.06
367.278	79.06
367.505	85.06
367.731	101.06
367.957	87.06
368.184	77.06
368.41	92.06
368.636	92.06
368.862	91.06
369.089	89.06
369.315	84.06
369.541	84.06
369.767	84.06
369.993	90.06
370.219	92.06
370.445	95.06
370.672	90.06
370.898	92.06
371.124	95.06
371.35	85.06
371.576	84.06
371.802	91.06
372.028	98.06
372.254	87.06
372.48	84.06
372.706	93.06
372.932	71.06
373.158	84.06
373.384	94.06
373.61	74.06
373.835	91.06
374.061	93.06
374.287	89.06
374.513	78.06
374.739	80.06
374.965	98.06
375.191	100.06
375.416	82.06
375.642	93.06
375.868	90.06
376.094	97.06
376.319	108.06
376.545	91.06
376.771	111.06
376.997	102.06
377.222	89.06
377.448	100.06
377.674	98.06
377.899	87.06
378.125	87.06
378.35	73.06
378.576	89.06
378.802	84.06
379.027	88.06
379.253	117.06
379.478	86.06
379.704	95.06
379.929	93.06
380.155	96.06
380.38	95.06
380.606	86.06
380.831	92.06
381.057	96.06
381.282	98.06
381.507	90.06
381.733	102.06
381.958	90.06
382.184	102.06
382.409	86.06
382.634	97.06
382.86	97.06
383.085	94.06
383.31	92.06
383.535	101.06
383.761	99.06
383.986	93.06
384.211	93.06
384.436	101.06
384.662	96.06
384.887	96.06
385.112	88.06
385.337	97.06
385.562	100.06
385.787	101.06
386.013	102.06
386.238	94.06
386.463	94.06
386.688	98.06
386.913	90.06
387.138	114.06
387.363	113.06
387.588	96.06
387.813	100.06
388.038	95.06
388.263	101.06
388.488	87.06
388.713	95.06
388.938	98.06
389.163	94.06
389.387	112.06
389.612	107.06
389.837	94.06
390.062	86.06
390.287	109.06
390.512	104.06
390.736	95.06
390.961	102.06
391.186	114.06
391.411	96.06
391.636	103.06
391.86	112.06
392.085	93.06
392.31	107.06
392.534	112.06
392.759	96.06
392.984	93.06
393.208	103.06
393.433	98.06
393.658	106.06
393.882	95.06
394.107	114.06
394.331	108.06
394.556	115.06
394.78	100.06
395.005	107.06
395.229	99.06
395.454	99.06
395.678	97.06
395.903	99.06
396.127	93.06
396.352	115.06
396.576	87.06
396.801	97.06
397.025	109.06
397.249	108.06
397.474	114.06
397.698	106.06
397.922	109.06
398.147	107.06
398.371	120.06
398.595	116.06
398.82	99.06
399.044	103.06
399.268	99.06
399.492	104.06
399.717	105.06
399.941	95.06
400.165	104.06
400.389	119.06
400.613	117.06
400.837	116.06
401.062	111.06
401.286	122.06
401.51	109.06
401.734	105.06
401.958	106.06
402.182	117.06
402.406	112.06
402.63	116.06
402.854	100.06
403.078	91.06
403.302	96.06
403.526	104.06
403.75	115.06
403.974	107.06
404.198	101.06
404.422	99.06
404.645	104.06
404.869	114.06
405.093	106.06
405.317	116.06
405.541	105.06
405.765	110.06
405.988	113.06
406.212	105.06
406.436	101.06
406.66	108.06
406.883	118.06
407.107	107.06
407.331	115.06
407.555	108.06
407.778	117.06
408.002	121.06
408.226	113.06
408.449	106.06
408.673	117.06
408.896	127.06
409.12	99.06
409.344	112.06
409.567	111.06
409.791	116.06
410.014	122.06
410.238	132.06
410.461	118.06
410.685	118.06
410.908	111.06
411.132	134.06
411.355	104.06
411.578	123.06
411.802	128.06
412.025	115.06
412.249	94.06
412.472	109.06
412.695	111.06
412.919	118.06
413.142	134.06
413.365	110.06
413.589	123.06
413.812	131.06
414.035	121.06
414.258	109.06
414.482	112.06
414.705	133.06
414.928	119.06
415.151	129.06
415.374	120.06
415.597	120.06
415.821	112.06
416.044	111.06
416.267	120.06
416.49	125.06
416.713	123.06
416.936	134.06
417.159	114.06
417.382	118.06
417.605	115.06
417.828	141.06
418.051	129.06
418.274	125.06
418.497	119.06
418.72	137.06
418.943	141.06
419.166	133.06
419.389	129.06
419.611	125.06
419.834	122.06
420.057	129.06
420.28	107.06
420.503	114.06
420.726	137.06
420.948	133.06
421.171	136.06
421.394	115.06
421.617	138.06
421.839	138.06
422.062	148.06
422.285	135.06
422.507	123.06
422.73	119.06
422.953	122.06
423.175	130.06
423.398	131.06
423.621	124.06
423.843	134.06
424.066	131.06
424.288	151.06
424.511	158.06
424.733	145.06
424.956	133.06
425.178	142.06
425.401	138.06
425.623	138.06
425.846	137.06
426.068	127.06
426.291	128.06
426.513	116.06
426.735	127.06
426.958	132.06
427.18	121.06
427.402	127.06
427.625	136.06
427.847	119.06
428.069	118.06
428.292	132.06
428.514	135.06
428.736	127.06
428.958	134.06
429.181	133.06
429.403	139.06
429.625	120.06
429.847	119.06
430.069	132.06
430.292	130.06
430.514	121.06
430.736	131.06
430.958	121.06
431.18	115.06
431.402	113.06
431.624	106.06
431.846	113.06
432.068	108.06
432.29	100.06
432.512	107.06
432.734	117.06
432.956	120.06
433.178	130.06
433.4	133.06
433.622	149.06
433.844	127.06
434.066	121.06
434.287	92.06
434.509	97.06
434.731	102.06
434.953	116.06
435.175	100.06
435.397	136.06
435.618	124.06
435.84	109.06
436.062	125.06
436.284	122.06
436.505	122.06
436.727	122.06
436.949	133.06
437.17	124.06
437.392	129.06
437.614	119.06
437.835	109.06
438.057	106.06
438.278	111.06
438.5	138.06
438.721	123.06
438.943	130.06
439.165	142.06
439.386	135.06
439.608	132.06
439.829	133.06
440.05	137.06
440.272	152.06
440.493	137.06
440.715	139.06
440.936	148.06
441.158	140.06
441.379	137.06
441.6	146.06
441.822	142.06
442.043	137.06
442.264	141.06
442.486	137.06
442.707	142.06
442.928	137.06
443.149	142.06
443.371	142.06
443.592	131.06
443.813	131.06
444.034	132.06
444.255	127.06
444.476	138.06
444.698	134.06
444.919	128.06
445.14	279.06
445.361	197.06
445.582	143.06
445.803	151.06
446.024	133.06
446.245	147.06
446.466	137.06
446.687	147.06
446.908	151.06
447.129	141.06
447.35	152.06
447.571	144.06
447.792	133.06
448.013	138.06
448.234	156.06
448.455	131.06
448.675	130.06
448.896	143.06
449.117	130.06
449.338	145.06
449.559	120.06
449.779	123.06
450	129.06
450.221	147.06
450.442	131.06
450.662	129.06
450.883	123.06
451.104	132.06
451.324	140.06
451.545	124.06
451.766	107.06
451.986	129.06
452.207	129.06
452.428	126.06
452.648	123.06
452.869	111.06
453.089	105.06
453.31	109.06
453.53	92.06
453.751	109.06
453.971	95.06
454.192	85.06
454.412	111.06
454.633	118.06
454.853	122.06
455.073	117.06
455.294	117.06
455.514	121.06
455.734	117.06
455.955	132.06
456.175	117.06
456.395	121.06
456.616	115.06
456.836	120.06
457.056	114.06
457.276	108.06
457.497	103.06
457.717	105.06
457.937	118.06
458.157	103.06
458.377	101.06
458.598	95.06
458.818	97.06
459.038	96.06
459.258	81.06
459.478	79.06
459.698	91.06
459.918	89.06
460.138	113.06
460.358	111.06
460.578	129.06
460.798	113.06
461.018	120.06
461.238	92.06
461.458	104.06
461.678	115.06
461.898	116.06
462.118	113.06
462.338	112.06
462.558	116.06
462.777	115.06
462.997	95.06
463.217	108.06
463.437	114.06
463.657	111.06
463.876	117.06
464.096	108.06
464.316	87.06
464.536	102.06
464.755	113.06
464.975	112.06
465.195	118.06
465.414	114.06
465.634	96.06
465.854	118.06
466.073	123.06
466.293	107.06
466.512	118.06
466.732	109.06
466.951	130.06
467.171	142.06
467.391	134.06
467.61	135.06
467.829	145.06
468.049	118.06
468.268	132.06
468.488	142.06
468.707	147.06
468.927	135.06
469.146	133.06
469.365	151.06
469.585	141.06
469.804	143.06
470.023	139.06
470.243	129.06
470.462	121.06
470.681	138.06
470.901	137.06
471.12	131.06
471.339	122.06
471.558	149.06
471.777	136.06
471.997	124.06
472.216	129.06
472.435	123.06
472.654	124.06
472.873	118.06
473.092	108.06
473.311	120.06
473.53	109.06
473.749	140.06
473.968	140.06
474.187	111.06
474.406	100.06
474.625	112.06
474.844	123.06
475.063	135.06
475.282	133.06
475.501	108.06
475.72	119.06
475.939	131.06
476.158	129.06
476.377	121.06
476.596	117.06
476.814	105.06
477.033	94.06
477.252	113.06
477.471	128.06
477.69	124.06
477.908	119.06
478.127	123.06
478.346	140.06
478.564	151.06
478.783	130.06
479.002	131.06
479.22	127.06
479.439	128.06
479.658	124.06
479.876	122.06
480.095	124.06
480.313	111.06
480.532	121.06
480.751	96.06
480.969	93.06
481.188	86.06
481.406	89.06
481.624	101.06
481.843	89.06
482.061	109.06
482.28	110.06
482.498	119.06
482.717	117.06
482.935	132.06
483.153	124.06
483.372	147.06
483.59	149.06
483.808	147.06
484.027	145.06
484.245	133.06
484.463	143.06
484.681	150.06
484.9	159.06
485.118	137.06
485.336	127.06
485.554	92.06
485.772	114.06
485.99	115.06
486.209	114.06
486.427	123.06
486.645	118.06
486.863	130.06
487.081	147.06
487.299	146.06
487.517	126.06
487.735	166.06
487.953	175.06
488.171	188.06
488.389	170.06
488.607	149.06
488.825	144.06
489.043	134.06
489.261	130.06
489.479	127.06
489.696	155.06
489.914	145.06
490.132	144.06
490.35	150.06
490.568	163.06
490.786	165.06
491.003	170.06
491.221	185.06
491.439	175.06
491.657	196.06
491.874	188.06
492.092	216.06
492.31	235.06
492.527	214.06
492.745	217.06
492.963	176.06
493.18	175.06
493.398	161.06
493.615	177.06
493.833	159.06
494.05	175.06
494.268	171.06
494.485	157.06
494.703	171.06
494.92	171.06
495.138	169.06
495.355	190.06
495.573	178.06
495.79	155.06
496.008	167.06
496.225	141.06
496.442	180.06
496.66	154.06
496.877	147.06
497.094	159.06
497.312	140.06
497.529	163.06
497.746	140.06
497.963	128.06
498.181	121.06
498.398	124.06
498.615	116.06
498.832	123.06
499.049	104.06
499.267	123.06
499.484	118.06
499.701	136.06
499.918	125.06
500.135	137.06
500.352	139.06
500.569	122.06
500.786	145.06
501.003	135.06
501.22	145.06
501.437	134.06
501.654	141.06
501.871	120.06
502.088	131.06
502.305	129.06
502.522	112.06
502.739	132.06
502.956	133.06
503.172	119.06
503.389	141.06
503.606	121.06
503.823	134.06
504.04	116.06
504.256	117.06
504.473	116.06
504.69	109.06
504.907	123.06
505.123	113.06
505.34	128.06
505.557	126.06
505.773	120.06
505.99	123.06
506.207	115.06
506.423	123.06
506.64	120.06
506.856	100.06
507.073	105.06
507.289	122.06
507.506	123.06
507.722	123.06
507.939	111.06
508.155	112.06
508.372	113.06
508.588	107.06
508.805	120.06
509.021	104.06
509.238	95.06
509.454	88.06
509.67	89.06
509.887	92.06
510.103	96.06
510.319	99.06
510.536	85.06
510.752	86.06
510.968	74.06
511.184	84.06
511.401	93.06
511.617	84.06
511.833	74.06
512.049	99.06
