Data from Location4.07152019.Energy5.Lamp.07192019.3%Agarose_HRD10591_16-21-08-926.txt Node
Date: Fri Jul 19 16:21:08 EDT 2019
User: cochatt
Spectrometer: HR+D1059
Trigger mode: 1
Integration Time (sec): 1.000000E-1
Scans to average: 1
Electric dark correction enabled: true
Nonlinearity correction enabled: false
Boxcar width: 0
XAxis mode: Wavelengths
Number of Pixels in Spectrum: 2048
>>>>>Begin Spectral Data<<<<<
223.165	-10.69
223.4	-10.69
223.635	-10.69
223.869	-20.69
224.104	-12.69
224.338	-2.69
224.573	-3.69
224.808	3.31
225.042	-14.69
225.277	1.31
225.511	-21.69
225.746	2.31
225.98	4.31
226.215	-2.69
226.449	14.31
226.683	15.31
226.918	23.31
227.152	25.31
227.387	34.31
227.621	44.31
227.856	38.31
228.09	41.31
228.324	56.31
228.559	63.31
228.793	57.31
229.027	66.31
229.262	63.31
229.496	67.31
229.73	75.31
229.964	78.31
230.199	72.31
230.433	72.31
230.667	79.31
230.901	82.31
231.136	77.31
231.37	83.31
231.604	84.31
231.838	74.31
232.072	75.31
232.306	93.31
232.541	86.31
232.775	85.31
233.009	86.31
233.243	84.31
233.477	70.31
233.711	77.31
233.945	85.31
234.179	74.31
234.413	81.31
234.647	85.31
234.881	84.31
235.115	67.31
235.349	73.31
235.583	79.31
235.817	79.31
236.051	76.31
236.285	86.31
236.519	95.31
236.753	80.31
236.987	84.31
237.221	87.31
237.455	74.31
237.689	75.31
237.922	76.31
238.156	64.31
238.39	74.31
238.624	71.31
238.858	77.31
239.091	76.31
239.325	78.31
239.559	69.31
239.793	81.31
240.027	67.31
240.26	75.31
240.494	90.31
240.728	74.31
240.961	92.31
241.195	72.31
241.429	87.31
241.662	77.31
241.896	79.31
242.13	94.31
242.363	94.31
242.597	73.31
242.83	77.31
243.064	75.31
243.298	77.31
243.531	83.31
243.765	83.31
243.998	71.31
244.232	76.31
244.465	78.31
244.699	79.31
244.932	71.31
245.166	88.31
245.399	89.31
245.633	77.31
245.866	87.31
246.099	69.31
246.333	90.31
246.566	80.31
246.8	91.31
247.033	78.31
247.266	75.31
247.5	76.31
247.733	86.31
247.966	77.31
248.2	89.31
248.433	83.31
248.666	87.31
248.899	86.31
249.133	74.31
249.366	78.31
249.599	91.31
249.832	79.31
250.066	83.31
250.299	82.31
250.532	81.31
250.765	67.31
250.998	83.31
251.231	78.31
251.465	80.31
251.698	74.31
251.931	78.31
252.164	92.31
252.397	85.31
252.63	90.31
252.863	87.31
253.096	89.31
253.329	90.31
253.562	87.31
253.795	81.31
254.028	83.31
254.261	69.31
254.494	91.31
254.727	70.31
254.96	84.31
255.193	83.31
255.426	93.31
255.659	83.31
255.892	105.31
256.124	86.31
256.357	71.31
256.59	80.31
256.823	77.31
257.056	85.31
257.289	86.31
257.521	84.31
257.754	86.31
257.987	82.31
258.22	82.31
258.452	86.31
258.685	85.31
258.918	72.31
259.151	88.31
259.383	82.31
259.616	89.31
259.849	73.31
260.081	78.31
260.314	79.31
260.547	83.31
260.779	84.31
261.012	80.31
261.244	83.31
261.477	94.31
261.71	76.31
261.942	87.31
262.175	82.31
262.407	82.31
262.64	84.31
262.872	87.31
263.105	86.31
263.337	95.31
263.57	83.31
263.802	78.31
264.035	82.31
264.267	85.31
264.499	83.31
264.732	76.31
264.964	75.31
265.197	73.31
265.429	71.31
265.661	63.31
265.894	75.31
266.126	74.31
266.358	93.31
266.591	98.31
266.823	84.31
267.055	76.31
267.287	88.31
267.52	88.31
267.752	72.31
267.984	86.31
268.216	75.31
268.448	99.31
268.681	84.31
268.913	81.31
269.145	85.31
269.377	88.31
269.609	80.31
269.841	82.31
270.073	80.31
270.306	79.31
270.538	78.31
270.77	86.31
271.002	80.31
271.234	78.31
271.466	77.31
271.698	79.31
271.93	77.31
272.162	74.31
272.394	83.31
272.626	84.31
272.858	79.31
273.09	82.31
273.322	90.31
273.553	82.31
273.785	85.31
274.017	72.31
274.249	85.31
274.481	87.31
274.713	81.31
274.945	81.31
275.176	85.31
275.408	69.31
275.64	81.31
275.872	91.31
276.104	92.31
276.335	82.31
276.567	83.31
276.799	89.31
277.031	70.31
277.262	80.31
277.494	79.31
277.726	85.31
277.957	71.31
278.189	94.31
278.421	94.31
278.652	87.31
278.884	95.31
279.115	78.31
279.347	89.31
279.579	96.31
279.81	102.31
280.042	90.31
280.273	77.31
280.505	80.31
280.736	88.31
280.968	101.31
281.199	99.31
281.431	85.31
281.662	90.31
281.894	84.31
282.125	79.31
282.356	79.31
282.588	76.31
282.819	78.31
283.051	81.31
283.282	90.31
283.513	88.31
283.745	87.31
283.976	85.31
284.207	79.31
284.439	77.31
284.67	77.31
284.901	94.31
285.132	91.31
285.364	103.31
285.595	98.31
285.826	85.31
286.057	77.31
286.288	92.31
286.52	82.31
286.751	96.31
286.982	108.31
287.213	88.31
287.444	92.31
287.675	95.31
287.906	95.31
288.138	78.31
288.369	81.31
288.6	97.31
288.831	92.31
289.062	90.31
289.293	84.31
289.524	86.31
289.755	81.31
289.986	97.31
290.217	92.31
290.448	106.31
290.679	87.31
290.91	69.31
291.141	77.31
291.371	90.31
291.602	81.31
291.833	92.31
292.064	81.31
292.295	79.31
292.526	87.31
292.757	86.31
292.987	102.31
293.218	91.31
293.449	74.31
293.68	87.31
293.91	73.31
294.141	80.31
294.372	79.31
294.603	99.31
294.833	76.31
295.064	94.31
295.295	85.31
295.525	79.31
295.756	91.31
295.987	78.31
296.217	85.31
296.448	90.31
296.679	78.31
296.909	77.31
297.14	88.31
297.37	87.31
297.601	85.31
297.831	80.31
298.062	89.31
298.292	85.31
298.523	84.31
298.753	81.31
298.984	81.31
299.214	76.31
299.445	95.31
299.675	93.31
299.905	99.31
300.136	83.31
300.366	85.31
300.597	94.31
300.827	74.31
301.057	98.31
301.288	84.31
301.518	84.31
301.748	87.31
301.979	87.31
302.209	92.31
302.439	83.31
302.669	79.31
302.9	85.31
303.13	93.31
303.36	91.31
303.59	87.31
303.82	84.31
304.051	91.31
304.281	90.31
304.511	78.31
304.741	81.31
304.971	89.31
305.201	87.31
305.431	82.31
305.661	86.31
305.891	92.31
306.121	94.31
306.352	81.31
306.582	77.31
306.812	86.31
307.042	84.31
307.272	82.31
307.502	86.31
307.731	89.31
307.961	85.31
308.191	88.31
308.421	85.31
308.651	75.31
308.881	86.31
309.111	79.31
309.341	79.31
309.571	90.31
309.8	99.31
310.03	84.31
310.26	97.31
310.49	82.31
310.72	85.31
310.949	92.31
311.179	84.31
311.409	83.31
311.639	86.31
311.868	85.31
312.098	87.31
312.328	97.31
312.557	91.31
312.787	77.31
313.017	93.31
313.246	88.31
313.476	90.31
313.706	75.31
313.935	77.31
314.165	88.31
314.394	88.31
314.624	81.31
314.853	86.31
315.083	82.31
315.312	93.31
315.542	84.31
315.771	87.31
316.001	82.31
316.23	81.31
316.46	78.31
316.689	90.31
316.919	104.31
317.148	88.31
317.377	92.31
317.607	85.31
317.836	88.31
318.065	99.31
318.295	88.31
318.524	78.31
318.753	79.31
318.983	97.31
319.212	91.31
319.441	103.31
319.67	94.31
319.9	74.31
320.129	92.31
320.358	91.31
320.587	80.31
320.816	88.31
321.046	89.31
321.275	76.31
321.504	91.31
321.733	94.31
321.962	68.31
322.191	94.31
322.42	71.31
322.649	77.31
322.878	85.31
323.108	78.31
323.337	73.31
323.566	101.31
323.795	84.31
324.024	73.31
324.253	94.31
324.482	85.31
324.71	85.31
324.939	90.31
325.168	78.31
325.397	79.31
325.626	88.31
325.855	77.31
326.084	90.31
326.313	90.31
326.542	84.31
326.77	81.31
326.999	78.31
327.228	90.31
327.457	76.31
327.686	93.31
327.914	90.31
328.143	96.31
328.372	85.31
328.6	85.31
328.829	82.31
329.058	75.31
329.287	65.31
329.515	96.31
329.744	84.31
329.972	85.31
330.201	95.31
330.43	82.31
330.658	86.31
330.887	84.31
331.115	84.31
331.344	76.31
331.572	89.31
331.801	85.31
332.03	92.31
332.258	83.31
332.486	80.31
332.715	84.31
332.943	83.31
333.172	84.31
333.4	82.31
333.629	96.31
333.857	82.31
334.085	86.31
334.314	89.31
334.542	91.31
334.771	74.31
334.999	79.31
335.227	73.31
335.455	83.31
335.684	95.31
335.912	98.31
336.14	98.31
336.369	85.31
336.597	90.31
336.825	74.31
337.053	85.31
337.281	96.31
337.51	83.31
337.738	84.31
337.966	78.31
338.194	69.31
338.422	84.31
338.65	89.31
338.878	79.31
339.106	92.31
339.334	83.31
339.562	90.31
339.79	91.31
340.018	92.31
340.246	85.31
340.474	95.31
340.702	84.31
340.93	95.31
341.158	72.31
341.386	74.31
341.614	86.31
341.842	70.31
342.07	89.31
342.298	81.31
342.526	91.31
342.754	72.31
342.981	99.31
343.209	92.31
343.437	83.31
343.665	66.31
343.893	92.31
344.12	87.31
344.348	81.31
344.576	93.31
344.804	92.31
345.031	89.31
345.259	97.31
345.487	85.31
345.714	86.31
345.942	82.31
346.17	78.31
346.397	84.31
346.625	89.31
346.853	70.31
347.08	81.31
347.308	81.31
347.535	71.31
347.763	89.31
347.99	97.31
348.218	82.31
348.445	89.31
348.673	90.31
348.9	84.31
349.128	81.31
349.355	96.31
349.583	103.31
349.81	103.31
350.037	95.31
350.265	79.31
350.492	93.31
350.72	87.31
350.947	80.31
351.174	85.31
351.402	96.31
351.629	90.31
351.856	92.31
352.083	77.31
352.311	84.31
352.538	84.31
352.765	84.31
352.992	101.31
353.22	83.31
353.447	75.31
353.674	96.31
353.901	85.31
354.128	91.31
354.355	80.31
354.583	79.31
354.81	75.31
355.037	85.31
355.264	77.31
355.491	91.31
355.718	96.31
355.945	90.31
356.172	85.31
356.399	76.31
356.626	71.31
356.853	82.31
357.08	75.31
357.307	83.31
357.534	88.31
357.761	89.31
357.988	92.31
358.215	75.31
358.441	81.31
358.668	80.31
358.895	91.31
359.122	89.31
359.349	98.31
359.576	91.31
359.802	88.31
360.029	97.31
360.256	90.31
360.483	82.31
360.709	90.31
360.936	92.31
361.163	71.31
361.39	84.31
361.616	83.31
361.843	94.31
362.07	88.31
362.296	84.31
362.523	81.31
362.749	83.31
362.976	87.31
363.203	82.31
363.429	96.31
363.656	93.31
363.882	82.31
364.109	96.31
364.335	91.31
364.562	73.31
364.788	81.31
365.015	83.31
365.241	84.31
365.468	105.31
365.694	93.31
365.92	81.31
366.147	88.31
366.373	81.31
366.599	93.31
366.826	94.31
367.052	78.31
367.278	86.31
367.505	89.31
367.731	85.31
367.957	98.31
368.184	83.31
368.41	89.31
368.636	102.31
368.862	90.31
369.089	93.31
369.315	98.31
369.541	99.31
369.767	98.31
369.993	91.31
370.219	80.31
370.445	97.31
370.672	95.31
370.898	78.31
371.124	92.31
371.35	105.31
371.576	84.31
371.802	84.31
372.028	101.31
372.254	84.31
372.48	86.31
372.706	86.31
372.932	89.31
373.158	81.31
373.384	93.31
373.61	96.31
373.835	101.31
374.061	85.31
374.287	108.31
374.513	91.31
374.739	81.31
374.965	87.31
375.191	89.31
375.416	87.31
375.642	97.31
375.868	107.31
376.094	102.31
376.319	101.31
376.545	94.31
376.771	94.31
376.997	93.31
377.222	92.31
377.448	88.31
377.674	97.31
377.899	90.31
378.125	98.31
378.35	100.31
378.576	82.31
378.802	79.31
379.027	94.31
379.253	81.31
379.478	86.31
379.704	92.31
379.929	113.31
380.155	115.31
380.38	103.31
380.606	92.31
380.831	94.31
381.057	90.31
381.282	90.31
381.507	92.31
381.733	96.31
381.958	104.31
382.184	103.31
382.409	109.31
382.634	78.31
382.86	101.31
383.085	105.31
383.31	92.31
383.535	93.31
383.761	97.31
383.986	102.31
384.211	85.31
384.436	96.31
384.662	114.31
384.887	101.31
385.112	91.31
385.337	90.31
385.562	97.31
385.787	110.31
386.013	113.31
386.238	97.31
386.463	105.31
386.688	104.31
386.913	105.31
387.138	109.31
387.363	105.31
387.588	88.31
387.813	107.31
388.038	99.31
388.263	110.31
388.488	103.31
388.713	101.31
388.938	100.31
389.163	104.31
389.387	104.31
389.612	113.31
389.837	107.31
390.062	116.31
390.287	101.31
390.512	90.31
390.736	85.31
390.961	106.31
391.186	101.31
391.411	106.31
391.636	108.31
391.86	103.31
392.085	102.31
392.31	97.31
392.534	98.31
392.759	111.31
392.984	101.31
393.208	110.31
393.433	112.31
393.658	111.31
393.882	99.31
394.107	106.31
394.331	106.31
394.556	108.31
394.78	104.31
395.005	92.31
395.229	96.31
395.454	121.31
395.678	118.31
395.903	117.31
396.127	110.31
396.352	108.31
396.576	115.31
396.801	102.31
397.025	103.31
397.249	101.31
397.474	121.31
397.698	104.31
397.922	108.31
398.147	113.31
398.371	118.31
398.595	114.31
398.82	90.31
399.044	111.31
399.268	100.31
399.492	105.31
399.717	105.31
399.941	108.31
400.165	124.31
400.389	119.31
400.613	108.31
400.837	109.31
401.062	116.31
401.286	117.31
401.51	106.31
401.734	125.31
401.958	106.31
402.182	125.31
402.406	106.31
402.63	125.31
402.854	121.31
403.078	120.31
403.302	103.31
403.526	110.31
403.75	124.31
403.974	113.31
404.198	122.31
404.422	120.31
404.645	141.31
404.869	118.31
405.093	124.31
405.317	113.31
405.541	125.31
405.765	113.31
405.988	132.31
406.212	114.31
406.436	115.31
406.66	106.31
406.883	131.31
407.107	120.31
407.331	121.31
407.555	117.31
407.778	112.31
408.002	103.31
408.226	105.31
408.449	111.31
408.673	129.31
408.896	118.31
409.12	129.31
409.344	127.31
409.567	125.31
409.791	120.31
410.014	124.31
410.238	121.31
410.461	131.31
410.685	117.31
410.908	116.31
411.132	129.31
411.355	135.31
411.578	127.31
411.802	119.31
412.025	107.31
412.249	109.31
412.472	116.31
412.695	128.31
412.919	119.31
413.142	111.31
413.365	124.31
413.589	122.31
413.812	121.31
414.035	125.31
414.258	131.31
414.482	125.31
414.705	128.31
414.928	121.31
415.151	119.31
415.374	122.31
415.597	131.31
415.821	123.31
416.044	129.31
416.267	126.31
416.49	111.31
416.713	121.31
416.936	124.31
417.159	122.31
417.382	118.31
417.605	118.31
417.828	119.31
418.051	137.31
418.274	135.31
418.497	122.31
418.72	132.31
418.943	123.31
419.166	130.31
419.389	145.31
419.611	118.31
419.834	140.31
420.057	125.31
420.28	138.31
420.503	137.31
420.726	120.31
420.948	138.31
421.171	138.31
421.394	126.31
421.617	126.31
421.839	142.31
422.062	128.31
422.285	127.31
422.507	131.31
422.73	134.31
422.953	117.31
423.175	115.31
423.398	137.31
423.621	136.31
423.843	122.31
424.066	138.31
424.288	145.31
424.511	154.31
424.733	147.31
424.956	148.31
425.178	131.31
425.401	138.31
425.623	141.31
425.846	126.31
426.068	123.31
426.291	123.31
426.513	122.31
426.735	138.31
426.958	122.31
427.18	123.31
427.402	135.31
427.625	115.31
427.847	125.31
428.069	123.31
428.292	130.31
428.514	138.31
428.736	124.31
428.958	123.31
429.181	133.31
429.403	134.31
429.625	129.31
429.847	129.31
430.069	134.31
430.292	130.31
430.514	137.31
430.736	134.31
430.958	143.31
431.18	121.31
431.402	125.31
431.624	125.31
431.846	117.31
432.068	97.31
432.29	104.31
432.512	105.31
432.734	119.31
432.956	137.31
433.178	130.31
433.4	151.31
433.622	145.31
433.844	139.31
434.066	110.31
434.287	107.31
434.509	101.31
434.731	100.31
434.953	107.31
435.175	125.31
435.397	119.31
435.618	122.31
435.84	105.31
436.062	126.31
436.284	120.31
436.505	119.31
436.727	129.31
436.949	130.31
437.17	133.31
437.392	135.31
437.614	124.31
437.835	104.31
438.057	111.31
438.278	118.31
438.5	123.31
438.721	127.31
438.943	142.31
439.165	143.31
439.386	136.31
439.608	136.31
439.829	152.31
440.05	137.31
440.272	148.31
440.493	138.31
440.715	151.31
440.936	158.31
441.158	147.31
441.379	141.31
441.6	142.31
441.822	140.31
442.043	135.31
442.264	148.31
442.486	138.31
442.707	137.31
442.928	155.31
443.149	120.31
443.371	130.31
443.592	139.31
443.813	131.31
444.034	142.31
444.255	130.31
444.476	136.31
444.698	144.31
444.919	154.31
445.14	247.31
445.361	193.31
445.582	139.31
445.803	135.31
446.024	147.31
446.245	151.31
446.466	151.31
446.687	143.31
446.908	150.31
447.129	154.31
447.35	145.31
447.571	154.31
447.792	150.31
448.013	141.31
448.234	151.31
448.455	135.31
448.675	144.31
448.896	132.31
449.117	138.31
449.338	131.31
449.559	138.31
449.779	127.31
450	137.31
450.221	142.31
450.442	119.31
450.662	139.31
450.883	129.31
451.104	121.31
451.324	134.31
451.545	129.31
451.766	124.31
451.986	119.31
452.207	118.31
452.428	124.31
452.648	127.31
452.869	118.31
453.089	117.31
453.31	109.31
453.53	100.31
453.751	99.31
453.971	110.31
454.192	102.31
454.412	113.31
454.633	115.31
454.853	123.31
455.073	126.31
455.294	130.31
455.514	106.31
455.734	118.31
455.955	112.31
456.175	111.31
456.395	123.31
456.616	106.31
456.836	115.31
457.056	117.31
457.276	105.31
457.497	101.31
457.717	110.31
457.937	104.31
458.157	114.31
458.377	117.31
458.598	115.31
458.818	96.31
459.038	97.31
459.258	92.31
459.478	102.31
459.698	94.31
459.918	102.31
460.138	102.31
460.358	117.31
460.578	118.31
460.798	114.31
461.018	108.31
461.238	105.31
461.458	117.31
461.678	110.31
461.898	109.31
462.118	124.31
462.338	117.31
462.558	110.31
462.777	113.31
462.997	113.31
463.217	113.31
463.437	119.31
463.657	107.31
463.876	107.31
464.096	123.31
464.316	109.31
464.536	104.31
464.755	121.31
464.975	117.31
465.195	115.31
465.414	110.31
465.634	112.31
465.854	117.31
466.073	119.31
466.293	138.31
466.512	101.31
466.732	119.31
466.951	126.31
467.171	129.31
467.391	125.31
467.61	131.31
467.829	140.31
468.049	151.31
468.268	146.31
468.488	132.31
468.707	149.31
468.927	135.31
469.146	138.31
469.365	124.31
469.585	159.31
469.804	132.31
470.023	138.31
470.243	147.31
470.462	150.31
470.681	134.31
470.901	148.31
471.12	127.31
471.339	140.31
471.558	147.31
471.777	141.31
471.997	134.31
472.216	115.31
472.435	114.31
472.654	118.31
472.873	111.31
473.092	133.31
473.311	115.31
473.53	99.31
473.749	121.31
473.968	129.31
474.187	127.31
474.406	123.31
474.625	132.31
474.844	133.31
475.063	136.31
475.282	137.31
475.501	126.31
475.72	105.31
475.939	114.31
476.158	120.31
476.377	136.31
476.596	122.31
476.814	119.31
477.033	109.31
477.252	116.31
477.471	123.31
477.69	135.31
477.908	135.31
478.127	131.31
478.346	141.31
478.564	127.31
478.783	134.31
479.002	133.31
479.22	134.31
479.439	124.31
479.658	127.31
479.876	108.31
480.095	106.31
480.313	126.31
480.532	110.31
480.751	128.31
480.969	106.31
481.188	110.31
481.406	88.31
481.624	106.31
481.843	91.31
482.061	115.31
482.28	125.31
482.498	111.31
482.717	106.31
482.935	118.31
483.153	147.31
483.372	139.31
483.59	151.31
483.808	147.31
484.027	129.31
484.245	136.31
484.463	141.31
484.681	155.31
484.9	141.31
485.118	134.31
485.336	128.31
485.554	120.31
485.772	112.31
485.99	106.31
486.209	121.31
486.427	108.31
486.645	125.31
486.863	129.31
487.081	136.31
487.299	140.31
487.517	149.31
487.735	181.31
487.953	182.31
488.171	186.31
488.389	170.31
488.607	178.31
488.825	139.31
489.043	145.31
489.261	139.31
489.479	139.31
489.696	132.31
489.914	156.31
490.132	162.31
490.35	139.31
490.568	168.31
490.786	165.31
491.003	178.31
491.221	179.31
491.439	192.31
491.657	187.31
491.874	196.31
492.092	214.31
492.31	222.31
492.527	220.31
492.745	207.31
492.963	209.31
493.18	186.31
493.398	178.31
493.615	159.31
493.833	179.31
494.05	180.31
494.268	174.31
494.485	179.31
494.703	185.31
494.92	162.31
495.138	158.31
495.355	178.31
495.573	173.31
495.79	166.31
496.008	178.31
496.225	160.31
496.442	170.31
496.66	155.31
496.877	166.31
497.094	157.31
497.312	167.31
497.529	158.31
497.746	150.31
497.963	131.31
498.181	131.31
498.398	127.31
498.615	127.31
498.832	128.31
499.049	115.31
499.267	126.31
499.484	115.31
499.701	127.31
499.918	125.31
500.135	138.31
500.352	142.31
500.569	150.31
500.786	130.31
501.003	140.31
501.22	152.31
501.437	134.31
501.654	137.31
501.871	137.31
502.088	128.31
502.305	136.31
502.522	129.31
502.739	139.31
502.956	131.31
503.172	122.31
503.389	133.31
503.606	129.31
503.823	133.31
504.04	119.31
504.256	119.31
504.473	128.31
504.69	131.31
504.907	127.31
505.123	132.31
505.34	133.31
505.557	128.31
505.773	117.31
505.99	121.31
506.207	123.31
506.423	134.31
506.64	125.31
506.856	116.31
507.073	110.31
507.289	129.31
507.506	127.31
507.722	120.31
507.939	109.31
508.155	113.31
508.372	110.31
508.588	122.31
508.805	111.31
509.021	101.31
509.238	103.31
509.454	103.31
509.67	105.31
509.887	89.31
510.103	108.31
510.319	103.31
510.536	100.31
510.752	97.31
510.968	78.31
511.184	90.31
