Data from Location4.07152019.Energy5.Lamp.07192019.3%Agarose_HRD10591_16-19-02-927.txt Node
Date: Fri Jul 19 16:19:02 EDT 2019
User: cochatt
Spectrometer: HR+D1059
Trigger mode: 1
Integration Time (sec): 1.000000E-1
Scans to average: 1
Electric dark correction enabled: true
Nonlinearity correction enabled: false
Boxcar width: 0
XAxis mode: Wavelengths
Number of Pixels in Spectrum: 2048
>>>>>Begin Spectral Data<<<<<
223.165	-13.06
223.4	-13.06
223.635	-13.06
223.869	-22.06
224.104	-28.06
224.338	-17.06
224.573	-19.06
224.808	-3.06
225.042	-8.06
225.277	-14.06
225.511	-2.06
225.746	20.94
225.98	-8.06
226.215	14.94
226.449	4.94
226.683	34.94
226.918	29.94
227.152	28.94
227.387	34.94
227.621	55.94
227.856	26.94
228.09	43.94
228.324	60.94
228.559	56.94
228.793	57.94
229.027	73.94
229.262	59.94
229.496	70.94
229.73	68.94
229.964	84.94
230.199	70.94
230.433	82.94
230.667	76.94
230.901	66.94
231.136	74.94
231.37	70.94
231.604	70.94
231.838	81.94
232.072	86.94
232.306	89.94
232.541	74.94
232.775	65.94
233.009	93.94
233.243	71.94
233.477	77.94
233.711	78.94
233.945	78.94
234.179	85.94
234.413	81.94
234.647	74.94
234.881	81.94
235.115	72.94
235.349	88.94
235.583	76.94
235.817	70.94
236.051	71.94
236.285	81.94
236.519	75.94
236.753	79.94
236.987	85.94
237.221	72.94
237.455	70.94
237.689	80.94
237.922	65.94
238.156	64.94
238.39	74.94
238.624	71.94
238.858	70.94
239.091	84.94
239.325	61.94
239.559	80.94
239.793	74.94
240.027	77.94
240.26	65.94
240.494	88.94
240.728	56.94
240.961	67.94
241.195	85.94
241.429	72.94
241.662	63.94
241.896	81.94
242.13	69.94
242.363	83.94
242.597	77.94
242.83	86.94
243.064	74.94
243.298	71.94
243.531	78.94
243.765	72.94
243.998	78.94
244.232	76.94
244.465	86.94
244.699	86.94
244.932	75.94
245.166	72.94
245.399	75.94
245.633	76.94
245.866	74.94
246.099	72.94
246.333	62.94
246.566	59.94
246.8	78.94
247.033	78.94
247.266	71.94
247.5	78.94
247.733	82.94
247.966	76.94
248.2	83.94
248.433	86.94
248.666	78.94
248.899	77.94
249.133	74.94
249.366	78.94
249.599	85.94
249.832	88.94
250.066	92.94
250.299	79.94
250.532	69.94
250.765	77.94
250.998	84.94
251.231	87.94
251.465	72.94
251.698	91.94
251.931	76.94
252.164	71.94
252.397	90.94
252.63	69.94
252.863	66.94
253.096	74.94
253.329	81.94
253.562	84.94
253.795	79.94
254.028	91.94
254.261	93.94
254.494	76.94
254.727	89.94
254.96	80.94
255.193	89.94
255.426	70.94
255.659	71.94
255.892	89.94
256.124	86.94
256.357	89.94
256.59	91.94
256.823	76.94
257.056	73.94
257.289	70.94
257.521	97.94
257.754	78.94
257.987	73.94
258.22	77.94
258.452	89.94
258.685	72.94
258.918	88.94
259.151	74.94
259.383	81.94
259.616	79.94
259.849	77.94
260.081	86.94
260.314	75.94
260.547	80.94
260.779	82.94
261.012	85.94
261.244	76.94
261.477	81.94
261.71	77.94
261.942	82.94
262.175	82.94
262.407	78.94
262.64	94.94
262.872	82.94
263.105	73.94
263.337	68.94
263.57	86.94
263.802	71.94
264.035	75.94
264.267	72.94
264.499	74.94
264.732	96.94
264.964	86.94
265.197	93.94
265.429	79.94
265.661	78.94
265.894	82.94
266.126	83.94
266.358	77.94
266.591	85.94
266.823	78.94
267.055	76.94
267.287	96.94
267.52	96.94
267.752	70.94
267.984	81.94
268.216	79.94
268.448	83.94
268.681	92.94
268.913	86.94
269.145	83.94
269.377	89.94
269.609	85.94
269.841	58.94
270.073	77.94
270.306	79.94
270.538	79.94
270.77	85.94
271.002	66.94
271.234	78.94
271.466	97.94
271.698	97.94
271.93	86.94
272.162	71.94
272.394	72.94
272.626	67.94
272.858	76.94
273.09	77.94
273.322	84.94
273.553	79.94
273.785	81.94
274.017	90.94
274.249	84.94
274.481	84.94
274.713	90.94
274.945	79.94
275.176	77.94
275.408	83.94
275.64	85.94
275.872	93.94
276.104	84.94
276.335	71.94
276.567	80.94
276.799	81.94
277.031	93.94
277.262	84.94
277.494	68.94
277.726	90.94
277.957	82.94
278.189	94.94
278.421	82.94
278.652	84.94
278.884	68.94
279.115	73.94
279.347	78.94
279.579	80.94
279.81	73.94
280.042	90.94
280.273	80.94
280.505	76.94
280.736	65.94
280.968	80.94
281.199	86.94
281.431	72.94
281.662	71.94
281.894	68.94
282.125	82.94
282.356	75.94
282.588	69.94
282.819	86.94
283.051	84.94
283.282	72.94
283.513	103.94
283.745	70.94
283.976	79.94
284.207	76.94
284.439	84.94
284.67	77.94
284.901	79.94
285.132	85.94
285.364	86.94
285.595	78.94
285.826	67.94
286.057	92.94
286.288	82.94
286.52	85.94
286.751	91.94
286.982	104.94
287.213	83.94
287.444	76.94
287.675	88.94
287.906	89.94
288.138	89.94
288.369	93.94
288.6	73.94
288.831	86.94
289.062	92.94
289.293	99.94
289.524	84.94
289.755	77.94
289.986	72.94
290.217	102.94
290.448	82.94
290.679	61.94
290.91	80.94
291.141	62.94
291.371	77.94
291.602	84.94
291.833	81.94
292.064	86.94
292.295	91.94
292.526	74.94
292.757	86.94
292.987	77.94
293.218	74.94
293.449	76.94
293.68	93.94
293.91	86.94
294.141	86.94
294.372	86.94
294.603	90.94
294.833	75.94
295.064	86.94
295.295	92.94
295.525	88.94
295.756	72.94
295.987	72.94
296.217	85.94
296.448	85.94
296.679	64.94
296.909	93.94
297.14	97.94
297.37	94.94
297.601	90.94
297.831	78.94
298.062	84.94
298.292	80.94
298.523	91.94
298.753	79.94
298.984	85.94
299.214	77.94
299.445	101.94
299.675	90.94
299.905	79.94
300.136	74.94
300.366	78.94
300.597	82.94
300.827	91.94
301.057	85.94
301.288	92.94
301.518	87.94
301.748	82.94
301.979	83.94
302.209	80.94
302.439	77.94
302.669	75.94
302.9	102.94
303.13	89.94
303.36	91.94
303.59	86.94
303.82	84.94
304.051	99.94
304.281	93.94
304.511	86.94
304.741	75.94
304.971	85.94
305.201	88.94
305.431	71.94
305.661	84.94
305.891	79.94
306.121	97.94
306.352	84.94
306.582	72.94
306.812	88.94
307.042	72.94
307.272	77.94
307.502	92.94
307.731	85.94
307.961	82.94
308.191	75.94
308.421	85.94
308.651	93.94
308.881	100.94
309.111	77.94
309.341	89.94
309.571	90.94
309.8	88.94
310.03	101.94
310.26	78.94
310.49	77.94
310.72	82.94
310.949	90.94
311.179	89.94
311.409	95.94
311.639	90.94
311.868	83.94
312.098	85.94
312.328	97.94
312.557	88.94
312.787	77.94
313.017	89.94
313.246	87.94
313.476	76.94
313.706	60.94
313.935	73.94
314.165	87.94
314.394	91.94
314.624	108.94
314.853	96.94
315.083	83.94
315.312	89.94
315.542	96.94
315.771	91.94
316.001	93.94
316.23	87.94
316.46	85.94
316.689	82.94
316.919	82.94
317.148	88.94
317.377	83.94
317.607	82.94
317.836	97.94
318.065	76.94
318.295	96.94
318.524	93.94
318.753	79.94
318.983	86.94
319.212	99.94
319.441	95.94
319.67	96.94
319.9	89.94
320.129	78.94
320.358	79.94
320.587	83.94
320.816	82.94
321.046	86.94
321.275	86.94
321.504	101.94
321.733	82.94
321.962	71.94
322.191	71.94
322.42	74.94
322.649	83.94
322.878	68.94
323.108	93.94
323.337	77.94
323.566	84.94
323.795	94.94
324.024	80.94
324.253	77.94
324.482	78.94
324.71	83.94
324.939	86.94
325.168	84.94
325.397	80.94
325.626	80.94
325.855	83.94
326.084	85.94
326.313	84.94
326.542	93.94
326.77	76.94
326.999	89.94
327.228	88.94
327.457	89.94
327.686	81.94
327.914	80.94
328.143	79.94
328.372	85.94
328.6	84.94
328.829	85.94
329.058	89.94
329.287	85.94
329.515	82.94
329.744	102.94
329.972	86.94
330.201	76.94
330.43	92.94
330.658	98.94
330.887	76.94
331.115	94.94
331.344	86.94
331.572	93.94
331.801	72.94
332.03	78.94
332.258	87.94
332.486	88.94
332.715	86.94
332.943	88.94
333.172	91.94
333.4	63.94
333.629	81.94
333.857	78.94
334.085	103.94
334.314	81.94
334.542	92.94
334.771	88.94
334.999	89.94
335.227	78.94
335.455	91.94
335.684	83.94
335.912	83.94
336.14	92.94
336.369	94.94
336.597	94.94
336.825	92.94
337.053	77.94
337.281	87.94
337.51	87.94
337.738	82.94
337.966	86.94
338.194	81.94
338.422	89.94
338.65	76.94
338.878	78.94
339.106	93.94
339.334	81.94
339.562	72.94
339.79	77.94
340.018	93.94
340.246	81.94
340.474	77.94
340.702	91.94
340.93	93.94
341.158	88.94
341.386	96.94
341.614	86.94
341.842	80.94
342.07	95.94
342.298	101.94
342.526	84.94
342.754	87.94
342.981	80.94
343.209	82.94
343.437	78.94
343.665	91.94
343.893	83.94
344.12	82.94
344.348	88.94
344.576	88.94
344.804	90.94
345.031	100.94
345.259	78.94
345.487	84.94
345.714	80.94
345.942	84.94
346.17	88.94
346.397	89.94
346.625	82.94
346.853	87.94
347.08	84.94
347.308	88.94
347.535	83.94
347.763	94.94
347.99	85.94
348.218	85.94
348.445	89.94
348.673	83.94
348.9	93.94
349.128	85.94
349.355	92.94
349.583	91.94
349.81	75.94
350.037	82.94
350.265	77.94
350.492	72.94
350.72	73.94
350.947	77.94
351.174	83.94
351.402	81.94
351.629	85.94
351.856	73.94
352.083	69.94
352.311	84.94
352.538	88.94
352.765	85.94
352.992	81.94
353.22	88.94
353.447	84.94
353.674	77.94
353.901	97.94
354.128	82.94
354.355	80.94
354.583	88.94
354.81	72.94
355.037	93.94
355.264	85.94
355.491	82.94
355.718	81.94
355.945	85.94
356.172	95.94
356.399	84.94
356.626	82.94
356.853	85.94
357.08	73.94
357.307	82.94
357.534	87.94
357.761	77.94
357.988	85.94
358.215	80.94
358.441	84.94
358.668	81.94
358.895	89.94
359.122	85.94
359.349	84.94
359.576	81.94
359.802	71.94
360.029	86.94
360.256	92.94
360.483	96.94
360.709	88.94
360.936	87.94
361.163	75.94
361.39	83.94
361.616	75.94
361.843	83.94
362.07	77.94
362.296	78.94
362.523	84.94
362.749	82.94
362.976	85.94
363.203	85.94
363.429	76.94
363.656	71.94
363.882	77.94
364.109	79.94
364.335	93.94
364.562	94.94
364.788	69.94
365.015	80.94
365.241	82.94
365.468	77.94
365.694	80.94
365.92	79.94
366.147	88.94
366.373	83.94
366.599	72.94
366.826	93.94
367.052	104.94
367.278	88.94
367.505	74.94
367.731	87.94
367.957	88.94
368.184	90.94
368.41	94.94
368.636	84.94
368.862	86.94
369.089	93.94
369.315	77.94
369.541	86.94
369.767	87.94
369.993	80.94
370.219	77.94
370.445	88.94
370.672	104.94
370.898	81.94
371.124	92.94
371.35	94.94
371.576	109.94
371.802	98.94
372.028	86.94
372.254	101.94
372.48	63.94
372.706	74.94
372.932	88.94
373.158	104.94
373.384	92.94
373.61	83.94
373.835	89.94
374.061	81.94
374.287	87.94
374.513	82.94
374.739	99.94
374.965	78.94
375.191	95.94
375.416	95.94
375.642	93.94
375.868	94.94
376.094	102.94
376.319	98.94
376.545	92.94
376.771	93.94
376.997	103.94
377.222	103.94
377.448	85.94
377.674	95.94
377.899	92.94
378.125	94.94
378.35	80.94
378.576	92.94
378.802	98.94
379.027	94.94
379.253	110.94
379.478	86.94
379.704	90.94
379.929	104.94
380.155	94.94
380.38	89.94
380.606	90.94
380.831	82.94
381.057	94.94
381.282	93.94
381.507	96.94
381.733	105.94
381.958	95.94
382.184	107.94
382.409	85.94
382.634	99.94
382.86	91.94
383.085	106.94
383.31	90.94
383.535	83.94
383.761	93.94
383.986	113.94
384.211	96.94
384.436	91.94
384.662	87.94
384.887	92.94
385.112	94.94
385.337	84.94
385.562	101.94
385.787	97.94
386.013	103.94
386.238	83.94
386.463	93.94
386.688	94.94
386.913	92.94
387.138	96.94
387.363	98.94
387.588	94.94
387.813	113.94
388.038	86.94
388.263	101.94
388.488	97.94
388.713	99.94
388.938	99.94
389.163	81.94
389.387	97.94
389.612	93.94
389.837	98.94
390.062	96.94
390.287	99.94
390.512	89.94
390.736	112.94
390.961	106.94
391.186	96.94
391.411	90.94
391.636	86.94
391.86	107.94
392.085	100.94
392.31	105.94
392.534	113.94
392.759	102.94
392.984	109.94
393.208	99.94
393.433	92.94
393.658	104.94
393.882	98.94
394.107	115.94
394.331	111.94
394.556	110.94
394.78	107.94
395.005	116.94
395.229	116.94
395.454	113.94
395.678	102.94
395.903	115.94
396.127	113.94
396.352	113.94
396.576	104.94
396.801	103.94
397.025	107.94
397.249	94.94
397.474	89.94
397.698	106.94
397.922	98.94
398.147	112.94
398.371	100.94
398.595	122.94
398.82	118.94
399.044	106.94
399.268	107.94
399.492	106.94
399.717	114.94
399.941	103.94
400.165	118.94
400.389	124.94
400.613	113.94
400.837	112.94
401.062	118.94
401.286	107.94
401.51	116.94
401.734	116.94
401.958	122.94
402.182	92.94
402.406	116.94
402.63	103.94
402.854	135.94
403.078	121.94
403.302	119.94
403.526	106.94
403.75	105.94
403.974	108.94
404.198	120.94
404.422	114.94
404.645	99.94
404.869	113.94
405.093	123.94
405.317	120.94
405.541	115.94
405.765	108.94
405.988	114.94
406.212	108.94
406.436	110.94
406.66	112.94
406.883	110.94
407.107	118.94
407.331	105.94
407.555	96.94
407.778	113.94
408.002	114.94
408.226	118.94
408.449	126.94
408.673	119.94
408.896	126.94
409.12	130.94
409.344	115.94
409.567	118.94
409.791	112.94
410.014	116.94
410.238	117.94
410.461	121.94
410.685	130.94
410.908	108.94
411.132	124.94
411.355	121.94
411.578	127.94
411.802	102.94
412.025	102.94
412.249	133.94
412.472	114.94
412.695	116.94
412.919	123.94
413.142	131.94
413.365	118.94
413.589	130.94
413.812	113.94
414.035	117.94
414.258	131.94
414.482	123.94
414.705	124.94
414.928	118.94
415.151	127.94
415.374	123.94
415.597	129.94
415.821	110.94
416.044	126.94
416.267	126.94
416.49	126.94
416.713	129.94
416.936	135.94
417.159	112.94
417.382	125.94
417.605	126.94
417.828	124.94
418.051	128.94
418.274	126.94
418.497	130.94
418.72	135.94
418.943	120.94
419.166	134.94
419.389	124.94
419.611	127.94
419.834	121.94
420.057	137.94
420.28	127.94
420.503	120.94
420.726	130.94
420.948	130.94
421.171	125.94
421.394	119.94
421.617	130.94
421.839	130.94
422.062	142.94
422.285	143.94
422.507	125.94
422.73	122.94
422.953	132.94
423.175	128.94
423.398	125.94
423.621	133.94
423.843	123.94
424.066	123.94
424.288	138.94
424.511	131.94
424.733	140.94
424.956	148.94
425.178	127.94
425.401	124.94
425.623	132.94
425.846	140.94
426.068	137.94
426.291	133.94
426.513	114.94
426.735	111.94
426.958	121.94
427.18	114.94
427.402	126.94
427.625	113.94
427.847	125.94
428.069	137.94
428.292	132.94
428.514	135.94
428.736	137.94
428.958	122.94
429.181	123.94
429.403	122.94
429.625	132.94
429.847	125.94
430.069	130.94
430.292	135.94
430.514	113.94
430.736	125.94
430.958	126.94
431.18	125.94
431.402	132.94
431.624	112.94
431.846	110.94
432.068	94.94
432.29	116.94
432.512	112.94
432.734	120.94
432.956	131.94
433.178	146.94
433.4	140.94
433.622	116.94
433.844	145.94
434.066	122.94
434.287	116.94
434.509	82.94
434.731	91.94
434.953	97.94
435.175	123.94
435.397	110.94
435.618	130.94
435.84	123.94
436.062	112.94
436.284	112.94
436.505	134.94
436.727	122.94
436.949	117.94
437.17	130.94
437.392	140.94
437.614	132.94
437.835	121.94
438.057	98.94
438.278	111.94
438.5	119.94
438.721	121.94
438.943	130.94
439.165	149.94
439.386	150.94
439.608	142.94
439.829	152.94
440.05	145.94
440.272	140.94
440.493	141.94
440.715	138.94
440.936	141.94
441.158	140.94
441.379	144.94
441.6	148.94
441.822	154.94
442.043	146.94
442.264	143.94
442.486	138.94
442.707	141.94
442.928	137.94
443.149	146.94
443.371	139.94
443.592	120.94
443.813	139.94
444.034	139.94
444.255	146.94
444.476	138.94
444.698	146.94
444.919	138.94
445.14	258.94
445.361	197.94
445.582	148.94
445.803	145.94
446.024	147.94
446.245	127.94
446.466	154.94
446.687	144.94
446.908	166.94
447.129	157.94
447.35	142.94
447.571	147.94
447.792	140.94
448.013	132.94
448.234	157.94
448.455	128.94
448.675	148.94
448.896	140.94
449.117	121.94
449.338	138.94
449.559	129.94
449.779	128.94
450	129.94
450.221	142.94
450.442	149.94
450.662	120.94
450.883	133.94
451.104	123.94
451.324	134.94
451.545	138.94
451.766	115.94
451.986	130.94
452.207	128.94
452.428	135.94
452.648	116.94
452.869	126.94
453.089	115.94
453.31	113.94
453.53	121.94
453.751	109.94
453.971	106.94
454.192	99.94
454.412	95.94
454.633	121.94
454.853	109.94
455.073	132.94
455.294	118.94
455.514	114.94
455.734	120.94
455.955	108.94
456.175	109.94
456.395	117.94
456.616	105.94
456.836	108.94
457.056	102.94
457.276	117.94
457.497	118.94
457.717	115.94
457.937	106.94
458.157	114.94
458.377	102.94
458.598	105.94
458.818	103.94
459.038	95.94
459.258	91.94
459.478	96.94
459.698	93.94
459.918	97.94
460.138	102.94
460.358	103.94
460.578	111.94
460.798	105.94
461.018	112.94
461.238	92.94
461.458	113.94
461.678	103.94
461.898	112.94
462.118	110.94
462.338	120.94
462.558	118.94
462.777	123.94
462.997	124.94
463.217	119.94
463.437	113.94
463.657	115.94
463.876	109.94
464.096	132.94
464.316	108.94
464.536	106.94
464.755	124.94
464.975	114.94
465.195	128.94
465.414	118.94
465.634	120.94
465.854	107.94
466.073	122.94
466.293	130.94
466.512	137.94
466.732	116.94
466.951	139.94
467.171	134.94
467.391	131.94
467.61	129.94
467.829	126.94
468.049	137.94
468.268	128.94
468.488	127.94
468.707	134.94
468.927	133.94
469.146	140.94
469.365	136.94
469.585	113.94
469.804	132.94
470.023	143.94
470.243	136.94
470.462	128.94
470.681	138.94
470.901	143.94
471.12	151.94
471.339	145.94
471.558	117.94
471.777	132.94
471.997	138.94
472.216	119.94
472.435	127.94
472.654	101.94
472.873	101.94
473.092	131.94
473.311	118.94
473.53	118.94
473.749	139.94
473.968	121.94
474.187	120.94
474.406	115.94
474.625	118.94
474.844	133.94
475.063	122.94
475.282	122.94
475.501	115.94
475.72	122.94
475.939	122.94
476.158	137.94
476.377	124.94
476.596	133.94
476.814	111.94
477.033	107.94
477.252	113.94
477.471	135.94
477.69	133.94
477.908	137.94
478.127	156.94
478.346	154.94
478.564	144.94
478.783	128.94
479.002	137.94
479.22	141.94
479.439	138.94
479.658	124.94
479.876	110.94
480.095	97.94
480.313	117.94
480.532	116.94
480.751	96.94
480.969	74.94
481.188	93.94
481.406	102.94
481.624	96.94
481.843	76.94
482.061	96.94
482.28	114.94
482.498	108.94
482.717	117.94
482.935	131.94
483.153	144.94
483.372	150.94
483.59	173.94
483.808	146.94
484.027	132.94
484.245	118.94
484.463	146.94
484.681	160.94
484.9	139.94
485.118	126.94
485.336	120.94
485.554	117.94
485.772	107.94
485.99	102.94
486.209	110.94
486.427	92.94
486.645	123.94
486.863	146.94
487.081	146.94
487.299	118.94
487.517	125.94
487.735	157.94
487.953	188.94
488.171	180.94
488.389	197.94
488.607	156.94
488.825	152.94
489.043	132.94
489.261	132.94
489.479	131.94
489.696	154.94
489.914	136.94
490.132	139.94
490.35	137.94
490.568	168.94
490.786	152.94
491.003	176.94
491.221	184.94
491.439	188.94
491.657	179.94
491.874	201.94
492.092	231.94
492.31	246.94
492.527	229.94
492.745	214.94
492.963	199.94
493.18	188.94
493.398	174.94
493.615	170.94
493.833	175.94
494.05	177.94
494.268	170.94
494.485	158.94
494.703	156.94
494.92	176.94
495.138	186.94
495.355	188.94
495.573	178.94
495.79	144.94
496.008	158.94
496.225	158.94
496.442	144.94
496.66	168.94
496.877	167.94
497.094	164.94
497.312	150.94
497.529	162.94
497.746	136.94
497.963	152.94
498.181	125.94
498.398	128.94
498.615	113.94
498.832	122.94
499.049	116.94
499.267	122.94
499.484	116.94
499.701	129.94
499.918	129.94
500.135	134.94
500.352	143.94
500.569	140.94
500.786	149.94
501.003	136.94
501.22	136.94
501.437	141.94
501.654	134.94
501.871	122.94
502.088	132.94
502.305	139.94
502.522	148.94
502.739	130.94
502.956	130.94
503.172	133.94
503.389	115.94
503.606	116.94
503.823	105.94
504.04	126.94
504.256	120.94
504.473	124.94
504.69	129.94
504.907	122.94
505.123	114.94
505.34	116.94
505.557	115.94
505.773	132.94
505.99	124.94
506.207	137.94
506.423	128.94
506.64	115.94
506.856	127.94
507.073	109.94
507.289	128.94
507.506	122.94
507.722	116.94
507.939	117.94
508.155	104.94
508.372	103.94
508.588	102.94
508.805	117.94
509.021	99.94
509.238	99.94
509.454	89.94
509.67	87.94
509.887	110.94
510.103	99.94
510.319	94.94
510.536	89.94
510.752	84.94
510.968	93.94
511.184	85.94
511.401	86.94
511.617	86.94
511.833	91.94
