Data from Location4.07152019.Energy5.Lamp.07192019.3%Agarose_HRD10591_16-19-39-926.txt Node
Date: Fri Jul 19 16:19:39 EDT 2019
User: cochatt
Spectrometer: HR+D1059
Trigger mode: 1
Integration Time (sec): 1.000000E-1
Scans to average: 1
Electric dark correction enabled: true
Nonlinearity correction enabled: false
Boxcar width: 0
XAxis mode: Wavelengths
Number of Pixels in Spectrum: 2048
>>>>>Begin Spectral Data<<<<<
223.165	-5.25
223.4	-5.25
223.635	-5.25
223.869	-12.25
224.104	-13.25
224.338	-4.25
224.573	-16.25
224.808	-12.25
225.042	-8.25
225.277	-17.25
225.511	-3.25
225.746	-1.25
225.98	1.75
226.215	9.75
226.449	19.75
226.683	17.75
226.918	25.75
227.152	18.75
227.387	37.75
227.621	28.75
227.856	56.75
228.09	53.75
228.324	41.75
228.559	43.75
228.793	59.75
229.027	51.75
229.262	61.75
229.496	58.75
229.73	55.75
229.964	69.75
230.199	71.75
230.433	80.75
230.667	80.75
230.901	86.75
231.136	86.75
231.37	67.75
231.604	79.75
231.838	74.75
232.072	87.75
232.306	68.75
232.541	90.75
232.775	81.75
233.009	79.75
233.243	84.75
233.477	79.75
233.711	90.75
233.945	81.75
234.179	87.75
234.413	75.75
234.647	73.75
234.881	73.75
235.115	70.75
235.349	79.75
235.583	88.75
235.817	85.75
236.051	75.75
236.285	68.75
236.519	93.75
236.753	79.75
236.987	82.75
237.221	90.75
237.455	80.75
237.689	70.75
237.922	79.75
238.156	85.75
238.39	67.75
238.624	72.75
238.858	73.75
239.091	77.75
239.325	74.75
239.559	80.75
239.793	75.75
240.027	79.75
240.26	72.75
240.494	62.75
240.728	79.75
240.961	71.75
241.195	69.75
241.429	81.75
241.662	66.75
241.896	84.75
242.13	69.75
242.363	88.75
242.597	86.75
242.83	80.75
243.064	76.75
243.298	66.75
243.531	78.75
243.765	73.75
243.998	85.75
244.232	82.75
244.465	76.75
244.699	83.75
244.932	67.75
245.166	74.75
245.399	74.75
245.633	83.75
245.866	91.75
246.099	75.75
246.333	75.75
246.566	73.75
246.8	73.75
247.033	74.75
247.266	71.75
247.5	56.75
247.733	70.75
247.966	82.75
248.2	79.75
248.433	79.75
248.666	74.75
248.899	75.75
249.133	90.75
249.366	73.75
249.599	82.75
249.832	69.75
250.066	90.75
250.299	81.75
250.532	74.75
250.765	78.75
250.998	76.75
251.231	70.75
251.465	86.75
251.698	85.75
251.931	76.75
252.164	69.75
252.397	71.75
252.63	74.75
252.863	86.75
253.096	84.75
253.329	65.75
253.562	74.75
253.795	97.75
254.028	70.75
254.261	73.75
254.494	86.75
254.727	92.75
254.96	86.75
255.193	88.75
255.426	65.75
255.659	90.75
255.892	90.75
256.124	78.75
256.357	87.75
256.59	76.75
256.823	82.75
257.056	73.75
257.289	77.75
257.521	70.75
257.754	80.75
257.987	69.75
258.22	85.75
258.452	68.75
258.685	65.75
258.918	74.75
259.151	70.75
259.383	69.75
259.616	81.75
259.849	79.75
260.081	71.75
260.314	79.75
260.547	74.75
260.779	86.75
261.012	83.75
261.244	67.75
261.477	86.75
261.71	75.75
261.942	73.75
262.175	87.75
262.407	84.75
262.64	94.75
262.872	68.75
263.105	70.75
263.337	77.75
263.57	76.75
263.802	82.75
264.035	90.75
264.267	79.75
264.499	86.75
264.732	78.75
264.964	80.75
265.197	92.75
265.429	67.75
265.661	68.75
265.894	69.75
266.126	80.75
266.358	81.75
266.591	87.75
266.823	77.75
267.055	84.75
267.287	82.75
267.52	86.75
267.752	69.75
267.984	100.75
268.216	72.75
268.448	73.75
268.681	75.75
268.913	80.75
269.145	77.75
269.377	73.75
269.609	83.75
269.841	73.75
270.073	76.75
270.306	78.75
270.538	88.75
270.77	79.75
271.002	76.75
271.234	88.75
271.466	101.75
271.698	85.75
271.93	91.75
272.162	74.75
272.394	88.75
272.626	86.75
272.858	86.75
273.09	88.75
273.322	78.75
273.553	76.75
273.785	90.75
274.017	94.75
274.249	81.75
274.481	86.75
274.713	81.75
274.945	88.75
275.176	78.75
275.408	74.75
275.64	90.75
275.872	87.75
276.104	92.75
276.335	80.75
276.567	76.75
276.799	95.75
277.031	68.75
277.262	97.75
277.494	90.75
277.726	83.75
277.957	89.75
278.189	82.75
278.421	86.75
278.652	72.75
278.884	82.75
279.115	87.75
279.347	94.75
279.579	83.75
279.81	73.75
280.042	72.75
280.273	70.75
280.505	88.75
280.736	84.75
280.968	83.75
281.199	87.75
281.431	94.75
281.662	81.75
281.894	70.75
282.125	79.75
282.356	83.75
282.588	80.75
282.819	75.75
283.051	83.75
283.282	76.75
283.513	86.75
283.745	79.75
283.976	70.75
284.207	75.75
284.439	77.75
284.67	74.75
284.901	72.75
285.132	76.75
285.364	85.75
285.595	82.75
285.826	81.75
286.057	78.75
286.288	82.75
286.52	74.75
286.751	72.75
286.982	76.75
287.213	82.75
287.444	84.75
287.675	75.75
287.906	82.75
288.138	78.75
288.369	86.75
288.6	87.75
288.831	85.75
289.062	96.75
289.293	89.75
289.524	70.75
289.755	64.75
289.986	85.75
290.217	85.75
290.448	84.75
290.679	76.75
290.91	86.75
291.141	77.75
291.371	80.75
291.602	80.75
291.833	71.75
292.064	86.75
292.295	89.75
292.526	88.75
292.757	88.75
292.987	84.75
293.218	96.75
293.449	82.75
293.68	80.75
293.91	68.75
294.141	75.75
294.372	88.75
294.603	95.75
294.833	90.75
295.064	79.75
295.295	90.75
295.525	79.75
295.756	70.75
295.987	78.75
296.217	83.75
296.448	83.75
296.679	86.75
296.909	88.75
297.14	78.75
297.37	88.75
297.601	91.75
297.831	84.75
298.062	95.75
298.292	82.75
298.523	89.75
298.753	75.75
298.984	71.75
299.214	79.75
299.445	95.75
299.675	80.75
299.905	74.75
300.136	65.75
300.366	83.75
300.597	82.75
300.827	76.75
301.057	72.75
301.288	70.75
301.518	90.75
301.748	85.75
301.979	97.75
302.209	79.75
302.439	77.75
302.669	86.75
302.9	83.75
303.13	78.75
303.36	79.75
303.59	95.75
303.82	90.75
304.051	80.75
304.281	99.75
304.511	86.75
304.741	99.75
304.971	84.75
305.201	81.75
305.431	80.75
305.661	92.75
305.891	86.75
306.121	82.75
306.352	92.75
306.582	83.75
306.812	70.75
307.042	87.75
307.272	89.75
307.502	75.75
307.731	87.75
307.961	91.75
308.191	77.75
308.421	76.75
308.651	82.75
308.881	83.75
309.111	93.75
309.341	92.75
309.571	80.75
309.8	88.75
310.03	72.75
310.26	73.75
310.49	85.75
310.72	73.75
310.949	82.75
311.179	94.75
311.409	94.75
311.639	69.75
311.868	72.75
312.098	83.75
312.328	97.75
312.557	88.75
312.787	82.75
313.017	83.75
313.246	83.75
313.476	80.75
313.706	66.75
313.935	68.75
314.165	72.75
314.394	77.75
314.624	69.75
314.853	83.75
315.083	81.75
315.312	92.75
315.542	85.75
315.771	81.75
316.001	84.75
316.23	101.75
316.46	79.75
316.689	76.75
316.919	87.75
317.148	86.75
317.377	83.75
317.607	101.75
317.836	93.75
318.065	73.75
318.295	70.75
318.524	52.75
318.753	86.75
318.983	81.75
319.212	85.75
319.441	89.75
319.67	76.75
319.9	80.75
320.129	72.75
320.358	86.75
320.587	77.75
320.816	83.75
321.046	82.75
321.275	68.75
321.504	73.75
321.733	80.75
321.962	88.75
322.191	73.75
322.42	73.75
322.649	91.75
322.878	82.75
323.108	84.75
323.337	93.75
323.566	80.75
323.795	83.75
324.024	70.75
324.253	73.75
324.482	67.75
324.71	78.75
324.939	94.75
325.168	76.75
325.397	86.75
325.626	89.75
325.855	74.75
326.084	85.75
326.313	82.75
326.542	82.75
326.77	84.75
326.999	75.75
327.228	91.75
327.457	83.75
327.686	75.75
327.914	79.75
328.143	96.75
328.372	82.75
328.6	79.75
328.829	82.75
329.058	79.75
329.287	89.75
329.515	76.75
329.744	76.75
329.972	83.75
330.201	71.75
330.43	80.75
330.658	85.75
330.887	95.75
331.115	77.75
331.344	74.75
331.572	91.75
331.801	74.75
332.03	79.75
332.258	96.75
332.486	66.75
332.715	78.75
332.943	80.75
333.172	67.75
333.4	80.75
333.629	82.75
333.857	74.75
334.085	88.75
334.314	70.75
334.542	82.75
334.771	76.75
334.999	76.75
335.227	78.75
335.455	75.75
335.684	88.75
335.912	84.75
336.14	84.75
336.369	91.75
336.597	87.75
336.825	87.75
337.053	78.75
337.281	91.75
337.51	82.75
337.738	78.75
337.966	92.75
338.194	75.75
338.422	73.75
338.65	84.75
338.878	81.75
339.106	78.75
339.334	92.75
339.562	79.75
339.79	92.75
340.018	80.75
340.246	88.75
340.474	74.75
340.702	84.75
340.93	68.75
341.158	83.75
341.386	79.75
341.614	83.75
341.842	73.75
342.07	79.75
342.298	73.75
342.526	88.75
342.754	74.75
342.981	78.75
343.209	85.75
343.437	79.75
343.665	77.75
343.893	72.75
344.12	82.75
344.348	79.75
344.576	85.75
344.804	71.75
345.031	75.75
345.259	84.75
345.487	76.75
345.714	87.75
345.942	86.75
346.17	86.75
346.397	76.75
346.625	81.75
346.853	76.75
347.08	81.75
347.308	69.75
347.535	73.75
347.763	68.75
347.99	82.75
348.218	75.75
348.445	92.75
348.673	87.75
348.9	85.75
349.128	89.75
349.355	84.75
349.583	84.75
349.81	78.75
350.037	85.75
350.265	83.75
350.492	97.75
350.72	84.75
350.947	91.75
351.174	93.75
351.402	73.75
351.629	88.75
351.856	80.75
352.083	82.75
352.311	83.75
352.538	70.75
352.765	91.75
352.992	78.75
353.22	86.75
353.447	72.75
353.674	83.75
353.901	84.75
354.128	87.75
354.355	84.75
354.583	80.75
354.81	71.75
355.037	90.75
355.264	84.75
355.491	83.75
355.718	80.75
355.945	87.75
356.172	86.75
356.399	70.75
356.626	72.75
356.853	79.75
357.08	85.75
357.307	87.75
357.534	74.75
357.761	80.75
357.988	60.75
358.215	86.75
358.441	80.75
358.668	94.75
358.895	83.75
359.122	95.75
359.349	75.75
359.576	65.75
359.802	63.75
360.029	76.75
360.256	70.75
360.483	79.75
360.709	89.75
360.936	89.75
361.163	77.75
361.39	94.75
361.616	75.75
361.843	71.75
362.07	79.75
362.296	94.75
362.523	93.75
362.749	79.75
362.976	83.75
363.203	87.75
363.429	86.75
363.656	69.75
363.882	104.75
364.109	75.75
364.335	90.75
364.562	85.75
364.788	82.75
365.015	93.75
365.241	85.75
365.468	83.75
365.694	98.75
365.92	87.75
366.147	85.75
366.373	92.75
366.599	90.75
366.826	83.75
367.052	75.75
367.278	90.75
367.505	97.75
367.731	79.75
367.957	91.75
368.184	83.75
368.41	104.75
368.636	96.75
368.862	91.75
369.089	85.75
369.315	81.75
369.541	88.75
369.767	87.75
369.993	96.75
370.219	87.75
370.445	82.75
370.672	83.75
370.898	77.75
371.124	97.75
371.35	91.75
371.576	94.75
371.802	84.75
372.028	96.75
372.254	84.75
372.48	92.75
372.706	85.75
372.932	75.75
373.158	90.75
373.384	83.75
373.61	83.75
373.835	84.75
374.061	87.75
374.287	99.75
374.513	90.75
374.739	84.75
374.965	86.75
375.191	83.75
375.416	88.75
375.642	97.75
375.868	97.75
376.094	98.75
376.319	92.75
376.545	96.75
376.771	82.75
376.997	91.75
377.222	91.75
377.448	95.75
377.674	78.75
377.899	94.75
378.125	93.75
378.35	97.75
378.576	98.75
378.802	92.75
379.027	98.75
379.253	97.75
379.478	90.75
379.704	97.75
379.929	85.75
380.155	77.75
380.38	92.75
380.606	91.75
380.831	91.75
381.057	97.75
381.282	86.75
381.507	90.75
381.733	91.75
381.958	100.75
382.184	98.75
382.409	98.75
382.634	89.75
382.86	92.75
383.085	85.75
383.31	100.75
383.535	88.75
383.761	89.75
383.986	104.75
384.211	89.75
384.436	94.75
384.662	98.75
384.887	79.75
385.112	89.75
385.337	99.75
385.562	106.75
385.787	99.75
386.013	98.75
386.238	100.75
386.463	94.75
386.688	99.75
386.913	90.75
387.138	112.75
387.363	110.75
387.588	104.75
387.813	101.75
388.038	94.75
388.263	94.75
388.488	94.75
388.713	98.75
388.938	85.75
389.163	101.75
389.387	84.75
389.612	91.75
389.837	94.75
390.062	95.75
390.287	97.75
390.512	107.75
390.736	101.75
390.961	95.75
391.186	109.75
391.411	112.75
391.636	91.75
391.86	100.75
392.085	108.75
392.31	105.75
392.534	96.75
392.759	107.75
392.984	105.75
393.208	106.75
393.433	95.75
393.658	100.75
393.882	111.75
394.107	109.75
394.331	100.75
394.556	102.75
394.78	102.75
395.005	101.75
395.229	93.75
395.454	103.75
395.678	110.75
395.903	112.75
396.127	113.75
396.352	102.75
396.576	91.75
396.801	100.75
397.025	102.75
397.249	104.75
397.474	101.75
397.698	104.75
397.922	109.75
398.147	90.75
398.371	98.75
398.595	108.75
398.82	108.75
399.044	114.75
399.268	101.75
399.492	105.75
399.717	103.75
399.941	108.75
400.165	105.75
400.389	95.75
400.613	102.75
400.837	126.75
401.062	117.75
401.286	98.75
401.51	105.75
401.734	101.75
401.958	105.75
402.182	113.75
402.406	118.75
402.63	110.75
402.854	114.75
403.078	115.75
403.302	107.75
403.526	118.75
403.75	104.75
403.974	106.75
404.198	103.75
404.422	97.75
404.645	118.75
404.869	112.75
405.093	99.75
405.317	92.75
405.541	114.75
405.765	95.75
405.988	120.75
406.212	105.75
406.436	126.75
406.66	126.75
406.883	108.75
407.107	106.75
407.331	123.75
407.555	123.75
407.778	107.75
408.002	114.75
408.226	115.75
408.449	116.75
408.673	102.75
408.896	130.75
409.12	124.75
409.344	102.75
409.567	109.75
409.791	116.75
410.014	116.75
410.238	112.75
410.461	111.75
410.685	119.75
410.908	109.75
411.132	115.75
411.355	134.75
411.578	118.75
411.802	104.75
412.025	111.75
412.249	124.75
412.472	121.75
412.695	122.75
412.919	116.75
413.142	114.75
413.365	132.75
413.589	131.75
413.812	106.75
414.035	120.75
414.258	122.75
414.482	132.75
414.705	122.75
414.928	123.75
415.151	119.75
415.374	104.75
415.597	120.75
415.821	100.75
416.044	107.75
416.267	111.75
416.49	130.75
416.713	117.75
416.936	112.75
417.159	107.75
417.382	111.75
417.605	116.75
417.828	113.75
418.051	122.75
418.274	128.75
418.497	116.75
418.72	133.75
418.943	119.75
419.166	131.75
419.389	128.75
419.611	136.75
419.834	147.75
420.057	124.75
420.28	125.75
420.503	118.75
420.726	135.75
420.948	132.75
421.171	119.75
421.394	136.75
421.617	128.75
421.839	132.75
422.062	138.75
422.285	121.75
422.507	126.75
422.73	124.75
422.953	146.75
423.175	115.75
423.398	118.75
423.621	123.75
423.843	138.75
424.066	126.75
424.288	138.75
424.511	140.75
424.733	145.75
424.956	158.75
425.178	137.75
425.401	134.75
425.623	126.75
425.846	133.75
426.068	126.75
426.291	142.75
426.513	120.75
426.735	140.75
426.958	132.75
427.18	131.75
427.402	126.75
427.625	118.75
427.847	121.75
428.069	134.75
428.292	130.75
428.514	139.75
428.736	129.75
428.958	116.75
429.181	121.75
429.403	137.75
429.625	126.75
429.847	117.75
430.069	117.75
430.292	123.75
430.514	116.75
430.736	127.75
430.958	121.75
431.18	118.75
431.402	137.75
431.624	124.75
431.846	101.75
432.068	76.75
432.29	102.75
432.512	103.75
432.734	120.75
432.956	114.75
433.178	137.75
433.4	134.75
433.622	135.75
433.844	129.75
434.066	101.75
434.287	114.75
434.509	94.75
434.731	102.75
434.953	110.75
435.175	108.75
435.397	114.75
435.618	122.75
435.84	115.75
436.062	116.75
436.284	119.75
436.505	122.75
436.727	119.75
436.949	131.75
437.17	120.75
437.392	116.75
437.614	120.75
437.835	112.75
438.057	110.75
438.278	100.75
438.5	107.75
438.721	123.75
438.943	128.75
439.165	136.75
439.386	144.75
439.608	141.75
439.829	120.75
440.05	148.75
440.272	136.75
440.493	146.75
440.715	127.75
440.936	163.75
441.158	136.75
441.379	119.75
441.6	144.75
441.822	159.75
442.043	137.75
442.264	141.75
442.486	136.75
442.707	128.75
442.928	123.75
443.149	143.75
443.371	132.75
443.592	137.75
443.813	134.75
444.034	126.75
444.255	130.75
444.476	129.75
444.698	149.75
444.919	145.75
445.14	252.75
445.361	202.75
445.582	140.75
445.803	129.75
446.024	146.75
446.245	158.75
446.466	157.75
446.687	152.75
446.908	166.75
447.129	135.75
447.35	150.75
447.571	148.75
447.792	139.75
448.013	147.75
448.234	144.75
448.455	146.75
448.675	133.75
448.896	132.75
449.117	136.75
449.338	140.75
449.559	127.75
449.779	126.75
450	121.75
450.221	122.75
450.442	132.75
450.662	130.75
450.883	129.75
451.104	121.75
451.324	126.75
451.545	112.75
451.766	114.75
451.986	122.75
452.207	116.75
452.428	120.75
452.648	113.75
452.869	113.75
453.089	108.75
453.31	111.75
453.53	104.75
453.751	104.75
453.971	97.75
454.192	100.75
454.412	102.75
454.633	108.75
454.853	119.75
455.073	112.75
455.294	124.75
455.514	126.75
455.734	112.75
455.955	124.75
456.175	124.75
456.395	107.75
456.616	107.75
456.836	119.75
457.056	112.75
457.276	110.75
457.497	107.75
457.717	101.75
457.937	125.75
458.157	113.75
458.377	87.75
458.598	103.75
458.818	96.75
459.038	75.75
459.258	84.75
459.478	93.75
459.698	96.75
459.918	110.75
460.138	105.75
460.358	101.75
460.578	115.75
460.798	116.75
461.018	123.75
461.238	118.75
461.458	113.75
461.678	116.75
461.898	118.75
462.118	123.75
462.338	126.75
462.558	109.75
462.777	111.75
462.997	108.75
463.217	116.75
463.437	93.75
463.657	111.75
463.876	112.75
464.096	112.75
464.316	104.75
464.536	120.75
464.755	119.75
464.975	105.75
465.195	106.75
465.414	116.75
465.634	126.75
465.854	124.75
466.073	128.75
466.293	123.75
466.512	111.75
466.732	121.75
466.951	126.75
467.171	139.75
467.391	122.75
467.61	130.75
467.829	126.75
468.049	141.75
468.268	126.75
468.488	124.75
468.707	136.75
468.927	137.75
469.146	119.75
469.365	143.75
469.585	132.75
469.804	154.75
470.023	134.75
470.243	142.75
470.462	140.75
470.681	134.75
470.901	136.75
471.12	141.75
471.339	125.75
471.558	120.75
471.777	136.75
471.997	123.75
472.216	122.75
472.435	103.75
472.654	111.75
472.873	100.75
473.092	114.75
473.311	126.75
473.53	118.75
473.749	131.75
473.968	134.75
474.187	132.75
474.406	115.75
474.625	119.75
474.844	131.75
475.063	131.75
475.282	124.75
475.501	113.75
475.72	129.75
475.939	116.75
476.158	112.75
476.377	127.75
476.596	128.75
476.814	105.75
477.033	116.75
477.252	114.75
477.471	137.75
477.69	128.75
477.908	141.75
478.127	135.75
478.346	122.75
478.564	141.75
478.783	136.75
479.002	134.75
479.22	143.75
479.439	135.75
479.658	128.75
479.876	122.75
480.095	117.75
480.313	106.75
480.532	110.75
480.751	97.75
480.969	95.75
481.188	105.75
481.406	74.75
481.624	95.75
481.843	103.75
482.061	106.75
482.28	118.75
482.498	106.75
482.717	111.75
482.935	110.75
483.153	138.75
483.372	141.75
483.59	142.75
483.808	147.75
484.027	125.75
484.245	138.75
484.463	131.75
484.681	149.75
484.9	134.75
485.118	144.75
485.336	130.75
485.554	114.75
485.772	103.75
485.99	117.75
486.209	119.75
486.427	118.75
486.645	120.75
486.863	133.75
487.081	148.75
487.299	130.75
487.517	156.75
487.735	156.75
487.953	193.75
488.171	198.75
488.389	167.75
488.607	165.75
488.825	136.75
489.043	137.75
489.261	120.75
489.479	123.75
489.696	128.75
489.914	136.75
490.132	146.75
490.35	151.75
490.568	163.75
490.786	148.75
491.003	154.75
491.221	182.75
491.439	170.75
491.657	196.75
491.874	187.75
492.092	204.75
492.31	227.75
492.527	216.75
492.745	216.75
492.963	172.75
493.18	176.75
493.398	184.75
493.615	154.75
493.833	168.75
494.05	162.75
494.268	176.75
494.485	180.75
494.703	156.75
494.92	158.75
495.138	174.75
495.355	162.75
495.573	153.75
495.79	179.75
496.008	163.75
496.225	170.75
496.442	151.75
496.66	170.75
496.877	148.75
497.094	154.75
497.312	136.75
497.529	138.75
497.746	159.75
497.963	136.75
498.181	140.75
498.398	121.75
498.615	114.75
498.832	112.75
499.049	114.75
499.267	131.75
499.484	123.75
499.701	130.75
499.918	124.75
500.135	126.75
500.352	134.75
500.569	124.75
500.786	150.75
501.003	128.75
501.22	138.75
501.437	146.75
501.654	146.75
501.871	135.75
502.088	127.75
502.305	130.75
502.522	124.75
502.739	129.75
502.956	120.75
503.172	122.75
503.389	127.75
503.606	109.75
503.823	128.75
504.04	120.75
504.256	127.75
504.473	119.75
504.69	120.75
504.907	117.75
505.123	128.75
505.34	112.75
505.557	137.75
505.773	129.75
505.99	125.75
506.207	117.75
506.423	130.75
506.64	123.75
506.856	112.75
507.073	99.75
507.289	97.75
507.506	108.75
507.722	107.75
507.939	120.75
508.155	112.75
508.372	97.75
508.588	107.75
508.805	100.75
509.021	117.75
509.238	105.75
509.454	114.75
509.67	108.75
509.887	103.75
510.103	104.75
510.319	105.75
510.536	94.75
510.752	87.75
510.968	85.75
511.184	85.75
511.401	98.75
511.617	75.75
511.833	78.75
