Data from Location4.07152019.Energy5.Lamp.07192019.3%Agarose_HRD10591_16-18-45-924.txt Node
Date: Fri Jul 19 16:18:45 EDT 2019
User: cochatt
Spectrometer: HR+D1059
Trigger mode: 1
Integration Time (sec): 1.000000E-1
Scans to average: 1
Electric dark correction enabled: true
Nonlinearity correction enabled: false
Boxcar width: 0
XAxis mode: Wavelengths
Number of Pixels in Spectrum: 2048
>>>>>Begin Spectral Data<<<<<
223.165	-15.56
223.4	-15.56
223.635	-15.56
223.869	-13.56
224.104	-7.56
224.338	-22.56
224.573	-18.56
224.808	-21.56
225.042	-22.56
225.277	1.44
225.511	1.44
225.746	-0.56
225.98	10.44
226.215	23.44
226.449	16.44
226.683	11.44
226.918	21.44
227.152	36.44
227.387	34.44
227.621	41.44
227.856	36.44
228.09	49.44
228.324	36.44
228.559	56.44
228.793	63.44
229.027	51.44
229.262	61.44
229.496	56.44
229.73	62.44
229.964	55.44
230.199	71.44
230.433	64.44
230.667	74.44
230.901	68.44
231.136	91.44
231.37	67.44
231.604	83.44
231.838	83.44
232.072	72.44
232.306	84.44
232.541	77.44
232.775	77.44
233.009	74.44
233.243	80.44
233.477	79.44
233.711	72.44
233.945	65.44
234.179	81.44
234.413	86.44
234.647	81.44
234.881	79.44
235.115	92.44
235.349	76.44
235.583	89.44
235.817	78.44
236.051	67.44
236.285	77.44
236.519	78.44
236.753	71.44
236.987	74.44
237.221	78.44
237.455	74.44
237.689	85.44
237.922	66.44
238.156	78.44
238.39	57.44
238.624	89.44
238.858	73.44
239.091	77.44
239.325	69.44
239.559	82.44
239.793	76.44
240.027	86.44
240.26	70.44
240.494	72.44
240.728	73.44
240.961	78.44
241.195	82.44
241.429	84.44
241.662	70.44
241.896	83.44
242.13	77.44
242.363	75.44
242.597	67.44
242.83	77.44
243.064	58.44
243.298	84.44
243.531	69.44
243.765	76.44
243.998	69.44
244.232	84.44
244.465	87.44
244.699	71.44
244.932	75.44
245.166	80.44
245.399	73.44
245.633	80.44
245.866	79.44
246.099	78.44
246.333	62.44
246.566	72.44
246.8	79.44
247.033	70.44
247.266	69.44
247.5	73.44
247.733	79.44
247.966	83.44
248.2	74.44
248.433	80.44
248.666	84.44
248.899	72.44
249.133	83.44
249.366	85.44
249.599	83.44
249.832	81.44
250.066	74.44
250.299	85.44
250.532	78.44
250.765	73.44
250.998	95.44
251.231	82.44
251.465	74.44
251.698	76.44
251.931	86.44
252.164	77.44
252.397	87.44
252.63	81.44
252.863	87.44
253.096	75.44
253.329	70.44
253.562	86.44
253.795	81.44
254.028	64.44
254.261	75.44
254.494	78.44
254.727	78.44
254.96	75.44
255.193	74.44
255.426	81.44
255.659	69.44
255.892	86.44
256.124	90.44
256.357	76.44
256.59	76.44
256.823	73.44
257.056	67.44
257.289	86.44
257.521	82.44
257.754	69.44
257.987	79.44
258.22	93.44
258.452	77.44
258.685	83.44
258.918	74.44
259.151	93.44
259.383	75.44
259.616	73.44
259.849	82.44
260.081	83.44
260.314	94.44
260.547	74.44
260.779	77.44
261.012	69.44
261.244	79.44
261.477	73.44
261.71	82.44
261.942	76.44
262.175	72.44
262.407	78.44
262.64	83.44
262.872	74.44
263.105	75.44
263.337	98.44
263.57	85.44
263.802	74.44
264.035	79.44
264.267	80.44
264.499	73.44
264.732	87.44
264.964	81.44
265.197	83.44
265.429	79.44
265.661	82.44
265.894	78.44
266.126	79.44
266.358	72.44
266.591	93.44
266.823	80.44
267.055	83.44
267.287	84.44
267.52	89.44
267.752	85.44
267.984	78.44
268.216	78.44
268.448	89.44
268.681	94.44
268.913	81.44
269.145	72.44
269.377	88.44
269.609	80.44
269.841	83.44
270.073	87.44
270.306	91.44
270.538	71.44
270.77	90.44
271.002	69.44
271.234	79.44
271.466	72.44
271.698	79.44
271.93	80.44
272.162	87.44
272.394	72.44
272.626	78.44
272.858	72.44
273.09	68.44
273.322	70.44
273.553	78.44
273.785	84.44
274.017	89.44
274.249	84.44
274.481	91.44
274.713	85.44
274.945	85.44
275.176	85.44
275.408	75.44
275.64	98.44
275.872	95.44
276.104	80.44
276.335	77.44
276.567	81.44
276.799	94.44
277.031	78.44
277.262	96.44
277.494	83.44
277.726	86.44
277.957	74.44
278.189	88.44
278.421	71.44
278.652	68.44
278.884	90.44
279.115	77.44
279.347	96.44
279.579	82.44
279.81	81.44
280.042	86.44
280.273	70.44
280.505	83.44
280.736	81.44
280.968	75.44
281.199	67.44
281.431	71.44
281.662	73.44
281.894	78.44
282.125	82.44
282.356	81.44
282.588	85.44
282.819	79.44
283.051	79.44
283.282	82.44
283.513	78.44
283.745	77.44
283.976	95.44
284.207	87.44
284.439	80.44
284.67	91.44
284.901	91.44
285.132	98.44
285.364	89.44
285.595	91.44
285.826	73.44
286.057	73.44
286.288	87.44
286.52	83.44
286.751	79.44
286.982	69.44
287.213	78.44
287.444	88.44
287.675	102.44
287.906	79.44
288.138	95.44
288.369	87.44
288.6	77.44
288.831	83.44
289.062	82.44
289.293	80.44
289.524	80.44
289.755	67.44
289.986	65.44
290.217	89.44
290.448	79.44
290.679	95.44
290.91	96.44
291.141	82.44
291.371	79.44
291.602	83.44
291.833	93.44
292.064	88.44
292.295	79.44
292.526	85.44
292.757	90.44
292.987	85.44
293.218	87.44
293.449	74.44
293.68	82.44
293.91	73.44
294.141	82.44
294.372	76.44
294.603	88.44
294.833	79.44
295.064	82.44
295.295	80.44
295.525	72.44
295.756	87.44
295.987	84.44
296.217	75.44
296.448	89.44
296.679	90.44
296.909	82.44
297.14	75.44
297.37	94.44
297.601	83.44
297.831	82.44
298.062	79.44
298.292	79.44
298.523	85.44
298.753	77.44
298.984	75.44
299.214	96.44
299.445	92.44
299.675	73.44
299.905	82.44
300.136	81.44
300.366	91.44
300.597	84.44
300.827	85.44
301.057	68.44
301.288	84.44
301.518	87.44
301.748	91.44
301.979	91.44
302.209	78.44
302.439	79.44
302.669	82.44
302.9	74.44
303.13	96.44
303.36	89.44
303.59	79.44
303.82	72.44
304.051	80.44
304.281	75.44
304.511	88.44
304.741	81.44
304.971	79.44
305.201	87.44
305.431	93.44
305.661	89.44
305.891	94.44
306.121	80.44
306.352	93.44
306.582	79.44
306.812	69.44
307.042	82.44
307.272	70.44
307.502	70.44
307.731	75.44
307.961	97.44
308.191	82.44
308.421	80.44
308.651	88.44
308.881	90.44
309.111	84.44
309.341	86.44
309.571	86.44
309.8	93.44
310.03	92.44
310.26	72.44
310.49	94.44
310.72	82.44
310.949	85.44
311.179	92.44
311.409	71.44
311.639	81.44
311.868	80.44
312.098	70.44
312.328	83.44
312.557	74.44
312.787	70.44
313.017	85.44
313.246	81.44
313.476	82.44
313.706	85.44
313.935	80.44
314.165	74.44
314.394	86.44
314.624	90.44
314.853	81.44
315.083	86.44
315.312	82.44
315.542	88.44
315.771	85.44
316.001	84.44
316.23	87.44
316.46	88.44
316.689	85.44
316.919	84.44
317.148	88.44
317.377	86.44
317.607	87.44
317.836	81.44
318.065	80.44
318.295	94.44
318.524	82.44
318.753	102.44
318.983	85.44
319.212	88.44
319.441	86.44
319.67	92.44
319.9	92.44
320.129	80.44
320.358	95.44
320.587	80.44
320.816	91.44
321.046	81.44
321.275	85.44
321.504	92.44
321.733	93.44
321.962	83.44
322.191	80.44
322.42	71.44
322.649	55.44
322.878	79.44
323.108	85.44
323.337	85.44
323.566	94.44
323.795	88.44
324.024	91.44
324.253	80.44
324.482	85.44
324.71	79.44
324.939	86.44
325.168	85.44
325.397	86.44
325.626	88.44
325.855	94.44
326.084	75.44
326.313	84.44
326.542	88.44
326.77	86.44
326.999	76.44
327.228	84.44
327.457	88.44
327.686	73.44
327.914	95.44
328.143	89.44
328.372	80.44
328.6	80.44
328.829	81.44
329.058	79.44
329.287	87.44
329.515	87.44
329.744	76.44
329.972	84.44
330.201	84.44
330.43	72.44
330.658	70.44
330.887	80.44
331.115	71.44
331.344	81.44
331.572	82.44
331.801	86.44
332.03	94.44
332.258	80.44
332.486	79.44
332.715	82.44
332.943	78.44
333.172	82.44
333.4	86.44
333.629	83.44
333.857	82.44
334.085	72.44
334.314	87.44
334.542	83.44
334.771	73.44
334.999	71.44
335.227	88.44
335.455	81.44
335.684	84.44
335.912	87.44
336.14	77.44
336.369	76.44
336.597	96.44
336.825	73.44
337.053	69.44
337.281	85.44
337.51	85.44
337.738	89.44
337.966	83.44
338.194	80.44
338.422	97.44
338.65	81.44
338.878	81.44
339.106	57.44
339.334	76.44
339.562	78.44
339.79	82.44
340.018	100.44
340.246	87.44
340.474	74.44
340.702	91.44
340.93	81.44
341.158	84.44
341.386	87.44
341.614	72.44
341.842	76.44
342.07	72.44
342.298	88.44
342.526	81.44
342.754	76.44
342.981	86.44
343.209	92.44
343.437	87.44
343.665	81.44
343.893	94.44
344.12	88.44
344.348	75.44
344.576	81.44
344.804	90.44
345.031	101.44
345.259	65.44
345.487	86.44
345.714	74.44
345.942	85.44
346.17	85.44
346.397	83.44
346.625	81.44
346.853	78.44
347.08	84.44
347.308	90.44
347.535	78.44
347.763	76.44
347.99	85.44
348.218	86.44
348.445	83.44
348.673	88.44
348.9	85.44
349.128	82.44
349.355	75.44
349.583	66.44
349.81	83.44
350.037	81.44
350.265	89.44
350.492	90.44
350.72	82.44
350.947	93.44
351.174	89.44
351.402	85.44
351.629	81.44
351.856	94.44
352.083	72.44
352.311	93.44
352.538	86.44
352.765	75.44
352.992	84.44
353.22	83.44
353.447	74.44
353.674	87.44
353.901	82.44
354.128	76.44
354.355	77.44
354.583	81.44
354.81	96.44
355.037	84.44
355.264	88.44
355.491	82.44
355.718	88.44
355.945	72.44
356.172	89.44
356.399	77.44
356.626	85.44
356.853	85.44
357.08	88.44
357.307	88.44
357.534	83.44
357.761	90.44
357.988	80.44
358.215	77.44
358.441	81.44
358.668	67.44
358.895	94.44
359.122	87.44
359.349	74.44
359.576	78.44
359.802	97.44
360.029	87.44
360.256	80.44
360.483	70.44
360.709	77.44
360.936	91.44
361.163	83.44
361.39	75.44
361.616	73.44
361.843	75.44
362.07	78.44
362.296	96.44
362.523	74.44
362.749	71.44
362.976	76.44
363.203	93.44
363.429	88.44
363.656	86.44
363.882	76.44
364.109	90.44
364.335	86.44
364.562	70.44
364.788	69.44
365.015	83.44
365.241	94.44
365.468	88.44
365.694	92.44
365.92	84.44
366.147	84.44
366.373	98.44
366.599	81.44
366.826	69.44
367.052	75.44
367.278	73.44
367.505	96.44
367.731	96.44
367.957	87.44
368.184	90.44
368.41	82.44
368.636	82.44
368.862	91.44
369.089	89.44
369.315	81.44
369.541	95.44
369.767	89.44
369.993	84.44
370.219	87.44
370.445	85.44
370.672	87.44
370.898	94.44
371.124	91.44
371.35	85.44
371.576	75.44
371.802	84.44
372.028	88.44
372.254	85.44
372.48	86.44
372.706	87.44
372.932	85.44
373.158	99.44
373.384	99.44
373.61	77.44
373.835	100.44
374.061	102.44
374.287	86.44
374.513	86.44
374.739	82.44
374.965	91.44
375.191	85.44
375.416	74.44
375.642	87.44
375.868	90.44
376.094	95.44
376.319	97.44
376.545	80.44
376.771	85.44
376.997	92.44
377.222	70.44
377.448	103.44
377.674	102.44
377.899	94.44
378.125	95.44
378.35	104.44
378.576	102.44
378.802	94.44
379.027	89.44
379.253	83.44
379.478	90.44
379.704	99.44
379.929	78.44
380.155	93.44
380.38	97.44
380.606	90.44
380.831	98.44
381.057	90.44
381.282	97.44
381.507	92.44
381.733	102.44
381.958	91.44
382.184	90.44
382.409	101.44
382.634	116.44
382.86	98.44
383.085	85.44
383.31	83.44
383.535	94.44
383.761	96.44
383.986	105.44
384.211	100.44
384.436	100.44
384.662	89.44
384.887	106.44
385.112	95.44
385.337	100.44
385.562	103.44
385.787	110.44
386.013	101.44
386.238	98.44
386.463	101.44
386.688	99.44
386.913	106.44
387.138	99.44
387.363	100.44
387.588	103.44
387.813	85.44
388.038	82.44
388.263	84.44
388.488	88.44
388.713	92.44
388.938	101.44
389.163	98.44
389.387	109.44
389.612	101.44
389.837	90.44
390.062	83.44
390.287	112.44
390.512	121.44
390.736	101.44
390.961	102.44
391.186	104.44
391.411	102.44
391.636	113.44
391.86	97.44
392.085	106.44
392.31	104.44
392.534	107.44
392.759	106.44
392.984	106.44
393.208	103.44
393.433	106.44
393.658	85.44
393.882	94.44
394.107	115.44
394.331	104.44
394.556	120.44
394.78	97.44
395.005	100.44
395.229	103.44
395.454	94.44
395.678	107.44
395.903	102.44
396.127	121.44
396.352	85.44
396.576	102.44
396.801	103.44
397.025	102.44
397.249	94.44
397.474	104.44
397.698	111.44
397.922	106.44
398.147	106.44
398.371	101.44
398.595	115.44
398.82	104.44
399.044	104.44
399.268	99.44
399.492	102.44
399.717	110.44
399.941	113.44
400.165	119.44
400.389	114.44
400.613	120.44
400.837	119.44
401.062	117.44
401.286	102.44
401.51	115.44
401.734	112.44
401.958	111.44
402.182	120.44
402.406	116.44
402.63	116.44
402.854	95.44
403.078	118.44
403.302	104.44
403.526	130.44
403.75	119.44
403.974	123.44
404.198	105.44
404.422	120.44
404.645	116.44
404.869	105.44
405.093	123.44
405.317	117.44
405.541	117.44
405.765	114.44
405.988	102.44
406.212	105.44
406.436	123.44
406.66	109.44
406.883	106.44
407.107	108.44
407.331	113.44
407.555	117.44
407.778	121.44
408.002	114.44
408.226	118.44
408.449	101.44
408.673	109.44
408.896	114.44
409.12	99.44
409.344	114.44
409.567	121.44
409.791	122.44
410.014	118.44
410.238	121.44
410.461	141.44
410.685	119.44
410.908	102.44
411.132	135.44
411.355	115.44
411.578	121.44
411.802	125.44
412.025	116.44
412.249	97.44
412.472	104.44
412.695	127.44
412.919	93.44
413.142	128.44
413.365	127.44
413.589	130.44
413.812	127.44
414.035	127.44
414.258	118.44
414.482	115.44
414.705	136.44
414.928	126.44
415.151	125.44
415.374	115.44
415.597	129.44
415.821	121.44
416.044	130.44
416.267	126.44
416.49	124.44
416.713	115.44
416.936	114.44
417.159	127.44
417.382	125.44
417.605	117.44
417.828	129.44
418.051	129.44
418.274	120.44
418.497	148.44
418.72	136.44
418.943	146.44
419.166	141.44
419.389	135.44
419.611	134.44
419.834	132.44
420.057	132.44
420.28	130.44
420.503	118.44
420.726	135.44
420.948	130.44
421.171	147.44
421.394	143.44
421.617	136.44
421.839	139.44
422.062	126.44
422.285	129.44
422.507	139.44
422.73	135.44
422.953	139.44
423.175	121.44
423.398	126.44
423.621	133.44
423.843	139.44
424.066	138.44
424.288	126.44
424.511	143.44
424.733	149.44
424.956	144.44
425.178	126.44
425.401	121.44
425.623	125.44
425.846	129.44
426.068	118.44
426.291	122.44
426.513	131.44
426.735	125.44
426.958	122.44
427.18	123.44
427.402	134.44
427.625	133.44
427.847	123.44
428.069	133.44
428.292	116.44
428.514	126.44
428.736	125.44
428.958	114.44
429.181	125.44
429.403	129.44
429.625	119.44
429.847	118.44
430.069	134.44
430.292	140.44
430.514	125.44
430.736	120.44
430.958	127.44
431.18	125.44
431.402	122.44
431.624	124.44
431.846	101.44
432.068	92.44
432.29	85.44
432.512	104.44
432.734	110.44
432.956	131.44
433.178	142.44
433.4	132.44
433.622	133.44
433.844	122.44
434.066	117.44
434.287	122.44
434.509	97.44
434.731	85.44
434.953	114.44
435.175	121.44
435.397	139.44
435.618	134.44
435.84	103.44
436.062	117.44
436.284	125.44
436.505	135.44
436.727	122.44
436.949	123.44
437.17	125.44
437.392	135.44
437.614	114.44
437.835	113.44
438.057	130.44
438.278	110.44
438.5	120.44
438.721	129.44
438.943	124.44
439.165	133.44
439.386	146.44
439.608	121.44
439.829	138.44
440.05	125.44
440.272	138.44
440.493	134.44
440.715	145.44
440.936	147.44
441.158	136.44
441.379	153.44
441.6	147.44
441.822	145.44
442.043	127.44
442.264	123.44
442.486	113.44
442.707	133.44
442.928	136.44
443.149	138.44
443.371	145.44
443.592	130.44
443.813	137.44
444.034	140.44
444.255	137.44
444.476	137.44
444.698	125.44
444.919	129.44
445.14	271.44
445.361	202.44
445.582	139.44
445.803	144.44
446.024	120.44
446.245	150.44
446.466	150.44
446.687	153.44
446.908	154.44
447.129	147.44
447.35	153.44
447.571	161.44
447.792	143.44
448.013	136.44
448.234	144.44
448.455	123.44
448.675	138.44
448.896	152.44
449.117	138.44
449.338	140.44
449.559	142.44
449.779	130.44
450	122.44
450.221	145.44
450.442	122.44
450.662	125.44
450.883	129.44
451.104	138.44
451.324	135.44
451.545	140.44
451.766	138.44
451.986	117.44
452.207	137.44
452.428	117.44
452.648	132.44
452.869	122.44
453.089	121.44
453.31	103.44
453.53	105.44
453.751	113.44
453.971	103.44
454.192	102.44
454.412	96.44
454.633	123.44
454.853	125.44
455.073	115.44
455.294	122.44
455.514	109.44
455.734	124.44
455.955	115.44
456.175	114.44
456.395	104.44
456.616	111.44
456.836	109.44
457.056	105.44
457.276	98.44
457.497	118.44
457.717	110.44
457.937	121.44
458.157	115.44
458.377	88.44
458.598	97.44
458.818	116.44
459.038	78.44
459.258	86.44
459.478	94.44
459.698	85.44
459.918	96.44
460.138	105.44
460.358	118.44
460.578	116.44
460.798	120.44
461.018	116.44
461.238	113.44
461.458	118.44
461.678	104.44
461.898	113.44
462.118	122.44
462.338	110.44
462.558	115.44
462.777	125.44
462.997	110.44
463.217	95.44
463.437	110.44
463.657	107.44
463.876	115.44
464.096	113.44
464.316	118.44
464.536	126.44
464.755	108.44
464.975	108.44
465.195	121.44
465.414	112.44
465.634	111.44
465.854	113.44
466.073	111.44
466.293	116.44
466.512	112.44
466.732	113.44
466.951	126.44
467.171	132.44
467.391	121.44
467.61	123.44
467.829	120.44
468.049	142.44
468.268	133.44
468.488	130.44
468.707	118.44
468.927	124.44
469.146	141.44
469.365	127.44
469.585	129.44
469.804	134.44
470.023	131.44
470.243	133.44
470.462	137.44
470.681	141.44
470.901	149.44
471.12	157.44
471.339	142.44
471.558	145.44
471.777	147.44
471.997	133.44
472.216	125.44
472.435	113.44
472.654	114.44
472.873	126.44
473.092	120.44
473.311	115.44
473.53	118.44
473.749	133.44
473.968	136.44
474.187	129.44
474.406	121.44
474.625	135.44
474.844	131.44
475.063	118.44
475.282	126.44
475.501	123.44
475.72	117.44
475.939	110.44
476.158	126.44
476.377	107.44
476.596	115.44
476.814	104.44
477.033	113.44
477.252	112.44
477.471	119.44
477.69	137.44
477.908	153.44
478.127	127.44
478.346	121.44
478.564	116.44
478.783	144.44
479.002	144.44
479.22	148.44
479.439	138.44
479.658	113.44
479.876	125.44
480.095	95.44
480.313	111.44
480.532	120.44
480.751	98.44
480.969	91.44
481.188	83.44
481.406	87.44
481.624	85.44
481.843	85.44
482.061	101.44
482.28	101.44
482.498	113.44
482.717	106.44
482.935	117.44
483.153	145.44
483.372	136.44
483.59	137.44
483.808	144.44
484.027	136.44
484.245	131.44
484.463	150.44
484.681	164.44
484.9	150.44
485.118	138.44
485.336	122.44
485.554	107.44
485.772	97.44
485.99	106.44
486.209	101.44
486.427	118.44
486.645	120.44
486.863	134.44
487.081	133.44
487.299	125.44
487.517	135.44
487.735	176.44
487.953	189.44
488.171	190.44
488.389	170.44
488.607	166.44
488.825	147.44
489.043	135.44
489.261	145.44
489.479	133.44
489.696	134.44
489.914	146.44
490.132	135.44
490.35	150.44
490.568	155.44
490.786	166.44
491.003	176.44
491.221	174.44
491.439	203.44
491.657	190.44
491.874	196.44
492.092	212.44
492.31	249.44
492.527	224.44
492.745	199.44
492.963	180.44
493.18	176.44
493.398	169.44
493.615	182.44
493.833	184.44
494.05	167.44
494.268	161.44
494.485	168.44
494.703	167.44
494.92	162.44
495.138	151.44
495.355	159.44
495.573	175.44
495.79	153.44
496.008	173.44
496.225	159.44
496.442	176.44
496.66	170.44
496.877	155.44
497.094	164.44
497.312	153.44
497.529	157.44
497.746	151.44
497.963	134.44
498.181	127.44
498.398	136.44
498.615	123.44
498.832	121.44
499.049	111.44
499.267	119.44
499.484	117.44
499.701	127.44
499.918	135.44
500.135	125.44
500.352	141.44
500.569	143.44
500.786	148.44
501.003	139.44
501.22	141.44
501.437	143.44
501.654	140.44
501.871	121.44
502.088	132.44
502.305	139.44
502.522	120.44
502.739	121.44
502.956	131.44
503.172	120.44
503.389	120.44
503.606	126.44
503.823	121.44
504.04	125.44
504.256	124.44
504.473	112.44
504.69	124.44
504.907	120.44
505.123	118.44
505.34	126.44
505.557	133.44
505.773	111.44
505.99	118.44
506.207	131.44
506.423	110.44
506.64	105.44
506.856	106.44
507.073	110.44
507.289	115.44
507.506	107.44
507.722	110.44
507.939	102.44
508.155	111.44
508.372	111.44
508.588	115.44
508.805	89.44
509.021	111.44
509.238	105.44
509.454	111.44
509.67	117.44
509.887	81.44
510.103	104.44
510.319	105.44
510.536	94.44
510.752	92.44
510.968	87.44
511.184	87.44
511.401	88.44
511.617	82.44
511.833	80.44
