Data from Location4.07152019.Energy5.Lamp.07192019.3%Agarose_HRD10591_16-20-50-926.txt Node
Date: Fri Jul 19 16:20:50 EDT 2019
User: cochatt
Spectrometer: HR+D1059
Trigger mode: 1
Integration Time (sec): 1.000000E-1
Scans to average: 1
Electric dark correction enabled: true
Nonlinearity correction enabled: false
Boxcar width: 0
XAxis mode: Wavelengths
Number of Pixels in Spectrum: 2048
>>>>>Begin Spectral Data<<<<<
223.165	-16.56
223.4	-16.56
223.635	-16.56
223.869	-17.56
224.104	-23.56
224.338	-11.56
224.573	-5.56
224.808	-28.56
225.042	-10.56
225.277	1.44
225.511	-1.56
225.746	1.44
225.98	13.44
226.215	5.44
226.449	17.44
226.683	21.44
226.918	22.44
227.152	32.44
227.387	29.44
227.621	30.44
227.856	42.44
228.09	34.44
228.324	29.44
228.559	67.44
228.793	61.44
229.027	55.44
229.262	54.44
229.496	62.44
229.73	61.44
229.964	74.44
230.199	56.44
230.433	62.44
230.667	77.44
230.901	61.44
231.136	70.44
231.37	66.44
231.604	82.44
231.838	84.44
232.072	84.44
232.306	87.44
232.541	85.44
232.775	66.44
233.009	78.44
233.243	63.44
233.477	86.44
233.711	93.44
233.945	80.44
234.179	82.44
234.413	93.44
234.647	80.44
234.881	94.44
235.115	84.44
235.349	82.44
235.583	69.44
235.817	78.44
236.051	85.44
236.285	81.44
236.519	70.44
236.753	77.44
236.987	85.44
237.221	73.44
237.455	77.44
237.689	75.44
237.922	70.44
238.156	69.44
238.39	79.44
238.624	76.44
238.858	78.44
239.091	57.44
239.325	77.44
239.559	79.44
239.793	86.44
240.027	73.44
240.26	67.44
240.494	70.44
240.728	58.44
240.961	81.44
241.195	82.44
241.429	85.44
241.662	68.44
241.896	74.44
242.13	74.44
242.363	73.44
242.597	93.44
242.83	78.44
243.064	87.44
243.298	79.44
243.531	74.44
243.765	78.44
243.998	92.44
244.232	84.44
244.465	75.44
244.699	70.44
244.932	82.44
245.166	87.44
245.399	71.44
245.633	81.44
245.866	70.44
246.099	70.44
246.333	74.44
246.566	73.44
246.8	75.44
247.033	66.44
247.266	82.44
247.5	73.44
247.733	71.44
247.966	74.44
248.2	88.44
248.433	76.44
248.666	71.44
248.899	67.44
249.133	83.44
249.366	72.44
249.599	84.44
249.832	71.44
250.066	83.44
250.299	69.44
250.532	81.44
250.765	73.44
250.998	70.44
251.231	81.44
251.465	73.44
251.698	74.44
251.931	72.44
252.164	73.44
252.397	64.44
252.63	90.44
252.863	85.44
253.096	81.44
253.329	79.44
253.562	69.44
253.795	66.44
254.028	78.44
254.261	81.44
254.494	78.44
254.727	76.44
254.96	71.44
255.193	72.44
255.426	74.44
255.659	71.44
255.892	78.44
256.124	71.44
256.357	78.44
256.59	85.44
256.823	72.44
257.056	85.44
257.289	80.44
257.521	69.44
257.754	76.44
257.987	67.44
258.22	88.44
258.452	80.44
258.685	80.44
258.918	67.44
259.151	86.44
259.383	81.44
259.616	74.44
259.849	78.44
260.081	77.44
260.314	98.44
260.547	71.44
260.779	77.44
261.012	75.44
261.244	84.44
261.477	89.44
261.71	82.44
261.942	80.44
262.175	65.44
262.407	81.44
262.64	74.44
262.872	85.44
263.105	69.44
263.337	86.44
263.57	81.44
263.802	79.44
264.035	76.44
264.267	73.44
264.499	93.44
264.732	75.44
264.964	79.44
265.197	73.44
265.429	86.44
265.661	77.44
265.894	90.44
266.126	85.44
266.358	90.44
266.591	81.44
266.823	89.44
267.055	82.44
267.287	90.44
267.52	71.44
267.752	81.44
267.984	79.44
268.216	84.44
268.448	99.44
268.681	68.44
268.913	76.44
269.145	81.44
269.377	86.44
269.609	73.44
269.841	81.44
270.073	88.44
270.306	78.44
270.538	88.44
270.77	83.44
271.002	69.44
271.234	88.44
271.466	76.44
271.698	88.44
271.93	71.44
272.162	84.44
272.394	73.44
272.626	74.44
272.858	73.44
273.09	82.44
273.322	84.44
273.553	82.44
273.785	81.44
274.017	80.44
274.249	92.44
274.481	75.44
274.713	85.44
274.945	78.44
275.176	72.44
275.408	79.44
275.64	92.44
275.872	74.44
276.104	93.44
276.335	89.44
276.567	68.44
276.799	87.44
277.031	79.44
277.262	72.44
277.494	70.44
277.726	74.44
277.957	68.44
278.189	88.44
278.421	79.44
278.652	79.44
278.884	75.44
279.115	84.44
279.347	90.44
279.579	79.44
279.81	88.44
280.042	82.44
280.273	84.44
280.505	82.44
280.736	78.44
280.968	95.44
281.199	80.44
281.431	70.44
281.662	82.44
281.894	87.44
282.125	90.44
282.356	86.44
282.588	84.44
282.819	74.44
283.051	85.44
283.282	69.44
283.513	88.44
283.745	82.44
283.976	79.44
284.207	83.44
284.439	93.44
284.67	84.44
284.901	78.44
285.132	82.44
285.364	87.44
285.595	92.44
285.826	87.44
286.057	83.44
286.288	74.44
286.52	79.44
286.751	86.44
286.982	73.44
287.213	85.44
287.444	81.44
287.675	95.44
287.906	91.44
288.138	86.44
288.369	85.44
288.6	79.44
288.831	62.44
289.062	78.44
289.293	89.44
289.524	81.44
289.755	75.44
289.986	82.44
290.217	85.44
290.448	70.44
290.679	80.44
290.91	75.44
291.141	80.44
291.371	84.44
291.602	85.44
291.833	78.44
292.064	94.44
292.295	85.44
292.526	83.44
292.757	103.44
292.987	76.44
293.218	74.44
293.449	85.44
293.68	86.44
293.91	74.44
294.141	86.44
294.372	89.44
294.603	88.44
294.833	82.44
295.064	92.44
295.295	78.44
295.525	84.44
295.756	95.44
295.987	77.44
296.217	83.44
296.448	73.44
296.679	76.44
296.909	85.44
297.14	84.44
297.37	81.44
297.601	83.44
297.831	81.44
298.062	70.44
298.292	86.44
298.523	82.44
298.753	93.44
298.984	85.44
299.214	67.44
299.445	90.44
299.675	80.44
299.905	89.44
300.136	85.44
300.366	83.44
300.597	95.44
300.827	75.44
301.057	94.44
301.288	87.44
301.518	83.44
301.748	82.44
301.979	71.44
302.209	85.44
302.439	93.44
302.669	88.44
302.9	90.44
303.13	79.44
303.36	92.44
303.59	78.44
303.82	80.44
304.051	88.44
304.281	78.44
304.511	85.44
304.741	80.44
304.971	81.44
305.201	76.44
305.431	74.44
305.661	77.44
305.891	71.44
306.121	99.44
306.352	72.44
306.582	74.44
306.812	83.44
307.042	75.44
307.272	88.44
307.502	87.44
307.731	88.44
307.961	84.44
308.191	79.44
308.421	90.44
308.651	80.44
308.881	89.44
309.111	80.44
309.341	88.44
309.571	88.44
309.8	81.44
310.03	97.44
310.26	81.44
310.49	101.44
310.72	92.44
310.949	83.44
311.179	77.44
311.409	87.44
311.639	85.44
311.868	85.44
312.098	81.44
312.328	84.44
312.557	90.44
312.787	90.44
313.017	94.44
313.246	80.44
313.476	73.44
313.706	84.44
313.935	81.44
314.165	87.44
314.394	82.44
314.624	95.44
314.853	103.44
315.083	86.44
315.312	85.44
315.542	79.44
315.771	77.44
316.001	70.44
316.23	81.44
316.46	87.44
316.689	95.44
316.919	84.44
317.148	88.44
317.377	88.44
317.607	92.44
317.836	90.44
318.065	88.44
318.295	90.44
318.524	95.44
318.753	87.44
318.983	76.44
319.212	72.44
319.441	75.44
319.67	76.44
319.9	84.44
320.129	72.44
320.358	85.44
320.587	75.44
320.816	77.44
321.046	85.44
321.275	90.44
321.504	79.44
321.733	77.44
321.962	83.44
322.191	89.44
322.42	80.44
322.649	87.44
322.878	93.44
323.108	85.44
323.337	84.44
323.566	90.44
323.795	90.44
324.024	81.44
324.253	77.44
324.482	81.44
324.71	88.44
324.939	101.44
325.168	69.44
325.397	88.44
325.626	94.44
325.855	85.44
326.084	76.44
326.313	86.44
326.542	89.44
326.77	91.44
326.999	93.44
327.228	78.44
327.457	95.44
327.686	76.44
327.914	76.44
328.143	89.44
328.372	80.44
328.6	86.44
328.829	80.44
329.058	85.44
329.287	70.44
329.515	72.44
329.744	88.44
329.972	85.44
330.201	77.44
330.43	78.44
330.658	83.44
330.887	95.44
331.115	94.44
331.344	81.44
331.572	86.44
331.801	81.44
332.03	83.44
332.258	78.44
332.486	91.44
332.715	75.44
332.943	88.44
333.172	81.44
333.4	80.44
333.629	90.44
333.857	87.44
334.085	93.44
334.314	89.44
334.542	70.44
334.771	85.44
334.999	91.44
335.227	91.44
335.455	89.44
335.684	91.44
335.912	85.44
336.14	85.44
336.369	80.44
336.597	89.44
336.825	74.44
337.053	85.44
337.281	84.44
337.51	84.44
337.738	83.44
337.966	90.44
338.194	91.44
338.422	82.44
338.65	80.44
338.878	83.44
339.106	76.44
339.334	86.44
339.562	78.44
339.79	77.44
340.018	97.44
340.246	91.44
340.474	75.44
340.702	102.44
340.93	76.44
341.158	93.44
341.386	79.44
341.614	93.44
341.842	70.44
342.07	90.44
342.298	82.44
342.526	80.44
342.754	82.44
342.981	78.44
343.209	87.44
343.437	96.44
343.665	80.44
343.893	90.44
344.12	90.44
344.348	95.44
344.576	90.44
344.804	94.44
345.031	89.44
345.259	74.44
345.487	72.44
345.714	87.44
345.942	79.44
346.17	78.44
346.397	86.44
346.625	88.44
346.853	82.44
347.08	85.44
347.308	90.44
347.535	82.44
347.763	87.44
347.99	86.44
348.218	75.44
348.445	76.44
348.673	83.44
348.9	90.44
349.128	80.44
349.355	76.44
349.583	78.44
349.81	84.44
350.037	81.44
350.265	82.44
350.492	97.44
350.72	86.44
350.947	83.44
351.174	83.44
351.402	97.44
351.629	95.44
351.856	84.44
352.083	86.44
352.311	68.44
352.538	62.44
352.765	74.44
352.992	70.44
353.22	92.44
353.447	79.44
353.674	68.44
353.901	91.44
354.128	79.44
354.355	66.44
354.583	92.44
354.81	87.44
355.037	94.44
355.264	89.44
355.491	73.44
355.718	78.44
355.945	76.44
356.172	83.44
356.399	93.44
356.626	81.44
356.853	75.44
357.08	90.44
357.307	79.44
357.534	83.44
357.761	89.44
357.988	91.44
358.215	83.44
358.441	97.44
358.668	93.44
358.895	82.44
359.122	75.44
359.349	94.44
359.576	88.44
359.802	81.44
360.029	92.44
360.256	93.44
360.483	92.44
360.709	91.44
360.936	77.44
361.163	59.44
361.39	82.44
361.616	95.44
361.843	91.44
362.07	83.44
362.296	89.44
362.523	83.44
362.749	83.44
362.976	83.44
363.203	81.44
363.429	73.44
363.656	88.44
363.882	74.44
364.109	73.44
364.335	90.44
364.562	87.44
364.788	83.44
365.015	87.44
365.241	84.44
365.468	85.44
365.694	73.44
365.92	74.44
366.147	90.44
366.373	87.44
366.599	98.44
366.826	84.44
367.052	71.44
367.278	77.44
367.505	94.44
367.731	82.44
367.957	83.44
368.184	86.44
368.41	90.44
368.636	94.44
368.862	86.44
369.089	83.44
369.315	84.44
369.541	96.44
369.767	94.44
369.993	86.44
370.219	93.44
370.445	83.44
370.672	96.44
370.898	98.44
371.124	90.44
371.35	82.44
371.576	84.44
371.802	78.44
372.028	90.44
372.254	83.44
372.48	93.44
372.706	93.44
372.932	87.44
373.158	102.44
373.384	104.44
373.61	81.44
373.835	79.44
374.061	86.44
374.287	93.44
374.513	72.44
374.739	80.44
374.965	95.44
375.191	87.44
375.416	97.44
375.642	87.44
375.868	96.44
376.094	101.44
376.319	93.44
376.545	103.44
376.771	90.44
376.997	87.44
377.222	88.44
377.448	92.44
377.674	97.44
377.899	94.44
378.125	81.44
378.35	98.44
378.576	94.44
378.802	77.44
379.027	97.44
379.253	101.44
379.478	99.44
379.704	90.44
379.929	94.44
380.155	105.44
380.38	93.44
380.606	95.44
380.831	90.44
381.057	91.44
381.282	85.44
381.507	85.44
381.733	101.44
381.958	105.44
382.184	95.44
382.409	103.44
382.634	93.44
382.86	107.44
383.085	91.44
383.31	101.44
383.535	90.44
383.761	99.44
383.986	105.44
384.211	85.44
384.436	95.44
384.662	86.44
384.887	105.44
385.112	104.44
385.337	105.44
385.562	103.44
385.787	96.44
386.013	88.44
386.238	103.44
386.463	101.44
386.688	98.44
386.913	94.44
387.138	100.44
387.363	93.44
387.588	111.44
387.813	94.44
388.038	85.44
388.263	100.44
388.488	106.44
388.713	106.44
388.938	93.44
389.163	102.44
389.387	103.44
389.612	93.44
389.837	107.44
390.062	101.44
390.287	102.44
390.512	83.44
390.736	91.44
390.961	91.44
391.186	107.44
391.411	92.44
391.636	99.44
391.86	107.44
392.085	93.44
392.31	105.44
392.534	102.44
392.759	100.44
392.984	96.44
393.208	104.44
393.433	96.44
393.658	105.44
393.882	106.44
394.107	100.44
394.331	93.44
394.556	97.44
394.78	103.44
395.005	102.44
395.229	109.44
395.454	115.44
395.678	101.44
395.903	115.44
396.127	103.44
396.352	103.44
396.576	99.44
396.801	92.44
397.025	96.44
397.249	101.44
397.474	106.44
397.698	106.44
397.922	104.44
398.147	114.44
398.371	100.44
398.595	109.44
398.82	97.44
399.044	115.44
399.268	102.44
399.492	109.44
399.717	121.44
399.941	120.44
400.165	121.44
400.389	105.44
400.613	102.44
400.837	112.44
401.062	109.44
401.286	103.44
401.51	109.44
401.734	102.44
401.958	98.44
402.182	102.44
402.406	103.44
402.63	106.44
402.854	122.44
403.078	117.44
403.302	106.44
403.526	108.44
403.75	117.44
403.974	119.44
404.198	111.44
404.422	115.44
404.645	108.44
404.869	121.44
405.093	122.44
405.317	102.44
405.541	115.44
405.765	115.44
405.988	111.44
406.212	106.44
406.436	121.44
406.66	122.44
406.883	117.44
407.107	94.44
407.331	109.44
407.555	127.44
407.778	113.44
408.002	118.44
408.226	114.44
408.449	118.44
408.673	111.44
408.896	110.44
409.12	119.44
409.344	112.44
409.567	106.44
409.791	100.44
410.014	115.44
410.238	117.44
410.461	119.44
410.685	121.44
410.908	116.44
411.132	129.44
411.355	123.44
411.578	124.44
411.802	120.44
412.025	107.44
412.249	123.44
412.472	113.44
412.695	105.44
412.919	118.44
413.142	121.44
413.365	129.44
413.589	113.44
413.812	115.44
414.035	122.44
414.258	119.44
414.482	112.44
414.705	113.44
414.928	114.44
415.151	122.44
415.374	137.44
415.597	118.44
415.821	120.44
416.044	121.44
416.267	119.44
416.49	105.44
416.713	125.44
416.936	117.44
417.159	110.44
417.382	123.44
417.605	116.44
417.828	129.44
418.051	120.44
418.274	131.44
418.497	125.44
418.72	119.44
418.943	129.44
419.166	132.44
419.389	123.44
419.611	124.44
419.834	144.44
420.057	116.44
420.28	132.44
420.503	131.44
420.726	129.44
420.948	136.44
421.171	131.44
421.394	141.44
421.617	147.44
421.839	133.44
422.062	121.44
422.285	118.44
422.507	134.44
422.73	121.44
422.953	130.44
423.175	123.44
423.398	117.44
423.621	124.44
423.843	125.44
424.066	143.44
424.288	129.44
424.511	131.44
424.733	138.44
424.956	143.44
425.178	127.44
425.401	138.44
425.623	148.44
425.846	122.44
426.068	122.44
426.291	128.44
426.513	118.44
426.735	131.44
426.958	134.44
427.18	122.44
427.402	127.44
427.625	125.44
427.847	132.44
428.069	129.44
428.292	119.44
428.514	137.44
428.736	130.44
428.958	120.44
429.181	128.44
429.403	124.44
429.625	121.44
429.847	120.44
430.069	129.44
430.292	137.44
430.514	143.44
430.736	119.44
430.958	120.44
431.18	134.44
431.402	123.44
431.624	123.44
431.846	100.44
432.068	88.44
432.29	97.44
432.512	119.44
432.734	103.44
432.956	121.44
433.178	134.44
433.4	114.44
433.622	119.44
433.844	126.44
434.066	119.44
434.287	125.44
434.509	100.44
434.731	105.44
434.953	104.44
435.175	131.44
435.397	135.44
435.618	124.44
435.84	111.44
436.062	103.44
436.284	115.44
436.505	129.44
436.727	118.44
436.949	127.44
437.17	112.44
437.392	123.44
437.614	120.44
437.835	100.44
438.057	105.44
438.278	101.44
438.5	130.44
438.721	135.44
438.943	140.44
439.165	131.44
439.386	144.44
439.608	126.44
439.829	156.44
440.05	143.44
440.272	141.44
440.493	145.44
440.715	128.44
440.936	122.44
441.158	157.44
441.379	142.44
441.6	149.44
441.822	134.44
442.043	149.44
442.264	139.44
442.486	117.44
442.707	137.44
442.928	123.44
443.149	139.44
443.371	140.44
443.592	118.44
443.813	141.44
444.034	137.44
444.255	145.44
444.476	139.44
444.698	152.44
444.919	135.44
445.14	247.44
445.361	189.44
445.582	133.44
445.803	140.44
446.024	152.44
446.245	149.44
446.466	143.44
446.687	147.44
446.908	149.44
447.129	154.44
447.35	140.44
447.571	143.44
447.792	134.44
448.013	119.44
448.234	125.44
448.455	128.44
448.675	134.44
448.896	150.44
449.117	135.44
449.338	136.44
449.559	141.44
449.779	121.44
450	129.44
450.221	144.44
450.442	127.44
450.662	122.44
450.883	121.44
451.104	132.44
451.324	135.44
451.545	127.44
451.766	113.44
451.986	118.44
452.207	129.44
452.428	119.44
452.648	117.44
452.869	114.44
453.089	93.44
453.31	93.44
453.53	81.44
453.751	99.44
453.971	106.44
454.192	111.44
454.412	110.44
454.633	111.44
454.853	121.44
455.073	115.44
455.294	112.44
455.514	120.44
455.734	126.44
455.955	120.44
456.175	122.44
456.395	112.44
456.616	106.44
456.836	103.44
457.056	106.44
457.276	118.44
457.497	101.44
457.717	118.44
457.937	113.44
458.157	106.44
458.377	99.44
458.598	96.44
458.818	94.44
459.038	92.44
459.258	85.44
459.478	97.44
459.698	87.44
459.918	110.44
460.138	98.44
460.358	116.44
460.578	112.44
460.798	118.44
461.018	110.44
461.238	115.44
461.458	119.44
461.678	113.44
461.898	110.44
462.118	112.44
462.338	94.44
462.558	104.44
462.777	121.44
462.997	117.44
463.217	103.44
463.437	115.44
463.657	108.44
463.876	113.44
464.096	118.44
464.316	97.44
464.536	95.44
464.755	124.44
464.975	110.44
465.195	114.44
465.414	112.44
465.634	121.44
465.854	123.44
466.073	134.44
466.293	129.44
466.512	132.44
466.732	137.44
466.951	120.44
467.171	126.44
467.391	119.44
467.61	125.44
467.829	130.44
468.049	139.44
468.268	129.44
468.488	128.44
468.707	144.44
468.927	123.44
469.146	129.44
469.365	132.44
469.585	127.44
469.804	126.44
470.023	146.44
470.243	134.44
470.462	143.44
470.681	139.44
470.901	145.44
471.12	137.44
471.339	127.44
471.558	134.44
471.777	126.44
471.997	121.44
472.216	109.44
472.435	122.44
472.654	110.44
472.873	116.44
473.092	109.44
473.311	120.44
473.53	125.44
473.749	129.44
473.968	127.44
474.187	135.44
474.406	114.44
474.625	131.44
474.844	128.44
475.063	131.44
475.282	132.44
475.501	123.44
475.72	114.44
475.939	118.44
476.158	129.44
476.377	134.44
476.596	133.44
476.814	119.44
477.033	113.44
477.252	112.44
477.471	104.44
477.69	120.44
477.908	127.44
478.127	129.44
478.346	133.44
478.564	152.44
478.783	125.44
479.002	131.44
479.22	134.44
479.439	135.44
479.658	118.44
479.876	121.44
480.095	115.44
480.313	114.44
480.532	118.44
480.751	117.44
480.969	105.44
481.188	85.44
481.406	86.44
481.624	99.44
481.843	90.44
482.061	111.44
482.28	105.44
482.498	106.44
482.717	119.44
482.935	120.44
483.153	132.44
483.372	169.44
483.59	154.44
483.808	142.44
484.027	134.44
484.245	137.44
484.463	147.44
484.681	163.44
484.9	149.44
485.118	136.44
485.336	124.44
485.554	102.44
485.772	106.44
485.99	90.44
486.209	113.44
486.427	99.44
486.645	117.44
486.863	138.44
487.081	145.44
487.299	141.44
487.517	134.44
487.735	149.44
487.953	186.44
488.171	178.44
488.389	174.44
488.607	146.44
488.825	122.44
489.043	115.44
489.261	118.44
489.479	121.44
489.696	135.44
489.914	142.44
490.132	150.44
490.35	141.44
490.568	159.44
490.786	149.44
491.003	157.44
491.221	163.44
491.439	177.44
491.657	197.44
491.874	201.44
492.092	229.44
492.31	242.44
492.527	223.44
492.745	199.44
492.963	196.44
493.18	181.44
493.398	168.44
493.615	181.44
493.833	159.44
494.05	180.44
494.268	146.44
494.485	165.44
494.703	176.44
494.92	175.44
495.138	146.44
495.355	171.44
495.573	167.44
495.79	162.44
496.008	165.44
496.225	166.44
496.442	163.44
496.66	181.44
496.877	161.44
497.094	147.44
497.312	159.44
497.529	159.44
497.746	148.44
497.963	125.44
498.181	140.44
498.398	105.44
498.615	115.44
498.832	119.44
499.049	127.44
499.267	113.44
499.484	99.44
499.701	133.44
499.918	109.44
500.135	145.44
500.352	155.44
500.569	158.44
500.786	145.44
501.003	133.44
501.22	132.44
501.437	127.44
501.654	135.44
501.871	128.44
502.088	121.44
502.305	131.44
502.522	119.44
502.739	126.44
502.956	124.44
503.172	111.44
503.389	127.44
503.606	99.44
503.823	103.44
504.04	126.44
504.256	119.44
504.473	113.44
504.69	131.44
504.907	118.44
505.123	129.44
505.34	106.44
505.557	117.44
505.773	129.44
505.99	116.44
506.207	115.44
506.423	122.44
506.64	111.44
506.856	122.44
507.073	120.44
507.289	125.44
507.506	127.44
507.722	112.44
507.939	112.44
508.155	115.44
508.372	102.44
508.588	103.44
508.805	101.44
509.021	109.44
509.238	113.44
509.454	98.44
509.67	95.44
509.887	89.44
510.103	92.44
510.319	93.44
510.536	79.44
510.752	79.44
510.968	74.44
511.184	92.44
511.401	77.44
511.617	93.44
511.833	86.44
