Data from Location4.07152019.Energy5.Lamp.07192019.3%Agarose_HRD10591_16-21-29-926.txt Node
Date: Fri Jul 19 16:21:29 EDT 2019
User: cochatt
Spectrometer: HR+D1059
Trigger mode: 1
Integration Time (sec): 1.000000E-1
Scans to average: 1
Electric dark correction enabled: true
Nonlinearity correction enabled: false
Boxcar width: 0
XAxis mode: Wavelengths
Number of Pixels in Spectrum: 2048
>>>>>Begin Spectral Data<<<<<
223.165	-22.62
223.4	-22.62
223.635	-22.62
223.869	-17.62
224.104	-11.62
224.338	-5.62
224.573	-19.62
224.808	-21.62
225.042	-10.62
225.277	-9.62
225.511	7.38
225.746	4.38
225.98	8.38
226.215	22.38
226.449	21.38
226.683	13.38
226.918	17.38
227.152	24.38
227.387	21.38
227.621	38.38
227.856	29.38
228.09	41.38
228.324	49.38
228.559	65.38
228.793	40.38
229.027	61.38
229.262	60.38
229.496	79.38
229.73	70.38
229.964	69.38
230.199	74.38
230.433	70.38
230.667	77.38
230.901	75.38
231.136	84.38
231.37	72.38
231.604	72.38
231.838	74.38
232.072	77.38
232.306	81.38
232.541	92.38
232.775	68.38
233.009	85.38
233.243	74.38
233.477	83.38
233.711	83.38
233.945	88.38
234.179	73.38
234.413	83.38
234.647	92.38
234.881	96.38
235.115	72.38
235.349	81.38
235.583	78.38
235.817	75.38
236.051	91.38
236.285	78.38
236.519	80.38
236.753	81.38
236.987	81.38
237.221	73.38
237.455	68.38
237.689	85.38
237.922	88.38
238.156	65.38
238.39	76.38
238.624	74.38
238.858	77.38
239.091	76.38
239.325	67.38
239.559	72.38
239.793	68.38
240.027	79.38
240.26	83.38
240.494	86.38
240.728	73.38
240.961	78.38
241.195	75.38
241.429	80.38
241.662	76.38
241.896	92.38
242.13	66.38
242.363	82.38
242.597	75.38
242.83	75.38
243.064	86.38
243.298	83.38
243.531	69.38
243.765	70.38
243.998	85.38
244.232	86.38
244.465	82.38
244.699	76.38
244.932	86.38
245.166	70.38
245.399	84.38
245.633	71.38
245.866	87.38
246.099	75.38
246.333	73.38
246.566	71.38
246.8	74.38
247.033	84.38
247.266	84.38
247.5	79.38
247.733	81.38
247.966	72.38
248.2	81.38
248.433	82.38
248.666	78.38
248.899	83.38
249.133	86.38
249.366	76.38
249.599	76.38
249.832	77.38
250.066	82.38
250.299	89.38
250.532	74.38
250.765	92.38
250.998	75.38
251.231	77.38
251.465	73.38
251.698	78.38
251.931	65.38
252.164	90.38
252.397	76.38
252.63	71.38
252.863	83.38
253.096	76.38
253.329	84.38
253.562	85.38
253.795	76.38
254.028	84.38
254.261	80.38
254.494	79.38
254.727	69.38
254.96	79.38
255.193	77.38
255.426	83.38
255.659	88.38
255.892	75.38
256.124	85.38
256.357	84.38
256.59	93.38
256.823	94.38
257.056	82.38
257.289	82.38
257.521	81.38
257.754	66.38
257.987	68.38
258.22	81.38
258.452	75.38
258.685	82.38
258.918	68.38
259.151	75.38
259.383	82.38
259.616	74.38
259.849	92.38
260.081	84.38
260.314	80.38
260.547	77.38
260.779	93.38
261.012	77.38
261.244	89.38
261.477	82.38
261.71	90.38
261.942	75.38
262.175	74.38
262.407	83.38
262.64	92.38
262.872	85.38
263.105	86.38
263.337	77.38
263.57	84.38
263.802	76.38
264.035	84.38
264.267	95.38
264.499	84.38
264.732	81.38
264.964	98.38
265.197	94.38
265.429	67.38
265.661	90.38
265.894	87.38
266.126	89.38
266.358	83.38
266.591	76.38
266.823	77.38
267.055	89.38
267.287	70.38
267.52	79.38
267.752	84.38
267.984	81.38
268.216	99.38
268.448	85.38
268.681	89.38
268.913	81.38
269.145	75.38
269.377	80.38
269.609	86.38
269.841	90.38
270.073	77.38
270.306	85.38
270.538	83.38
270.77	68.38
271.002	76.38
271.234	89.38
271.466	75.38
271.698	80.38
271.93	77.38
272.162	82.38
272.394	84.38
272.626	81.38
272.858	78.38
273.09	96.38
273.322	65.38
273.553	78.38
273.785	88.38
274.017	70.38
274.249	88.38
274.481	81.38
274.713	83.38
274.945	94.38
275.176	69.38
275.408	100.38
275.64	80.38
275.872	77.38
276.104	79.38
276.335	84.38
276.567	88.38
276.799	78.38
277.031	84.38
277.262	83.38
277.494	72.38
277.726	85.38
277.957	81.38
278.189	84.38
278.421	76.38
278.652	85.38
278.884	73.38
279.115	87.38
279.347	81.38
279.579	79.38
279.81	83.38
280.042	66.38
280.273	86.38
280.505	99.38
280.736	90.38
280.968	92.38
281.199	97.38
281.431	79.38
281.662	80.38
281.894	82.38
282.125	77.38
282.356	87.38
282.588	84.38
282.819	75.38
283.051	86.38
283.282	81.38
283.513	87.38
283.745	75.38
283.976	70.38
284.207	74.38
284.439	77.38
284.67	90.38
284.901	81.38
285.132	86.38
285.364	74.38
285.595	94.38
285.826	98.38
286.057	82.38
286.288	84.38
286.52	85.38
286.751	83.38
286.982	87.38
287.213	85.38
287.444	72.38
287.675	96.38
287.906	89.38
288.138	80.38
288.369	84.38
288.6	84.38
288.831	74.38
289.062	79.38
289.293	77.38
289.524	89.38
289.755	89.38
289.986	82.38
290.217	88.38
290.448	77.38
290.679	85.38
290.91	87.38
291.141	89.38
291.371	65.38
291.602	92.38
291.833	85.38
292.064	77.38
292.295	77.38
292.526	88.38
292.757	73.38
292.987	72.38
293.218	94.38
293.449	90.38
293.68	80.38
293.91	87.38
294.141	97.38
294.372	82.38
294.603	81.38
294.833	74.38
295.064	90.38
295.295	91.38
295.525	93.38
295.756	87.38
295.987	76.38
296.217	86.38
296.448	78.38
296.679	88.38
296.909	68.38
297.14	88.38
297.37	78.38
297.601	78.38
297.831	71.38
298.062	93.38
298.292	98.38
298.523	78.38
298.753	86.38
298.984	76.38
299.214	98.38
299.445	96.38
299.675	81.38
299.905	79.38
300.136	77.38
300.366	84.38
300.597	71.38
300.827	105.38
301.057	82.38
301.288	84.38
301.518	82.38
301.748	104.38
301.979	82.38
302.209	91.38
302.439	89.38
302.669	95.38
302.9	85.38
303.13	71.38
303.36	82.38
303.59	85.38
303.82	100.38
304.051	85.38
304.281	93.38
304.511	97.38
304.741	81.38
304.971	82.38
305.201	84.38
305.431	75.38
305.661	87.38
305.891	84.38
306.121	84.38
306.352	77.38
306.582	88.38
306.812	80.38
307.042	85.38
307.272	89.38
307.502	98.38
307.731	88.38
307.961	104.38
308.191	85.38
308.421	108.38
308.651	112.38
308.881	86.38
309.111	105.38
309.341	88.38
309.571	72.38
309.8	94.38
310.03	93.38
310.26	101.38
310.49	73.38
310.72	86.38
310.949	85.38
311.179	81.38
311.409	88.38
311.639	80.38
311.868	83.38
312.098	76.38
312.328	79.38
312.557	86.38
312.787	90.38
313.017	83.38
313.246	86.38
313.476	91.38
313.706	79.38
313.935	89.38
314.165	92.38
314.394	84.38
314.624	86.38
314.853	98.38
315.083	77.38
315.312	73.38
315.542	91.38
315.771	89.38
316.001	88.38
316.23	84.38
316.46	97.38
316.689	81.38
316.919	101.38
317.148	88.38
317.377	108.38
317.607	83.38
317.836	93.38
318.065	86.38
318.295	95.38
318.524	69.38
318.753	93.38
318.983	79.38
319.212	85.38
319.441	78.38
319.67	72.38
319.9	82.38
320.129	76.38
320.358	95.38
320.587	86.38
320.816	85.38
321.046	71.38
321.275	93.38
321.504	86.38
321.733	92.38
321.962	106.38
322.191	92.38
322.42	78.38
322.649	97.38
322.878	81.38
323.108	81.38
323.337	78.38
323.566	86.38
323.795	91.38
324.024	97.38
324.253	88.38
324.482	71.38
324.71	86.38
324.939	86.38
325.168	92.38
325.397	91.38
325.626	99.38
325.855	89.38
326.084	81.38
326.313	91.38
326.542	74.38
326.77	80.38
326.999	94.38
327.228	92.38
327.457	105.38
327.686	88.38
327.914	90.38
328.143	103.38
328.372	76.38
328.6	87.38
328.829	97.38
329.058	85.38
329.287	82.38
329.515	84.38
329.744	75.38
329.972	76.38
330.201	69.38
330.43	92.38
330.658	88.38
330.887	88.38
331.115	84.38
331.344	92.38
331.572	81.38
331.801	81.38
332.03	82.38
332.258	81.38
332.486	72.38
332.715	92.38
332.943	88.38
333.172	76.38
333.4	74.38
333.629	88.38
333.857	76.38
334.085	78.38
334.314	97.38
334.542	91.38
334.771	85.38
334.999	79.38
335.227	91.38
335.455	81.38
335.684	90.38
335.912	82.38
336.14	84.38
336.369	97.38
336.597	79.38
336.825	74.38
337.053	71.38
337.281	97.38
337.51	92.38
337.738	80.38
337.966	79.38
338.194	76.38
338.422	84.38
338.65	80.38
338.878	79.38
339.106	78.38
339.334	71.38
339.562	82.38
339.79	86.38
340.018	89.38
340.246	83.38
340.474	100.38
340.702	99.38
340.93	89.38
341.158	92.38
341.386	91.38
341.614	93.38
341.842	74.38
342.07	76.38
342.298	85.38
342.526	78.38
342.754	82.38
342.981	85.38
343.209	81.38
343.437	75.38
343.665	96.38
343.893	91.38
344.12	89.38
344.348	85.38
344.576	86.38
344.804	88.38
345.031	85.38
345.259	78.38
345.487	89.38
345.714	73.38
345.942	68.38
346.17	73.38
346.397	85.38
346.625	86.38
346.853	84.38
347.08	73.38
347.308	82.38
347.535	81.38
347.763	74.38
347.99	77.38
348.218	74.38
348.445	71.38
348.673	70.38
348.9	97.38
349.128	85.38
349.355	68.38
349.583	92.38
349.81	76.38
350.037	88.38
350.265	89.38
350.492	98.38
350.72	86.38
350.947	91.38
351.174	78.38
351.402	91.38
351.629	77.38
351.856	86.38
352.083	78.38
352.311	91.38
352.538	91.38
352.765	98.38
352.992	93.38
353.22	96.38
353.447	84.38
353.674	77.38
353.901	83.38
354.128	91.38
354.355	84.38
354.583	88.38
354.81	86.38
355.037	78.38
355.264	93.38
355.491	92.38
355.718	86.38
355.945	80.38
356.172	81.38
356.399	70.38
356.626	95.38
356.853	86.38
357.08	82.38
357.307	82.38
357.534	89.38
357.761	86.38
357.988	87.38
358.215	97.38
358.441	86.38
358.668	81.38
358.895	72.38
359.122	81.38
359.349	84.38
359.576	85.38
359.802	67.38
360.029	81.38
360.256	77.38
360.483	89.38
360.709	88.38
360.936	92.38
361.163	86.38
361.39	83.38
361.616	76.38
361.843	85.38
362.07	86.38
362.296	101.38
362.523	91.38
362.749	87.38
362.976	92.38
363.203	87.38
363.429	87.38
363.656	76.38
363.882	85.38
364.109	82.38
364.335	90.38
364.562	72.38
364.788	85.38
365.015	82.38
365.241	92.38
365.468	93.38
365.694	88.38
365.92	85.38
366.147	70.38
366.373	79.38
366.599	89.38
366.826	89.38
367.052	97.38
367.278	82.38
367.505	82.38
367.731	89.38
367.957	77.38
368.184	91.38
368.41	92.38
368.636	87.38
368.862	93.38
369.089	87.38
369.315	87.38
369.541	81.38
369.767	91.38
369.993	97.38
370.219	96.38
370.445	91.38
370.672	70.38
370.898	86.38
371.124	93.38
371.35	90.38
371.576	92.38
371.802	88.38
372.028	92.38
372.254	87.38
372.48	84.38
372.706	92.38
372.932	98.38
373.158	98.38
373.384	91.38
373.61	95.38
373.835	101.38
374.061	102.38
374.287	83.38
374.513	98.38
374.739	96.38
374.965	99.38
375.191	102.38
375.416	106.38
375.642	89.38
375.868	82.38
376.094	96.38
376.319	96.38
376.545	96.38
376.771	91.38
376.997	107.38
377.222	105.38
377.448	99.38
377.674	91.38
377.899	93.38
378.125	98.38
378.35	84.38
378.576	100.38
378.802	100.38
379.027	101.38
379.253	89.38
379.478	78.38
379.704	82.38
379.929	98.38
380.155	93.38
380.38	93.38
380.606	92.38
380.831	96.38
381.057	104.38
381.282	94.38
381.507	83.38
381.733	92.38
381.958	84.38
382.184	88.38
382.409	89.38
382.634	98.38
382.86	99.38
383.085	95.38
383.31	97.38
383.535	102.38
383.761	94.38
383.986	100.38
384.211	93.38
384.436	97.38
384.662	100.38
384.887	103.38
385.112	94.38
385.337	101.38
385.562	96.38
385.787	97.38
386.013	98.38
386.238	98.38
386.463	97.38
386.688	96.38
386.913	100.38
387.138	94.38
387.363	97.38
387.588	108.38
387.813	89.38
388.038	94.38
388.263	105.38
388.488	114.38
388.713	95.38
388.938	95.38
389.163	82.38
389.387	114.38
389.612	102.38
389.837	98.38
390.062	81.38
390.287	105.38
390.512	104.38
390.736	108.38
390.961	106.38
391.186	93.38
391.411	98.38
391.636	107.38
391.86	104.38
392.085	100.38
392.31	109.38
392.534	108.38
392.759	101.38
392.984	114.38
393.208	94.38
393.433	105.38
393.658	112.38
393.882	103.38
394.107	108.38
394.331	104.38
394.556	100.38
394.78	112.38
395.005	110.38
395.229	102.38
395.454	108.38
395.678	99.38
395.903	121.38
396.127	129.38
396.352	115.38
396.576	98.38
396.801	106.38
397.025	100.38
397.249	114.38
397.474	109.38
397.698	113.38
397.922	105.38
398.147	116.38
398.371	84.38
398.595	101.38
398.82	110.38
399.044	97.38
399.268	100.38
399.492	106.38
399.717	104.38
399.941	104.38
400.165	113.38
400.389	108.38
400.613	121.38
400.837	110.38
401.062	122.38
401.286	103.38
401.51	136.38
401.734	108.38
401.958	111.38
402.182	113.38
402.406	100.38
402.63	107.38
402.854	121.38
403.078	114.38
403.302	119.38
403.526	130.38
403.75	112.38
403.974	109.38
404.198	113.38
404.422	118.38
404.645	115.38
404.869	120.38
405.093	129.38
405.317	119.38
405.541	108.38
405.765	124.38
405.988	123.38
406.212	104.38
406.436	115.38
406.66	120.38
406.883	116.38
407.107	123.38
407.331	117.38
407.555	123.38
407.778	136.38
408.002	116.38
408.226	113.38
408.449	115.38
408.673	123.38
408.896	114.38
409.12	115.38
409.344	120.38
409.567	124.38
409.791	116.38
410.014	113.38
410.238	121.38
410.461	130.38
410.685	119.38
410.908	123.38
411.132	123.38
411.355	121.38
411.578	124.38
411.802	114.38
412.025	130.38
412.249	120.38
412.472	118.38
412.695	115.38
412.919	119.38
413.142	126.38
413.365	120.38
413.589	116.38
413.812	108.38
414.035	120.38
414.258	130.38
414.482	107.38
414.705	123.38
414.928	120.38
415.151	111.38
415.374	127.38
415.597	139.38
415.821	120.38
416.044	116.38
416.267	132.38
416.49	112.38
416.713	117.38
416.936	121.38
417.159	114.38
417.382	142.38
417.605	126.38
417.828	125.38
418.051	132.38
418.274	124.38
418.497	125.38
418.72	138.38
418.943	139.38
419.166	137.38
419.389	136.38
419.611	114.38
419.834	117.38
420.057	120.38
420.28	129.38
420.503	134.38
420.726	114.38
420.948	128.38
421.171	134.38
421.394	149.38
421.617	134.38
421.839	129.38
422.062	144.38
422.285	151.38
422.507	136.38
422.73	140.38
422.953	135.38
423.175	134.38
423.398	128.38
423.621	116.38
423.843	128.38
424.066	141.38
424.288	148.38
424.511	137.38
424.733	131.38
424.956	144.38
425.178	138.38
425.401	133.38
425.623	128.38
425.846	139.38
426.068	143.38
426.291	124.38
426.513	124.38
426.735	140.38
426.958	129.38
427.18	137.38
427.402	118.38
427.625	126.38
427.847	117.38
428.069	133.38
428.292	128.38
428.514	114.38
428.736	126.38
428.958	124.38
429.181	131.38
429.403	135.38
429.625	140.38
429.847	116.38
430.069	141.38
430.292	138.38
430.514	107.38
430.736	120.38
430.958	139.38
431.18	123.38
431.402	129.38
431.624	115.38
431.846	108.38
432.068	106.38
432.29	107.38
432.512	124.38
432.734	132.38
432.956	129.38
433.178	149.38
433.4	161.38
433.622	141.38
433.844	125.38
434.066	128.38
434.287	132.38
434.509	88.38
434.731	99.38
434.953	107.38
435.175	123.38
435.397	103.38
435.618	114.38
435.84	113.38
436.062	122.38
436.284	126.38
436.505	125.38
436.727	119.38
436.949	119.38
437.17	131.38
437.392	119.38
437.614	121.38
437.835	110.38
438.057	98.38
438.278	97.38
438.5	124.38
438.721	124.38
438.943	133.38
439.165	135.38
439.386	145.38
439.608	156.38
439.829	148.38
440.05	156.38
440.272	142.38
440.493	137.38
440.715	134.38
440.936	155.38
441.158	143.38
441.379	140.38
441.6	147.38
441.822	139.38
442.043	150.38
442.264	148.38
442.486	133.38
442.707	146.38
442.928	136.38
443.149	132.38
443.371	136.38
443.592	149.38
443.813	142.38
444.034	134.38
444.255	142.38
444.476	142.38
444.698	144.38
444.919	142.38
445.14	280.38
445.361	198.38
445.582	143.38
445.803	147.38
446.024	156.38
446.245	144.38
446.466	149.38
446.687	141.38
446.908	150.38
447.129	148.38
447.35	162.38
447.571	136.38
447.792	151.38
448.013	122.38
448.234	140.38
448.455	134.38
448.675	150.38
448.896	134.38
449.117	132.38
449.338	132.38
449.559	130.38
449.779	142.38
450	127.38
450.221	135.38
450.442	135.38
450.662	125.38
450.883	142.38
451.104	142.38
451.324	129.38
451.545	129.38
451.766	126.38
451.986	130.38
452.207	145.38
452.428	126.38
452.648	128.38
452.869	127.38
453.089	106.38
453.31	128.38
453.53	124.38
453.751	111.38
453.971	120.38
454.192	97.38
454.412	126.38
454.633	112.38
454.853	120.38
455.073	126.38
455.294	108.38
455.514	124.38
455.734	126.38
455.955	108.38
456.175	119.38
456.395	108.38
456.616	119.38
456.836	117.38
457.056	108.38
457.276	100.38
457.497	114.38
457.717	102.38
457.937	99.38
458.157	106.38
458.377	114.38
458.598	104.38
458.818	94.38
459.038	112.38
459.258	93.38
459.478	101.38
459.698	91.38
459.918	101.38
460.138	106.38
460.358	112.38
460.578	106.38
460.798	125.38
461.018	123.38
461.238	125.38
461.458	112.38
461.678	120.38
461.898	124.38
462.118	113.38
462.338	124.38
462.558	126.38
462.777	97.38
462.997	126.38
463.217	100.38
463.437	118.38
463.657	111.38
463.876	104.38
464.096	104.38
464.316	108.38
464.536	125.38
464.755	118.38
464.975	118.38
465.195	118.38
465.414	108.38
465.634	120.38
465.854	118.38
466.073	115.38
466.293	120.38
466.512	113.38
466.732	122.38
466.951	134.38
467.171	139.38
467.391	123.38
467.61	138.38
467.829	132.38
468.049	126.38
468.268	127.38
468.488	139.38
468.707	125.38
468.927	150.38
469.146	126.38
469.365	148.38
469.585	133.38
469.804	140.38
470.023	125.38
470.243	144.38
470.462	143.38
470.681	126.38
470.901	140.38
471.12	139.38
471.339	138.38
471.558	129.38
471.777	153.38
471.997	134.38
472.216	128.38
472.435	121.38
472.654	101.38
472.873	95.38
473.092	115.38
473.311	123.38
473.53	134.38
473.749	125.38
473.968	117.38
474.187	127.38
474.406	125.38
474.625	127.38
474.844	129.38
475.063	132.38
475.282	118.38
475.501	107.38
475.72	118.38
475.939	128.38
476.158	124.38
476.377	123.38
476.596	113.38
476.814	115.38
477.033	101.38
477.252	115.38
477.471	122.38
477.69	133.38
477.908	125.38
478.127	137.38
478.346	148.38
478.564	130.38
478.783	130.38
479.002	131.38
479.22	142.38
479.439	128.38
479.658	105.38
479.876	110.38
480.095	109.38
480.313	109.38
480.532	115.38
480.751	110.38
480.969	82.38
481.188	85.38
481.406	86.38
481.624	95.38
481.843	89.38
482.061	93.38
482.28	109.38
482.498	125.38
482.717	110.38
482.935	123.38
483.153	139.38
483.372	150.38
483.59	140.38
483.808	127.38
484.027	129.38
484.245	135.38
484.463	152.38
484.681	160.38
484.9	139.38
485.118	152.38
485.336	99.38
485.554	113.38
485.772	100.38
485.99	101.38
486.209	118.38
486.427	133.38
486.645	130.38
486.863	128.38
487.081	128.38
487.299	126.38
487.517	136.38
487.735	148.38
487.953	194.38
488.171	179.38
488.389	176.38
488.607	152.38
488.825	150.38
489.043	137.38
489.261	133.38
489.479	125.38
489.696	130.38
489.914	138.38
490.132	126.38
490.35	157.38
490.568	140.38
490.786	164.38
491.003	181.38
491.221	176.38
491.439	179.38
491.657	194.38
491.874	197.38
492.092	212.38
492.31	237.38
492.527	223.38
492.745	196.38
492.963	185.38
493.18	181.38
493.398	158.38
493.615	171.38
493.833	169.38
494.05	158.38
494.268	175.38
494.485	161.38
494.703	174.38
494.92	173.38
495.138	168.38
495.355	165.38
495.573	161.38
495.79	171.38
496.008	164.38
496.225	170.38
496.442	169.38
496.66	154.38
496.877	151.38
497.094	155.38
497.312	153.38
497.529	150.38
497.746	140.38
497.963	125.38
498.181	131.38
498.398	124.38
498.615	125.38
498.832	122.38
499.049	133.38
499.267	131.38
499.484	127.38
499.701	126.38
499.918	142.38
500.135	137.38
500.352	137.38
500.569	143.38
500.786	140.38
501.003	146.38
501.22	136.38
501.437	140.38
501.654	124.38
501.871	127.38
502.088	129.38
502.305	118.38
502.522	136.38
502.739	138.38
502.956	116.38
503.172	120.38
503.389	131.38
503.606	125.38
503.823	115.38
504.04	124.38
504.256	124.38
504.473	114.38
504.69	103.38
504.907	109.38
505.123	116.38
505.34	110.38
505.557	127.38
505.773	134.38
505.99	137.38
506.207	124.38
506.423	94.38
506.64	118.38
506.856	124.38
507.073	102.38
507.289	127.38
507.506	121.38
507.722	120.38
507.939	120.38
508.155	130.38
508.372	126.38
508.588	111.38
508.805	120.38
509.021	107.38
509.238	109.38
509.454	99.38
509.67	112.38
509.887	103.38
510.103	99.38
510.319	88.38
510.536	95.38
510.752	118.38
510.968	91.38
511.184	70.38
511.401	89.38
511.617	92.38
