Data from Location4.07152019.Energy5.Lamp.07192019.3%Agarose_HRD10591_16-21-05-926.txt Node
Date: Fri Jul 19 16:21:05 EDT 2019
User: cochatt
Spectrometer: HR+D1059
Trigger mode: 1
Integration Time (sec): 1.000000E-1
Scans to average: 1
Electric dark correction enabled: true
Nonlinearity correction enabled: false
Boxcar width: 0
XAxis mode: Wavelengths
Number of Pixels in Spectrum: 2048
>>>>>Begin Spectral Data<<<<<
223.165	-21.62
223.4	-21.62
223.635	-21.62
223.869	-11.62
224.104	-23.62
224.338	-5.62
224.573	-4.62
224.808	0.38
225.042	-9.62
225.277	-1.62
225.511	-5.62
225.746	-8.62
225.98	9.38
226.215	5.38
226.449	12.38
226.683	13.38
226.918	25.38
227.152	26.38
227.387	28.38
227.621	30.38
227.856	42.38
228.09	43.38
228.324	46.38
228.559	58.38
228.793	54.38
229.027	50.38
229.262	71.38
229.496	69.38
229.73	73.38
229.964	59.38
230.199	74.38
230.433	93.38
230.667	78.38
230.901	83.38
231.136	75.38
231.37	88.38
231.604	88.38
231.838	88.38
232.072	68.38
232.306	68.38
232.541	87.38
232.775	84.38
233.009	72.38
233.243	85.38
233.477	74.38
233.711	91.38
233.945	89.38
234.179	81.38
234.413	71.38
234.647	83.38
234.881	83.38
235.115	84.38
235.349	81.38
235.583	82.38
235.817	68.38
236.051	87.38
236.285	67.38
236.519	79.38
236.753	70.38
236.987	74.38
237.221	94.38
237.455	72.38
237.689	82.38
237.922	74.38
238.156	74.38
238.39	76.38
238.624	82.38
238.858	76.38
239.091	84.38
239.325	69.38
239.559	79.38
239.793	80.38
240.027	70.38
240.26	80.38
240.494	75.38
240.728	74.38
240.961	78.38
241.195	77.38
241.429	67.38
241.662	86.38
241.896	68.38
242.13	70.38
242.363	82.38
242.597	73.38
242.83	79.38
243.064	79.38
243.298	80.38
243.531	66.38
243.765	67.38
243.998	77.38
244.232	55.38
244.465	73.38
244.699	69.38
244.932	79.38
245.166	81.38
245.399	75.38
245.633	71.38
245.866	76.38
246.099	78.38
246.333	88.38
246.566	76.38
246.8	76.38
247.033	78.38
247.266	82.38
247.5	81.38
247.733	61.38
247.966	81.38
248.2	75.38
248.433	70.38
248.666	82.38
248.899	76.38
249.133	67.38
249.366	77.38
249.599	92.38
249.832	78.38
250.066	71.38
250.299	71.38
250.532	92.38
250.765	71.38
250.998	82.38
251.231	78.38
251.465	68.38
251.698	76.38
251.931	80.38
252.164	75.38
252.397	88.38
252.63	85.38
252.863	77.38
253.096	79.38
253.329	72.38
253.562	79.38
253.795	79.38
254.028	64.38
254.261	69.38
254.494	85.38
254.727	77.38
254.96	85.38
255.193	93.38
255.426	75.38
255.659	75.38
255.892	71.38
256.124	79.38
256.357	81.38
256.59	75.38
256.823	89.38
257.056	77.38
257.289	86.38
257.521	86.38
257.754	65.38
257.987	87.38
258.22	78.38
258.452	85.38
258.685	89.38
258.918	79.38
259.151	80.38
259.383	73.38
259.616	90.38
259.849	87.38
260.081	83.38
260.314	86.38
260.547	83.38
260.779	69.38
261.012	75.38
261.244	78.38
261.477	79.38
261.71	72.38
261.942	74.38
262.175	57.38
262.407	78.38
262.64	64.38
262.872	69.38
263.105	87.38
263.337	84.38
263.57	75.38
263.802	89.38
264.035	87.38
264.267	64.38
264.499	85.38
264.732	72.38
264.964	80.38
265.197	70.38
265.429	74.38
265.661	71.38
265.894	75.38
266.126	90.38
266.358	80.38
266.591	86.38
266.823	55.38
267.055	68.38
267.287	87.38
267.52	76.38
267.752	84.38
267.984	96.38
268.216	76.38
268.448	83.38
268.681	66.38
268.913	81.38
269.145	73.38
269.377	96.38
269.609	74.38
269.841	82.38
270.073	73.38
270.306	81.38
270.538	91.38
270.77	81.38
271.002	77.38
271.234	90.38
271.466	74.38
271.698	75.38
271.93	78.38
272.162	89.38
272.394	73.38
272.626	92.38
272.858	93.38
273.09	84.38
273.322	83.38
273.553	79.38
273.785	84.38
274.017	89.38
274.249	83.38
274.481	78.38
274.713	86.38
274.945	91.38
275.176	84.38
275.408	73.38
275.64	74.38
275.872	81.38
276.104	89.38
276.335	88.38
276.567	94.38
276.799	72.38
277.031	81.38
277.262	77.38
277.494	81.38
277.726	91.38
277.957	90.38
278.189	89.38
278.421	88.38
278.652	66.38
278.884	79.38
279.115	93.38
279.347	80.38
279.579	82.38
279.81	83.38
280.042	89.38
280.273	80.38
280.505	81.38
280.736	75.38
280.968	82.38
281.199	71.38
281.431	84.38
281.662	80.38
281.894	85.38
282.125	80.38
282.356	104.38
282.588	88.38
282.819	81.38
283.051	90.38
283.282	86.38
283.513	75.38
283.745	92.38
283.976	82.38
284.207	88.38
284.439	86.38
284.67	64.38
284.901	88.38
285.132	78.38
285.364	73.38
285.595	84.38
285.826	82.38
286.057	83.38
286.288	97.38
286.52	73.38
286.751	87.38
286.982	68.38
287.213	87.38
287.444	77.38
287.675	90.38
287.906	71.38
288.138	93.38
288.369	89.38
288.6	85.38
288.831	83.38
289.062	105.38
289.293	89.38
289.524	81.38
289.755	84.38
289.986	63.38
290.217	87.38
290.448	84.38
290.679	85.38
290.91	87.38
291.141	89.38
291.371	80.38
291.602	90.38
291.833	65.38
292.064	73.38
292.295	83.38
292.526	72.38
292.757	72.38
292.987	88.38
293.218	70.38
293.449	94.38
293.68	84.38
293.91	84.38
294.141	84.38
294.372	91.38
294.603	84.38
294.833	84.38
295.064	89.38
295.295	75.38
295.525	79.38
295.756	81.38
295.987	93.38
296.217	69.38
296.448	93.38
296.679	83.38
296.909	84.38
297.14	72.38
297.37	97.38
297.601	71.38
297.831	76.38
298.062	80.38
298.292	66.38
298.523	73.38
298.753	74.38
298.984	72.38
299.214	83.38
299.445	89.38
299.675	81.38
299.905	82.38
300.136	81.38
300.366	87.38
300.597	82.38
300.827	80.38
301.057	85.38
301.288	95.38
301.518	81.38
301.748	93.38
301.979	78.38
302.209	87.38
302.439	81.38
302.669	72.38
302.9	87.38
303.13	81.38
303.36	78.38
303.59	81.38
303.82	65.38
304.051	85.38
304.281	91.38
304.511	89.38
304.741	75.38
304.971	94.38
305.201	91.38
305.431	95.38
305.661	85.38
305.891	80.38
306.121	86.38
306.352	81.38
306.582	80.38
306.812	76.38
307.042	91.38
307.272	77.38
307.502	83.38
307.731	95.38
307.961	83.38
308.191	76.38
308.421	75.38
308.651	78.38
308.881	82.38
309.111	80.38
309.341	69.38
309.571	71.38
309.8	75.38
310.03	76.38
310.26	85.38
310.49	86.38
310.72	80.38
310.949	83.38
311.179	75.38
311.409	73.38
311.639	78.38
311.868	97.38
312.098	91.38
312.328	72.38
312.557	74.38
312.787	71.38
313.017	78.38
313.246	82.38
313.476	91.38
313.706	75.38
313.935	72.38
314.165	78.38
314.394	82.38
314.624	70.38
314.853	83.38
315.083	84.38
315.312	83.38
315.542	88.38
315.771	83.38
316.001	86.38
316.23	90.38
316.46	90.38
316.689	92.38
316.919	74.38
317.148	76.38
317.377	80.38
317.607	89.38
317.836	79.38
318.065	72.38
318.295	82.38
318.524	72.38
318.753	75.38
318.983	88.38
319.212	78.38
319.441	85.38
319.67	78.38
319.9	84.38
320.129	80.38
320.358	90.38
320.587	87.38
320.816	83.38
321.046	68.38
321.275	82.38
321.504	88.38
321.733	79.38
321.962	86.38
322.191	84.38
322.42	78.38
322.649	85.38
322.878	85.38
323.108	69.38
323.337	80.38
323.566	79.38
323.795	85.38
324.024	83.38
324.253	77.38
324.482	81.38
324.71	87.38
324.939	74.38
325.168	94.38
325.397	68.38
325.626	74.38
325.855	75.38
326.084	86.38
326.313	90.38
326.542	84.38
326.77	91.38
326.999	88.38
327.228	75.38
327.457	82.38
327.686	98.38
327.914	92.38
328.143	95.38
328.372	78.38
328.6	80.38
328.829	86.38
329.058	77.38
329.287	85.38
329.515	88.38
329.744	87.38
329.972	84.38
330.201	81.38
330.43	76.38
330.658	85.38
330.887	85.38
331.115	74.38
331.344	85.38
331.572	81.38
331.801	79.38
332.03	78.38
332.258	63.38
332.486	71.38
332.715	86.38
332.943	81.38
333.172	81.38
333.4	84.38
333.629	77.38
333.857	86.38
334.085	77.38
334.314	87.38
334.542	80.38
334.771	74.38
334.999	94.38
335.227	100.38
335.455	95.38
335.684	88.38
335.912	90.38
336.14	82.38
336.369	71.38
336.597	84.38
336.825	73.38
337.053	77.38
337.281	78.38
337.51	62.38
337.738	90.38
337.966	78.38
338.194	96.38
338.422	88.38
338.65	94.38
338.878	87.38
339.106	88.38
339.334	93.38
339.562	90.38
339.79	78.38
340.018	75.38
340.246	79.38
340.474	88.38
340.702	87.38
340.93	78.38
341.158	82.38
341.386	80.38
341.614	90.38
341.842	80.38
342.07	83.38
342.298	88.38
342.526	84.38
342.754	63.38
342.981	89.38
343.209	77.38
343.437	86.38
343.665	75.38
343.893	85.38
344.12	80.38
344.348	79.38
344.576	86.38
344.804	69.38
345.031	80.38
345.259	67.38
345.487	80.38
345.714	73.38
345.942	86.38
346.17	74.38
346.397	84.38
346.625	78.38
346.853	85.38
347.08	82.38
347.308	68.38
347.535	80.38
347.763	90.38
347.99	81.38
348.218	94.38
348.445	88.38
348.673	90.38
348.9	92.38
349.128	89.38
349.355	83.38
349.583	87.38
349.81	94.38
350.037	84.38
350.265	69.38
350.492	84.38
350.72	86.38
350.947	79.38
351.174	84.38
351.402	85.38
351.629	83.38
351.856	86.38
352.083	81.38
352.311	78.38
352.538	65.38
352.765	87.38
352.992	80.38
353.22	74.38
353.447	84.38
353.674	93.38
353.901	85.38
354.128	75.38
354.355	88.38
354.583	81.38
354.81	91.38
355.037	86.38
355.264	75.38
355.491	83.38
355.718	77.38
355.945	73.38
356.172	86.38
356.399	89.38
356.626	79.38
356.853	78.38
357.08	87.38
357.307	77.38
357.534	75.38
357.761	77.38
357.988	78.38
358.215	94.38
358.441	76.38
358.668	86.38
358.895	85.38
359.122	90.38
359.349	78.38
359.576	69.38
359.802	83.38
360.029	94.38
360.256	79.38
360.483	73.38
360.709	85.38
360.936	82.38
361.163	85.38
361.39	84.38
361.616	95.38
361.843	75.38
362.07	88.38
362.296	88.38
362.523	72.38
362.749	74.38
362.976	89.38
363.203	88.38
363.429	98.38
363.656	79.38
363.882	74.38
364.109	87.38
364.335	90.38
364.562	90.38
364.788	90.38
365.015	88.38
365.241	89.38
365.468	84.38
365.694	85.38
365.92	80.38
366.147	82.38
366.373	82.38
366.599	76.38
366.826	86.38
367.052	92.38
367.278	76.38
367.505	96.38
367.731	91.38
367.957	93.38
368.184	89.38
368.41	81.38
368.636	106.38
368.862	73.38
369.089	74.38
369.315	81.38
369.541	82.38
369.767	86.38
369.993	102.38
370.219	97.38
370.445	77.38
370.672	94.38
370.898	74.38
371.124	91.38
371.35	76.38
371.576	90.38
371.802	79.38
372.028	91.38
372.254	88.38
372.48	93.38
372.706	103.38
372.932	86.38
373.158	101.38
373.384	99.38
373.61	85.38
373.835	95.38
374.061	96.38
374.287	89.38
374.513	89.38
374.739	82.38
374.965	98.38
375.191	93.38
375.416	94.38
375.642	88.38
375.868	78.38
376.094	100.38
376.319	98.38
376.545	99.38
376.771	87.38
376.997	74.38
377.222	89.38
377.448	87.38
377.674	84.38
377.899	92.38
378.125	97.38
378.35	70.38
378.576	75.38
378.802	89.38
379.027	99.38
379.253	84.38
379.478	83.38
379.704	96.38
379.929	79.38
380.155	93.38
380.38	90.38
380.606	102.38
380.831	103.38
381.057	98.38
381.282	87.38
381.507	100.38
381.733	103.38
381.958	90.38
382.184	104.38
382.409	91.38
382.634	101.38
382.86	95.38
383.085	93.38
383.31	120.38
383.535	111.38
383.761	97.38
383.986	81.38
384.211	97.38
384.436	81.38
384.662	83.38
384.887	101.38
385.112	95.38
385.337	108.38
385.562	93.38
385.787	83.38
386.013	106.38
386.238	96.38
386.463	99.38
386.688	107.38
386.913	82.38
387.138	99.38
387.363	104.38
387.588	100.38
387.813	99.38
388.038	97.38
388.263	102.38
388.488	103.38
388.713	98.38
388.938	93.38
389.163	87.38
389.387	94.38
389.612	102.38
389.837	98.38
390.062	94.38
390.287	109.38
390.512	111.38
390.736	103.38
390.961	97.38
391.186	95.38
391.411	87.38
391.636	90.38
391.86	101.38
392.085	95.38
392.31	114.38
392.534	102.38
392.759	102.38
392.984	101.38
393.208	99.38
393.433	86.38
393.658	110.38
393.882	85.38
394.107	107.38
394.331	115.38
394.556	102.38
394.78	106.38
395.005	106.38
395.229	112.38
395.454	100.38
395.678	93.38
395.903	112.38
396.127	101.38
396.352	100.38
396.576	115.38
396.801	91.38
397.025	109.38
397.249	118.38
397.474	95.38
397.698	116.38
397.922	106.38
398.147	101.38
398.371	111.38
398.595	117.38
398.82	117.38
399.044	112.38
399.268	103.38
399.492	104.38
399.717	112.38
399.941	113.38
400.165	114.38
400.389	117.38
400.613	106.38
400.837	93.38
401.062	109.38
401.286	99.38
401.51	109.38
401.734	109.38
401.958	117.38
402.182	120.38
402.406	116.38
402.63	113.38
402.854	111.38
403.078	133.38
403.302	105.38
403.526	93.38
403.75	111.38
403.974	104.38
404.198	111.38
404.422	109.38
404.645	108.38
404.869	131.38
405.093	116.38
405.317	104.38
405.541	123.38
405.765	117.38
405.988	105.38
406.212	112.38
406.436	120.38
406.66	129.38
406.883	106.38
407.107	109.38
407.331	106.38
407.555	115.38
407.778	115.38
408.002	106.38
408.226	110.38
408.449	113.38
408.673	122.38
408.896	105.38
409.12	113.38
409.344	113.38
409.567	118.38
409.791	113.38
410.014	117.38
410.238	115.38
410.461	116.38
410.685	122.38
410.908	115.38
411.132	125.38
411.355	96.38
411.578	109.38
411.802	110.38
412.025	118.38
412.249	115.38
412.472	117.38
412.695	116.38
412.919	119.38
413.142	110.38
413.365	125.38
413.589	128.38
413.812	121.38
414.035	124.38
414.258	118.38
414.482	116.38
414.705	116.38
414.928	102.38
415.151	131.38
415.374	111.38
415.597	113.38
415.821	125.38
416.044	117.38
416.267	129.38
416.49	121.38
416.713	111.38
416.936	122.38
417.159	120.38
417.382	122.38
417.605	121.38
417.828	125.38
418.051	124.38
418.274	123.38
418.497	117.38
418.72	125.38
418.943	138.38
419.166	122.38
419.389	123.38
419.611	137.38
419.834	132.38
420.057	142.38
420.28	123.38
420.503	135.38
420.726	127.38
420.948	129.38
421.171	125.38
421.394	139.38
421.617	134.38
421.839	145.38
422.062	138.38
422.285	128.38
422.507	131.38
422.73	113.38
422.953	113.38
423.175	131.38
423.398	125.38
423.621	136.38
423.843	129.38
424.066	119.38
424.288	134.38
424.511	140.38
424.733	142.38
424.956	133.38
425.178	137.38
425.401	139.38
425.623	130.38
425.846	149.38
426.068	136.38
426.291	128.38
426.513	140.38
426.735	115.38
426.958	137.38
427.18	121.38
427.402	115.38
427.625	127.38
427.847	126.38
428.069	120.38
428.292	136.38
428.514	124.38
428.736	149.38
428.958	129.38
429.181	125.38
429.403	122.38
429.625	130.38
429.847	119.38
430.069	123.38
430.292	119.38
430.514	126.38
430.736	129.38
430.958	133.38
431.18	125.38
431.402	135.38
431.624	125.38
431.846	84.38
432.068	101.38
432.29	98.38
432.512	116.38
432.734	120.38
432.956	120.38
433.178	138.38
433.4	139.38
433.622	123.38
433.844	122.38
434.066	115.38
434.287	105.38
434.509	99.38
434.731	83.38
434.953	94.38
435.175	118.38
435.397	113.38
435.618	112.38
435.84	115.38
436.062	98.38
436.284	123.38
436.505	137.38
436.727	125.38
436.949	129.38
437.17	131.38
437.392	121.38
437.614	120.38
437.835	105.38
438.057	111.38
438.278	113.38
438.5	119.38
438.721	139.38
438.943	145.38
439.165	123.38
439.386	126.38
439.608	144.38
439.829	129.38
440.05	130.38
440.272	133.38
440.493	125.38
440.715	131.38
440.936	137.38
441.158	145.38
441.379	139.38
441.6	131.38
441.822	149.38
442.043	131.38
442.264	128.38
442.486	126.38
442.707	128.38
442.928	138.38
443.149	138.38
443.371	120.38
443.592	131.38
443.813	135.38
444.034	136.38
444.255	147.38
444.476	148.38
444.698	143.38
444.919	131.38
445.14	257.38
445.361	197.38
445.582	143.38
445.803	134.38
446.024	148.38
446.245	141.38
446.466	141.38
446.687	123.38
446.908	145.38
447.129	149.38
447.35	148.38
447.571	143.38
447.792	153.38
448.013	140.38
448.234	143.38
448.455	139.38
448.675	148.38
448.896	145.38
449.117	140.38
449.338	127.38
449.559	131.38
449.779	128.38
450	160.38
450.221	122.38
450.442	123.38
450.662	138.38
450.883	123.38
451.104	125.38
451.324	129.38
451.545	114.38
451.766	119.38
451.986	101.38
452.207	127.38
452.428	119.38
452.648	117.38
452.869	102.38
453.089	112.38
453.31	118.38
453.53	112.38
453.751	118.38
453.971	101.38
454.192	122.38
454.412	113.38
454.633	104.38
454.853	109.38
455.073	120.38
455.294	117.38
455.514	119.38
455.734	106.38
455.955	120.38
456.175	112.38
456.395	121.38
456.616	111.38
456.836	101.38
457.056	125.38
457.276	103.38
457.497	99.38
457.717	89.38
457.937	105.38
458.157	119.38
458.377	105.38
458.598	94.38
458.818	89.38
459.038	80.38
459.258	81.38
459.478	92.38
459.698	90.38
459.918	102.38
460.138	94.38
460.358	110.38
460.578	125.38
460.798	106.38
461.018	120.38
461.238	116.38
461.458	119.38
461.678	103.38
461.898	103.38
462.118	106.38
462.338	112.38
462.558	119.38
462.777	109.38
462.997	104.38
463.217	117.38
463.437	109.38
463.657	114.38
463.876	115.38
464.096	102.38
464.316	121.38
464.536	113.38
464.755	104.38
464.975	106.38
465.195	97.38
465.414	106.38
465.634	113.38
465.854	114.38
466.073	123.38
466.293	123.38
466.512	104.38
466.732	113.38
466.951	125.38
467.171	141.38
467.391	132.38
467.61	126.38
467.829	147.38
468.049	123.38
468.268	120.38
468.488	132.38
468.707	131.38
468.927	135.38
469.146	135.38
469.365	128.38
469.585	144.38
469.804	137.38
470.023	145.38
470.243	141.38
470.462	136.38
470.681	129.38
470.901	137.38
471.12	127.38
471.339	152.38
471.558	151.38
471.777	125.38
471.997	123.38
472.216	130.38
472.435	117.38
472.654	107.38
472.873	99.38
473.092	107.38
473.311	118.38
473.53	139.38
473.749	136.38
473.968	116.38
474.187	122.38
474.406	123.38
474.625	126.38
474.844	117.38
475.063	120.38
475.282	117.38
475.501	127.38
475.72	121.38
475.939	115.38
476.158	122.38
476.377	130.38
476.596	111.38
476.814	118.38
477.033	118.38
477.252	99.38
477.471	115.38
477.69	123.38
477.908	146.38
478.127	147.38
478.346	128.38
478.564	115.38
478.783	135.38
479.002	132.38
479.22	134.38
479.439	122.38
479.658	113.38
479.876	113.38
480.095	114.38
480.313	115.38
480.532	115.38
480.751	112.38
480.969	91.38
481.188	69.38
481.406	90.38
481.624	88.38
481.843	97.38
482.061	100.38
482.28	100.38
482.498	113.38
482.717	117.38
482.935	112.38
483.153	132.38
483.372	147.38
483.59	157.38
483.808	134.38
484.027	135.38
484.245	140.38
484.463	154.38
484.681	156.38
484.9	143.38
485.118	138.38
485.336	126.38
485.554	127.38
485.772	104.38
485.99	104.38
486.209	90.38
486.427	125.38
486.645	118.38
486.863	121.38
487.081	139.38
487.299	135.38
487.517	135.38
487.735	167.38
487.953	164.38
488.171	175.38
488.389	168.38
488.607	155.38
488.825	133.38
489.043	136.38
489.261	147.38
489.479	145.38
489.696	143.38
489.914	122.38
490.132	131.38
490.35	155.38
490.568	139.38
490.786	161.38
491.003	187.38
491.221	177.38
491.439	183.38
491.657	165.38
491.874	193.38
492.092	225.38
492.31	212.38
492.527	234.38
492.745	178.38
492.963	171.38
493.18	176.38
493.398	178.38
493.615	174.38
493.833	191.38
494.05	165.38
494.268	179.38
494.485	176.38
494.703	157.38
494.92	167.38
495.138	160.38
495.355	165.38
495.573	161.38
495.79	168.38
496.008	168.38
496.225	158.38
496.442	173.38
496.66	176.38
496.877	166.38
497.094	163.38
497.312	156.38
497.529	145.38
497.746	144.38
497.963	135.38
498.181	122.38
498.398	127.38
498.615	110.38
498.832	105.38
499.049	96.38
499.267	116.38
499.484	127.38
499.701	125.38
499.918	123.38
500.135	134.38
500.352	119.38
500.569	141.38
500.786	138.38
501.003	143.38
501.22	127.38
501.437	132.38
501.654	138.38
501.871	137.38
502.088	129.38
502.305	144.38
502.522	134.38
502.739	120.38
502.956	103.38
503.172	125.38
503.389	135.38
503.606	117.38
503.823	129.38
504.04	134.38
504.256	132.38
504.473	112.38
504.69	107.38
504.907	113.38
505.123	105.38
505.34	113.38
505.557	125.38
505.773	134.38
505.99	115.38
506.207	102.38
506.423	120.38
506.64	125.38
506.856	126.38
507.073	112.38
507.289	116.38
507.506	115.38
507.722	119.38
507.939	122.38
508.155	109.38
508.372	119.38
508.588	107.38
508.805	96.38
509.021	101.38
509.238	96.38
509.454	100.38
509.67	94.38
509.887	90.38
510.103	103.38
510.319	97.38
510.536	105.38
510.752	84.38
510.968	84.38
511.184	81.38
511.401	82.38
511.617	87.38
511.833	90.38
512.049	100.38
