Data from Location4.07152019.Energy5.Lamp.07192019.3%Agarose_HRD10591_16-18-55-924.txt Node
Date: Fri Jul 19 16:18:55 EDT 2019
User: cochatt
Spectrometer: HR+D1059
Trigger mode: 1
Integration Time (sec): 1.000000E-1
Scans to average: 1
Electric dark correction enabled: true
Nonlinearity correction enabled: false
Boxcar width: 0
XAxis mode: Wavelengths
Number of Pixels in Spectrum: 2048
>>>>>Begin Spectral Data<<<<<
223.165	-15.25
223.4	-15.25
223.635	-15.25
223.869	-16.25
224.104	-3.25
224.338	-15.25
224.573	-12.25
224.808	-11.25
225.042	-13.25
225.277	-12.25
225.511	-3.25
225.746	4.75
225.98	11.75
226.215	4.75
226.449	20.75
226.683	11.75
226.918	19.75
227.152	28.75
227.387	35.75
227.621	55.75
227.856	54.75
228.09	38.75
228.324	44.75
228.559	56.75
228.793	53.75
229.027	61.75
229.262	61.75
229.496	64.75
229.73	76.75
229.964	80.75
230.199	73.75
230.433	73.75
230.667	68.75
230.901	87.75
231.136	88.75
231.37	85.75
231.604	71.75
231.838	87.75
232.072	78.75
232.306	74.75
232.541	73.75
232.775	68.75
233.009	72.75
233.243	85.75
233.477	79.75
233.711	86.75
233.945	72.75
234.179	69.75
234.413	95.75
234.647	78.75
234.881	70.75
235.115	72.75
235.349	74.75
235.583	89.75
235.817	82.75
236.051	86.75
236.285	81.75
236.519	73.75
236.753	70.75
236.987	57.75
237.221	81.75
237.455	72.75
237.689	81.75
237.922	81.75
238.156	73.75
238.39	83.75
238.624	86.75
238.858	63.75
239.091	69.75
239.325	67.75
239.559	72.75
239.793	66.75
240.027	63.75
240.26	63.75
240.494	75.75
240.728	65.75
240.961	68.75
241.195	70.75
241.429	80.75
241.662	82.75
241.896	67.75
242.13	85.75
242.363	73.75
242.597	63.75
242.83	83.75
243.064	85.75
243.298	81.75
243.531	68.75
243.765	87.75
243.998	80.75
244.232	73.75
244.465	64.75
244.699	76.75
244.932	84.75
245.166	84.75
245.399	72.75
245.633	68.75
245.866	74.75
246.099	70.75
246.333	88.75
246.566	64.75
246.8	79.75
247.033	80.75
247.266	89.75
247.5	76.75
247.733	76.75
247.966	83.75
248.2	95.75
248.433	72.75
248.666	84.75
248.899	73.75
249.133	77.75
249.366	94.75
249.599	77.75
249.832	75.75
250.066	65.75
250.299	89.75
250.532	88.75
250.765	56.75
250.998	83.75
251.231	69.75
251.465	88.75
251.698	86.75
251.931	59.75
252.164	66.75
252.397	79.75
252.63	81.75
252.863	93.75
253.096	75.75
253.329	73.75
253.562	84.75
253.795	92.75
254.028	92.75
254.261	86.75
254.494	77.75
254.727	66.75
254.96	71.75
255.193	69.75
255.426	75.75
255.659	76.75
255.892	80.75
256.124	76.75
256.357	84.75
256.59	83.75
256.823	60.75
257.056	95.75
257.289	73.75
257.521	73.75
257.754	62.75
257.987	71.75
258.22	79.75
258.452	77.75
258.685	65.75
258.918	91.75
259.151	81.75
259.383	77.75
259.616	80.75
259.849	59.75
260.081	87.75
260.314	89.75
260.547	64.75
260.779	89.75
261.012	81.75
261.244	92.75
261.477	66.75
261.71	69.75
261.942	68.75
262.175	66.75
262.407	75.75
262.64	83.75
262.872	82.75
263.105	92.75
263.337	86.75
263.57	79.75
263.802	82.75
264.035	77.75
264.267	87.75
264.499	94.75
264.732	84.75
264.964	72.75
265.197	76.75
265.429	70.75
265.661	76.75
265.894	77.75
266.126	92.75
266.358	83.75
266.591	90.75
266.823	71.75
267.055	74.75
267.287	77.75
267.52	82.75
267.752	83.75
267.984	88.75
268.216	64.75
268.448	85.75
268.681	60.75
268.913	87.75
269.145	77.75
269.377	67.75
269.609	83.75
269.841	81.75
270.073	68.75
270.306	79.75
270.538	72.75
270.77	96.75
271.002	93.75
271.234	82.75
271.466	81.75
271.698	76.75
271.93	72.75
272.162	81.75
272.394	74.75
272.626	75.75
272.858	81.75
273.09	80.75
273.322	71.75
273.553	74.75
273.785	91.75
274.017	87.75
274.249	87.75
274.481	85.75
274.713	77.75
274.945	79.75
275.176	91.75
275.408	92.75
275.64	77.75
275.872	85.75
276.104	87.75
276.335	83.75
276.567	95.75
276.799	82.75
277.031	81.75
277.262	89.75
277.494	69.75
277.726	81.75
277.957	94.75
278.189	87.75
278.421	88.75
278.652	83.75
278.884	83.75
279.115	85.75
279.347	91.75
279.579	91.75
279.81	81.75
280.042	89.75
280.273	86.75
280.505	75.75
280.736	91.75
280.968	84.75
281.199	89.75
281.431	87.75
281.662	74.75
281.894	86.75
282.125	88.75
282.356	78.75
282.588	88.75
282.819	69.75
283.051	88.75
283.282	91.75
283.513	86.75
283.745	85.75
283.976	94.75
284.207	88.75
284.439	87.75
284.67	95.75
284.901	90.75
285.132	90.75
285.364	77.75
285.595	87.75
285.826	75.75
286.057	88.75
286.288	91.75
286.52	87.75
286.751	85.75
286.982	89.75
287.213	72.75
287.444	75.75
287.675	78.75
287.906	79.75
288.138	91.75
288.369	81.75
288.6	82.75
288.831	97.75
289.062	96.75
289.293	81.75
289.524	92.75
289.755	95.75
289.986	71.75
290.217	85.75
290.448	84.75
290.679	91.75
290.91	92.75
291.141	85.75
291.371	98.75
291.602	81.75
291.833	76.75
292.064	68.75
292.295	86.75
292.526	84.75
292.757	85.75
292.987	78.75
293.218	83.75
293.449	89.75
293.68	79.75
293.91	84.75
294.141	89.75
294.372	77.75
294.603	83.75
294.833	81.75
295.064	87.75
295.295	69.75
295.525	86.75
295.756	96.75
295.987	92.75
296.217	77.75
296.448	85.75
296.679	80.75
296.909	87.75
297.14	71.75
297.37	92.75
297.601	67.75
297.831	90.75
298.062	85.75
298.292	81.75
298.523	83.75
298.753	86.75
298.984	94.75
299.214	76.75
299.445	92.75
299.675	87.75
299.905	99.75
300.136	85.75
300.366	92.75
300.597	85.75
300.827	80.75
301.057	75.75
301.288	85.75
301.518	91.75
301.748	73.75
301.979	84.75
302.209	85.75
302.439	77.75
302.669	82.75
302.9	99.75
303.13	89.75
303.36	83.75
303.59	85.75
303.82	84.75
304.051	88.75
304.281	88.75
304.511	86.75
304.741	91.75
304.971	90.75
305.201	87.75
305.431	86.75
305.661	70.75
305.891	76.75
306.121	84.75
306.352	88.75
306.582	76.75
306.812	87.75
307.042	85.75
307.272	89.75
307.502	90.75
307.731	87.75
307.961	70.75
308.191	84.75
308.421	81.75
308.651	100.75
308.881	85.75
309.111	76.75
309.341	82.75
309.571	97.75
309.8	72.75
310.03	94.75
310.26	107.75
310.49	95.75
310.72	92.75
310.949	81.75
311.179	84.75
311.409	84.75
311.639	91.75
311.868	76.75
312.098	72.75
312.328	92.75
312.557	83.75
312.787	79.75
313.017	81.75
313.246	91.75
313.476	82.75
313.706	74.75
313.935	99.75
314.165	90.75
314.394	68.75
314.624	59.75
314.853	81.75
315.083	82.75
315.312	77.75
315.542	84.75
315.771	86.75
316.001	88.75
316.23	80.75
316.46	81.75
316.689	96.75
316.919	98.75
317.148	82.75
317.377	80.75
317.607	89.75
317.836	86.75
318.065	77.75
318.295	90.75
318.524	83.75
318.753	73.75
318.983	89.75
319.212	87.75
319.441	111.75
319.67	83.75
319.9	82.75
320.129	74.75
320.358	86.75
320.587	86.75
320.816	91.75
321.046	79.75
321.275	81.75
321.504	78.75
321.733	76.75
321.962	78.75
322.191	87.75
322.42	97.75
322.649	84.75
322.878	98.75
323.108	91.75
323.337	82.75
323.566	86.75
323.795	73.75
324.024	91.75
324.253	86.75
324.482	79.75
324.71	78.75
324.939	85.75
325.168	92.75
325.397	88.75
325.626	85.75
325.855	86.75
326.084	81.75
326.313	87.75
326.542	82.75
326.77	92.75
326.999	76.75
327.228	86.75
327.457	98.75
327.686	74.75
327.914	81.75
328.143	79.75
328.372	87.75
328.6	81.75
328.829	91.75
329.058	93.75
329.287	88.75
329.515	81.75
329.744	92.75
329.972	92.75
330.201	86.75
330.43	76.75
330.658	74.75
330.887	83.75
331.115	80.75
331.344	82.75
331.572	92.75
331.801	88.75
332.03	103.75
332.258	86.75
332.486	82.75
332.715	84.75
332.943	86.75
333.172	80.75
333.4	68.75
333.629	92.75
333.857	99.75
334.085	79.75
334.314	84.75
334.542	92.75
334.771	85.75
334.999	84.75
335.227	93.75
335.455	85.75
335.684	81.75
335.912	99.75
336.14	84.75
336.369	86.75
336.597	83.75
336.825	81.75
337.053	89.75
337.281	80.75
337.51	81.75
337.738	89.75
337.966	73.75
338.194	77.75
338.422	91.75
338.65	88.75
338.878	88.75
339.106	87.75
339.334	88.75
339.562	72.75
339.79	77.75
340.018	82.75
340.246	72.75
340.474	84.75
340.702	93.75
340.93	72.75
341.158	85.75
341.386	86.75
341.614	85.75
341.842	87.75
342.07	97.75
342.298	81.75
342.526	77.75
342.754	98.75
342.981	92.75
343.209	90.75
343.437	81.75
343.665	71.75
343.893	77.75
344.12	81.75
344.348	88.75
344.576	68.75
344.804	87.75
345.031	85.75
345.259	80.75
345.487	87.75
345.714	83.75
345.942	77.75
346.17	83.75
346.397	73.75
346.625	80.75
346.853	102.75
347.08	78.75
347.308	83.75
347.535	84.75
347.763	99.75
347.99	92.75
348.218	82.75
348.445	80.75
348.673	80.75
348.9	76.75
349.128	93.75
349.355	83.75
349.583	75.75
349.81	95.75
350.037	76.75
350.265	81.75
350.492	91.75
350.72	76.75
350.947	85.75
351.174	99.75
351.402	78.75
351.629	89.75
351.856	88.75
352.083	77.75
352.311	86.75
352.538	87.75
352.765	85.75
352.992	90.75
353.22	83.75
353.447	80.75
353.674	92.75
353.901	81.75
354.128	85.75
354.355	75.75
354.583	84.75
354.81	97.75
355.037	76.75
355.264	89.75
355.491	77.75
355.718	84.75
355.945	88.75
356.172	76.75
356.399	90.75
356.626	73.75
356.853	78.75
357.08	78.75
357.307	84.75
357.534	81.75
357.761	80.75
357.988	85.75
358.215	87.75
358.441	83.75
358.668	68.75
358.895	87.75
359.122	79.75
359.349	82.75
359.576	75.75
359.802	76.75
360.029	96.75
360.256	76.75
360.483	84.75
360.709	80.75
360.936	76.75
361.163	72.75
361.39	92.75
361.616	81.75
361.843	88.75
362.07	80.75
362.296	73.75
362.523	93.75
362.749	82.75
362.976	80.75
363.203	85.75
363.429	87.75
363.656	84.75
363.882	88.75
364.109	83.75
364.335	81.75
364.562	83.75
364.788	76.75
365.015	76.75
365.241	76.75
365.468	87.75
365.694	90.75
365.92	80.75
366.147	80.75
366.373	99.75
366.599	83.75
366.826	74.75
367.052	75.75
367.278	88.75
367.505	89.75
367.731	88.75
367.957	88.75
368.184	84.75
368.41	101.75
368.636	91.75
368.862	84.75
369.089	81.75
369.315	98.75
369.541	95.75
369.767	83.75
369.993	100.75
370.219	88.75
370.445	87.75
370.672	75.75
370.898	88.75
371.124	90.75
371.35	88.75
371.576	85.75
371.802	89.75
372.028	97.75
372.254	97.75
372.48	87.75
372.706	98.75
372.932	91.75
373.158	88.75
373.384	76.75
373.61	79.75
373.835	83.75
374.061	94.75
374.287	83.75
374.513	79.75
374.739	87.75
374.965	91.75
375.191	104.75
375.416	94.75
375.642	91.75
375.868	88.75
376.094	96.75
376.319	80.75
376.545	90.75
376.771	100.75
376.997	119.75
377.222	103.75
377.448	96.75
377.674	93.75
377.899	84.75
378.125	92.75
378.35	89.75
378.576	89.75
378.802	95.75
379.027	104.75
379.253	93.75
379.478	101.75
379.704	84.75
379.929	97.75
380.155	113.75
380.38	85.75
380.606	86.75
380.831	115.75
381.057	91.75
381.282	97.75
381.507	99.75
381.733	95.75
381.958	104.75
382.184	91.75
382.409	94.75
382.634	98.75
382.86	94.75
383.085	89.75
383.31	95.75
383.535	112.75
383.761	95.75
383.986	107.75
384.211	107.75
384.436	94.75
384.662	106.75
384.887	98.75
385.112	99.75
385.337	108.75
385.562	102.75
385.787	95.75
386.013	100.75
386.238	92.75
386.463	95.75
386.688	99.75
386.913	104.75
387.138	97.75
387.363	108.75
387.588	115.75
387.813	94.75
388.038	93.75
388.263	101.75
388.488	97.75
388.713	106.75
388.938	89.75
389.163	102.75
389.387	96.75
389.612	99.75
389.837	96.75
390.062	107.75
390.287	96.75
390.512	120.75
390.736	112.75
390.961	94.75
391.186	108.75
391.411	96.75
391.636	106.75
391.86	104.75
392.085	113.75
392.31	107.75
392.534	105.75
392.759	100.75
392.984	98.75
393.208	115.75
393.433	113.75
393.658	116.75
393.882	111.75
394.107	108.75
394.331	109.75
394.556	105.75
394.78	108.75
395.005	96.75
395.229	117.75
395.454	102.75
395.678	110.75
395.903	112.75
396.127	112.75
396.352	107.75
396.576	114.75
396.801	102.75
397.025	94.75
397.249	107.75
397.474	104.75
397.698	118.75
397.922	124.75
398.147	111.75
398.371	92.75
398.595	119.75
398.82	111.75
399.044	108.75
399.268	108.75
399.492	118.75
399.717	120.75
399.941	93.75
400.165	107.75
400.389	102.75
400.613	111.75
400.837	119.75
401.062	111.75
401.286	108.75
401.51	103.75
401.734	133.75
401.958	123.75
402.182	111.75
402.406	102.75
402.63	114.75
402.854	124.75
403.078	113.75
403.302	109.75
403.526	109.75
403.75	99.75
403.974	124.75
404.198	115.75
404.422	98.75
404.645	103.75
404.869	108.75
405.093	117.75
405.317	129.75
405.541	114.75
405.765	104.75
405.988	121.75
406.212	107.75
406.436	113.75
406.66	125.75
406.883	114.75
407.107	104.75
407.331	105.75
407.555	121.75
407.778	113.75
408.002	125.75
408.226	113.75
408.449	107.75
408.673	111.75
408.896	98.75
409.12	125.75
409.344	114.75
409.567	112.75
409.791	114.75
410.014	112.75
410.238	116.75
410.461	116.75
410.685	134.75
410.908	126.75
411.132	119.75
411.355	121.75
411.578	130.75
411.802	124.75
412.025	117.75
412.249	107.75
412.472	103.75
412.695	124.75
412.919	113.75
413.142	120.75
413.365	122.75
413.589	118.75
413.812	113.75
414.035	127.75
414.258	129.75
414.482	113.75
414.705	131.75
414.928	117.75
415.151	104.75
415.374	113.75
415.597	120.75
415.821	129.75
416.044	129.75
416.267	128.75
416.49	134.75
416.713	118.75
416.936	130.75
417.159	125.75
417.382	117.75
417.605	138.75
417.828	131.75
418.051	127.75
418.274	134.75
418.497	141.75
418.72	126.75
418.943	145.75
419.166	125.75
419.389	149.75
419.611	142.75
419.834	133.75
420.057	130.75
420.28	117.75
420.503	121.75
420.726	136.75
420.948	125.75
421.171	129.75
421.394	141.75
421.617	139.75
421.839	136.75
422.062	140.75
422.285	137.75
422.507	118.75
422.73	133.75
422.953	118.75
423.175	138.75
423.398	131.75
423.621	130.75
423.843	138.75
424.066	143.75
424.288	124.75
424.511	159.75
424.733	165.75
424.956	140.75
425.178	141.75
425.401	144.75
425.623	155.75
425.846	136.75
426.068	126.75
426.291	127.75
426.513	121.75
426.735	121.75
426.958	120.75
427.18	122.75
427.402	139.75
427.625	129.75
427.847	123.75
428.069	124.75
428.292	117.75
428.514	132.75
428.736	111.75
428.958	122.75
429.181	132.75
429.403	122.75
429.625	131.75
429.847	129.75
430.069	130.75
430.292	116.75
430.514	130.75
430.736	89.75
430.958	135.75
431.18	130.75
431.402	132.75
431.624	112.75
431.846	113.75
432.068	95.75
432.29	96.75
432.512	122.75
432.734	141.75
432.956	132.75
433.178	130.75
433.4	132.75
433.622	140.75
433.844	129.75
434.066	114.75
434.287	105.75
434.509	102.75
434.731	107.75
434.953	103.75
435.175	114.75
435.397	123.75
435.618	122.75
435.84	122.75
436.062	112.75
436.284	131.75
436.505	133.75
436.727	122.75
436.949	121.75
437.17	129.75
437.392	135.75
437.614	127.75
437.835	125.75
438.057	120.75
438.278	116.75
438.5	116.75
438.721	136.75
438.943	132.75
439.165	139.75
439.386	139.75
439.608	150.75
439.829	146.75
440.05	148.75
440.272	154.75
440.493	129.75
440.715	147.75
440.936	141.75
441.158	143.75
441.379	135.75
441.6	147.75
441.822	144.75
442.043	137.75
442.264	115.75
442.486	137.75
442.707	136.75
442.928	144.75
443.149	147.75
443.371	129.75
443.592	125.75
443.813	135.75
444.034	135.75
444.255	136.75
444.476	143.75
444.698	143.75
444.919	150.75
445.14	276.75
445.361	198.75
445.582	171.75
445.803	145.75
446.024	139.75
446.245	152.75
446.466	154.75
446.687	154.75
446.908	148.75
447.129	157.75
447.35	161.75
447.571	157.75
447.792	160.75
448.013	150.75
448.234	141.75
448.455	145.75
448.675	136.75
448.896	141.75
449.117	119.75
449.338	145.75
449.559	147.75
449.779	139.75
450	133.75
450.221	134.75
450.442	119.75
450.662	129.75
450.883	130.75
451.104	148.75
451.324	129.75
451.545	136.75
451.766	137.75
451.986	131.75
452.207	122.75
452.428	123.75
452.648	122.75
452.869	114.75
453.089	106.75
453.31	101.75
453.53	104.75
453.751	96.75
453.971	80.75
454.192	104.75
454.412	113.75
454.633	109.75
454.853	127.75
455.073	123.75
455.294	130.75
455.514	118.75
455.734	115.75
455.955	111.75
456.175	109.75
456.395	109.75
456.616	101.75
456.836	108.75
457.056	109.75
457.276	95.75
457.497	110.75
457.717	105.75
457.937	112.75
458.157	111.75
458.377	89.75
458.598	113.75
458.818	99.75
459.038	101.75
459.258	89.75
459.478	92.75
459.698	92.75
459.918	109.75
460.138	109.75
460.358	112.75
460.578	108.75
460.798	115.75
461.018	125.75
461.238	115.75
461.458	119.75
461.678	106.75
461.898	112.75
462.118	108.75
462.338	129.75
462.558	119.75
462.777	110.75
462.997	107.75
463.217	107.75
463.437	107.75
463.657	85.75
463.876	113.75
464.096	112.75
464.316	112.75
464.536	112.75
464.755	117.75
464.975	123.75
465.195	119.75
465.414	98.75
465.634	123.75
465.854	123.75
466.073	116.75
466.293	112.75
466.512	127.75
466.732	122.75
466.951	133.75
467.171	130.75
467.391	130.75
467.61	147.75
467.829	131.75
468.049	132.75
468.268	123.75
468.488	141.75
468.707	143.75
468.927	141.75
469.146	144.75
469.365	131.75
469.585	143.75
469.804	135.75
470.023	141.75
470.243	129.75
470.462	141.75
470.681	145.75
470.901	133.75
471.12	149.75
471.339	145.75
471.558	147.75
471.777	128.75
471.997	153.75
472.216	126.75
472.435	114.75
472.654	119.75
472.873	100.75
473.092	107.75
473.311	109.75
473.53	134.75
473.749	132.75
473.968	141.75
474.187	126.75
474.406	123.75
474.625	128.75
474.844	117.75
475.063	132.75
475.282	147.75
475.501	115.75
475.72	124.75
475.939	123.75
476.158	130.75
476.377	127.75
476.596	123.75
476.814	94.75
477.033	108.75
477.252	132.75
477.471	127.75
477.69	128.75
477.908	148.75
478.127	145.75
478.346	139.75
478.564	135.75
478.783	139.75
479.002	145.75
479.22	139.75
479.439	127.75
479.658	131.75
479.876	126.75
480.095	111.75
480.313	117.75
480.532	116.75
480.751	103.75
480.969	111.75
481.188	81.75
481.406	96.75
481.624	88.75
481.843	89.75
482.061	103.75
482.28	127.75
482.498	120.75
482.717	116.75
482.935	122.75
483.153	132.75
483.372	156.75
483.59	147.75
483.808	130.75
484.027	121.75
484.245	133.75
484.463	160.75
484.681	170.75
484.9	154.75
485.118	140.75
485.336	123.75
485.554	117.75
485.772	86.75
485.99	109.75
486.209	107.75
486.427	124.75
486.645	125.75
486.863	132.75
487.081	137.75
487.299	132.75
487.517	143.75
487.735	177.75
487.953	193.75
488.171	189.75
488.389	169.75
488.607	165.75
488.825	142.75
489.043	140.75
489.261	132.75
489.479	139.75
489.696	147.75
489.914	148.75
490.132	140.75
490.35	159.75
490.568	165.75
490.786	169.75
491.003	170.75
491.221	177.75
491.439	175.75
491.657	193.75
491.874	195.75
492.092	222.75
492.31	240.75
492.527	216.75
492.745	193.75
492.963	184.75
493.18	172.75
493.398	165.75
493.615	172.75
493.833	164.75
494.05	182.75
494.268	161.75
494.485	165.75
494.703	185.75
494.92	172.75
495.138	164.75
495.355	191.75
495.573	177.75
495.79	160.75
496.008	176.75
496.225	185.75
496.442	165.75
496.66	147.75
496.877	166.75
497.094	171.75
497.312	153.75
497.529	150.75
497.746	152.75
497.963	133.75
498.181	123.75
498.398	133.75
498.615	128.75
498.832	108.75
499.049	115.75
499.267	129.75
499.484	111.75
499.701	140.75
499.918	136.75
500.135	133.75
500.352	144.75
500.569	150.75
500.786	137.75
501.003	140.75
501.22	128.75
501.437	140.75
501.654	140.75
501.871	122.75
502.088	123.75
502.305	124.75
502.522	124.75
502.739	135.75
502.956	124.75
503.172	127.75
503.389	133.75
503.606	113.75
503.823	125.75
504.04	107.75
504.256	124.75
504.473	115.75
504.69	120.75
504.907	121.75
505.123	121.75
505.34	121.75
505.557	120.75
505.773	128.75
505.99	131.75
506.207	125.75
506.423	112.75
506.64	117.75
506.856	111.75
507.073	120.75
507.289	126.75
507.506	116.75
507.722	131.75
507.939	120.75
508.155	110.75
508.372	116.75
508.588	121.75
508.805	116.75
509.021	125.75
509.238	111.75
509.454	101.75
509.67	106.75
509.887	103.75
510.103	93.75
510.319	100.75
510.536	96.75
510.752	89.75
510.968	89.75
511.184	85.75
511.401	86.75
511.617	81.75
