Data from Location4.07152019.Energy5.Lamp.07192019.3%Agarose_HRD10591_16-20-06-926.txt Node
Date: Fri Jul 19 16:20:06 EDT 2019
User: cochatt
Spectrometer: HR+D1059
Trigger mode: 1
Integration Time (sec): 1.000000E-1
Scans to average: 1
Electric dark correction enabled: true
Nonlinearity correction enabled: false
Boxcar width: 0
XAxis mode: Wavelengths
Number of Pixels in Spectrum: 2048
>>>>>Begin Spectral Data<<<<<
223.165	-14.12
223.4	-14.12
223.635	-14.12
223.869	-15.12
224.104	-28.12
224.338	-13.12
224.573	-21.12
224.808	-15.12
225.042	-7.12
225.277	-0.12
225.511	-5.12
225.746	-4.12
225.98	3.88
226.215	12.88
226.449	31.88
226.683	24.88
226.918	22.88
227.152	26.88
227.387	35.88
227.621	34.88
227.856	42.88
228.09	41.88
228.324	50.88
228.559	64.88
228.793	67.88
229.027	53.88
229.262	64.88
229.496	73.88
229.73	60.88
229.964	67.88
230.199	78.88
230.433	87.88
230.667	78.88
230.901	85.88
231.136	76.88
231.37	74.88
231.604	94.88
231.838	74.88
232.072	80.88
232.306	80.88
232.541	54.88
232.775	66.88
233.009	83.88
233.243	75.88
233.477	90.88
233.711	87.88
233.945	73.88
234.179	81.88
234.413	81.88
234.647	76.88
234.881	83.88
235.115	79.88
235.349	86.88
235.583	86.88
235.817	64.88
236.051	78.88
236.285	64.88
236.519	96.88
236.753	66.88
236.987	76.88
237.221	73.88
237.455	73.88
237.689	81.88
237.922	80.88
238.156	72.88
238.39	79.88
238.624	77.88
238.858	80.88
239.091	72.88
239.325	81.88
239.559	74.88
239.793	80.88
240.027	87.88
240.26	88.88
240.494	80.88
240.728	70.88
240.961	75.88
241.195	79.88
241.429	80.88
241.662	82.88
241.896	79.88
242.13	78.88
242.363	75.88
242.597	74.88
242.83	85.88
243.064	82.88
243.298	81.88
243.531	83.88
243.765	79.88
243.998	85.88
244.232	68.88
244.465	76.88
244.699	76.88
244.932	74.88
245.166	84.88
245.399	78.88
245.633	70.88
245.866	82.88
246.099	75.88
246.333	75.88
246.566	85.88
246.8	81.88
247.033	81.88
247.266	63.88
247.5	86.88
247.733	89.88
247.966	89.88
248.2	85.88
248.433	68.88
248.666	76.88
248.899	76.88
249.133	86.88
249.366	95.88
249.599	80.88
249.832	70.88
250.066	84.88
250.299	78.88
250.532	81.88
250.765	76.88
250.998	74.88
251.231	87.88
251.465	83.88
251.698	87.88
251.931	96.88
252.164	79.88
252.397	82.88
252.63	82.88
252.863	83.88
253.096	79.88
253.329	73.88
253.562	81.88
253.795	89.88
254.028	69.88
254.261	83.88
254.494	78.88
254.727	76.88
254.96	91.88
255.193	74.88
255.426	76.88
255.659	74.88
255.892	82.88
256.124	89.88
256.357	75.88
256.59	84.88
256.823	73.88
257.056	76.88
257.289	67.88
257.521	81.88
257.754	63.88
257.987	63.88
258.22	83.88
258.452	80.88
258.685	76.88
258.918	84.88
259.151	88.88
259.383	80.88
259.616	76.88
259.849	81.88
260.081	74.88
260.314	69.88
260.547	86.88
260.779	81.88
261.012	89.88
261.244	84.88
261.477	79.88
261.71	78.88
261.942	85.88
262.175	68.88
262.407	75.88
262.64	88.88
262.872	91.88
263.105	86.88
263.337	73.88
263.57	74.88
263.802	77.88
264.035	74.88
264.267	77.88
264.499	75.88
264.732	78.88
264.964	86.88
265.197	84.88
265.429	80.88
265.661	70.88
265.894	88.88
266.126	82.88
266.358	70.88
266.591	75.88
266.823	76.88
267.055	88.88
267.287	75.88
267.52	80.88
267.752	81.88
267.984	68.88
268.216	72.88
268.448	71.88
268.681	79.88
268.913	90.88
269.145	84.88
269.377	74.88
269.609	76.88
269.841	78.88
270.073	88.88
270.306	81.88
270.538	76.88
270.77	78.88
271.002	84.88
271.234	85.88
271.466	74.88
271.698	78.88
271.93	73.88
272.162	86.88
272.394	85.88
272.626	91.88
272.858	76.88
273.09	87.88
273.322	89.88
273.553	93.88
273.785	83.88
274.017	60.88
274.249	94.88
274.481	78.88
274.713	90.88
274.945	88.88
275.176	73.88
275.408	82.88
275.64	83.88
275.872	74.88
276.104	89.88
276.335	83.88
276.567	84.88
276.799	72.88
277.031	80.88
277.262	78.88
277.494	79.88
277.726	76.88
277.957	84.88
278.189	87.88
278.421	73.88
278.652	84.88
278.884	82.88
279.115	91.88
279.347	87.88
279.579	86.88
279.81	81.88
280.042	84.88
280.273	76.88
280.505	89.88
280.736	80.88
280.968	90.88
281.199	98.88
281.431	97.88
281.662	85.88
281.894	86.88
282.125	80.88
282.356	78.88
282.588	84.88
282.819	84.88
283.051	74.88
283.282	77.88
283.513	90.88
283.745	66.88
283.976	78.88
284.207	89.88
284.439	84.88
284.67	68.88
284.901	80.88
285.132	86.88
285.364	72.88
285.595	89.88
285.826	80.88
286.057	84.88
286.288	83.88
286.52	84.88
286.751	78.88
286.982	82.88
287.213	76.88
287.444	86.88
287.675	85.88
287.906	67.88
288.138	85.88
288.369	96.88
288.6	72.88
288.831	80.88
289.062	89.88
289.293	89.88
289.524	73.88
289.755	81.88
289.986	73.88
290.217	87.88
290.448	85.88
290.679	75.88
290.91	82.88
291.141	87.88
291.371	77.88
291.602	78.88
291.833	85.88
292.064	82.88
292.295	77.88
292.526	96.88
292.757	71.88
292.987	98.88
293.218	79.88
293.449	87.88
293.68	82.88
293.91	86.88
294.141	81.88
294.372	82.88
294.603	90.88
294.833	86.88
295.064	88.88
295.295	86.88
295.525	91.88
295.756	95.88
295.987	78.88
296.217	79.88
296.448	87.88
296.679	64.88
296.909	76.88
297.14	64.88
297.37	84.88
297.601	98.88
297.831	83.88
298.062	80.88
298.292	77.88
298.523	87.88
298.753	79.88
298.984	70.88
299.214	96.88
299.445	73.88
299.675	83.88
299.905	94.88
300.136	74.88
300.366	99.88
300.597	73.88
300.827	81.88
301.057	98.88
301.288	78.88
301.518	89.88
301.748	71.88
301.979	74.88
302.209	91.88
302.439	82.88
302.669	81.88
302.9	91.88
303.13	81.88
303.36	106.88
303.59	100.88
303.82	89.88
304.051	79.88
304.281	74.88
304.511	87.88
304.741	88.88
304.971	86.88
305.201	85.88
305.431	88.88
305.661	89.88
305.891	83.88
306.121	80.88
306.352	81.88
306.582	94.88
306.812	96.88
307.042	84.88
307.272	76.88
307.502	87.88
307.731	81.88
307.961	83.88
308.191	68.88
308.421	96.88
308.651	79.88
308.881	89.88
309.111	86.88
309.341	71.88
309.571	86.88
309.8	84.88
310.03	90.88
310.26	83.88
310.49	82.88
310.72	92.88
310.949	90.88
311.179	80.88
311.409	90.88
311.639	86.88
311.868	80.88
312.098	90.88
312.328	83.88
312.557	78.88
312.787	87.88
313.017	74.88
313.246	78.88
313.476	93.88
313.706	87.88
313.935	78.88
314.165	78.88
314.394	81.88
314.624	79.88
314.853	82.88
315.083	75.88
315.312	94.88
315.542	79.88
315.771	83.88
316.001	85.88
316.23	78.88
316.46	73.88
316.689	86.88
316.919	76.88
317.148	82.88
317.377	96.88
317.607	68.88
317.836	81.88
318.065	96.88
318.295	86.88
318.524	90.88
318.753	79.88
318.983	88.88
319.212	91.88
319.441	79.88
319.67	91.88
319.9	87.88
320.129	81.88
320.358	83.88
320.587	87.88
320.816	86.88
321.046	91.88
321.275	80.88
321.504	89.88
321.733	79.88
321.962	85.88
322.191	91.88
322.42	86.88
322.649	82.88
322.878	75.88
323.108	83.88
323.337	75.88
323.566	91.88
323.795	82.88
324.024	93.88
324.253	77.88
324.482	80.88
324.71	76.88
324.939	78.88
325.168	82.88
325.397	85.88
325.626	84.88
325.855	95.88
326.084	90.88
326.313	89.88
326.542	74.88
326.77	74.88
326.999	83.88
327.228	90.88
327.457	94.88
327.686	92.88
327.914	85.88
328.143	80.88
328.372	79.88
328.6	78.88
328.829	86.88
329.058	79.88
329.287	76.88
329.515	80.88
329.744	89.88
329.972	95.88
330.201	86.88
330.43	75.88
330.658	88.88
330.887	86.88
331.115	89.88
331.344	89.88
331.572	91.88
331.801	74.88
332.03	87.88
332.258	85.88
332.486	91.88
332.715	96.88
332.943	80.88
333.172	90.88
333.4	63.88
333.629	83.88
333.857	93.88
334.085	83.88
334.314	92.88
334.542	81.88
334.771	82.88
334.999	78.88
335.227	78.88
335.455	82.88
335.684	86.88
335.912	70.88
336.14	84.88
336.369	96.88
336.597	92.88
336.825	76.88
337.053	86.88
337.281	73.88
337.51	84.88
337.738	78.88
337.966	84.88
338.194	79.88
338.422	84.88
338.65	82.88
338.878	97.88
339.106	90.88
339.334	87.88
339.562	78.88
339.79	78.88
340.018	71.88
340.246	73.88
340.474	82.88
340.702	91.88
340.93	78.88
341.158	94.88
341.386	76.88
341.614	87.88
341.842	78.88
342.07	91.88
342.298	87.88
342.526	85.88
342.754	95.88
342.981	79.88
343.209	94.88
343.437	86.88
343.665	85.88
343.893	94.88
344.12	91.88
344.348	90.88
344.576	82.88
344.804	82.88
345.031	74.88
345.259	86.88
345.487	87.88
345.714	89.88
345.942	75.88
346.17	94.88
346.397	84.88
346.625	78.88
346.853	75.88
347.08	83.88
347.308	83.88
347.535	85.88
347.763	88.88
347.99	83.88
348.218	81.88
348.445	88.88
348.673	86.88
348.9	82.88
349.128	84.88
349.355	90.88
349.583	88.88
349.81	85.88
350.037	85.88
350.265	84.88
350.492	80.88
350.72	78.88
350.947	82.88
351.174	85.88
351.402	89.88
351.629	76.88
351.856	91.88
352.083	78.88
352.311	84.88
352.538	76.88
352.765	88.88
352.992	93.88
353.22	91.88
353.447	75.88
353.674	77.88
353.901	82.88
354.128	73.88
354.355	81.88
354.583	69.88
354.81	78.88
355.037	76.88
355.264	97.88
355.491	94.88
355.718	75.88
355.945	81.88
356.172	90.88
356.399	82.88
356.626	89.88
356.853	64.88
357.08	69.88
357.307	88.88
357.534	79.88
357.761	71.88
357.988	95.88
358.215	81.88
358.441	80.88
358.668	81.88
358.895	89.88
359.122	89.88
359.349	90.88
359.576	70.88
359.802	91.88
360.029	88.88
360.256	88.88
360.483	88.88
360.709	68.88
360.936	83.88
361.163	88.88
361.39	84.88
361.616	86.88
361.843	87.88
362.07	82.88
362.296	87.88
362.523	90.88
362.749	68.88
362.976	79.88
363.203	82.88
363.429	75.88
363.656	76.88
363.882	84.88
364.109	83.88
364.335	89.88
364.562	80.88
364.788	73.88
365.015	86.88
365.241	82.88
365.468	96.88
365.694	85.88
365.92	94.88
366.147	96.88
366.373	77.88
366.599	78.88
366.826	96.88
367.052	100.88
367.278	88.88
367.505	73.88
367.731	95.88
367.957	85.88
368.184	91.88
368.41	86.88
368.636	73.88
368.862	90.88
369.089	97.88
369.315	89.88
369.541	88.88
369.767	90.88
369.993	81.88
370.219	91.88
370.445	100.88
370.672	94.88
370.898	89.88
371.124	77.88
371.35	99.88
371.576	96.88
371.802	92.88
372.028	102.88
372.254	99.88
372.48	96.88
372.706	96.88
372.932	89.88
373.158	88.88
373.384	83.88
373.61	87.88
373.835	87.88
374.061	91.88
374.287	99.88
374.513	96.88
374.739	94.88
374.965	91.88
375.191	78.88
375.416	104.88
375.642	100.88
375.868	92.88
376.094	84.88
376.319	86.88
376.545	98.88
376.771	101.88
376.997	89.88
377.222	93.88
377.448	80.88
377.674	91.88
377.899	80.88
378.125	98.88
378.35	96.88
378.576	82.88
378.802	91.88
379.027	91.88
379.253	115.88
379.478	88.88
379.704	92.88
379.929	94.88
380.155	88.88
380.38	95.88
380.606	96.88
380.831	93.88
381.057	103.88
381.282	90.88
381.507	82.88
381.733	92.88
381.958	94.88
382.184	103.88
382.409	94.88
382.634	98.88
382.86	91.88
383.085	97.88
383.31	73.88
383.535	100.88
383.761	97.88
383.986	98.88
384.211	97.88
384.436	99.88
384.662	103.88
384.887	98.88
385.112	95.88
385.337	88.88
385.562	97.88
385.787	120.88
386.013	102.88
386.238	97.88
386.463	88.88
386.688	106.88
386.913	98.88
387.138	97.88
387.363	98.88
387.588	94.88
387.813	107.88
388.038	114.88
388.263	98.88
388.488	105.88
388.713	97.88
388.938	108.88
389.163	102.88
389.387	89.88
389.612	91.88
389.837	102.88
390.062	111.88
390.287	101.88
390.512	84.88
390.736	81.88
390.961	101.88
391.186	99.88
391.411	98.88
391.636	116.88
391.86	99.88
392.085	96.88
392.31	100.88
392.534	106.88
392.759	112.88
392.984	110.88
393.208	99.88
393.433	112.88
393.658	99.88
393.882	90.88
394.107	102.88
394.331	100.88
394.556	89.88
394.78	93.88
395.005	90.88
395.229	112.88
395.454	118.88
395.678	97.88
395.903	110.88
396.127	108.88
396.352	105.88
396.576	118.88
396.801	118.88
397.025	103.88
397.249	110.88
397.474	109.88
397.698	113.88
397.922	116.88
398.147	96.88
398.371	94.88
398.595	99.88
398.82	102.88
399.044	114.88
399.268	119.88
399.492	96.88
399.717	106.88
399.941	119.88
400.165	115.88
400.389	110.88
400.613	116.88
400.837	101.88
401.062	113.88
401.286	97.88
401.51	112.88
401.734	117.88
401.958	103.88
402.182	109.88
402.406	101.88
402.63	106.88
402.854	107.88
403.078	114.88
403.302	120.88
403.526	111.88
403.75	111.88
403.974	98.88
404.198	105.88
404.422	117.88
404.645	124.88
404.869	110.88
405.093	121.88
405.317	124.88
405.541	122.88
405.765	132.88
405.988	120.88
406.212	115.88
406.436	105.88
406.66	128.88
406.883	110.88
407.107	116.88
407.331	101.88
407.555	120.88
407.778	117.88
408.002	122.88
408.226	118.88
408.449	123.88
408.673	120.88
408.896	119.88
409.12	112.88
409.344	119.88
409.567	115.88
409.791	103.88
410.014	110.88
410.238	122.88
410.461	116.88
410.685	124.88
410.908	111.88
411.132	115.88
411.355	115.88
411.578	126.88
411.802	124.88
412.025	115.88
412.249	116.88
412.472	126.88
412.695	121.88
412.919	119.88
413.142	131.88
413.365	128.88
413.589	126.88
413.812	115.88
414.035	113.88
414.258	128.88
414.482	123.88
414.705	128.88
414.928	112.88
415.151	121.88
415.374	133.88
415.597	130.88
415.821	119.88
416.044	119.88
416.267	118.88
416.49	119.88
416.713	115.88
416.936	108.88
417.159	130.88
417.382	112.88
417.605	110.88
417.828	127.88
418.051	123.88
418.274	120.88
418.497	140.88
418.72	140.88
418.943	128.88
419.166	122.88
419.389	124.88
419.611	133.88
419.834	124.88
420.057	122.88
420.28	145.88
420.503	124.88
420.726	122.88
420.948	130.88
421.171	120.88
421.394	128.88
421.617	146.88
421.839	150.88
422.062	151.88
422.285	132.88
422.507	130.88
422.73	124.88
422.953	126.88
423.175	127.88
423.398	130.88
423.621	139.88
423.843	131.88
424.066	123.88
424.288	144.88
424.511	152.88
424.733	144.88
424.956	145.88
425.178	131.88
425.401	136.88
425.623	132.88
425.846	124.88
426.068	112.88
426.291	132.88
426.513	132.88
426.735	127.88
426.958	119.88
427.18	124.88
427.402	125.88
427.625	133.88
427.847	126.88
428.069	122.88
428.292	121.88
428.514	124.88
428.736	134.88
428.958	126.88
429.181	129.88
429.403	128.88
429.625	130.88
429.847	130.88
430.069	128.88
430.292	112.88
430.514	118.88
430.736	131.88
430.958	112.88
431.18	117.88
431.402	117.88
431.624	111.88
431.846	98.88
432.068	102.88
432.29	92.88
432.512	109.88
432.734	108.88
432.956	114.88
433.178	124.88
433.4	137.88
433.622	132.88
433.844	129.88
434.066	117.88
434.287	105.88
434.509	93.88
434.731	83.88
434.953	103.88
435.175	124.88
435.397	126.88
435.618	115.88
435.84	121.88
436.062	113.88
436.284	111.88
436.505	135.88
436.727	119.88
436.949	143.88
437.17	138.88
437.392	128.88
437.614	115.88
437.835	105.88
438.057	110.88
438.278	118.88
438.5	103.88
438.721	129.88
438.943	124.88
439.165	125.88
439.386	132.88
439.608	154.88
439.829	150.88
440.05	162.88
440.272	141.88
440.493	136.88
440.715	150.88
440.936	147.88
441.158	132.88
441.379	147.88
441.6	148.88
441.822	143.88
442.043	139.88
442.264	140.88
442.486	145.88
442.707	150.88
442.928	150.88
443.149	133.88
443.371	134.88
443.592	149.88
443.813	151.88
444.034	138.88
444.255	134.88
444.476	142.88
444.698	136.88
444.919	132.88
445.14	286.88
445.361	211.88
445.582	140.88
445.803	135.88
446.024	160.88
446.245	150.88
446.466	148.88
446.687	149.88
446.908	171.88
447.129	152.88
447.35	143.88
447.571	147.88
447.792	144.88
448.013	140.88
448.234	142.88
448.455	144.88
448.675	148.88
448.896	145.88
449.117	124.88
449.338	121.88
449.559	139.88
449.779	143.88
450	130.88
450.221	124.88
450.442	133.88
450.662	128.88
450.883	126.88
451.104	125.88
451.324	135.88
451.545	119.88
451.766	128.88
451.986	122.88
452.207	143.88
452.428	132.88
452.648	132.88
452.869	130.88
453.089	102.88
453.31	108.88
453.53	106.88
453.751	105.88
453.971	90.88
454.192	113.88
454.412	114.88
454.633	116.88
454.853	119.88
455.073	124.88
455.294	120.88
455.514	128.88
455.734	130.88
455.955	121.88
456.175	122.88
456.395	111.88
456.616	106.88
456.836	103.88
457.056	106.88
457.276	103.88
457.497	95.88
457.717	104.88
457.937	114.88
458.157	99.88
458.377	107.88
458.598	84.88
458.818	84.88
459.038	85.88
459.258	91.88
459.478	94.88
459.698	104.88
459.918	105.88
460.138	97.88
460.358	119.88
460.578	132.88
460.798	106.88
461.018	99.88
461.238	109.88
461.458	110.88
461.678	117.88
461.898	113.88
462.118	128.88
462.338	123.88
462.558	114.88
462.777	103.88
462.997	108.88
463.217	103.88
463.437	111.88
463.657	107.88
463.876	97.88
464.096	101.88
464.316	110.88
464.536	112.88
464.755	122.88
464.975	110.88
465.195	110.88
465.414	96.88
465.634	116.88
465.854	126.88
466.073	126.88
466.293	111.88
466.512	119.88
466.732	123.88
466.951	117.88
467.171	130.88
467.391	120.88
467.61	136.88
467.829	146.88
468.049	136.88
468.268	133.88
468.488	116.88
468.707	125.88
468.927	134.88
469.146	128.88
469.365	128.88
469.585	137.88
469.804	136.88
470.023	152.88
470.243	143.88
470.462	140.88
470.681	126.88
470.901	130.88
471.12	126.88
471.339	125.88
471.558	135.88
471.777	146.88
471.997	143.88
472.216	123.88
472.435	103.88
472.654	122.88
472.873	107.88
473.092	120.88
473.311	129.88
473.53	123.88
473.749	114.88
473.968	119.88
474.187	114.88
474.406	115.88
474.625	116.88
474.844	131.88
475.063	127.88
475.282	122.88
475.501	113.88
475.72	127.88
475.939	124.88
476.158	122.88
476.377	126.88
476.596	126.88
476.814	121.88
477.033	104.88
477.252	113.88
477.471	122.88
477.69	155.88
477.908	148.88
478.127	156.88
478.346	138.88
478.564	137.88
478.783	153.88
479.002	140.88
479.22	123.88
479.439	144.88
479.658	127.88
479.876	114.88
480.095	113.88
480.313	121.88
480.532	100.88
480.751	118.88
480.969	110.88
481.188	87.88
481.406	87.88
481.624	80.88
481.843	93.88
482.061	85.88
482.28	104.88
482.498	114.88
482.717	114.88
482.935	116.88
483.153	155.88
483.372	156.88
483.59	145.88
483.808	133.88
484.027	132.88
484.245	139.88
484.463	133.88
484.681	166.88
484.9	155.88
485.118	148.88
485.336	120.88
485.554	108.88
485.772	103.88
485.99	96.88
486.209	105.88
486.427	114.88
486.645	130.88
486.863	140.88
487.081	152.88
487.299	133.88
487.517	138.88
487.735	172.88
487.953	172.88
488.171	165.88
488.389	148.88
488.607	150.88
488.825	136.88
489.043	142.88
489.261	130.88
489.479	140.88
489.696	133.88
489.914	130.88
490.132	141.88
490.35	141.88
490.568	160.88
490.786	161.88
491.003	174.88
491.221	171.88
491.439	182.88
491.657	188.88
491.874	194.88
492.092	208.88
492.31	224.88
492.527	219.88
492.745	199.88
492.963	193.88
493.18	172.88
493.398	180.88
493.615	161.88
493.833	176.88
494.05	166.88
494.268	159.88
494.485	170.88
494.703	148.88
494.92	160.88
495.138	166.88
495.355	164.88
495.573	181.88
495.79	176.88
496.008	176.88
496.225	184.88
496.442	170.88
496.66	149.88
496.877	150.88
497.094	157.88
497.312	163.88
497.529	151.88
497.746	143.88
497.963	139.88
498.181	137.88
498.398	122.88
498.615	123.88
498.832	115.88
499.049	106.88
499.267	124.88
499.484	128.88
499.701	150.88
499.918	123.88
500.135	135.88
500.352	141.88
500.569	132.88
500.786	144.88
501.003	136.88
501.22	140.88
501.437	112.88
501.654	131.88
501.871	126.88
502.088	118.88
502.305	126.88
502.522	133.88
502.739	120.88
502.956	123.88
503.172	128.88
503.389	116.88
503.606	116.88
503.823	109.88
504.04	126.88
504.256	125.88
504.473	120.88
504.69	121.88
504.907	120.88
505.123	118.88
505.34	129.88
505.557	118.88
505.773	110.88
505.99	117.88
506.207	126.88
506.423	115.88
506.64	118.88
506.856	123.88
507.073	107.88
507.289	130.88
507.506	116.88
507.722	109.88
507.939	113.88
508.155	121.88
508.372	103.88
508.588	119.88
508.805	115.88
509.021	106.88
509.238	107.88
509.454	106.88
509.67	92.88
509.887	85.88
510.103	100.88
510.319	100.88
510.536	97.88
510.752	103.88
510.968	85.88
511.184	93.88
511.401	78.88
511.617	87.88
511.833	87.88
