Data from Location4.07152019.Energy5.Lamp.07192019.3%Agarose_HRD10591_16-19-23-925.txt Node
Date: Fri Jul 19 16:19:23 EDT 2019
User: cochatt
Spectrometer: HR+D1059
Trigger mode: 1
Integration Time (sec): 1.000000E-1
Scans to average: 1
Electric dark correction enabled: true
Nonlinearity correction enabled: false
Boxcar width: 0
XAxis mode: Wavelengths
Number of Pixels in Spectrum: 2048
>>>>>Begin Spectral Data<<<<<
223.165	-24.56
223.4	-24.56
223.635	-24.56
223.869	-9.56
224.104	-21.56
224.338	-15.56
224.573	-14.56
224.808	-25.56
225.042	-6.56
225.277	5.44
225.511	-2.56
225.746	4.44
225.98	20.44
226.215	11.44
226.449	9.44
226.683	16.44
226.918	20.44
227.152	32.44
227.387	35.44
227.621	43.44
227.856	40.44
228.09	31.44
228.324	52.44
228.559	42.44
228.793	68.44
229.027	64.44
229.262	70.44
229.496	61.44
229.73	68.44
229.964	71.44
230.199	66.44
230.433	59.44
230.667	74.44
230.901	73.44
231.136	72.44
231.37	71.44
231.604	74.44
231.838	79.44
232.072	71.44
232.306	73.44
232.541	82.44
232.775	75.44
233.009	73.44
233.243	87.44
233.477	82.44
233.711	87.44
233.945	83.44
234.179	73.44
234.413	86.44
234.647	75.44
234.881	82.44
235.115	70.44
235.349	84.44
235.583	78.44
235.817	82.44
236.051	77.44
236.285	76.44
236.519	60.44
236.753	76.44
236.987	71.44
237.221	76.44
237.455	87.44
237.689	66.44
237.922	75.44
238.156	64.44
238.39	74.44
238.624	69.44
238.858	71.44
239.091	71.44
239.325	69.44
239.559	86.44
239.793	73.44
240.027	83.44
240.26	71.44
240.494	73.44
240.728	74.44
240.961	67.44
241.195	64.44
241.429	68.44
241.662	71.44
241.896	76.44
242.13	79.44
242.363	66.44
242.597	79.44
242.83	86.44
243.064	81.44
243.298	86.44
243.531	74.44
243.765	74.44
243.998	78.44
244.232	86.44
244.465	61.44
244.699	78.44
244.932	74.44
245.166	86.44
245.399	91.44
245.633	81.44
245.866	72.44
246.099	81.44
246.333	86.44
246.566	77.44
246.8	81.44
247.033	73.44
247.266	80.44
247.5	76.44
247.733	87.44
247.966	73.44
248.2	84.44
248.433	84.44
248.666	72.44
248.899	78.44
249.133	84.44
249.366	87.44
249.599	98.44
249.832	92.44
250.066	82.44
250.299	81.44
250.532	87.44
250.765	81.44
250.998	83.44
251.231	80.44
251.465	70.44
251.698	86.44
251.931	73.44
252.164	70.44
252.397	80.44
252.63	84.44
252.863	84.44
253.096	88.44
253.329	79.44
253.562	86.44
253.795	85.44
254.028	81.44
254.261	101.44
254.494	89.44
254.727	86.44
254.96	71.44
255.193	80.44
255.426	78.44
255.659	69.44
255.892	85.44
256.124	75.44
256.357	69.44
256.59	73.44
256.823	77.44
257.056	75.44
257.289	83.44
257.521	86.44
257.754	93.44
257.987	89.44
258.22	88.44
258.452	71.44
258.685	82.44
258.918	78.44
259.151	81.44
259.383	86.44
259.616	93.44
259.849	72.44
260.081	86.44
260.314	87.44
260.547	83.44
260.779	76.44
261.012	86.44
261.244	83.44
261.477	92.44
261.71	91.44
261.942	70.44
262.175	88.44
262.407	88.44
262.64	71.44
262.872	84.44
263.105	92.44
263.337	80.44
263.57	88.44
263.802	81.44
264.035	93.44
264.267	85.44
264.499	78.44
264.732	85.44
264.964	80.44
265.197	69.44
265.429	88.44
265.661	83.44
265.894	67.44
266.126	84.44
266.358	82.44
266.591	70.44
266.823	91.44
267.055	84.44
267.287	84.44
267.52	78.44
267.752	80.44
267.984	67.44
268.216	76.44
268.448	96.44
268.681	70.44
268.913	74.44
269.145	82.44
269.377	81.44
269.609	71.44
269.841	84.44
270.073	89.44
270.306	80.44
270.538	85.44
270.77	101.44
271.002	75.44
271.234	74.44
271.466	84.44
271.698	82.44
271.93	91.44
272.162	82.44
272.394	93.44
272.626	77.44
272.858	74.44
273.09	87.44
273.322	82.44
273.553	92.44
273.785	90.44
274.017	104.44
274.249	77.44
274.481	81.44
274.713	84.44
274.945	74.44
275.176	87.44
275.408	86.44
275.64	82.44
275.872	77.44
276.104	83.44
276.335	90.44
276.567	85.44
276.799	83.44
277.031	77.44
277.262	82.44
277.494	80.44
277.726	68.44
277.957	76.44
278.189	82.44
278.421	86.44
278.652	90.44
278.884	87.44
279.115	82.44
279.347	90.44
279.579	77.44
279.81	79.44
280.042	80.44
280.273	84.44
280.505	75.44
280.736	85.44
280.968	88.44
281.199	85.44
281.431	84.44
281.662	87.44
281.894	88.44
282.125	92.44
282.356	96.44
282.588	90.44
282.819	90.44
283.051	92.44
283.282	85.44
283.513	82.44
283.745	77.44
283.976	86.44
284.207	89.44
284.439	75.44
284.67	103.44
284.901	89.44
285.132	80.44
285.364	89.44
285.595	72.44
285.826	99.44
286.057	97.44
286.288	80.44
286.52	97.44
286.751	83.44
286.982	91.44
287.213	81.44
287.444	82.44
287.675	96.44
287.906	81.44
288.138	88.44
288.369	79.44
288.6	90.44
288.831	83.44
289.062	95.44
289.293	86.44
289.524	74.44
289.755	81.44
289.986	86.44
290.217	86.44
290.448	96.44
290.679	92.44
290.91	86.44
291.141	81.44
291.371	88.44
291.602	77.44
291.833	80.44
292.064	88.44
292.295	92.44
292.526	86.44
292.757	93.44
292.987	89.44
293.218	81.44
293.449	88.44
293.68	74.44
293.91	77.44
294.141	83.44
294.372	81.44
294.603	83.44
294.833	84.44
295.064	91.44
295.295	94.44
295.525	83.44
295.756	76.44
295.987	82.44
296.217	90.44
296.448	64.44
296.679	79.44
296.909	69.44
297.14	90.44
297.37	87.44
297.601	82.44
297.831	89.44
298.062	72.44
298.292	86.44
298.523	90.44
298.753	68.44
298.984	95.44
299.214	84.44
299.445	99.44
299.675	93.44
299.905	94.44
300.136	86.44
300.366	84.44
300.597	87.44
300.827	91.44
301.057	101.44
301.288	91.44
301.518	92.44
301.748	79.44
301.979	78.44
302.209	89.44
302.439	80.44
302.669	91.44
302.9	90.44
303.13	75.44
303.36	84.44
303.59	88.44
303.82	78.44
304.051	80.44
304.281	78.44
304.511	87.44
304.741	101.44
304.971	90.44
305.201	73.44
305.431	86.44
305.661	66.44
305.891	94.44
306.121	91.44
306.352	88.44
306.582	91.44
306.812	91.44
307.042	97.44
307.272	80.44
307.502	78.44
307.731	93.44
307.961	85.44
308.191	78.44
308.421	84.44
308.651	85.44
308.881	92.44
309.111	88.44
309.341	81.44
309.571	81.44
309.8	86.44
310.03	78.44
310.26	82.44
310.49	87.44
310.72	97.44
310.949	78.44
311.179	100.44
311.409	90.44
311.639	96.44
311.868	86.44
312.098	92.44
312.328	95.44
312.557	91.44
312.787	79.44
313.017	94.44
313.246	91.44
313.476	90.44
313.706	84.44
313.935	84.44
314.165	82.44
314.394	91.44
314.624	82.44
314.853	85.44
315.083	77.44
315.312	79.44
315.542	96.44
315.771	88.44
316.001	96.44
316.23	76.44
316.46	79.44
316.689	82.44
316.919	73.44
317.148	84.44
317.377	93.44
317.607	82.44
317.836	100.44
318.065	86.44
318.295	94.44
318.524	85.44
318.753	87.44
318.983	84.44
319.212	93.44
319.441	96.44
319.67	78.44
319.9	74.44
320.129	91.44
320.358	78.44
320.587	92.44
320.816	70.44
321.046	76.44
321.275	78.44
321.504	84.44
321.733	73.44
321.962	92.44
322.191	83.44
322.42	77.44
322.649	84.44
322.878	86.44
323.108	84.44
323.337	79.44
323.566	81.44
323.795	77.44
324.024	74.44
324.253	89.44
324.482	86.44
324.71	91.44
324.939	94.44
325.168	96.44
325.397	80.44
325.626	79.44
325.855	74.44
326.084	80.44
326.313	79.44
326.542	78.44
326.77	83.44
326.999	94.44
327.228	95.44
327.457	95.44
327.686	89.44
327.914	82.44
328.143	83.44
328.372	83.44
328.6	87.44
328.829	77.44
329.058	87.44
329.287	86.44
329.515	87.44
329.744	77.44
329.972	76.44
330.201	65.44
330.43	90.44
330.658	74.44
330.887	77.44
331.115	71.44
331.344	93.44
331.572	76.44
331.801	97.44
332.03	92.44
332.258	83.44
332.486	74.44
332.715	71.44
332.943	84.44
333.172	96.44
333.4	67.44
333.629	85.44
333.857	97.44
334.085	95.44
334.314	90.44
334.542	90.44
334.771	83.44
334.999	87.44
335.227	90.44
335.455	85.44
335.684	93.44
335.912	93.44
336.14	95.44
336.369	83.44
336.597	82.44
336.825	88.44
337.053	84.44
337.281	78.44
337.51	75.44
337.738	101.44
337.966	77.44
338.194	93.44
338.422	89.44
338.65	88.44
338.878	97.44
339.106	78.44
339.334	94.44
339.562	90.44
339.79	87.44
340.018	87.44
340.246	87.44
340.474	89.44
340.702	81.44
340.93	88.44
341.158	89.44
341.386	82.44
341.614	85.44
341.842	92.44
342.07	73.44
342.298	83.44
342.526	89.44
342.754	85.44
342.981	77.44
343.209	90.44
343.437	92.44
343.665	78.44
343.893	82.44
344.12	87.44
344.348	83.44
344.576	88.44
344.804	76.44
345.031	89.44
345.259	100.44
345.487	88.44
345.714	86.44
345.942	93.44
346.17	98.44
346.397	70.44
346.625	83.44
346.853	86.44
347.08	82.44
347.308	93.44
347.535	78.44
347.763	96.44
347.99	83.44
348.218	85.44
348.445	78.44
348.673	105.44
348.9	89.44
349.128	85.44
349.355	82.44
349.583	87.44
349.81	88.44
350.037	87.44
350.265	80.44
350.492	78.44
350.72	87.44
350.947	106.44
351.174	109.44
351.402	90.44
351.629	92.44
351.856	79.44
352.083	79.44
352.311	77.44
352.538	77.44
352.765	85.44
352.992	78.44
353.22	89.44
353.447	86.44
353.674	80.44
353.901	79.44
354.128	86.44
354.355	85.44
354.583	89.44
354.81	91.44
355.037	78.44
355.264	98.44
355.491	85.44
355.718	79.44
355.945	72.44
356.172	73.44
356.399	83.44
356.626	82.44
356.853	87.44
357.08	84.44
357.307	76.44
357.534	88.44
357.761	81.44
357.988	81.44
358.215	95.44
358.441	92.44
358.668	86.44
358.895	84.44
359.122	87.44
359.349	90.44
359.576	75.44
359.802	80.44
360.029	74.44
360.256	82.44
360.483	82.44
360.709	86.44
360.936	90.44
361.163	82.44
361.39	83.44
361.616	83.44
361.843	73.44
362.07	73.44
362.296	90.44
362.523	68.44
362.749	86.44
362.976	73.44
363.203	93.44
363.429	67.44
363.656	84.44
363.882	86.44
364.109	88.44
364.335	72.44
364.562	82.44
364.788	82.44
365.015	97.44
365.241	75.44
365.468	77.44
365.694	76.44
365.92	81.44
366.147	78.44
366.373	82.44
366.599	98.44
366.826	78.44
367.052	104.44
367.278	78.44
367.505	78.44
367.731	85.44
367.957	88.44
368.184	93.44
368.41	82.44
368.636	91.44
368.862	88.44
369.089	85.44
369.315	96.44
369.541	88.44
369.767	90.44
369.993	74.44
370.219	78.44
370.445	97.44
370.672	93.44
370.898	93.44
371.124	72.44
371.35	84.44
371.576	95.44
371.802	82.44
372.028	88.44
372.254	99.44
372.48	100.44
372.706	90.44
372.932	91.44
373.158	87.44
373.384	108.44
373.61	87.44
373.835	79.44
374.061	98.44
374.287	91.44
374.513	83.44
374.739	100.44
374.965	78.44
375.191	89.44
375.416	77.44
375.642	85.44
375.868	96.44
376.094	76.44
376.319	100.44
376.545	88.44
376.771	95.44
376.997	94.44
377.222	95.44
377.448	102.44
377.674	80.44
377.899	91.44
378.125	94.44
378.35	96.44
378.576	94.44
378.802	95.44
379.027	100.44
379.253	94.44
379.478	97.44
379.704	88.44
379.929	85.44
380.155	86.44
380.38	106.44
380.606	104.44
380.831	107.44
381.057	105.44
381.282	85.44
381.507	92.44
381.733	105.44
381.958	71.44
382.184	76.44
382.409	98.44
382.634	101.44
382.86	91.44
383.085	97.44
383.31	94.44
383.535	108.44
383.761	84.44
383.986	93.44
384.211	80.44
384.436	95.44
384.662	94.44
384.887	105.44
385.112	90.44
385.337	102.44
385.562	102.44
385.787	84.44
386.013	100.44
386.238	107.44
386.463	94.44
386.688	94.44
386.913	94.44
387.138	87.44
387.363	83.44
387.588	103.44
387.813	102.44
388.038	110.44
388.263	115.44
388.488	101.44
388.713	98.44
388.938	101.44
389.163	115.44
389.387	96.44
389.612	97.44
389.837	99.44
390.062	111.44
390.287	100.44
390.512	88.44
390.736	109.44
390.961	105.44
391.186	94.44
391.411	105.44
391.636	98.44
391.86	100.44
392.085	95.44
392.31	114.44
392.534	109.44
392.759	109.44
392.984	96.44
393.208	94.44
393.433	105.44
393.658	96.44
393.882	102.44
394.107	90.44
394.331	113.44
394.556	103.44
394.78	94.44
395.005	102.44
395.229	104.44
395.454	91.44
395.678	87.44
395.903	105.44
396.127	119.44
396.352	124.44
396.576	94.44
396.801	106.44
397.025	99.44
397.249	105.44
397.474	112.44
397.698	102.44
397.922	124.44
398.147	105.44
398.371	106.44
398.595	106.44
398.82	104.44
399.044	96.44
399.268	106.44
399.492	105.44
399.717	113.44
399.941	114.44
400.165	115.44
400.389	110.44
400.613	105.44
400.837	108.44
401.062	106.44
401.286	110.44
401.51	99.44
401.734	109.44
401.958	103.44
402.182	98.44
402.406	106.44
402.63	121.44
402.854	108.44
403.078	109.44
403.302	113.44
403.526	112.44
403.75	105.44
403.974	102.44
404.198	122.44
404.422	106.44
404.645	115.44
404.869	106.44
405.093	105.44
405.317	119.44
405.541	129.44
405.765	108.44
405.988	108.44
406.212	114.44
406.436	122.44
406.66	123.44
406.883	128.44
407.107	113.44
407.331	112.44
407.555	125.44
407.778	109.44
408.002	125.44
408.226	115.44
408.449	102.44
408.673	121.44
408.896	126.44
409.12	105.44
409.344	113.44
409.567	112.44
409.791	108.44
410.014	122.44
410.238	120.44
410.461	108.44
410.685	128.44
410.908	108.44
411.132	128.44
411.355	122.44
411.578	128.44
411.802	111.44
412.025	122.44
412.249	117.44
412.472	110.44
412.695	100.44
412.919	121.44
413.142	117.44
413.365	115.44
413.589	107.44
413.812	103.44
414.035	128.44
414.258	120.44
414.482	129.44
414.705	125.44
414.928	118.44
415.151	119.44
415.374	118.44
415.597	120.44
415.821	123.44
416.044	136.44
416.267	124.44
416.49	121.44
416.713	125.44
416.936	128.44
417.159	115.44
417.382	112.44
417.605	137.44
417.828	126.44
418.051	109.44
418.274	125.44
418.497	124.44
418.72	133.44
418.943	128.44
419.166	133.44
419.389	137.44
419.611	128.44
419.834	113.44
420.057	126.44
420.28	137.44
420.503	143.44
420.726	130.44
420.948	138.44
421.171	140.44
421.394	135.44
421.617	141.44
421.839	133.44
422.062	139.44
422.285	128.44
422.507	115.44
422.73	118.44
422.953	116.44
423.175	127.44
423.398	121.44
423.621	134.44
423.843	130.44
424.066	141.44
424.288	127.44
424.511	139.44
424.733	130.44
424.956	135.44
425.178	142.44
425.401	148.44
425.623	129.44
425.846	138.44
426.068	130.44
426.291	125.44
426.513	106.44
426.735	123.44
426.958	126.44
427.18	123.44
427.402	124.44
427.625	132.44
427.847	123.44
428.069	131.44
428.292	119.44
428.514	128.44
428.736	143.44
428.958	143.44
429.181	129.44
429.403	119.44
429.625	134.44
429.847	124.44
430.069	139.44
430.292	132.44
430.514	125.44
430.736	116.44
430.958	124.44
431.18	136.44
431.402	136.44
431.624	129.44
431.846	125.44
432.068	98.44
432.29	97.44
432.512	107.44
432.734	120.44
432.956	125.44
433.178	126.44
433.4	142.44
433.622	139.44
433.844	131.44
434.066	125.44
434.287	114.44
434.509	98.44
434.731	99.44
434.953	94.44
435.175	127.44
435.397	111.44
435.618	88.44
435.84	109.44
436.062	124.44
436.284	118.44
436.505	117.44
436.727	114.44
436.949	108.44
437.17	138.44
437.392	132.44
437.614	112.44
437.835	101.44
438.057	102.44
438.278	122.44
438.5	116.44
438.721	132.44
438.943	148.44
439.165	130.44
439.386	138.44
439.608	134.44
439.829	125.44
440.05	145.44
440.272	135.44
440.493	130.44
440.715	131.44
440.936	123.44
441.158	134.44
441.379	132.44
441.6	130.44
441.822	139.44
442.043	130.44
442.264	142.44
442.486	132.44
442.707	136.44
442.928	126.44
443.149	147.44
443.371	143.44
443.592	113.44
443.813	129.44
444.034	134.44
444.255	118.44
444.476	124.44
444.698	130.44
444.919	128.44
445.14	274.44
445.361	204.44
445.582	140.44
445.803	154.44
446.024	128.44
446.245	138.44
446.466	158.44
446.687	145.44
446.908	148.44
447.129	156.44
447.35	170.44
447.571	147.44
447.792	148.44
448.013	136.44
448.234	122.44
448.455	151.44
448.675	136.44
448.896	128.44
449.117	143.44
449.338	141.44
449.559	127.44
449.779	128.44
450	132.44
450.221	131.44
450.442	140.44
450.662	131.44
450.883	105.44
451.104	126.44
451.324	129.44
451.545	122.44
451.766	124.44
451.986	121.44
452.207	137.44
452.428	126.44
452.648	125.44
452.869	117.44
453.089	116.44
453.31	101.44
453.53	92.44
453.751	109.44
453.971	100.44
454.192	98.44
454.412	125.44
454.633	117.44
454.853	128.44
455.073	115.44
455.294	118.44
455.514	115.44
455.734	119.44
455.955	109.44
456.175	121.44
456.395	112.44
456.616	108.44
456.836	123.44
457.056	117.44
457.276	113.44
457.497	117.44
457.717	102.44
457.937	105.44
458.157	108.44
458.377	82.44
458.598	86.44
458.818	99.44
459.038	82.44
459.258	84.44
459.478	87.44
459.698	100.44
459.918	104.44
460.138	89.44
460.358	115.44
460.578	119.44
460.798	117.44
461.018	126.44
461.238	120.44
461.458	126.44
461.678	117.44
461.898	114.44
462.118	116.44
462.338	121.44
462.558	123.44
462.777	100.44
462.997	110.44
463.217	110.44
463.437	113.44
463.657	122.44
463.876	101.44
464.096	106.44
464.316	101.44
464.536	104.44
464.755	110.44
464.975	141.44
465.195	114.44
465.414	122.44
465.634	113.44
465.854	112.44
466.073	121.44
466.293	128.44
466.512	119.44
466.732	126.44
466.951	126.44
467.171	117.44
467.391	123.44
467.61	132.44
467.829	132.44
468.049	134.44
468.268	131.44
468.488	131.44
468.707	127.44
468.927	132.44
469.146	138.44
469.365	139.44
469.585	132.44
469.804	132.44
470.023	137.44
470.243	142.44
470.462	141.44
470.681	141.44
470.901	149.44
471.12	144.44
471.339	135.44
471.558	141.44
471.777	133.44
471.997	126.44
472.216	126.44
472.435	121.44
472.654	113.44
472.873	93.44
473.092	109.44
473.311	122.44
473.53	124.44
473.749	133.44
473.968	128.44
474.187	122.44
474.406	115.44
474.625	140.44
474.844	122.44
475.063	125.44
475.282	141.44
475.501	130.44
475.72	120.44
475.939	117.44
476.158	131.44
476.377	113.44
476.596	109.44
476.814	122.44
477.033	108.44
477.252	106.44
477.471	118.44
477.69	137.44
477.908	151.44
478.127	131.44
478.346	141.44
478.564	134.44
478.783	130.44
479.002	124.44
479.22	131.44
479.439	126.44
479.658	115.44
479.876	120.44
480.095	111.44
480.313	136.44
480.532	120.44
480.751	96.44
480.969	107.44
481.188	89.44
481.406	88.44
481.624	98.44
481.843	95.44
482.061	98.44
482.28	108.44
482.498	86.44
482.717	105.44
482.935	126.44
483.153	146.44
483.372	156.44
483.59	139.44
483.808	130.44
484.027	129.44
484.245	121.44
484.463	127.44
484.681	155.44
484.9	149.44
485.118	142.44
485.336	131.44
485.554	117.44
485.772	100.44
485.99	103.44
486.209	119.44
486.427	112.44
486.645	117.44
486.863	145.44
487.081	144.44
487.299	127.44
487.517	140.44
487.735	164.44
487.953	180.44
488.171	188.44
488.389	179.44
488.607	160.44
488.825	153.44
489.043	136.44
489.261	140.44
489.479	141.44
489.696	143.44
489.914	146.44
490.132	146.44
490.35	158.44
490.568	157.44
490.786	172.44
491.003	159.44
491.221	172.44
491.439	185.44
491.657	200.44
491.874	214.44
492.092	222.44
492.31	229.44
492.527	221.44
492.745	198.44
492.963	198.44
493.18	189.44
493.398	174.44
493.615	178.44
493.833	180.44
494.05	165.44
494.268	155.44
494.485	162.44
494.703	195.44
494.92	174.44
495.138	164.44
495.355	180.44
495.573	156.44
495.79	158.44
496.008	155.44
496.225	164.44
496.442	162.44
496.66	172.44
496.877	184.44
497.094	164.44
497.312	152.44
497.529	160.44
497.746	150.44
497.963	127.44
498.181	126.44
498.398	113.44
498.615	116.44
498.832	135.44
499.049	117.44
499.267	118.44
499.484	133.44
499.701	119.44
499.918	142.44
500.135	144.44
500.352	134.44
500.569	148.44
500.786	133.44
501.003	143.44
501.22	144.44
501.437	138.44
501.654	144.44
501.871	133.44
502.088	128.44
502.305	137.44
502.522	124.44
502.739	128.44
502.956	127.44
503.172	132.44
503.389	128.44
503.606	107.44
503.823	106.44
504.04	112.44
504.256	120.44
504.473	118.44
504.69	115.44
504.907	132.44
505.123	115.44
505.34	123.44
505.557	130.44
505.773	125.44
505.99	112.44
506.207	115.44
506.423	107.44
506.64	111.44
506.856	110.44
507.073	122.44
507.289	125.44
507.506	121.44
507.722	126.44
507.939	112.44
508.155	123.44
508.372	107.44
508.588	96.44
508.805	115.44
509.021	102.44
509.238	113.44
509.454	97.44
509.67	113.44
509.887	102.44
510.103	121.44
510.319	103.44
510.536	90.44
510.752	96.44
510.968	90.44
511.184	91.44
511.401	76.44
511.617	94.44
