Data from Location4.07152019.Energy5.Lamp.07192019.3%Agarose_HRD10591_16-19-14-925.txt Node
Date: Fri Jul 19 16:19:14 EDT 2019
User: cochatt
Spectrometer: HR+D1059
Trigger mode: 1
Integration Time (sec): 1.000000E-1
Scans to average: 1
Electric dark correction enabled: true
Nonlinearity correction enabled: false
Boxcar width: 0
XAxis mode: Wavelengths
Number of Pixels in Spectrum: 2048
>>>>>Begin Spectral Data<<<<<
223.165	-9.12
223.4	-9.12
223.635	-9.12
223.869	-17.12
224.104	-9.12
224.338	-15.12
224.573	-13.12
224.808	-18.12
225.042	-12.12
225.277	2.88
225.511	1.88
225.746	-0.12
225.98	7.88
226.215	9.88
226.449	18.88
226.683	27.88
226.918	14.88
227.152	9.88
227.387	42.88
227.621	40.88
227.856	50.88
228.09	48.88
228.324	52.88
228.559	61.88
228.793	50.88
229.027	55.88
229.262	71.88
229.496	76.88
229.73	74.88
229.964	75.88
230.199	64.88
230.433	71.88
230.667	82.88
230.901	76.88
231.136	62.88
231.37	67.88
231.604	81.88
231.838	85.88
232.072	70.88
232.306	87.88
232.541	68.88
232.775	78.88
233.009	76.88
233.243	79.88
233.477	68.88
233.711	77.88
233.945	82.88
234.179	84.88
234.413	94.88
234.647	93.88
234.881	91.88
235.115	85.88
235.349	87.88
235.583	85.88
235.817	90.88
236.051	86.88
236.285	81.88
236.519	81.88
236.753	77.88
236.987	84.88
237.221	91.88
237.455	78.88
237.689	70.88
237.922	78.88
238.156	72.88
238.39	72.88
238.624	71.88
238.858	81.88
239.091	79.88
239.325	71.88
239.559	68.88
239.793	85.88
240.027	91.88
240.26	87.88
240.494	73.88
240.728	68.88
240.961	72.88
241.195	79.88
241.429	86.88
241.662	83.88
241.896	82.88
242.13	86.88
242.363	81.88
242.597	65.88
242.83	88.88
243.064	69.88
243.298	67.88
243.531	86.88
243.765	83.88
243.998	87.88
244.232	75.88
244.465	82.88
244.699	68.88
244.932	68.88
245.166	78.88
245.399	81.88
245.633	89.88
245.866	83.88
246.099	85.88
246.333	66.88
246.566	69.88
246.8	98.88
247.033	80.88
247.266	64.88
247.5	81.88
247.733	73.88
247.966	74.88
248.2	75.88
248.433	83.88
248.666	70.88
248.899	60.88
249.133	74.88
249.366	74.88
249.599	75.88
249.832	85.88
250.066	90.88
250.299	81.88
250.532	80.88
250.765	75.88
250.998	82.88
251.231	84.88
251.465	79.88
251.698	69.88
251.931	89.88
252.164	77.88
252.397	81.88
252.63	77.88
252.863	68.88
253.096	89.88
253.329	94.88
253.562	88.88
253.795	74.88
254.028	78.88
254.261	70.88
254.494	80.88
254.727	78.88
254.96	92.88
255.193	82.88
255.426	76.88
255.659	81.88
255.892	85.88
256.124	77.88
256.357	87.88
256.59	83.88
256.823	88.88
257.056	82.88
257.289	73.88
257.521	78.88
257.754	95.88
257.987	77.88
258.22	87.88
258.452	84.88
258.685	82.88
258.918	83.88
259.151	89.88
259.383	84.88
259.616	85.88
259.849	92.88
260.081	101.88
260.314	83.88
260.547	75.88
260.779	78.88
261.012	80.88
261.244	70.88
261.477	87.88
261.71	79.88
261.942	82.88
262.175	81.88
262.407	76.88
262.64	90.88
262.872	79.88
263.105	82.88
263.337	74.88
263.57	72.88
263.802	78.88
264.035	75.88
264.267	81.88
264.499	80.88
264.732	92.88
264.964	84.88
265.197	88.88
265.429	75.88
265.661	93.88
265.894	86.88
266.126	83.88
266.358	77.88
266.591	65.88
266.823	88.88
267.055	86.88
267.287	77.88
267.52	79.88
267.752	73.88
267.984	90.88
268.216	83.88
268.448	97.88
268.681	86.88
268.913	89.88
269.145	93.88
269.377	94.88
269.609	91.88
269.841	77.88
270.073	77.88
270.306	81.88
270.538	92.88
270.77	97.88
271.002	77.88
271.234	75.88
271.466	84.88
271.698	80.88
271.93	85.88
272.162	79.88
272.394	92.88
272.626	75.88
272.858	79.88
273.09	90.88
273.322	76.88
273.553	85.88
273.785	87.88
274.017	84.88
274.249	100.88
274.481	75.88
274.713	86.88
274.945	102.88
275.176	102.88
275.408	96.88
275.64	85.88
275.872	98.88
276.104	90.88
276.335	96.88
276.567	88.88
276.799	73.88
277.031	77.88
277.262	80.88
277.494	84.88
277.726	82.88
277.957	74.88
278.189	82.88
278.421	82.88
278.652	88.88
278.884	87.88
279.115	87.88
279.347	85.88
279.579	78.88
279.81	88.88
280.042	78.88
280.273	89.88
280.505	78.88
280.736	75.88
280.968	82.88
281.199	87.88
281.431	74.88
281.662	93.88
281.894	81.88
282.125	86.88
282.356	95.88
282.588	86.88
282.819	85.88
283.051	88.88
283.282	78.88
283.513	70.88
283.745	85.88
283.976	103.88
284.207	91.88
284.439	84.88
284.67	78.88
284.901	84.88
285.132	78.88
285.364	82.88
285.595	98.88
285.826	75.88
286.057	88.88
286.288	95.88
286.52	85.88
286.751	94.88
286.982	75.88
287.213	97.88
287.444	76.88
287.675	82.88
287.906	87.88
288.138	81.88
288.369	82.88
288.6	88.88
288.831	93.88
289.062	81.88
289.293	96.88
289.524	82.88
289.755	95.88
289.986	84.88
290.217	93.88
290.448	83.88
290.679	78.88
290.91	86.88
291.141	92.88
291.371	70.88
291.602	95.88
291.833	84.88
292.064	84.88
292.295	95.88
292.526	80.88
292.757	79.88
292.987	84.88
293.218	76.88
293.449	94.88
293.68	78.88
293.91	82.88
294.141	86.88
294.372	88.88
294.603	78.88
294.833	85.88
295.064	90.88
295.295	81.88
295.525	80.88
295.756	81.88
295.987	97.88
296.217	88.88
296.448	77.88
296.679	85.88
296.909	88.88
297.14	93.88
297.37	86.88
297.601	101.88
297.831	90.88
298.062	82.88
298.292	84.88
298.523	92.88
298.753	88.88
298.984	90.88
299.214	89.88
299.445	94.88
299.675	87.88
299.905	80.88
300.136	88.88
300.366	85.88
300.597	83.88
300.827	93.88
301.057	89.88
301.288	89.88
301.518	91.88
301.748	97.88
301.979	95.88
302.209	89.88
302.439	93.88
302.669	83.88
302.9	90.88
303.13	84.88
303.36	89.88
303.59	92.88
303.82	76.88
304.051	92.88
304.281	97.88
304.511	85.88
304.741	79.88
304.971	89.88
305.201	91.88
305.431	84.88
305.661	85.88
305.891	78.88
306.121	77.88
306.352	91.88
306.582	81.88
306.812	89.88
307.042	86.88
307.272	98.88
307.502	91.88
307.731	88.88
307.961	85.88
308.191	94.88
308.421	89.88
308.651	84.88
308.881	77.88
309.111	75.88
309.341	81.88
309.571	90.88
309.8	75.88
310.03	79.88
310.26	85.88
310.49	73.88
310.72	78.88
310.949	89.88
311.179	86.88
311.409	76.88
311.639	84.88
311.868	89.88
312.098	88.88
312.328	81.88
312.557	83.88
312.787	78.88
313.017	82.88
313.246	73.88
313.476	84.88
313.706	70.88
313.935	91.88
314.165	85.88
314.394	88.88
314.624	69.88
314.853	92.88
315.083	78.88
315.312	85.88
315.542	81.88
315.771	79.88
316.001	90.88
316.23	93.88
316.46	90.88
316.689	77.88
316.919	92.88
317.148	75.88
317.377	88.88
317.607	97.88
317.836	89.88
318.065	82.88
318.295	93.88
318.524	77.88
318.753	81.88
318.983	88.88
319.212	85.88
319.441	95.88
319.67	92.88
319.9	90.88
320.129	83.88
320.358	79.88
320.587	104.88
320.816	80.88
321.046	81.88
321.275	91.88
321.504	78.88
321.733	82.88
321.962	81.88
322.191	86.88
322.42	84.88
322.649	77.88
322.878	78.88
323.108	88.88
323.337	84.88
323.566	84.88
323.795	88.88
324.024	66.88
324.253	94.88
324.482	94.88
324.71	93.88
324.939	89.88
325.168	87.88
325.397	87.88
325.626	91.88
325.855	84.88
326.084	85.88
326.313	86.88
326.542	83.88
326.77	87.88
326.999	80.88
327.228	76.88
327.457	90.88
327.686	75.88
327.914	84.88
328.143	78.88
328.372	96.88
328.6	94.88
328.829	87.88
329.058	87.88
329.287	73.88
329.515	84.88
329.744	76.88
329.972	80.88
330.201	86.88
330.43	100.88
330.658	74.88
330.887	80.88
331.115	84.88
331.344	84.88
331.572	88.88
331.801	92.88
332.03	87.88
332.258	78.88
332.486	85.88
332.715	98.88
332.943	90.88
333.172	88.88
333.4	82.88
333.629	87.88
333.857	79.88
334.085	77.88
334.314	82.88
334.542	96.88
334.771	90.88
334.999	95.88
335.227	93.88
335.455	83.88
335.684	77.88
335.912	84.88
336.14	83.88
336.369	89.88
336.597	84.88
336.825	93.88
337.053	88.88
337.281	83.88
337.51	95.88
337.738	92.88
337.966	81.88
338.194	79.88
338.422	85.88
338.65	94.88
338.878	95.88
339.106	85.88
339.334	89.88
339.562	92.88
339.79	80.88
340.018	74.88
340.246	88.88
340.474	85.88
340.702	71.88
340.93	89.88
341.158	93.88
341.386	78.88
341.614	81.88
341.842	88.88
342.07	82.88
342.298	95.88
342.526	82.88
342.754	87.88
342.981	79.88
343.209	69.88
343.437	81.88
343.665	78.88
343.893	77.88
344.12	76.88
344.348	82.88
344.576	75.88
344.804	92.88
345.031	89.88
345.259	91.88
345.487	67.88
345.714	82.88
345.942	86.88
346.17	78.88
346.397	79.88
346.625	78.88
346.853	83.88
347.08	87.88
347.308	84.88
347.535	95.88
347.763	76.88
347.99	90.88
348.218	88.88
348.445	89.88
348.673	100.88
348.9	88.88
349.128	80.88
349.355	85.88
349.583	82.88
349.81	72.88
350.037	83.88
350.265	93.88
350.492	81.88
350.72	85.88
350.947	90.88
351.174	83.88
351.402	76.88
351.629	87.88
351.856	83.88
352.083	89.88
352.311	85.88
352.538	79.88
352.765	96.88
352.992	91.88
353.22	95.88
353.447	75.88
353.674	82.88
353.901	77.88
354.128	90.88
354.355	75.88
354.583	93.88
354.81	81.88
355.037	72.88
355.264	81.88
355.491	75.88
355.718	97.88
355.945	87.88
356.172	71.88
356.399	75.88
356.626	97.88
356.853	83.88
357.08	96.88
357.307	90.88
357.534	85.88
357.761	76.88
357.988	93.88
358.215	93.88
358.441	82.88
358.668	89.88
358.895	88.88
359.122	86.88
359.349	84.88
359.576	74.88
359.802	90.88
360.029	81.88
360.256	85.88
360.483	74.88
360.709	91.88
360.936	82.88
361.163	83.88
361.39	82.88
361.616	85.88
361.843	92.88
362.07	85.88
362.296	86.88
362.523	78.88
362.749	79.88
362.976	77.88
363.203	98.88
363.429	86.88
363.656	76.88
363.882	102.88
364.109	94.88
364.335	89.88
364.562	83.88
364.788	73.88
365.015	92.88
365.241	87.88
365.468	82.88
365.694	89.88
365.92	90.88
366.147	94.88
366.373	87.88
366.599	96.88
366.826	83.88
367.052	90.88
367.278	88.88
367.505	91.88
367.731	86.88
367.957	88.88
368.184	82.88
368.41	81.88
368.636	90.88
368.862	99.88
369.089	93.88
369.315	84.88
369.541	93.88
369.767	82.88
369.993	102.88
370.219	92.88
370.445	83.88
370.672	101.88
370.898	90.88
371.124	89.88
371.35	89.88
371.576	93.88
371.802	75.88
372.028	89.88
372.254	88.88
372.48	85.88
372.706	94.88
372.932	93.88
373.158	98.88
373.384	117.88
373.61	102.88
373.835	97.88
374.061	83.88
374.287	87.88
374.513	93.88
374.739	96.88
374.965	82.88
375.191	92.88
375.416	86.88
375.642	92.88
375.868	91.88
376.094	85.88
376.319	83.88
376.545	89.88
376.771	94.88
376.997	90.88
377.222	92.88
377.448	90.88
377.674	109.88
377.899	94.88
378.125	89.88
378.35	95.88
378.576	73.88
378.802	99.88
379.027	77.88
379.253	89.88
379.478	90.88
379.704	96.88
379.929	92.88
380.155	96.88
380.38	112.88
380.606	102.88
380.831	95.88
381.057	95.88
381.282	94.88
381.507	101.88
381.733	101.88
381.958	86.88
382.184	101.88
382.409	106.88
382.634	100.88
382.86	94.88
383.085	103.88
383.31	107.88
383.535	96.88
383.761	96.88
383.986	98.88
384.211	94.88
384.436	99.88
384.662	108.88
384.887	81.88
385.112	98.88
385.337	98.88
385.562	92.88
385.787	92.88
386.013	102.88
386.238	110.88
386.463	101.88
386.688	115.88
386.913	104.88
387.138	91.88
387.363	97.88
387.588	109.88
387.813	96.88
388.038	84.88
388.263	112.88
388.488	107.88
388.713	89.88
388.938	102.88
389.163	106.88
389.387	91.88
389.612	92.88
389.837	95.88
390.062	102.88
390.287	102.88
390.512	114.88
390.736	93.88
390.961	111.88
391.186	107.88
391.411	112.88
391.636	93.88
391.86	96.88
392.085	103.88
392.31	100.88
392.534	104.88
392.759	110.88
392.984	103.88
393.208	110.88
393.433	111.88
393.658	110.88
393.882	123.88
394.107	98.88
394.331	109.88
394.556	99.88
394.78	118.88
395.005	87.88
395.229	108.88
395.454	110.88
395.678	109.88
395.903	112.88
396.127	121.88
396.352	100.88
396.576	98.88
396.801	101.88
397.025	108.88
397.249	113.88
397.474	97.88
397.698	93.88
397.922	104.88
398.147	105.88
398.371	107.88
398.595	99.88
398.82	96.88
399.044	113.88
399.268	102.88
399.492	98.88
399.717	113.88
399.941	109.88
400.165	100.88
400.389	105.88
400.613	117.88
400.837	112.88
401.062	95.88
401.286	105.88
401.51	125.88
401.734	122.88
401.958	105.88
402.182	117.88
402.406	122.88
402.63	110.88
402.854	113.88
403.078	98.88
403.302	117.88
403.526	101.88
403.75	110.88
403.974	114.88
404.198	120.88
404.422	115.88
404.645	116.88
404.869	101.88
405.093	108.88
405.317	109.88
405.541	109.88
405.765	119.88
405.988	115.88
406.212	113.88
406.436	113.88
406.66	113.88
406.883	126.88
407.107	109.88
407.331	110.88
407.555	127.88
407.778	120.88
408.002	115.88
408.226	128.88
408.449	132.88
408.673	132.88
408.896	121.88
409.12	122.88
409.344	110.88
409.567	128.88
409.791	109.88
410.014	123.88
410.238	130.88
410.461	118.88
410.685	128.88
410.908	122.88
411.132	121.88
411.355	123.88
411.578	106.88
411.802	125.88
412.025	119.88
412.249	125.88
412.472	124.88
412.695	119.88
412.919	130.88
413.142	116.88
413.365	116.88
413.589	115.88
413.812	104.88
414.035	112.88
414.258	124.88
414.482	118.88
414.705	113.88
414.928	119.88
415.151	123.88
415.374	122.88
415.597	123.88
415.821	122.88
416.044	124.88
416.267	124.88
416.49	134.88
416.713	125.88
416.936	107.88
417.159	123.88
417.382	122.88
417.605	125.88
417.828	121.88
418.051	124.88
418.274	134.88
418.497	126.88
418.72	136.88
418.943	135.88
419.166	136.88
419.389	135.88
419.611	141.88
419.834	135.88
420.057	132.88
420.28	118.88
420.503	132.88
420.726	132.88
420.948	138.88
421.171	134.88
421.394	129.88
421.617	135.88
421.839	121.88
422.062	136.88
422.285	116.88
422.507	130.88
422.73	124.88
422.953	125.88
423.175	114.88
423.398	134.88
423.621	142.88
423.843	116.88
424.066	124.88
424.288	148.88
424.511	145.88
424.733	136.88
424.956	143.88
425.178	136.88
425.401	136.88
425.623	122.88
425.846	129.88
426.068	134.88
426.291	117.88
426.513	123.88
426.735	105.88
426.958	117.88
427.18	128.88
427.402	125.88
427.625	124.88
427.847	122.88
428.069	139.88
428.292	132.88
428.514	133.88
428.736	126.88
428.958	134.88
429.181	126.88
429.403	125.88
429.625	128.88
429.847	123.88
430.069	136.88
430.292	121.88
430.514	125.88
430.736	132.88
430.958	122.88
431.18	129.88
431.402	122.88
431.624	118.88
431.846	116.88
432.068	102.88
432.29	94.88
432.512	120.88
432.734	121.88
432.956	128.88
433.178	133.88
433.4	126.88
433.622	141.88
433.844	136.88
434.066	135.88
434.287	104.88
434.509	82.88
434.731	95.88
434.953	101.88
435.175	120.88
435.397	121.88
435.618	128.88
435.84	113.88
436.062	122.88
436.284	109.88
436.505	134.88
436.727	135.88
436.949	139.88
437.17	140.88
437.392	132.88
437.614	136.88
437.835	113.88
438.057	79.88
438.278	120.88
438.5	120.88
438.721	142.88
438.943	130.88
439.165	148.88
439.386	137.88
439.608	150.88
439.829	148.88
440.05	134.88
440.272	130.88
440.493	134.88
440.715	128.88
440.936	141.88
441.158	141.88
441.379	140.88
441.6	136.88
441.822	146.88
442.043	124.88
442.264	131.88
442.486	137.88
442.707	130.88
442.928	144.88
443.149	125.88
443.371	141.88
443.592	128.88
443.813	139.88
444.034	137.88
444.255	141.88
444.476	140.88
444.698	135.88
444.919	133.88
445.14	266.88
445.361	212.88
445.582	152.88
445.803	135.88
446.024	138.88
446.245	142.88
446.466	148.88
446.687	160.88
446.908	154.88
447.129	153.88
447.35	148.88
447.571	157.88
447.792	154.88
448.013	154.88
448.234	133.88
448.455	130.88
448.675	155.88
448.896	134.88
449.117	135.88
449.338	134.88
449.559	126.88
449.779	126.88
450	145.88
450.221	155.88
450.442	134.88
450.662	137.88
450.883	122.88
451.104	140.88
451.324	133.88
451.545	120.88
451.766	128.88
451.986	129.88
452.207	124.88
452.428	125.88
452.648	117.88
452.869	121.88
453.089	122.88
453.31	110.88
453.53	104.88
453.751	105.88
453.971	97.88
454.192	103.88
454.412	101.88
454.633	105.88
454.853	107.88
455.073	119.88
455.294	114.88
455.514	116.88
455.734	132.88
455.955	121.88
456.175	114.88
456.395	106.88
456.616	112.88
456.836	121.88
457.056	109.88
457.276	105.88
457.497	114.88
457.717	105.88
457.937	101.88
458.157	107.88
458.377	104.88
458.598	99.88
458.818	93.88
459.038	84.88
459.258	84.88
459.478	98.88
459.698	96.88
459.918	88.88
460.138	104.88
460.358	125.88
460.578	126.88
460.798	109.88
461.018	121.88
461.238	113.88
461.458	129.88
461.678	114.88
461.898	124.88
462.118	108.88
462.338	107.88
462.558	120.88
462.777	121.88
462.997	103.88
463.217	107.88
463.437	105.88
463.657	101.88
463.876	123.88
464.096	101.88
464.316	99.88
464.536	117.88
464.755	122.88
464.975	124.88
465.195	113.88
465.414	122.88
465.634	119.88
465.854	126.88
466.073	123.88
466.293	123.88
466.512	128.88
466.732	112.88
466.951	137.88
467.171	138.88
467.391	125.88
467.61	142.88
467.829	134.88
468.049	147.88
468.268	128.88
468.488	143.88
468.707	118.88
468.927	140.88
469.146	142.88
469.365	128.88
469.585	123.88
469.804	142.88
470.023	144.88
470.243	140.88
470.462	144.88
470.681	138.88
470.901	134.88
471.12	148.88
471.339	138.88
471.558	134.88
471.777	141.88
471.997	139.88
472.216	128.88
472.435	126.88
472.654	104.88
472.873	109.88
473.092	121.88
473.311	113.88
473.53	124.88
473.749	131.88
473.968	128.88
474.187	105.88
474.406	120.88
474.625	128.88
474.844	137.88
475.063	127.88
475.282	130.88
475.501	123.88
475.72	130.88
475.939	112.88
476.158	126.88
476.377	128.88
476.596	132.88
476.814	113.88
477.033	110.88
477.252	117.88
477.471	116.88
477.69	136.88
477.908	137.88
478.127	135.88
478.346	147.88
478.564	145.88
478.783	134.88
479.002	122.88
479.22	134.88
479.439	144.88
479.658	109.88
479.876	106.88
480.095	119.88
480.313	121.88
480.532	124.88
480.751	108.88
480.969	101.88
481.188	91.88
481.406	96.88
481.624	94.88
481.843	87.88
482.061	106.88
482.28	109.88
482.498	106.88
482.717	111.88
482.935	118.88
483.153	152.88
483.372	139.88
483.59	156.88
483.808	138.88
484.027	131.88
484.245	144.88
484.463	153.88
484.681	165.88
484.9	146.88
485.118	140.88
485.336	126.88
485.554	114.88
485.772	102.88
485.99	98.88
486.209	91.88
486.427	130.88
486.645	122.88
486.863	145.88
487.081	148.88
487.299	132.88
487.517	131.88
487.735	160.88
487.953	189.88
488.171	194.88
488.389	176.88
488.607	150.88
488.825	137.88
489.043	146.88
489.261	131.88
489.479	133.88
489.696	147.88
489.914	147.88
490.132	131.88
490.35	144.88
490.568	154.88
490.786	161.88
491.003	162.88
491.221	177.88
491.439	186.88
491.657	198.88
491.874	222.88
492.092	223.88
492.31	234.88
492.527	224.88
492.745	196.88
492.963	186.88
493.18	196.88
493.398	180.88
493.615	181.88
493.833	194.88
494.05	166.88
494.268	169.88
494.485	172.88
494.703	164.88
494.92	172.88
495.138	172.88
495.355	152.88
495.573	143.88
495.79	168.88
496.008	162.88
496.225	172.88
496.442	154.88
496.66	161.88
496.877	156.88
497.094	143.88
497.312	147.88
497.529	145.88
497.746	152.88
497.963	148.88
498.181	130.88
498.398	109.88
498.615	122.88
498.832	112.88
499.049	128.88
499.267	124.88
499.484	130.88
499.701	119.88
499.918	144.88
500.135	146.88
500.352	142.88
500.569	136.88
500.786	145.88
501.003	149.88
501.22	148.88
501.437	155.88
501.654	137.88
501.871	120.88
502.088	129.88
502.305	141.88
502.522	132.88
502.739	118.88
502.956	135.88
503.172	125.88
503.389	128.88
503.606	117.88
503.823	124.88
504.04	124.88
504.256	140.88
504.473	121.88
504.69	124.88
504.907	114.88
505.123	125.88
505.34	114.88
505.557	109.88
505.773	125.88
505.99	123.88
506.207	119.88
506.423	128.88
506.64	125.88
506.856	109.88
507.073	118.88
507.289	124.88
507.506	120.88
507.722	114.88
507.939	128.88
508.155	109.88
508.372	116.88
508.588	107.88
508.805	128.88
509.021	123.88
509.238	120.88
509.454	117.88
509.67	106.88
509.887	119.88
510.103	100.88
510.319	97.88
510.536	97.88
510.752	89.88
510.968	82.88
511.184	84.88
511.401	91.88
511.617	97.88
