Data from Location4.07152019.Energy5.Lamp.07192019.3%Agarose_HRD10591_16-18-51-925.txt Node
Date: Fri Jul 19 16:18:51 EDT 2019
User: cochatt
Spectrometer: HR+D1059
Trigger mode: 1
Integration Time (sec): 1.000000E-1
Scans to average: 1
Electric dark correction enabled: true
Nonlinearity correction enabled: false
Boxcar width: 0
XAxis mode: Wavelengths
Number of Pixels in Spectrum: 2048
>>>>>Begin Spectral Data<<<<<
223.165	-21.06
223.4	-21.06
223.635	-21.06
223.869	-16.06
224.104	-21.06
224.338	-18.06
224.573	-18.06
224.808	-16.06
225.042	-10.06
225.277	-5.06
225.511	-4.06
225.746	6.94
225.98	18.94
226.215	12.94
226.449	11.94
226.683	20.94
226.918	27.94
227.152	29.94
227.387	33.94
227.621	46.94
227.856	40.94
228.09	49.94
228.324	55.94
228.559	74.94
228.793	58.94
229.027	64.94
229.262	50.94
229.496	52.94
229.73	71.94
229.964	70.94
230.199	67.94
230.433	57.94
230.667	68.94
230.901	68.94
231.136	84.94
231.37	79.94
231.604	66.94
231.838	73.94
232.072	73.94
232.306	78.94
232.541	73.94
232.775	77.94
233.009	73.94
233.243	72.94
233.477	77.94
233.711	80.94
233.945	82.94
234.179	74.94
234.413	82.94
234.647	72.94
234.881	78.94
235.115	69.94
235.349	68.94
235.583	79.94
235.817	74.94
236.051	66.94
236.285	74.94
236.519	79.94
236.753	65.94
236.987	89.94
237.221	68.94
237.455	73.94
237.689	74.94
237.922	75.94
238.156	72.94
238.39	81.94
238.624	79.94
238.858	71.94
239.091	76.94
239.325	77.94
239.559	85.94
239.793	86.94
240.027	79.94
240.26	66.94
240.494	80.94
240.728	67.94
240.961	77.94
241.195	65.94
241.429	79.94
241.662	75.94
241.896	65.94
242.13	75.94
242.363	72.94
242.597	71.94
242.83	90.94
243.064	83.94
243.298	60.94
243.531	81.94
243.765	85.94
243.998	82.94
244.232	71.94
244.465	83.94
244.699	85.94
244.932	78.94
245.166	90.94
245.399	72.94
245.633	78.94
245.866	68.94
246.099	81.94
246.333	70.94
246.566	70.94
246.8	82.94
247.033	66.94
247.266	74.94
247.5	66.94
247.733	66.94
247.966	79.94
248.2	79.94
248.433	80.94
248.666	86.94
248.899	76.94
249.133	80.94
249.366	82.94
249.599	82.94
249.832	68.94
250.066	91.94
250.299	84.94
250.532	92.94
250.765	80.94
250.998	79.94
251.231	86.94
251.465	84.94
251.698	89.94
251.931	70.94
252.164	68.94
252.397	72.94
252.63	75.94
252.863	79.94
253.096	67.94
253.329	79.94
253.562	67.94
253.795	79.94
254.028	81.94
254.261	62.94
254.494	83.94
254.727	79.94
254.96	67.94
255.193	96.94
255.426	72.94
255.659	74.94
255.892	70.94
256.124	79.94
256.357	75.94
256.59	72.94
256.823	72.94
257.056	79.94
257.289	85.94
257.521	86.94
257.754	79.94
257.987	74.94
258.22	75.94
258.452	68.94
258.685	79.94
258.918	66.94
259.151	96.94
259.383	84.94
259.616	83.94
259.849	81.94
260.081	75.94
260.314	79.94
260.547	85.94
260.779	72.94
261.012	83.94
261.244	80.94
261.477	70.94
261.71	85.94
261.942	93.94
262.175	69.94
262.407	79.94
262.64	66.94
262.872	75.94
263.105	78.94
263.337	85.94
263.57	91.94
263.802	85.94
264.035	69.94
264.267	83.94
264.499	73.94
264.732	83.94
264.964	73.94
265.197	85.94
265.429	66.94
265.661	60.94
265.894	94.94
266.126	80.94
266.358	99.94
266.591	82.94
266.823	74.94
267.055	67.94
267.287	76.94
267.52	75.94
267.752	92.94
267.984	83.94
268.216	101.94
268.448	75.94
268.681	79.94
268.913	93.94
269.145	91.94
269.377	79.94
269.609	71.94
269.841	86.94
270.073	77.94
270.306	78.94
270.538	87.94
270.77	81.94
271.002	82.94
271.234	76.94
271.466	84.94
271.698	91.94
271.93	76.94
272.162	73.94
272.394	83.94
272.626	80.94
272.858	72.94
273.09	96.94
273.322	85.94
273.553	80.94
273.785	100.94
274.017	91.94
274.249	89.94
274.481	75.94
274.713	83.94
274.945	94.94
275.176	98.94
275.408	75.94
275.64	89.94
275.872	56.94
276.104	82.94
276.335	77.94
276.567	79.94
276.799	74.94
277.031	87.94
277.262	89.94
277.494	86.94
277.726	75.94
277.957	80.94
278.189	85.94
278.421	86.94
278.652	79.94
278.884	74.94
279.115	85.94
279.347	86.94
279.579	82.94
279.81	80.94
280.042	72.94
280.273	87.94
280.505	77.94
280.736	59.94
280.968	67.94
281.199	79.94
281.431	79.94
281.662	74.94
281.894	91.94
282.125	88.94
282.356	89.94
282.588	76.94
282.819	85.94
283.051	88.94
283.282	80.94
283.513	83.94
283.745	83.94
283.976	78.94
284.207	86.94
284.439	76.94
284.67	89.94
284.901	89.94
285.132	83.94
285.364	85.94
285.595	80.94
285.826	100.94
286.057	83.94
286.288	74.94
286.52	83.94
286.751	88.94
286.982	85.94
287.213	78.94
287.444	84.94
287.675	93.94
287.906	89.94
288.138	84.94
288.369	78.94
288.6	72.94
288.831	83.94
289.062	90.94
289.293	84.94
289.524	81.94
289.755	78.94
289.986	94.94
290.217	84.94
290.448	87.94
290.679	85.94
290.91	85.94
291.141	89.94
291.371	89.94
291.602	84.94
291.833	99.94
292.064	86.94
292.295	84.94
292.526	100.94
292.757	79.94
292.987	73.94
293.218	79.94
293.449	79.94
293.68	82.94
293.91	85.94
294.141	94.94
294.372	86.94
294.603	82.94
294.833	77.94
295.064	86.94
295.295	78.94
295.525	88.94
295.756	66.94
295.987	74.94
296.217	91.94
296.448	77.94
296.679	97.94
296.909	98.94
297.14	88.94
297.37	79.94
297.601	83.94
297.831	86.94
298.062	87.94
298.292	76.94
298.523	79.94
298.753	79.94
298.984	75.94
299.214	85.94
299.445	77.94
299.675	89.94
299.905	85.94
300.136	69.94
300.366	86.94
300.597	76.94
300.827	80.94
301.057	85.94
301.288	79.94
301.518	73.94
301.748	62.94
301.979	75.94
302.209	102.94
302.439	83.94
302.669	90.94
302.9	82.94
303.13	101.94
303.36	87.94
303.59	80.94
303.82	83.94
304.051	91.94
304.281	92.94
304.511	79.94
304.741	85.94
304.971	81.94
305.201	94.94
305.431	77.94
305.661	67.94
305.891	80.94
306.121	89.94
306.352	80.94
306.582	82.94
306.812	73.94
307.042	82.94
307.272	77.94
307.502	81.94
307.731	75.94
307.961	95.94
308.191	96.94
308.421	83.94
308.651	85.94
308.881	100.94
309.111	82.94
309.341	66.94
309.571	86.94
309.8	87.94
310.03	82.94
310.26	83.94
310.49	75.94
310.72	83.94
310.949	89.94
311.179	82.94
311.409	82.94
311.639	87.94
311.868	83.94
312.098	84.94
312.328	74.94
312.557	73.94
312.787	79.94
313.017	74.94
313.246	81.94
313.476	79.94
313.706	64.94
313.935	86.94
314.165	83.94
314.394	75.94
314.624	77.94
314.853	87.94
315.083	77.94
315.312	78.94
315.542	89.94
315.771	81.94
316.001	77.94
316.23	78.94
316.46	89.94
316.689	92.94
316.919	74.94
317.148	81.94
317.377	85.94
317.607	75.94
317.836	98.94
318.065	88.94
318.295	83.94
318.524	84.94
318.753	86.94
318.983	80.94
319.212	81.94
319.441	80.94
319.67	83.94
319.9	76.94
320.129	83.94
320.358	94.94
320.587	82.94
320.816	80.94
321.046	81.94
321.275	73.94
321.504	74.94
321.733	80.94
321.962	78.94
322.191	82.94
322.42	80.94
322.649	88.94
322.878	86.94
323.108	86.94
323.337	83.94
323.566	84.94
323.795	91.94
324.024	72.94
324.253	71.94
324.482	91.94
324.71	88.94
324.939	90.94
325.168	80.94
325.397	86.94
325.626	86.94
325.855	75.94
326.084	84.94
326.313	93.94
326.542	81.94
326.77	79.94
326.999	71.94
327.228	79.94
327.457	79.94
327.686	75.94
327.914	81.94
328.143	84.94
328.372	81.94
328.6	82.94
328.829	82.94
329.058	68.94
329.287	80.94
329.515	85.94
329.744	84.94
329.972	87.94
330.201	88.94
330.43	83.94
330.658	83.94
330.887	82.94
331.115	79.94
331.344	78.94
331.572	82.94
331.801	79.94
332.03	90.94
332.258	78.94
332.486	76.94
332.715	91.94
332.943	88.94
333.172	84.94
333.4	78.94
333.629	95.94
333.857	84.94
334.085	71.94
334.314	79.94
334.542	74.94
334.771	85.94
334.999	79.94
335.227	82.94
335.455	87.94
335.684	69.94
335.912	86.94
336.14	73.94
336.369	80.94
336.597	75.94
336.825	70.94
337.053	77.94
337.281	89.94
337.51	81.94
337.738	81.94
337.966	86.94
338.194	85.94
338.422	82.94
338.65	89.94
338.878	79.94
339.106	87.94
339.334	86.94
339.562	89.94
339.79	78.94
340.018	78.94
340.246	71.94
340.474	90.94
340.702	89.94
340.93	87.94
341.158	95.94
341.386	81.94
341.614	84.94
341.842	101.94
342.07	72.94
342.298	85.94
342.526	79.94
342.754	85.94
342.981	75.94
343.209	72.94
343.437	80.94
343.665	82.94
343.893	78.94
344.12	89.94
344.348	85.94
344.576	73.94
344.804	63.94
345.031	75.94
345.259	83.94
345.487	74.94
345.714	95.94
345.942	85.94
346.17	95.94
346.397	78.94
346.625	85.94
346.853	85.94
347.08	77.94
347.308	79.94
347.535	93.94
347.763	85.94
347.99	85.94
348.218	81.94
348.445	78.94
348.673	85.94
348.9	87.94
349.128	97.94
349.355	83.94
349.583	88.94
349.81	83.94
350.037	94.94
350.265	88.94
350.492	81.94
350.72	100.94
350.947	80.94
351.174	80.94
351.402	97.94
351.629	79.94
351.856	78.94
352.083	73.94
352.311	77.94
352.538	91.94
352.765	87.94
352.992	89.94
353.22	77.94
353.447	85.94
353.674	89.94
353.901	81.94
354.128	77.94
354.355	69.94
354.583	80.94
354.81	74.94
355.037	85.94
355.264	81.94
355.491	81.94
355.718	94.94
355.945	63.94
356.172	94.94
356.399	89.94
356.626	93.94
356.853	77.94
357.08	72.94
357.307	92.94
357.534	83.94
357.761	83.94
357.988	73.94
358.215	82.94
358.441	83.94
358.668	94.94
358.895	70.94
359.122	90.94
359.349	93.94
359.576	81.94
359.802	80.94
360.029	80.94
360.256	93.94
360.483	73.94
360.709	89.94
360.936	70.94
361.163	73.94
361.39	79.94
361.616	70.94
361.843	82.94
362.07	87.94
362.296	84.94
362.523	82.94
362.749	78.94
362.976	73.94
363.203	77.94
363.429	81.94
363.656	79.94
363.882	92.94
364.109	82.94
364.335	84.94
364.562	93.94
364.788	88.94
365.015	90.94
365.241	76.94
365.468	85.94
365.694	96.94
365.92	73.94
366.147	74.94
366.373	73.94
366.599	86.94
366.826	84.94
367.052	91.94
367.278	93.94
367.505	100.94
367.731	81.94
367.957	83.94
368.184	85.94
368.41	88.94
368.636	79.94
368.862	90.94
369.089	86.94
369.315	99.94
369.541	98.94
369.767	76.94
369.993	91.94
370.219	81.94
370.445	88.94
370.672	87.94
370.898	76.94
371.124	87.94
371.35	89.94
371.576	80.94
371.802	98.94
372.028	80.94
372.254	85.94
372.48	93.94
372.706	90.94
372.932	78.94
373.158	88.94
373.384	99.94
373.61	74.94
373.835	92.94
374.061	90.94
374.287	89.94
374.513	81.94
374.739	76.94
374.965	96.94
375.191	80.94
375.416	76.94
375.642	83.94
375.868	101.94
376.094	86.94
376.319	87.94
376.545	80.94
376.771	83.94
376.997	90.94
377.222	87.94
377.448	80.94
377.674	99.94
377.899	101.94
378.125	97.94
378.35	95.94
378.576	78.94
378.802	94.94
379.027	95.94
379.253	78.94
379.478	88.94
379.704	98.94
379.929	91.94
380.155	105.94
380.38	87.94
380.606	83.94
380.831	91.94
381.057	103.94
381.282	97.94
381.507	91.94
381.733	97.94
381.958	86.94
382.184	106.94
382.409	94.94
382.634	85.94
382.86	103.94
383.085	92.94
383.31	99.94
383.535	97.94
383.761	91.94
383.986	88.94
384.211	99.94
384.436	90.94
384.662	82.94
384.887	86.94
385.112	87.94
385.337	94.94
385.562	89.94
385.787	99.94
386.013	93.94
386.238	94.94
386.463	95.94
386.688	90.94
386.913	87.94
387.138	105.94
387.363	83.94
387.588	98.94
387.813	94.94
388.038	101.94
388.263	98.94
388.488	91.94
388.713	96.94
388.938	90.94
389.163	93.94
389.387	98.94
389.612	92.94
389.837	98.94
390.062	99.94
390.287	102.94
390.512	102.94
390.736	102.94
390.961	105.94
391.186	103.94
391.411	102.94
391.636	96.94
391.86	87.94
392.085	108.94
392.31	99.94
392.534	87.94
392.759	103.94
392.984	95.94
393.208	93.94
393.433	93.94
393.658	97.94
393.882	97.94
394.107	98.94
394.331	113.94
394.556	97.94
394.78	102.94
395.005	107.94
395.229	100.94
395.454	101.94
395.678	112.94
395.903	94.94
396.127	109.94
396.352	104.94
396.576	115.94
396.801	97.94
397.025	113.94
397.249	115.94
397.474	96.94
397.698	111.94
397.922	111.94
398.147	94.94
398.371	111.94
398.595	113.94
398.82	109.94
399.044	113.94
399.268	110.94
399.492	104.94
399.717	108.94
399.941	113.94
400.165	103.94
400.389	105.94
400.613	89.94
400.837	110.94
401.062	112.94
401.286	94.94
401.51	105.94
401.734	107.94
401.958	89.94
402.182	111.94
402.406	103.94
402.63	103.94
402.854	107.94
403.078	102.94
403.302	92.94
403.526	115.94
403.75	108.94
403.974	121.94
404.198	126.94
404.422	114.94
404.645	109.94
404.869	102.94
405.093	114.94
405.317	121.94
405.541	115.94
405.765	117.94
405.988	115.94
406.212	123.94
406.436	116.94
406.66	123.94
406.883	119.94
407.107	110.94
407.331	105.94
407.555	101.94
407.778	113.94
408.002	113.94
408.226	127.94
408.449	124.94
408.673	109.94
408.896	111.94
409.12	113.94
409.344	108.94
409.567	101.94
409.791	107.94
410.014	115.94
410.238	121.94
410.461	117.94
410.685	117.94
410.908	116.94
411.132	114.94
411.355	112.94
411.578	120.94
411.802	110.94
412.025	95.94
412.249	111.94
412.472	113.94
412.695	118.94
412.919	115.94
413.142	125.94
413.365	121.94
413.589	120.94
413.812	123.94
414.035	117.94
414.258	113.94
414.482	111.94
414.705	101.94
414.928	117.94
415.151	116.94
415.374	116.94
415.597	123.94
415.821	106.94
416.044	107.94
416.267	104.94
416.49	123.94
416.713	121.94
416.936	119.94
417.159	98.94
417.382	113.94
417.605	134.94
417.828	129.94
418.051	117.94
418.274	121.94
418.497	123.94
418.72	120.94
418.943	125.94
419.166	144.94
419.389	127.94
419.611	124.94
419.834	118.94
420.057	121.94
420.28	116.94
420.503	113.94
420.726	127.94
420.948	104.94
421.171	127.94
421.394	125.94
421.617	144.94
421.839	123.94
422.062	137.94
422.285	138.94
422.507	102.94
422.73	137.94
422.953	135.94
423.175	121.94
423.398	125.94
423.621	115.94
423.843	123.94
424.066	125.94
424.288	119.94
424.511	121.94
424.733	116.94
424.956	135.94
425.178	144.94
425.401	122.94
425.623	129.94
425.846	134.94
426.068	122.94
426.291	123.94
426.513	111.94
426.735	117.94
426.958	132.94
427.18	117.94
427.402	113.94
427.625	117.94
427.847	118.94
428.069	127.94
428.292	114.94
428.514	123.94
428.736	120.94
428.958	114.94
429.181	127.94
429.403	125.94
429.625	118.94
429.847	127.94
430.069	127.94
430.292	139.94
430.514	132.94
430.736	129.94
430.958	123.94
431.18	133.94
431.402	133.94
431.624	121.94
431.846	98.94
432.068	107.94
432.29	115.94
432.512	101.94
432.734	114.94
432.956	125.94
433.178	121.94
433.4	129.94
433.622	136.94
433.844	127.94
434.066	121.94
434.287	103.94
434.509	96.94
434.731	111.94
434.953	118.94
435.175	125.94
435.397	129.94
435.618	113.94
435.84	111.94
436.062	103.94
436.284	119.94
436.505	130.94
436.727	125.94
436.949	104.94
437.17	130.94
437.392	140.94
437.614	122.94
437.835	112.94
438.057	107.94
438.278	101.94
438.5	109.94
438.721	128.94
438.943	131.94
439.165	131.94
439.386	128.94
439.608	139.94
439.829	131.94
440.05	136.94
440.272	143.94
440.493	125.94
440.715	128.94
440.936	155.94
441.158	149.94
441.379	137.94
441.6	141.94
441.822	151.94
442.043	143.94
442.264	129.94
442.486	145.94
442.707	146.94
442.928	151.94
443.149	133.94
443.371	137.94
443.592	128.94
443.813	140.94
444.034	137.94
444.255	137.94
444.476	128.94
444.698	128.94
444.919	142.94
445.14	285.94
445.361	188.94
445.582	152.94
445.803	145.94
446.024	131.94
446.245	153.94
446.466	140.94
446.687	154.94
446.908	144.94
447.129	145.94
447.35	152.94
447.571	135.94
447.792	133.94
448.013	136.94
448.234	137.94
448.455	136.94
448.675	140.94
448.896	140.94
449.117	133.94
449.338	139.94
449.559	148.94
449.779	126.94
450	127.94
450.221	122.94
450.442	128.94
450.662	119.94
450.883	135.94
451.104	124.94
451.324	124.94
451.545	135.94
451.766	117.94
451.986	133.94
452.207	110.94
452.428	119.94
452.648	130.94
452.869	114.94
453.089	106.94
453.31	106.94
453.53	96.94
453.751	97.94
453.971	105.94
454.192	105.94
454.412	105.94
454.633	113.94
454.853	115.94
455.073	115.94
455.294	118.94
455.514	114.94
455.734	136.94
455.955	107.94
456.175	104.94
456.395	107.94
456.616	106.94
456.836	104.94
457.056	118.94
457.276	86.94
457.497	103.94
457.717	109.94
457.937	114.94
458.157	97.94
458.377	99.94
458.598	102.94
458.818	102.94
459.038	82.94
459.258	86.94
459.478	78.94
459.698	87.94
459.918	103.94
460.138	114.94
460.358	115.94
460.578	105.94
460.798	103.94
461.018	122.94
461.238	113.94
461.458	116.94
461.678	125.94
461.898	119.94
462.118	119.94
462.338	111.94
462.558	121.94
462.777	118.94
462.997	106.94
463.217	115.94
463.437	104.94
463.657	108.94
463.876	97.94
464.096	106.94
464.316	107.94
464.536	107.94
464.755	118.94
464.975	112.94
465.195	119.94
465.414	102.94
465.634	111.94
465.854	119.94
466.073	114.94
466.293	131.94
466.512	125.94
466.732	120.94
466.951	131.94
467.171	139.94
467.391	125.94
467.61	143.94
467.829	126.94
468.049	135.94
468.268	133.94
468.488	128.94
468.707	130.94
468.927	125.94
469.146	137.94
469.365	133.94
469.585	131.94
469.804	133.94
470.023	134.94
470.243	132.94
470.462	131.94
470.681	127.94
470.901	148.94
471.12	146.94
471.339	129.94
471.558	129.94
471.777	129.94
471.997	136.94
472.216	131.94
472.435	118.94
472.654	113.94
472.873	100.94
473.092	109.94
473.311	114.94
473.53	127.94
473.749	125.94
473.968	119.94
474.187	125.94
474.406	125.94
474.625	105.94
474.844	123.94
475.063	139.94
475.282	145.94
475.501	127.94
475.72	118.94
475.939	122.94
476.158	118.94
476.377	119.94
476.596	118.94
476.814	113.94
477.033	85.94
477.252	110.94
477.471	120.94
477.69	121.94
477.908	126.94
478.127	123.94
478.346	143.94
478.564	135.94
478.783	156.94
479.002	131.94
479.22	147.94
479.439	127.94
479.658	122.94
479.876	101.94
480.095	98.94
480.313	116.94
480.532	111.94
480.751	81.94
480.969	99.94
481.188	91.94
481.406	88.94
481.624	87.94
481.843	92.94
482.061	89.94
482.28	115.94
482.498	114.94
482.717	109.94
482.935	128.94
483.153	137.94
483.372	154.94
483.59	155.94
483.808	129.94
484.027	137.94
484.245	132.94
484.463	137.94
484.681	149.94
484.9	139.94
485.118	146.94
485.336	118.94
485.554	93.94
485.772	94.94
485.99	99.94
486.209	97.94
486.427	117.94
486.645	115.94
486.863	127.94
487.081	131.94
487.299	152.94
487.517	142.94
487.735	154.94
487.953	193.94
488.171	170.94
488.389	160.94
488.607	162.94
488.825	142.94
489.043	134.94
489.261	126.94
489.479	138.94
489.696	128.94
489.914	135.94
490.132	134.94
490.35	140.94
490.568	144.94
490.786	169.94
491.003	176.94
491.221	174.94
491.439	177.94
491.657	179.94
491.874	195.94
492.092	225.94
492.31	231.94
492.527	221.94
492.745	206.94
492.963	195.94
493.18	186.94
493.398	181.94
493.615	174.94
493.833	163.94
494.05	182.94
494.268	171.94
494.485	164.94
494.703	178.94
494.92	175.94
495.138	172.94
495.355	157.94
495.573	179.94
495.79	175.94
496.008	179.94
496.225	167.94
496.442	161.94
496.66	170.94
496.877	150.94
497.094	160.94
497.312	161.94
497.529	152.94
497.746	155.94
497.963	164.94
498.181	133.94
498.398	130.94
498.615	119.94
498.832	114.94
499.049	140.94
499.267	129.94
499.484	116.94
499.701	134.94
499.918	143.94
500.135	129.94
500.352	142.94
500.569	151.94
500.786	132.94
501.003	133.94
501.22	133.94
501.437	145.94
501.654	125.94
501.871	118.94
502.088	107.94
502.305	138.94
502.522	127.94
502.739	120.94
502.956	143.94
503.172	117.94
503.389	123.94
503.606	130.94
503.823	130.94
504.04	115.94
504.256	122.94
504.473	113.94
504.69	125.94
504.907	133.94
505.123	121.94
505.34	113.94
505.557	119.94
505.773	98.94
505.99	133.94
506.207	115.94
506.423	125.94
506.64	124.94
506.856	115.94
507.073	117.94
507.289	111.94
507.506	108.94
507.722	103.94
507.939	121.94
508.155	114.94
508.372	108.94
508.588	120.94
508.805	112.94
509.021	113.94
509.238	99.94
509.454	91.94
509.67	104.94
509.887	77.94
510.103	87.94
510.319	90.94
510.536	91.94
510.752	78.94
510.968	85.94
511.184	79.94
511.401	85.94
511.617	89.94
511.833	90.94
512.049	96.94
