Data from Location4.07152019.Energy5.Lamp.07192019.3%Agarose_HRD10591_16-21-33-926.txt Node
Date: Fri Jul 19 16:21:33 EDT 2019
User: cochatt
Spectrometer: HR+D1059
Trigger mode: 1
Integration Time (sec): 1.000000E-1
Scans to average: 1
Electric dark correction enabled: true
Nonlinearity correction enabled: false
Boxcar width: 0
XAxis mode: Wavelengths
Number of Pixels in Spectrum: 2048
>>>>>Begin Spectral Data<<<<<
223.165	-20.19
223.4	-20.19
223.635	-20.19
223.869	-26.19
224.104	-2.19
224.338	-13.19
224.573	2.81
224.808	-18.19
225.042	-4.19
225.277	-2.19
225.511	-4.19
225.746	-15.19
225.98	10.81
226.215	6.81
226.449	14.81
226.683	12.81
226.918	24.81
227.152	32.81
227.387	36.81
227.621	33.81
227.856	40.81
228.09	36.81
228.324	45.81
228.559	46.81
228.793	57.81
229.027	65.81
229.262	52.81
229.496	59.81
229.73	73.81
229.964	73.81
230.199	81.81
230.433	72.81
230.667	76.81
230.901	68.81
231.136	70.81
231.37	78.81
231.604	79.81
231.838	91.81
232.072	84.81
232.306	94.81
232.541	81.81
232.775	84.81
233.009	78.81
233.243	77.81
233.477	78.81
233.711	87.81
233.945	90.81
234.179	83.81
234.413	82.81
234.647	85.81
234.881	78.81
235.115	84.81
235.349	82.81
235.583	85.81
235.817	78.81
236.051	81.81
236.285	75.81
236.519	74.81
236.753	67.81
236.987	82.81
237.221	85.81
237.455	78.81
237.689	76.81
237.922	66.81
238.156	83.81
238.39	72.81
238.624	78.81
238.858	90.81
239.091	70.81
239.325	70.81
239.559	84.81
239.793	90.81
240.027	78.81
240.26	75.81
240.494	66.81
240.728	85.81
240.961	78.81
241.195	78.81
241.429	67.81
241.662	70.81
241.896	83.81
242.13	81.81
242.363	66.81
242.597	85.81
242.83	81.81
243.064	87.81
243.298	73.81
243.531	62.81
243.765	69.81
243.998	68.81
244.232	72.81
244.465	90.81
244.699	60.81
244.932	72.81
245.166	84.81
245.399	63.81
245.633	69.81
245.866	81.81
246.099	75.81
246.333	80.81
246.566	67.81
246.8	81.81
247.033	83.81
247.266	69.81
247.5	76.81
247.733	80.81
247.966	83.81
248.2	73.81
248.433	86.81
248.666	65.81
248.899	86.81
249.133	86.81
249.366	81.81
249.599	79.81
249.832	75.81
250.066	72.81
250.299	77.81
250.532	81.81
250.765	73.81
250.998	83.81
251.231	81.81
251.465	74.81
251.698	78.81
251.931	82.81
252.164	95.81
252.397	78.81
252.63	68.81
252.863	72.81
253.096	69.81
253.329	78.81
253.562	69.81
253.795	97.81
254.028	79.81
254.261	77.81
254.494	84.81
254.727	85.81
254.96	81.81
255.193	87.81
255.426	74.81
255.659	78.81
255.892	79.81
256.124	76.81
256.357	77.81
256.59	83.81
256.823	91.81
257.056	82.81
257.289	74.81
257.521	59.81
257.754	72.81
257.987	74.81
258.22	76.81
258.452	99.81
258.685	98.81
258.918	80.81
259.151	73.81
259.383	74.81
259.616	73.81
259.849	86.81
260.081	89.81
260.314	70.81
260.547	77.81
260.779	97.81
261.012	83.81
261.244	76.81
261.477	77.81
261.71	93.81
261.942	82.81
262.175	77.81
262.407	71.81
262.64	87.81
262.872	73.81
263.105	85.81
263.337	74.81
263.57	98.81
263.802	73.81
264.035	85.81
264.267	88.81
264.499	70.81
264.732	82.81
264.964	70.81
265.197	67.81
265.429	89.81
265.661	76.81
265.894	86.81
266.126	82.81
266.358	90.81
266.591	69.81
266.823	80.81
267.055	87.81
267.287	75.81
267.52	96.81
267.752	89.81
267.984	85.81
268.216	79.81
268.448	89.81
268.681	80.81
268.913	91.81
269.145	76.81
269.377	85.81
269.609	73.81
269.841	81.81
270.073	88.81
270.306	81.81
270.538	94.81
270.77	85.81
271.002	83.81
271.234	85.81
271.466	90.81
271.698	89.81
271.93	86.81
272.162	88.81
272.394	69.81
272.626	76.81
272.858	90.81
273.09	94.81
273.322	86.81
273.553	73.81
273.785	72.81
274.017	86.81
274.249	91.81
274.481	76.81
274.713	78.81
274.945	81.81
275.176	74.81
275.408	92.81
275.64	80.81
275.872	80.81
276.104	89.81
276.335	84.81
276.567	77.81
276.799	93.81
277.031	82.81
277.262	83.81
277.494	78.81
277.726	86.81
277.957	79.81
278.189	83.81
278.421	82.81
278.652	80.81
278.884	86.81
279.115	77.81
279.347	78.81
279.579	85.81
279.81	87.81
280.042	84.81
280.273	89.81
280.505	78.81
280.736	78.81
280.968	95.81
281.199	79.81
281.431	88.81
281.662	73.81
281.894	90.81
282.125	87.81
282.356	87.81
282.588	80.81
282.819	85.81
283.051	101.81
283.282	78.81
283.513	71.81
283.745	85.81
283.976	88.81
284.207	84.81
284.439	84.81
284.67	79.81
284.901	72.81
285.132	85.81
285.364	88.81
285.595	86.81
285.826	66.81
286.057	78.81
286.288	76.81
286.52	86.81
286.751	82.81
286.982	91.81
287.213	72.81
287.444	88.81
287.675	90.81
287.906	77.81
288.138	88.81
288.369	73.81
288.6	85.81
288.831	77.81
289.062	76.81
289.293	73.81
289.524	87.81
289.755	97.81
289.986	81.81
290.217	90.81
290.448	84.81
290.679	96.81
290.91	88.81
291.141	77.81
291.371	95.81
291.602	72.81
291.833	87.81
292.064	68.81
292.295	85.81
292.526	84.81
292.757	88.81
292.987	83.81
293.218	86.81
293.449	74.81
293.68	86.81
293.91	91.81
294.141	73.81
294.372	69.81
294.603	96.81
294.833	78.81
295.064	81.81
295.295	82.81
295.525	94.81
295.756	92.81
295.987	82.81
296.217	82.81
296.448	89.81
296.679	84.81
296.909	89.81
297.14	90.81
297.37	80.81
297.601	90.81
297.831	81.81
298.062	80.81
298.292	87.81
298.523	89.81
298.753	74.81
298.984	95.81
299.214	88.81
299.445	90.81
299.675	102.81
299.905	86.81
300.136	91.81
300.366	83.81
300.597	91.81
300.827	78.81
301.057	81.81
301.288	86.81
301.518	80.81
301.748	83.81
301.979	97.81
302.209	81.81
302.439	90.81
302.669	82.81
302.9	95.81
303.13	84.81
303.36	77.81
303.59	84.81
303.82	86.81
304.051	81.81
304.281	100.81
304.511	88.81
304.741	84.81
304.971	87.81
305.201	87.81
305.431	94.81
305.661	79.81
305.891	81.81
306.121	79.81
306.352	86.81
306.582	89.81
306.812	90.81
307.042	86.81
307.272	87.81
307.502	76.81
307.731	93.81
307.961	74.81
308.191	78.81
308.421	70.81
308.651	78.81
308.881	80.81
309.111	97.81
309.341	99.81
309.571	96.81
309.8	97.81
310.03	82.81
310.26	94.81
310.49	78.81
310.72	79.81
310.949	82.81
311.179	78.81
311.409	90.81
311.639	89.81
311.868	70.81
312.098	81.81
312.328	91.81
312.557	84.81
312.787	104.81
313.017	96.81
313.246	66.81
313.476	80.81
313.706	97.81
313.935	91.81
314.165	96.81
314.394	86.81
314.624	64.81
314.853	90.81
315.083	79.81
315.312	101.81
315.542	93.81
315.771	87.81
316.001	93.81
316.23	87.81
316.46	72.81
316.689	87.81
316.919	99.81
317.148	84.81
317.377	86.81
317.607	86.81
317.836	77.81
318.065	78.81
318.295	89.81
318.524	92.81
318.753	85.81
318.983	73.81
319.212	83.81
319.441	83.81
319.67	87.81
319.9	92.81
320.129	92.81
320.358	89.81
320.587	86.81
320.816	103.81
321.046	90.81
321.275	104.81
321.504	105.81
321.733	77.81
321.962	93.81
322.191	81.81
322.42	95.81
322.649	91.81
322.878	89.81
323.108	83.81
323.337	85.81
323.566	73.81
323.795	77.81
324.024	90.81
324.253	75.81
324.482	81.81
324.71	77.81
324.939	93.81
325.168	99.81
325.397	88.81
325.626	78.81
325.855	69.81
326.084	88.81
326.313	92.81
326.542	82.81
326.77	88.81
326.999	84.81
327.228	85.81
327.457	79.81
327.686	78.81
327.914	94.81
328.143	93.81
328.372	73.81
328.6	72.81
328.829	90.81
329.058	87.81
329.287	88.81
329.515	84.81
329.744	83.81
329.972	90.81
330.201	85.81
330.43	76.81
330.658	90.81
330.887	73.81
331.115	78.81
331.344	94.81
331.572	86.81
331.801	78.81
332.03	84.81
332.258	88.81
332.486	82.81
332.715	91.81
332.943	88.81
333.172	81.81
333.4	83.81
333.629	81.81
333.857	85.81
334.085	80.81
334.314	84.81
334.542	91.81
334.771	84.81
334.999	78.81
335.227	97.81
335.455	87.81
335.684	92.81
335.912	76.81
336.14	98.81
336.369	88.81
336.597	78.81
336.825	89.81
337.053	70.81
337.281	85.81
337.51	80.81
337.738	108.81
337.966	75.81
338.194	97.81
338.422	73.81
338.65	81.81
338.878	83.81
339.106	81.81
339.334	79.81
339.562	86.81
339.79	85.81
340.018	91.81
340.246	85.81
340.474	96.81
340.702	78.81
340.93	89.81
341.158	89.81
341.386	77.81
341.614	90.81
341.842	77.81
342.07	72.81
342.298	81.81
342.526	89.81
342.754	81.81
342.981	99.81
343.209	98.81
343.437	84.81
343.665	75.81
343.893	92.81
344.12	78.81
344.348	78.81
344.576	78.81
344.804	79.81
345.031	85.81
345.259	80.81
345.487	85.81
345.714	81.81
345.942	84.81
346.17	81.81
346.397	91.81
346.625	82.81
346.853	84.81
347.08	88.81
347.308	81.81
347.535	82.81
347.763	79.81
347.99	87.81
348.218	74.81
348.445	88.81
348.673	76.81
348.9	90.81
349.128	81.81
349.355	101.81
349.583	86.81
349.81	82.81
350.037	72.81
350.265	84.81
350.492	94.81
350.72	76.81
350.947	86.81
351.174	92.81
351.402	89.81
351.629	82.81
351.856	87.81
352.083	96.81
352.311	90.81
352.538	85.81
352.765	85.81
352.992	78.81
353.22	92.81
353.447	91.81
353.674	72.81
353.901	87.81
354.128	80.81
354.355	92.81
354.583	85.81
354.81	82.81
355.037	85.81
355.264	82.81
355.491	83.81
355.718	92.81
355.945	77.81
356.172	84.81
356.399	72.81
356.626	85.81
356.853	93.81
357.08	82.81
357.307	84.81
357.534	87.81
357.761	75.81
357.988	88.81
358.215	82.81
358.441	85.81
358.668	85.81
358.895	82.81
359.122	75.81
359.349	85.81
359.576	81.81
359.802	86.81
360.029	91.81
360.256	85.81
360.483	86.81
360.709	98.81
360.936	93.81
361.163	82.81
361.39	92.81
361.616	87.81
361.843	81.81
362.07	94.81
362.296	92.81
362.523	82.81
362.749	82.81
362.976	84.81
363.203	92.81
363.429	85.81
363.656	87.81
363.882	82.81
364.109	87.81
364.335	92.81
364.562	88.81
364.788	93.81
365.015	82.81
365.241	86.81
365.468	87.81
365.694	76.81
365.92	77.81
366.147	78.81
366.373	74.81
366.599	92.81
366.826	87.81
367.052	88.81
367.278	96.81
367.505	72.81
367.731	96.81
367.957	87.81
368.184	96.81
368.41	89.81
368.636	85.81
368.862	84.81
369.089	88.81
369.315	85.81
369.541	89.81
369.767	85.81
369.993	79.81
370.219	77.81
370.445	102.81
370.672	95.81
370.898	81.81
371.124	101.81
371.35	85.81
371.576	98.81
371.802	95.81
372.028	93.81
372.254	89.81
372.48	101.81
372.706	77.81
372.932	85.81
373.158	84.81
373.384	79.81
373.61	94.81
373.835	98.81
374.061	87.81
374.287	90.81
374.513	97.81
374.739	98.81
374.965	75.81
375.191	88.81
375.416	93.81
375.642	96.81
375.868	86.81
376.094	90.81
376.319	97.81
376.545	90.81
376.771	98.81
376.997	106.81
377.222	95.81
377.448	95.81
377.674	92.81
377.899	90.81
378.125	97.81
378.35	98.81
378.576	101.81
378.802	93.81
379.027	93.81
379.253	91.81
379.478	92.81
379.704	93.81
379.929	88.81
380.155	81.81
380.38	102.81
380.606	89.81
380.831	95.81
381.057	110.81
381.282	88.81
381.507	89.81
381.733	97.81
381.958	101.81
382.184	93.81
382.409	101.81
382.634	104.81
382.86	94.81
383.085	97.81
383.31	98.81
383.535	91.81
383.761	93.81
383.986	97.81
384.211	98.81
384.436	89.81
384.662	89.81
384.887	100.81
385.112	98.81
385.337	108.81
385.562	93.81
385.787	93.81
386.013	98.81
386.238	103.81
386.463	102.81
386.688	115.81
386.913	89.81
387.138	93.81
387.363	92.81
387.588	103.81
387.813	101.81
388.038	100.81
388.263	102.81
388.488	93.81
388.713	105.81
388.938	102.81
389.163	108.81
389.387	110.81
389.612	92.81
389.837	93.81
390.062	98.81
390.287	88.81
390.512	113.81
390.736	109.81
390.961	90.81
391.186	113.81
391.411	94.81
391.636	98.81
391.86	109.81
392.085	108.81
392.31	101.81
392.534	92.81
392.759	108.81
392.984	100.81
393.208	106.81
393.433	108.81
393.658	104.81
393.882	105.81
394.107	109.81
394.331	109.81
394.556	108.81
394.78	106.81
395.005	102.81
395.229	112.81
395.454	101.81
395.678	113.81
395.903	112.81
396.127	118.81
396.352	115.81
396.576	94.81
396.801	93.81
397.025	101.81
397.249	121.81
397.474	101.81
397.698	108.81
397.922	90.81
398.147	92.81
398.371	93.81
398.595	114.81
398.82	99.81
399.044	104.81
399.268	120.81
399.492	118.81
399.717	115.81
399.941	108.81
400.165	112.81
400.389	108.81
400.613	101.81
400.837	107.81
401.062	119.81
401.286	120.81
401.51	113.81
401.734	105.81
401.958	102.81
402.182	132.81
402.406	110.81
402.63	113.81
402.854	112.81
403.078	104.81
403.302	107.81
403.526	125.81
403.75	120.81
403.974	105.81
404.198	114.81
404.422	91.81
404.645	102.81
404.869	113.81
405.093	103.81
405.317	96.81
405.541	120.81
405.765	117.81
405.988	119.81
406.212	123.81
406.436	115.81
406.66	125.81
406.883	115.81
407.107	116.81
407.331	109.81
407.555	113.81
407.778	123.81
408.002	122.81
408.226	121.81
408.449	123.81
408.673	125.81
408.896	113.81
409.12	113.81
409.344	127.81
409.567	111.81
409.791	127.81
410.014	128.81
410.238	123.81
410.461	122.81
410.685	109.81
410.908	120.81
411.132	129.81
411.355	115.81
411.578	124.81
411.802	125.81
412.025	125.81
412.249	119.81
412.472	119.81
412.695	125.81
412.919	121.81
413.142	116.81
413.365	126.81
413.589	117.81
413.812	117.81
414.035	116.81
414.258	110.81
414.482	124.81
414.705	118.81
414.928	116.81
415.151	123.81
415.374	121.81
415.597	110.81
415.821	121.81
416.044	117.81
416.267	122.81
416.49	119.81
416.713	122.81
416.936	119.81
417.159	130.81
417.382	120.81
417.605	115.81
417.828	135.81
418.051	129.81
418.274	113.81
418.497	138.81
418.72	149.81
418.943	137.81
419.166	112.81
419.389	136.81
419.611	119.81
419.834	130.81
420.057	140.81
420.28	122.81
420.503	141.81
420.726	124.81
420.948	121.81
421.171	109.81
421.394	127.81
421.617	147.81
421.839	160.81
422.062	140.81
422.285	120.81
422.507	139.81
422.73	133.81
422.953	121.81
423.175	103.81
423.398	115.81
423.621	132.81
423.843	134.81
424.066	133.81
424.288	137.81
424.511	142.81
424.733	136.81
424.956	143.81
425.178	143.81
425.401	148.81
425.623	137.81
425.846	139.81
426.068	131.81
426.291	123.81
426.513	127.81
426.735	128.81
426.958	130.81
427.18	116.81
427.402	117.81
427.625	132.81
427.847	138.81
428.069	132.81
428.292	128.81
428.514	118.81
428.736	115.81
428.958	118.81
429.181	138.81
429.403	117.81
429.625	120.81
429.847	116.81
430.069	126.81
430.292	128.81
430.514	120.81
430.736	119.81
430.958	125.81
431.18	121.81
431.402	146.81
431.624	126.81
431.846	106.81
432.068	84.81
432.29	95.81
432.512	122.81
432.734	132.81
432.956	136.81
433.178	134.81
433.4	132.81
433.622	148.81
433.844	121.81
434.066	127.81
434.287	125.81
434.509	104.81
434.731	116.81
434.953	107.81
435.175	128.81
435.397	140.81
435.618	116.81
435.84	137.81
436.062	113.81
436.284	120.81
436.505	122.81
436.727	130.81
436.949	129.81
437.17	124.81
437.392	146.81
437.614	120.81
437.835	92.81
438.057	117.81
438.278	116.81
438.5	125.81
438.721	128.81
438.943	143.81
439.165	134.81
439.386	138.81
439.608	137.81
439.829	159.81
440.05	144.81
440.272	138.81
440.493	151.81
440.715	132.81
440.936	132.81
441.158	136.81
441.379	136.81
441.6	150.81
441.822	139.81
442.043	146.81
442.264	130.81
442.486	140.81
442.707	134.81
442.928	135.81
443.149	155.81
443.371	155.81
443.592	135.81
443.813	139.81
444.034	121.81
444.255	149.81
444.476	128.81
444.698	139.81
444.919	141.81
445.14	264.81
445.361	189.81
445.582	128.81
445.803	156.81
446.024	144.81
446.245	147.81
446.466	148.81
446.687	155.81
446.908	146.81
447.129	148.81
447.35	152.81
447.571	133.81
447.792	132.81
448.013	126.81
448.234	126.81
448.455	145.81
448.675	140.81
448.896	128.81
449.117	141.81
449.338	142.81
449.559	139.81
449.779	136.81
450	134.81
450.221	140.81
450.442	126.81
450.662	133.81
450.883	133.81
451.104	134.81
451.324	128.81
451.545	134.81
451.766	114.81
451.986	130.81
452.207	138.81
452.428	132.81
452.648	130.81
452.869	115.81
453.089	100.81
453.31	120.81
453.53	109.81
453.751	120.81
453.971	100.81
454.192	88.81
454.412	114.81
454.633	115.81
454.853	121.81
455.073	126.81
455.294	122.81
455.514	123.81
455.734	130.81
455.955	121.81
456.175	124.81
456.395	116.81
456.616	104.81
456.836	114.81
457.056	107.81
457.276	114.81
457.497	99.81
457.717	116.81
457.937	109.81
458.157	111.81
458.377	93.81
458.598	96.81
458.818	104.81
459.038	97.81
459.258	96.81
459.478	82.81
459.698	95.81
459.918	105.81
460.138	113.81
460.358	115.81
460.578	112.81
460.798	109.81
461.018	115.81
461.238	114.81
461.458	118.81
461.678	98.81
461.898	106.81
462.118	131.81
462.338	117.81
462.558	113.81
462.777	117.81
462.997	102.81
463.217	120.81
463.437	110.81
463.657	123.81
463.876	94.81
464.096	109.81
464.316	101.81
464.536	98.81
464.755	118.81
464.975	117.81
465.195	120.81
465.414	111.81
465.634	117.81
465.854	103.81
466.073	116.81
466.293	126.81
466.512	118.81
466.732	125.81
466.951	130.81
467.171	133.81
467.391	133.81
467.61	135.81
467.829	141.81
468.049	133.81
468.268	124.81
468.488	132.81
468.707	136.81
468.927	131.81
469.146	139.81
469.365	140.81
469.585	131.81
469.804	140.81
470.023	147.81
470.243	132.81
470.462	148.81
470.681	147.81
470.901	129.81
471.12	133.81
471.339	144.81
471.558	140.81
471.777	131.81
471.997	143.81
472.216	134.81
472.435	128.81
472.654	108.81
472.873	113.81
473.092	128.81
473.311	128.81
473.53	129.81
473.749	122.81
473.968	126.81
474.187	115.81
474.406	102.81
474.625	124.81
474.844	140.81
475.063	116.81
475.282	129.81
475.501	115.81
475.72	110.81
475.939	126.81
476.158	137.81
476.377	128.81
476.596	131.81
476.814	117.81
477.033	114.81
477.252	119.81
477.471	141.81
477.69	139.81
477.908	133.81
478.127	141.81
478.346	124.81
478.564	124.81
478.783	125.81
479.002	137.81
479.22	138.81
479.439	136.81
479.658	127.81
479.876	105.81
480.095	118.81
480.313	103.81
480.532	124.81
480.751	101.81
480.969	93.81
481.188	90.81
481.406	97.81
481.624	90.81
481.843	94.81
482.061	101.81
482.28	115.81
482.498	109.81
482.717	110.81
482.935	111.81
483.153	148.81
483.372	130.81
483.59	146.81
483.808	136.81
484.027	124.81
484.245	124.81
484.463	151.81
484.681	154.81
484.9	153.81
485.118	148.81
485.336	122.81
485.554	99.81
485.772	109.81
485.99	114.81
486.209	112.81
486.427	121.81
486.645	132.81
486.863	141.81
487.081	155.81
487.299	140.81
487.517	160.81
487.735	146.81
487.953	178.81
488.171	162.81
488.389	174.81
488.607	157.81
488.825	131.81
489.043	148.81
489.261	135.81
489.479	146.81
489.696	134.81
489.914	133.81
490.132	146.81
490.35	150.81
490.568	152.81
490.786	152.81
491.003	153.81
491.221	187.81
491.439	186.81
491.657	189.81
491.874	203.81
492.092	208.81
492.31	233.81
492.527	222.81
492.745	202.81
492.963	200.81
493.18	191.81
493.398	174.81
493.615	191.81
493.833	184.81
494.05	158.81
494.268	180.81
494.485	172.81
494.703	157.81
494.92	166.81
495.138	170.81
495.355	176.81
495.573	171.81
495.79	161.81
496.008	148.81
496.225	169.81
496.442	162.81
496.66	161.81
496.877	151.81
497.094	155.81
497.312	172.81
497.529	151.81
497.746	158.81
497.963	141.81
498.181	136.81
498.398	121.81
498.615	124.81
498.832	130.81
499.049	118.81
499.267	121.81
499.484	130.81
499.701	145.81
499.918	133.81
500.135	138.81
500.352	138.81
500.569	125.81
500.786	138.81
501.003	157.81
501.22	139.81
501.437	136.81
501.654	134.81
501.871	141.81
502.088	141.81
502.305	139.81
502.522	125.81
502.739	121.81
502.956	128.81
503.172	117.81
503.389	114.81
503.606	116.81
503.823	130.81
504.04	116.81
504.256	109.81
504.473	123.81
504.69	110.81
504.907	114.81
505.123	114.81
505.34	126.81
505.557	113.81
505.773	132.81
505.99	130.81
506.207	120.81
506.423	121.81
506.64	129.81
506.856	126.81
507.073	117.81
507.289	115.81
507.506	109.81
507.722	126.81
507.939	121.81
508.155	103.81
508.372	102.81
508.588	114.81
508.805	110.81
509.021	123.81
509.238	92.81
509.454	107.81
509.67	104.81
509.887	91.81
510.103	113.81
510.319	98.81
510.536	89.81
510.752	86.81
510.968	74.81
511.184	86.81
511.401	94.81
511.617	82.81
