Data from Location4.07152019.Energy5.Lamp.07192019.3%Agarose_HRD10591_16-21-31-926.txt Node
Date: Fri Jul 19 16:21:31 EDT 2019
User: cochatt
Spectrometer: HR+D1059
Trigger mode: 1
Integration Time (sec): 1.000000E-1
Scans to average: 1
Electric dark correction enabled: true
Nonlinearity correction enabled: false
Boxcar width: 0
XAxis mode: Wavelengths
Number of Pixels in Spectrum: 2048
>>>>>Begin Spectral Data<<<<<
223.165	1.19
223.4	1.19
223.635	1.19
223.869	-7.81
224.104	-13.81
224.338	-18.81
224.573	-20.81
224.808	-14.81
225.042	-6.81
225.277	-13.81
225.511	6.19
225.746	-0.81
225.98	-6.81
226.215	-2.81
226.449	14.19
226.683	35.19
226.918	18.19
227.152	32.19
227.387	22.19
227.621	31.19
227.856	53.19
228.09	44.19
228.324	42.19
228.559	57.19
228.793	47.19
229.027	71.19
229.262	62.19
229.496	62.19
229.73	68.19
229.964	75.19
230.199	70.19
230.433	66.19
230.667	85.19
230.901	71.19
231.136	74.19
231.37	78.19
231.604	73.19
231.838	83.19
232.072	63.19
232.306	80.19
232.541	80.19
232.775	85.19
233.009	78.19
233.243	79.19
233.477	81.19
233.711	84.19
233.945	88.19
234.179	86.19
234.413	90.19
234.647	75.19
234.881	81.19
235.115	79.19
235.349	77.19
235.583	67.19
235.817	74.19
236.051	75.19
236.285	72.19
236.519	78.19
236.753	70.19
236.987	68.19
237.221	79.19
237.455	89.19
237.689	75.19
237.922	70.19
238.156	65.19
238.39	74.19
238.624	78.19
238.858	73.19
239.091	82.19
239.325	87.19
239.559	77.19
239.793	74.19
240.027	79.19
240.26	79.19
240.494	82.19
240.728	83.19
240.961	74.19
241.195	86.19
241.429	69.19
241.662	72.19
241.896	80.19
242.13	65.19
242.363	83.19
242.597	87.19
242.83	81.19
243.064	71.19
243.298	73.19
243.531	82.19
243.765	74.19
243.998	83.19
244.232	76.19
244.465	86.19
244.699	79.19
244.932	71.19
245.166	71.19
245.399	85.19
245.633	74.19
245.866	71.19
246.099	74.19
246.333	76.19
246.566	85.19
246.8	88.19
247.033	59.19
247.266	77.19
247.5	73.19
247.733	77.19
247.966	64.19
248.2	82.19
248.433	57.19
248.666	80.19
248.899	75.19
249.133	84.19
249.366	84.19
249.599	79.19
249.832	69.19
250.066	70.19
250.299	71.19
250.532	83.19
250.765	85.19
250.998	71.19
251.231	74.19
251.465	76.19
251.698	72.19
251.931	81.19
252.164	78.19
252.397	90.19
252.63	87.19
252.863	98.19
253.096	75.19
253.329	82.19
253.562	85.19
253.795	82.19
254.028	80.19
254.261	73.19
254.494	68.19
254.727	86.19
254.96	86.19
255.193	70.19
255.426	81.19
255.659	67.19
255.892	70.19
256.124	94.19
256.357	68.19
256.59	85.19
256.823	83.19
257.056	79.19
257.289	66.19
257.521	70.19
257.754	80.19
257.987	75.19
258.22	88.19
258.452	78.19
258.685	69.19
258.918	77.19
259.151	74.19
259.383	71.19
259.616	63.19
259.849	84.19
260.081	69.19
260.314	86.19
260.547	82.19
260.779	71.19
261.012	71.19
261.244	87.19
261.477	81.19
261.71	70.19
261.942	79.19
262.175	93.19
262.407	77.19
262.64	69.19
262.872	84.19
263.105	74.19
263.337	94.19
263.57	71.19
263.802	67.19
264.035	81.19
264.267	95.19
264.499	75.19
264.732	82.19
264.964	78.19
265.197	67.19
265.429	80.19
265.661	86.19
265.894	66.19
266.126	80.19
266.358	90.19
266.591	69.19
266.823	92.19
267.055	80.19
267.287	82.19
267.52	72.19
267.752	78.19
267.984	73.19
268.216	75.19
268.448	88.19
268.681	81.19
268.913	84.19
269.145	81.19
269.377	92.19
269.609	82.19
269.841	78.19
270.073	79.19
270.306	78.19
270.538	81.19
270.77	82.19
271.002	78.19
271.234	76.19
271.466	79.19
271.698	74.19
271.93	94.19
272.162	83.19
272.394	82.19
272.626	80.19
272.858	82.19
273.09	91.19
273.322	85.19
273.553	88.19
273.785	90.19
274.017	80.19
274.249	72.19
274.481	73.19
274.713	92.19
274.945	67.19
275.176	64.19
275.408	83.19
275.64	80.19
275.872	76.19
276.104	85.19
276.335	95.19
276.567	85.19
276.799	81.19
277.031	67.19
277.262	94.19
277.494	88.19
277.726	90.19
277.957	81.19
278.189	73.19
278.421	84.19
278.652	83.19
278.884	74.19
279.115	74.19
279.347	81.19
279.579	90.19
279.81	73.19
280.042	89.19
280.273	81.19
280.505	72.19
280.736	74.19
280.968	80.19
281.199	77.19
281.431	85.19
281.662	91.19
281.894	74.19
282.125	79.19
282.356	90.19
282.588	81.19
282.819	92.19
283.051	74.19
283.282	79.19
283.513	80.19
283.745	66.19
283.976	83.19
284.207	86.19
284.439	66.19
284.67	85.19
284.901	95.19
285.132	82.19
285.364	94.19
285.595	80.19
285.826	81.19
286.057	90.19
286.288	74.19
286.52	76.19
286.751	84.19
286.982	80.19
287.213	89.19
287.444	86.19
287.675	81.19
287.906	81.19
288.138	89.19
288.369	70.19
288.6	107.19
288.831	87.19
289.062	76.19
289.293	86.19
289.524	93.19
289.755	83.19
289.986	78.19
290.217	83.19
290.448	78.19
290.679	78.19
290.91	81.19
291.141	79.19
291.371	77.19
291.602	93.19
291.833	78.19
292.064	87.19
292.295	87.19
292.526	82.19
292.757	76.19
292.987	81.19
293.218	89.19
293.449	84.19
293.68	80.19
293.91	77.19
294.141	88.19
294.372	93.19
294.603	82.19
294.833	80.19
295.064	81.19
295.295	85.19
295.525	75.19
295.756	94.19
295.987	81.19
296.217	84.19
296.448	91.19
296.679	91.19
296.909	77.19
297.14	83.19
297.37	84.19
297.601	75.19
297.831	81.19
298.062	89.19
298.292	72.19
298.523	74.19
298.753	75.19
298.984	82.19
299.214	86.19
299.445	95.19
299.675	88.19
299.905	75.19
300.136	90.19
300.366	77.19
300.597	93.19
300.827	90.19
301.057	90.19
301.288	85.19
301.518	74.19
301.748	88.19
301.979	91.19
302.209	86.19
302.439	77.19
302.669	81.19
302.9	71.19
303.13	81.19
303.36	74.19
303.59	87.19
303.82	75.19
304.051	90.19
304.281	77.19
304.511	96.19
304.741	79.19
304.971	85.19
305.201	74.19
305.431	100.19
305.661	84.19
305.891	87.19
306.121	79.19
306.352	83.19
306.582	85.19
306.812	94.19
307.042	91.19
307.272	88.19
307.502	78.19
307.731	83.19
307.961	70.19
308.191	80.19
308.421	84.19
308.651	97.19
308.881	86.19
309.111	81.19
309.341	81.19
309.571	86.19
309.8	92.19
310.03	76.19
310.26	69.19
310.49	91.19
310.72	79.19
310.949	82.19
311.179	94.19
311.409	74.19
311.639	79.19
311.868	83.19
312.098	89.19
312.328	69.19
312.557	96.19
312.787	98.19
313.017	100.19
313.246	89.19
313.476	85.19
313.706	83.19
313.935	89.19
314.165	87.19
314.394	78.19
314.624	90.19
314.853	84.19
315.083	85.19
315.312	85.19
315.542	83.19
315.771	92.19
316.001	81.19
316.23	79.19
316.46	74.19
316.689	75.19
316.919	79.19
317.148	86.19
317.377	91.19
317.607	88.19
317.836	73.19
318.065	103.19
318.295	79.19
318.524	97.19
318.753	87.19
318.983	97.19
319.212	88.19
319.441	77.19
319.67	86.19
319.9	87.19
320.129	80.19
320.358	75.19
320.587	85.19
320.816	79.19
321.046	74.19
321.275	72.19
321.504	84.19
321.733	102.19
321.962	81.19
322.191	79.19
322.42	84.19
322.649	80.19
322.878	76.19
323.108	81.19
323.337	82.19
323.566	71.19
323.795	83.19
324.024	95.19
324.253	88.19
324.482	89.19
324.71	78.19
324.939	76.19
325.168	71.19
325.397	73.19
325.626	98.19
325.855	78.19
326.084	81.19
326.313	86.19
326.542	85.19
326.77	80.19
326.999	83.19
327.228	96.19
327.457	79.19
327.686	86.19
327.914	82.19
328.143	89.19
328.372	99.19
328.6	86.19
328.829	97.19
329.058	83.19
329.287	79.19
329.515	65.19
329.744	87.19
329.972	88.19
330.201	94.19
330.43	99.19
330.658	75.19
330.887	90.19
331.115	81.19
331.344	72.19
331.572	95.19
331.801	83.19
332.03	81.19
332.258	83.19
332.486	76.19
332.715	82.19
332.943	100.19
333.172	81.19
333.4	90.19
333.629	99.19
333.857	75.19
334.085	104.19
334.314	79.19
334.542	81.19
334.771	88.19
334.999	81.19
335.227	87.19
335.455	90.19
335.684	94.19
335.912	86.19
336.14	75.19
336.369	90.19
336.597	85.19
336.825	79.19
337.053	82.19
337.281	82.19
337.51	81.19
337.738	81.19
337.966	83.19
338.194	82.19
338.422	79.19
338.65	80.19
338.878	84.19
339.106	88.19
339.334	90.19
339.562	98.19
339.79	78.19
340.018	84.19
340.246	93.19
340.474	75.19
340.702	75.19
340.93	93.19
341.158	71.19
341.386	86.19
341.614	90.19
341.842	82.19
342.07	92.19
342.298	89.19
342.526	74.19
342.754	77.19
342.981	85.19
343.209	78.19
343.437	70.19
343.665	81.19
343.893	76.19
344.12	85.19
344.348	97.19
344.576	85.19
344.804	73.19
345.031	67.19
345.259	82.19
345.487	74.19
345.714	82.19
345.942	77.19
346.17	69.19
346.397	81.19
346.625	75.19
346.853	94.19
347.08	77.19
347.308	94.19
347.535	75.19
347.763	83.19
347.99	85.19
348.218	82.19
348.445	82.19
348.673	77.19
348.9	99.19
349.128	89.19
349.355	105.19
349.583	89.19
349.81	88.19
350.037	69.19
350.265	77.19
350.492	74.19
350.72	91.19
350.947	95.19
351.174	90.19
351.402	96.19
351.629	74.19
351.856	83.19
352.083	92.19
352.311	83.19
352.538	85.19
352.765	80.19
352.992	85.19
353.22	70.19
353.447	90.19
353.674	84.19
353.901	86.19
354.128	78.19
354.355	88.19
354.583	73.19
354.81	73.19
355.037	86.19
355.264	79.19
355.491	78.19
355.718	83.19
355.945	79.19
356.172	86.19
356.399	88.19
356.626	69.19
356.853	81.19
357.08	77.19
357.307	77.19
357.534	96.19
357.761	82.19
357.988	97.19
358.215	90.19
358.441	86.19
358.668	77.19
358.895	83.19
359.122	78.19
359.349	91.19
359.576	97.19
359.802	87.19
360.029	73.19
360.256	96.19
360.483	86.19
360.709	79.19
360.936	79.19
361.163	67.19
361.39	89.19
361.616	77.19
361.843	78.19
362.07	79.19
362.296	84.19
362.523	78.19
362.749	87.19
362.976	69.19
363.203	65.19
363.429	83.19
363.656	77.19
363.882	67.19
364.109	85.19
364.335	83.19
364.562	78.19
364.788	96.19
365.015	84.19
365.241	73.19
365.468	92.19
365.694	76.19
365.92	74.19
366.147	91.19
366.373	78.19
366.599	89.19
366.826	98.19
367.052	77.19
367.278	81.19
367.505	87.19
367.731	90.19
367.957	83.19
368.184	84.19
368.41	85.19
368.636	100.19
368.862	103.19
369.089	87.19
369.315	79.19
369.541	95.19
369.767	79.19
369.993	98.19
370.219	88.19
370.445	74.19
370.672	84.19
370.898	86.19
371.124	88.19
371.35	82.19
371.576	91.19
371.802	88.19
372.028	100.19
372.254	72.19
372.48	83.19
372.706	89.19
372.932	95.19
373.158	87.19
373.384	97.19
373.61	93.19
373.835	96.19
374.061	99.19
374.287	86.19
374.513	94.19
374.739	74.19
374.965	85.19
375.191	101.19
375.416	79.19
375.642	83.19
375.868	98.19
376.094	81.19
376.319	77.19
376.545	85.19
376.771	85.19
376.997	87.19
377.222	82.19
377.448	75.19
377.674	97.19
377.899	92.19
378.125	89.19
378.35	91.19
378.576	81.19
378.802	69.19
379.027	85.19
379.253	104.19
379.478	95.19
379.704	91.19
379.929	93.19
380.155	94.19
380.38	92.19
380.606	104.19
380.831	103.19
381.057	119.19
381.282	83.19
381.507	101.19
381.733	96.19
381.958	89.19
382.184	83.19
382.409	85.19
382.634	96.19
382.86	94.19
383.085	110.19
383.31	104.19
383.535	83.19
383.761	92.19
383.986	84.19
384.211	98.19
384.436	91.19
384.662	101.19
384.887	91.19
385.112	96.19
385.337	88.19
385.562	85.19
385.787	86.19
386.013	106.19
386.238	91.19
386.463	90.19
386.688	104.19
386.913	95.19
387.138	75.19
387.363	105.19
387.588	101.19
387.813	79.19
388.038	86.19
388.263	89.19
388.488	89.19
388.713	102.19
388.938	85.19
389.163	79.19
389.387	88.19
389.612	110.19
389.837	93.19
390.062	95.19
390.287	95.19
390.512	90.19
390.736	82.19
390.961	101.19
391.186	112.19
391.411	103.19
391.636	96.19
391.86	107.19
392.085	102.19
392.31	98.19
392.534	101.19
392.759	103.19
392.984	99.19
393.208	110.19
393.433	100.19
393.658	100.19
393.882	107.19
394.107	97.19
394.331	99.19
394.556	111.19
394.78	94.19
395.005	107.19
395.229	117.19
395.454	115.19
395.678	87.19
395.903	100.19
396.127	100.19
396.352	97.19
396.576	90.19
396.801	88.19
397.025	85.19
397.249	97.19
397.474	107.19
397.698	109.19
397.922	117.19
398.147	101.19
398.371	103.19
398.595	115.19
398.82	105.19
399.044	105.19
399.268	104.19
399.492	103.19
399.717	105.19
399.941	106.19
400.165	98.19
400.389	116.19
400.613	110.19
400.837	110.19
401.062	106.19
401.286	93.19
401.51	113.19
401.734	114.19
401.958	115.19
402.182	118.19
402.406	113.19
402.63	106.19
402.854	113.19
403.078	114.19
403.302	103.19
403.526	94.19
403.75	120.19
403.974	114.19
404.198	102.19
404.422	121.19
404.645	107.19
404.869	115.19
405.093	125.19
405.317	122.19
405.541	96.19
405.765	123.19
405.988	109.19
406.212	125.19
406.436	117.19
406.66	110.19
406.883	118.19
407.107	96.19
407.331	112.19
407.555	115.19
407.778	105.19
408.002	121.19
408.226	119.19
408.449	121.19
408.673	122.19
408.896	116.19
409.12	116.19
409.344	121.19
409.567	124.19
409.791	120.19
410.014	129.19
410.238	128.19
410.461	103.19
410.685	106.19
410.908	114.19
411.132	109.19
411.355	101.19
411.578	106.19
411.802	115.19
412.025	120.19
412.249	105.19
412.472	109.19
412.695	115.19
412.919	103.19
413.142	121.19
413.365	113.19
413.589	120.19
413.812	117.19
414.035	104.19
414.258	118.19
414.482	121.19
414.705	123.19
414.928	129.19
415.151	120.19
415.374	125.19
415.597	121.19
415.821	128.19
416.044	116.19
416.267	124.19
416.49	117.19
416.713	125.19
416.936	118.19
417.159	130.19
417.382	115.19
417.605	111.19
417.828	134.19
418.051	131.19
418.274	117.19
418.497	133.19
418.72	133.19
418.943	153.19
419.166	128.19
419.389	136.19
419.611	126.19
419.834	141.19
420.057	123.19
420.28	124.19
420.503	123.19
420.726	122.19
420.948	130.19
421.171	124.19
421.394	128.19
421.617	137.19
421.839	141.19
422.062	147.19
422.285	145.19
422.507	113.19
422.73	130.19
422.953	132.19
423.175	122.19
423.398	127.19
423.621	129.19
423.843	123.19
424.066	123.19
424.288	125.19
424.511	130.19
424.733	137.19
424.956	141.19
425.178	119.19
425.401	137.19
425.623	136.19
425.846	144.19
426.068	130.19
426.291	129.19
426.513	130.19
426.735	135.19
426.958	128.19
427.18	115.19
427.402	128.19
427.625	115.19
427.847	125.19
428.069	112.19
428.292	124.19
428.514	134.19
428.736	127.19
428.958	127.19
429.181	128.19
429.403	119.19
429.625	94.19
429.847	123.19
430.069	134.19
430.292	114.19
430.514	126.19
430.736	137.19
430.958	129.19
431.18	121.19
431.402	120.19
431.624	115.19
431.846	97.19
432.068	81.19
432.29	87.19
432.512	111.19
432.734	114.19
432.956	115.19
433.178	136.19
433.4	133.19
433.622	129.19
433.844	129.19
434.066	132.19
434.287	101.19
434.509	77.19
434.731	92.19
434.953	107.19
435.175	119.19
435.397	119.19
435.618	113.19
435.84	115.19
436.062	111.19
436.284	123.19
436.505	122.19
436.727	135.19
436.949	134.19
437.17	127.19
437.392	112.19
437.614	123.19
437.835	107.19
438.057	116.19
438.278	109.19
438.5	123.19
438.721	147.19
438.943	124.19
439.165	126.19
439.386	136.19
439.608	133.19
439.829	135.19
440.05	142.19
440.272	133.19
440.493	147.19
440.715	131.19
440.936	139.19
441.158	151.19
441.379	130.19
441.6	134.19
441.822	137.19
442.043	130.19
442.264	145.19
442.486	129.19
442.707	129.19
442.928	130.19
443.149	130.19
443.371	142.19
443.592	123.19
443.813	127.19
444.034	133.19
444.255	130.19
444.476	135.19
444.698	131.19
444.919	129.19
445.14	265.19
445.361	191.19
445.582	160.19
445.803	131.19
446.024	149.19
446.245	152.19
446.466	145.19
446.687	134.19
446.908	152.19
447.129	153.19
447.35	153.19
447.571	142.19
447.792	127.19
448.013	137.19
448.234	142.19
448.455	153.19
448.675	141.19
448.896	145.19
449.117	128.19
449.338	129.19
449.559	131.19
449.779	107.19
450	143.19
450.221	138.19
450.442	133.19
450.662	135.19
450.883	125.19
451.104	130.19
451.324	125.19
451.545	115.19
451.766	116.19
451.986	121.19
452.207	106.19
452.428	127.19
452.648	135.19
452.869	134.19
453.089	111.19
453.31	105.19
453.53	96.19
453.751	116.19
453.971	100.19
454.192	87.19
454.412	96.19
454.633	113.19
454.853	117.19
455.073	125.19
455.294	113.19
455.514	129.19
455.734	122.19
455.955	110.19
456.175	110.19
456.395	98.19
456.616	98.19
456.836	102.19
457.056	96.19
457.276	116.19
457.497	113.19
457.717	104.19
457.937	109.19
458.157	103.19
458.377	98.19
458.598	83.19
458.818	92.19
459.038	92.19
459.258	98.19
459.478	103.19
459.698	91.19
459.918	93.19
460.138	113.19
460.358	98.19
460.578	119.19
460.798	133.19
461.018	113.19
461.238	119.19
461.458	106.19
461.678	108.19
461.898	110.19
462.118	113.19
462.338	115.19
462.558	120.19
462.777	117.19
462.997	103.19
463.217	117.19
463.437	115.19
463.657	114.19
463.876	110.19
464.096	124.19
464.316	101.19
464.536	106.19
464.755	111.19
464.975	109.19
465.195	125.19
465.414	133.19
465.634	115.19
465.854	121.19
466.073	125.19
466.293	118.19
466.512	126.19
466.732	120.19
466.951	141.19
467.171	123.19
467.391	127.19
467.61	121.19
467.829	125.19
468.049	135.19
468.268	141.19
468.488	125.19
468.707	133.19
468.927	128.19
469.146	131.19
469.365	126.19
469.585	140.19
469.804	135.19
470.023	152.19
470.243	140.19
470.462	129.19
470.681	135.19
470.901	142.19
471.12	141.19
471.339	137.19
471.558	138.19
471.777	120.19
471.997	137.19
472.216	131.19
472.435	109.19
472.654	111.19
472.873	102.19
473.092	119.19
473.311	130.19
473.53	110.19
473.749	130.19
473.968	131.19
474.187	118.19
474.406	115.19
474.625	116.19
474.844	127.19
475.063	127.19
475.282	116.19
475.501	107.19
475.72	127.19
475.939	111.19
476.158	132.19
476.377	142.19
476.596	114.19
476.814	107.19
477.033	96.19
477.252	110.19
477.471	122.19
477.69	110.19
477.908	130.19
478.127	119.19
478.346	127.19
478.564	138.19
478.783	133.19
479.002	129.19
479.22	138.19
479.439	119.19
479.658	122.19
479.876	118.19
480.095	102.19
480.313	115.19
480.532	115.19
480.751	121.19
480.969	90.19
481.188	92.19
481.406	85.19
481.624	96.19
481.843	98.19
482.061	113.19
482.28	103.19
482.498	113.19
482.717	111.19
482.935	118.19
483.153	143.19
483.372	134.19
483.59	146.19
483.808	152.19
484.027	134.19
484.245	136.19
484.463	127.19
484.681	155.19
484.9	151.19
485.118	137.19
485.336	118.19
485.554	116.19
485.772	92.19
485.99	108.19
486.209	107.19
486.427	101.19
486.645	117.19
486.863	121.19
487.081	136.19
487.299	138.19
487.517	157.19
487.735	151.19
487.953	196.19
488.171	183.19
488.389	160.19
488.607	151.19
488.825	123.19
489.043	135.19
489.261	138.19
489.479	122.19
489.696	154.19
489.914	131.19
490.132	139.19
490.35	148.19
490.568	159.19
490.786	166.19
491.003	156.19
491.221	171.19
491.439	177.19
491.657	176.19
491.874	194.19
492.092	223.19
492.31	221.19
492.527	232.19
492.745	190.19
492.963	179.19
493.18	166.19
493.398	197.19
493.615	166.19
493.833	181.19
494.05	161.19
494.268	157.19
494.485	174.19
494.703	161.19
494.92	175.19
495.138	164.19
495.355	162.19
495.573	163.19
495.79	164.19
496.008	160.19
496.225	153.19
496.442	152.19
496.66	161.19
496.877	173.19
497.094	173.19
497.312	162.19
497.529	151.19
497.746	146.19
497.963	128.19
498.181	131.19
498.398	139.19
498.615	103.19
498.832	107.19
499.049	126.19
499.267	116.19
499.484	123.19
499.701	131.19
499.918	125.19
500.135	128.19
500.352	137.19
500.569	134.19
500.786	141.19
501.003	148.19
501.22	135.19
501.437	120.19
501.654	120.19
501.871	118.19
502.088	132.19
502.305	125.19
502.522	125.19
502.739	120.19
502.956	145.19
503.172	107.19
503.389	118.19
503.606	125.19
503.823	119.19
504.04	129.19
504.256	123.19
504.473	114.19
504.69	121.19
504.907	123.19
505.123	124.19
505.34	120.19
505.557	120.19
505.773	127.19
505.99	123.19
506.207	127.19
506.423	114.19
506.64	116.19
506.856	125.19
507.073	114.19
507.289	129.19
507.506	95.19
507.722	121.19
507.939	125.19
508.155	117.19
508.372	112.19
508.588	124.19
508.805	92.19
509.021	87.19
509.238	90.19
509.454	87.19
509.67	94.19
509.887	102.19
510.103	91.19
510.319	99.19
510.536	84.19
510.752	92.19
510.968	97.19
511.184	84.19
511.401	86.19
511.617	105.19
511.833	94.19
512.049	85.19
