Data from Location4.07152019.Energy5.Lamp.07192019.3%Agarose_HRD10591_16-19-35-926.txt Node
Date: Fri Jul 19 16:19:35 EDT 2019
User: cochatt
Spectrometer: HR+D1059
Trigger mode: 1
Integration Time (sec): 1.000000E-1
Scans to average: 1
Electric dark correction enabled: true
Nonlinearity correction enabled: false
Boxcar width: 0
XAxis mode: Wavelengths
Number of Pixels in Spectrum: 2048
>>>>>Begin Spectral Data<<<<<
223.165	-21.31
223.4	-21.31
223.635	-21.31
223.869	-22.31
224.104	-21.31
224.338	-14.31
224.573	-22.31
224.808	-11.31
225.042	-0.31
225.277	-9.31
225.511	-4.31
225.746	4.69
225.98	5.69
226.215	16.69
226.449	19.69
226.683	12.69
226.918	33.69
227.152	33.69
227.387	22.69
227.621	35.69
227.856	53.69
228.09	46.69
228.324	52.69
228.559	55.69
228.793	58.69
229.027	61.69
229.262	72.69
229.496	65.69
229.73	73.69
229.964	65.69
230.199	86.69
230.433	85.69
230.667	70.69
230.901	55.69
231.136	77.69
231.37	79.69
231.604	76.69
231.838	84.69
232.072	72.69
232.306	75.69
232.541	83.69
232.775	87.69
233.009	75.69
233.243	85.69
233.477	86.69
233.711	75.69
233.945	88.69
234.179	84.69
234.413	75.69
234.647	79.69
234.881	83.69
235.115	90.69
235.349	78.69
235.583	62.69
235.817	65.69
236.051	65.69
236.285	87.69
236.519	79.69
236.753	82.69
236.987	72.69
237.221	72.69
237.455	96.69
237.689	73.69
237.922	78.69
238.156	71.69
238.39	85.69
238.624	89.69
238.858	84.69
239.091	82.69
239.325	74.69
239.559	85.69
239.793	67.69
240.027	81.69
240.26	68.69
240.494	74.69
240.728	79.69
240.961	80.69
241.195	76.69
241.429	77.69
241.662	79.69
241.896	67.69
242.13	66.69
242.363	74.69
242.597	68.69
242.83	73.69
243.064	87.69
243.298	66.69
243.531	77.69
243.765	53.69
243.998	80.69
244.232	72.69
244.465	85.69
244.699	91.69
244.932	67.69
245.166	66.69
245.399	80.69
245.633	79.69
245.866	79.69
246.099	83.69
246.333	71.69
246.566	79.69
246.8	90.69
247.033	75.69
247.266	80.69
247.5	79.69
247.733	57.69
247.966	84.69
248.2	85.69
248.433	79.69
248.666	81.69
248.899	72.69
249.133	81.69
249.366	88.69
249.599	77.69
249.832	70.69
250.066	78.69
250.299	79.69
250.532	84.69
250.765	78.69
250.998	86.69
251.231	94.69
251.465	90.69
251.698	78.69
251.931	86.69
252.164	77.69
252.397	90.69
252.63	80.69
252.863	80.69
253.096	86.69
253.329	92.69
253.562	87.69
253.795	72.69
254.028	80.69
254.261	82.69
254.494	88.69
254.727	91.69
254.96	98.69
255.193	79.69
255.426	80.69
255.659	86.69
255.892	80.69
256.124	79.69
256.357	86.69
256.59	86.69
256.823	88.69
257.056	92.69
257.289	67.69
257.521	84.69
257.754	73.69
257.987	86.69
258.22	83.69
258.452	90.69
258.685	65.69
258.918	93.69
259.151	81.69
259.383	86.69
259.616	87.69
259.849	80.69
260.081	83.69
260.314	84.69
260.547	80.69
260.779	67.69
261.012	76.69
261.244	83.69
261.477	85.69
261.71	88.69
261.942	73.69
262.175	83.69
262.407	85.69
262.64	86.69
262.872	73.69
263.105	87.69
263.337	77.69
263.57	84.69
263.802	90.69
264.035	93.69
264.267	80.69
264.499	86.69
264.732	82.69
264.964	89.69
265.197	90.69
265.429	87.69
265.661	91.69
265.894	72.69
266.126	86.69
266.358	79.69
266.591	80.69
266.823	92.69
267.055	73.69
267.287	75.69
267.52	88.69
267.752	77.69
267.984	79.69
268.216	77.69
268.448	83.69
268.681	74.69
268.913	94.69
269.145	96.69
269.377	93.69
269.609	82.69
269.841	79.69
270.073	91.69
270.306	82.69
270.538	88.69
270.77	87.69
271.002	70.69
271.234	88.69
271.466	87.69
271.698	74.69
271.93	85.69
272.162	98.69
272.394	89.69
272.626	80.69
272.858	78.69
273.09	86.69
273.322	83.69
273.553	86.69
273.785	85.69
274.017	87.69
274.249	86.69
274.481	84.69
274.713	83.69
274.945	75.69
275.176	66.69
275.408	81.69
275.64	79.69
275.872	98.69
276.104	80.69
276.335	83.69
276.567	92.69
276.799	92.69
277.031	73.69
277.262	95.69
277.494	83.69
277.726	90.69
277.957	91.69
278.189	104.69
278.421	80.69
278.652	89.69
278.884	74.69
279.115	89.69
279.347	87.69
279.579	83.69
279.81	78.69
280.042	82.69
280.273	92.69
280.505	88.69
280.736	91.69
280.968	83.69
281.199	102.69
281.431	84.69
281.662	98.69
281.894	80.69
282.125	81.69
282.356	89.69
282.588	73.69
282.819	76.69
283.051	88.69
283.282	87.69
283.513	80.69
283.745	84.69
283.976	103.69
284.207	90.69
284.439	96.69
284.67	108.69
284.901	86.69
285.132	78.69
285.364	83.69
285.595	86.69
285.826	91.69
286.057	83.69
286.288	89.69
286.52	92.69
286.751	81.69
286.982	81.69
287.213	66.69
287.444	93.69
287.675	91.69
287.906	79.69
288.138	72.69
288.369	89.69
288.6	90.69
288.831	99.69
289.062	68.69
289.293	78.69
289.524	77.69
289.755	87.69
289.986	89.69
290.217	83.69
290.448	83.69
290.679	93.69
290.91	85.69
291.141	96.69
291.371	79.69
291.602	101.69
291.833	98.69
292.064	86.69
292.295	81.69
292.526	77.69
292.757	88.69
292.987	72.69
293.218	62.69
293.449	87.69
293.68	94.69
293.91	85.69
294.141	81.69
294.372	77.69
294.603	76.69
294.833	73.69
295.064	77.69
295.295	84.69
295.525	79.69
295.756	80.69
295.987	79.69
296.217	82.69
296.448	85.69
296.679	86.69
296.909	90.69
297.14	89.69
297.37	82.69
297.601	77.69
297.831	84.69
298.062	83.69
298.292	74.69
298.523	88.69
298.753	83.69
298.984	87.69
299.214	94.69
299.445	82.69
299.675	79.69
299.905	78.69
300.136	91.69
300.366	93.69
300.597	86.69
300.827	72.69
301.057	88.69
301.288	77.69
301.518	87.69
301.748	86.69
301.979	95.69
302.209	88.69
302.439	84.69
302.669	73.69
302.9	79.69
303.13	74.69
303.36	90.69
303.59	81.69
303.82	75.69
304.051	92.69
304.281	77.69
304.511	91.69
304.741	94.69
304.971	98.69
305.201	87.69
305.431	72.69
305.661	76.69
305.891	82.69
306.121	83.69
306.352	82.69
306.582	69.69
306.812	83.69
307.042	88.69
307.272	77.69
307.502	77.69
307.731	97.69
307.961	90.69
308.191	99.69
308.421	97.69
308.651	84.69
308.881	95.69
309.111	80.69
309.341	90.69
309.571	93.69
309.8	76.69
310.03	94.69
310.26	85.69
310.49	68.69
310.72	70.69
310.949	87.69
311.179	86.69
311.409	89.69
311.639	90.69
311.868	90.69
312.098	85.69
312.328	89.69
312.557	89.69
312.787	93.69
313.017	96.69
313.246	79.69
313.476	87.69
313.706	82.69
313.935	93.69
314.165	98.69
314.394	105.69
314.624	99.69
314.853	84.69
315.083	85.69
315.312	88.69
315.542	92.69
315.771	74.69
316.001	93.69
316.23	97.69
316.46	90.69
316.689	70.69
316.919	87.69
317.148	97.69
317.377	76.69
317.607	91.69
317.836	92.69
318.065	72.69
318.295	78.69
318.524	88.69
318.753	91.69
318.983	83.69
319.212	88.69
319.441	94.69
319.67	79.69
319.9	79.69
320.129	93.69
320.358	88.69
320.587	87.69
320.816	94.69
321.046	97.69
321.275	92.69
321.504	78.69
321.733	77.69
321.962	95.69
322.191	91.69
322.42	76.69
322.649	82.69
322.878	78.69
323.108	105.69
323.337	105.69
323.566	73.69
323.795	101.69
324.024	78.69
324.253	83.69
324.482	92.69
324.71	83.69
324.939	100.69
325.168	92.69
325.397	93.69
325.626	92.69
325.855	78.69
326.084	82.69
326.313	87.69
326.542	82.69
326.77	86.69
326.999	84.69
327.228	89.69
327.457	91.69
327.686	82.69
327.914	89.69
328.143	79.69
328.372	76.69
328.6	71.69
328.829	83.69
329.058	92.69
329.287	81.69
329.515	90.69
329.744	85.69
329.972	86.69
330.201	89.69
330.43	82.69
330.658	85.69
330.887	100.69
331.115	89.69
331.344	84.69
331.572	94.69
331.801	81.69
332.03	77.69
332.258	95.69
332.486	94.69
332.715	91.69
332.943	87.69
333.172	84.69
333.4	73.69
333.629	85.69
333.857	77.69
334.085	82.69
334.314	82.69
334.542	75.69
334.771	81.69
334.999	78.69
335.227	77.69
335.455	92.69
335.684	96.69
335.912	94.69
336.14	74.69
336.369	90.69
336.597	82.69
336.825	89.69
337.053	90.69
337.281	96.69
337.51	88.69
337.738	91.69
337.966	83.69
338.194	93.69
338.422	77.69
338.65	73.69
338.878	88.69
339.106	73.69
339.334	92.69
339.562	83.69
339.79	93.69
340.018	75.69
340.246	74.69
340.474	98.69
340.702	88.69
340.93	74.69
341.158	70.69
341.386	91.69
341.614	95.69
341.842	87.69
342.07	87.69
342.298	81.69
342.526	93.69
342.754	90.69
342.981	87.69
343.209	84.69
343.437	81.69
343.665	93.69
343.893	82.69
344.12	74.69
344.348	75.69
344.576	75.69
344.804	78.69
345.031	76.69
345.259	75.69
345.487	81.69
345.714	84.69
345.942	70.69
346.17	82.69
346.397	77.69
346.625	89.69
346.853	87.69
347.08	84.69
347.308	87.69
347.535	83.69
347.763	103.69
347.99	90.69
348.218	91.69
348.445	95.69
348.673	90.69
348.9	81.69
349.128	92.69
349.355	96.69
349.583	80.69
349.81	78.69
350.037	82.69
350.265	89.69
350.492	102.69
350.72	78.69
350.947	96.69
351.174	86.69
351.402	82.69
351.629	77.69
351.856	83.69
352.083	77.69
352.311	88.69
352.538	91.69
352.765	93.69
352.992	92.69
353.22	94.69
353.447	83.69
353.674	82.69
353.901	70.69
354.128	82.69
354.355	79.69
354.583	77.69
354.81	87.69
355.037	94.69
355.264	90.69
355.491	76.69
355.718	77.69
355.945	74.69
356.172	82.69
356.399	98.69
356.626	103.69
356.853	93.69
357.08	77.69
357.307	98.69
357.534	83.69
357.761	78.69
357.988	81.69
358.215	95.69
358.441	75.69
358.668	91.69
358.895	95.69
359.122	80.69
359.349	88.69
359.576	95.69
359.802	87.69
360.029	86.69
360.256	86.69
360.483	82.69
360.709	84.69
360.936	83.69
361.163	85.69
361.39	87.69
361.616	95.69
361.843	100.69
362.07	72.69
362.296	93.69
362.523	95.69
362.749	91.69
362.976	78.69
363.203	83.69
363.429	78.69
363.656	72.69
363.882	84.69
364.109	89.69
364.335	83.69
364.562	79.69
364.788	90.69
365.015	72.69
365.241	83.69
365.468	81.69
365.694	73.69
365.92	93.69
366.147	82.69
366.373	106.69
366.599	88.69
366.826	89.69
367.052	80.69
367.278	87.69
367.505	95.69
367.731	97.69
367.957	88.69
368.184	92.69
368.41	84.69
368.636	91.69
368.862	97.69
369.089	86.69
369.315	92.69
369.541	98.69
369.767	97.69
369.993	78.69
370.219	102.69
370.445	98.69
370.672	78.69
370.898	85.69
371.124	85.69
371.35	77.69
371.576	99.69
371.802	105.69
372.028	95.69
372.254	97.69
372.48	85.69
372.706	104.69
372.932	91.69
373.158	96.69
373.384	100.69
373.61	90.69
373.835	88.69
374.061	98.69
374.287	98.69
374.513	93.69
374.739	85.69
374.965	75.69
375.191	90.69
375.416	93.69
375.642	92.69
375.868	111.69
376.094	92.69
376.319	99.69
376.545	97.69
376.771	84.69
376.997	84.69
377.222	87.69
377.448	93.69
377.674	91.69
377.899	100.69
378.125	101.69
378.35	84.69
378.576	112.69
378.802	78.69
379.027	86.69
379.253	92.69
379.478	97.69
379.704	85.69
379.929	99.69
380.155	83.69
380.38	96.69
380.606	83.69
380.831	110.69
381.057	101.69
381.282	86.69
381.507	80.69
381.733	94.69
381.958	89.69
382.184	110.69
382.409	97.69
382.634	99.69
382.86	99.69
383.085	101.69
383.31	92.69
383.535	102.69
383.761	88.69
383.986	94.69
384.211	99.69
384.436	87.69
384.662	91.69
384.887	98.69
385.112	101.69
385.337	89.69
385.562	101.69
385.787	85.69
386.013	108.69
386.238	109.69
386.463	89.69
386.688	95.69
386.913	105.69
387.138	98.69
387.363	86.69
387.588	107.69
387.813	110.69
388.038	98.69
388.263	100.69
388.488	105.69
388.713	87.69
388.938	97.69
389.163	114.69
389.387	124.69
389.612	91.69
389.837	109.69
390.062	102.69
390.287	98.69
390.512	102.69
390.736	98.69
390.961	99.69
391.186	113.69
391.411	104.69
391.636	113.69
391.86	109.69
392.085	106.69
392.31	106.69
392.534	119.69
392.759	106.69
392.984	102.69
393.208	97.69
393.433	105.69
393.658	92.69
393.882	89.69
394.107	95.69
394.331	97.69
394.556	102.69
394.78	94.69
395.005	101.69
395.229	107.69
395.454	99.69
395.678	109.69
395.903	116.69
396.127	95.69
396.352	96.69
396.576	101.69
396.801	110.69
397.025	101.69
397.249	104.69
397.474	107.69
397.698	118.69
397.922	117.69
398.147	108.69
398.371	115.69
398.595	113.69
398.82	115.69
399.044	112.69
399.268	94.69
399.492	100.69
399.717	118.69
399.941	119.69
400.165	115.69
400.389	105.69
400.613	117.69
400.837	98.69
401.062	106.69
401.286	110.69
401.51	102.69
401.734	110.69
401.958	101.69
402.182	102.69
402.406	116.69
402.63	120.69
402.854	101.69
403.078	93.69
403.302	115.69
403.526	122.69
403.75	104.69
403.974	116.69
404.198	119.69
404.422	117.69
404.645	123.69
404.869	118.69
405.093	111.69
405.317	108.69
405.541	111.69
405.765	119.69
405.988	117.69
406.212	123.69
406.436	118.69
406.66	105.69
406.883	129.69
407.107	107.69
407.331	124.69
407.555	121.69
407.778	109.69
408.002	122.69
408.226	118.69
408.449	131.69
408.673	118.69
408.896	118.69
409.12	118.69
409.344	121.69
409.567	125.69
409.791	118.69
410.014	127.69
410.238	109.69
410.461	121.69
410.685	121.69
410.908	108.69
411.132	115.69
411.355	123.69
411.578	129.69
411.802	111.69
412.025	105.69
412.249	110.69
412.472	113.69
412.695	125.69
412.919	124.69
413.142	114.69
413.365	127.69
413.589	118.69
413.812	111.69
414.035	113.69
414.258	116.69
414.482	122.69
414.705	121.69
414.928	118.69
415.151	107.69
415.374	117.69
415.597	121.69
415.821	124.69
416.044	111.69
416.267	111.69
416.49	113.69
416.713	118.69
416.936	119.69
417.159	113.69
417.382	131.69
417.605	122.69
417.828	129.69
418.051	144.69
418.274	128.69
418.497	124.69
418.72	120.69
418.943	127.69
419.166	122.69
419.389	156.69
419.611	120.69
419.834	127.69
420.057	134.69
420.28	125.69
420.503	122.69
420.726	123.69
420.948	131.69
421.171	137.69
421.394	134.69
421.617	154.69
421.839	153.69
422.062	157.69
422.285	123.69
422.507	125.69
422.73	129.69
422.953	119.69
423.175	112.69
423.398	125.69
423.621	121.69
423.843	126.69
424.066	131.69
424.288	133.69
424.511	135.69
424.733	141.69
424.956	135.69
425.178	148.69
425.401	133.69
425.623	129.69
425.846	134.69
426.068	140.69
426.291	143.69
426.513	127.69
426.735	132.69
426.958	127.69
427.18	119.69
427.402	126.69
427.625	107.69
427.847	108.69
428.069	121.69
428.292	129.69
428.514	127.69
428.736	129.69
428.958	116.69
429.181	129.69
429.403	120.69
429.625	126.69
429.847	125.69
430.069	138.69
430.292	124.69
430.514	129.69
430.736	123.69
430.958	127.69
431.18	122.69
431.402	123.69
431.624	114.69
431.846	115.69
432.068	84.69
432.29	108.69
432.512	112.69
432.734	124.69
432.956	128.69
433.178	129.69
433.4	133.69
433.622	131.69
433.844	119.69
434.066	126.69
434.287	106.69
434.509	103.69
434.731	109.69
434.953	122.69
435.175	125.69
435.397	115.69
435.618	130.69
435.84	127.69
436.062	104.69
436.284	125.69
436.505	126.69
436.727	117.69
436.949	129.69
437.17	117.69
437.392	125.69
437.614	126.69
437.835	107.69
438.057	115.69
438.278	109.69
438.5	113.69
438.721	127.69
438.943	122.69
439.165	149.69
439.386	141.69
439.608	141.69
439.829	122.69
440.05	136.69
440.272	145.69
440.493	135.69
440.715	134.69
440.936	146.69
441.158	137.69
441.379	133.69
441.6	131.69
441.822	122.69
442.043	139.69
442.264	143.69
442.486	149.69
442.707	142.69
442.928	153.69
443.149	137.69
443.371	137.69
443.592	132.69
443.813	116.69
444.034	142.69
444.255	137.69
444.476	135.69
444.698	143.69
444.919	130.69
445.14	266.69
445.361	186.69
445.582	133.69
445.803	125.69
446.024	135.69
446.245	149.69
446.466	143.69
446.687	149.69
446.908	147.69
447.129	149.69
447.35	143.69
447.571	155.69
447.792	148.69
448.013	149.69
448.234	159.69
448.455	132.69
448.675	125.69
448.896	157.69
449.117	141.69
449.338	136.69
449.559	126.69
449.779	119.69
450	137.69
450.221	126.69
450.442	130.69
450.662	127.69
450.883	141.69
451.104	125.69
451.324	133.69
451.545	110.69
451.766	126.69
451.986	118.69
452.207	132.69
452.428	131.69
452.648	127.69
452.869	111.69
453.089	113.69
453.31	106.69
453.53	95.69
453.751	106.69
453.971	109.69
454.192	114.69
454.412	110.69
454.633	123.69
454.853	110.69
455.073	106.69
455.294	125.69
455.514	122.69
455.734	123.69
455.955	117.69
456.175	113.69
456.395	113.69
456.616	103.69
456.836	116.69
457.056	108.69
457.276	102.69
457.497	98.69
457.717	114.69
457.937	116.69
458.157	81.69
458.377	95.69
458.598	98.69
458.818	103.69
459.038	89.69
459.258	88.69
459.478	84.69
459.698	91.69
459.918	97.69
460.138	114.69
460.358	106.69
460.578	113.69
460.798	107.69
461.018	119.69
461.238	117.69
461.458	117.69
461.678	98.69
461.898	111.69
462.118	106.69
462.338	121.69
462.558	115.69
462.777	97.69
462.997	123.69
463.217	107.69
463.437	116.69
463.657	105.69
463.876	113.69
464.096	107.69
464.316	98.69
464.536	104.69
464.755	109.69
464.975	126.69
465.195	106.69
465.414	108.69
465.634	114.69
465.854	113.69
466.073	118.69
466.293	107.69
466.512	126.69
466.732	127.69
466.951	112.69
467.171	142.69
467.391	125.69
467.61	133.69
467.829	116.69
468.049	129.69
468.268	120.69
468.488	130.69
468.707	131.69
468.927	123.69
469.146	133.69
469.365	129.69
469.585	147.69
469.804	155.69
470.023	151.69
470.243	151.69
470.462	142.69
470.681	135.69
470.901	132.69
471.12	147.69
471.339	133.69
471.558	137.69
471.777	142.69
471.997	129.69
472.216	140.69
472.435	114.69
472.654	119.69
472.873	115.69
473.092	117.69
473.311	123.69
473.53	122.69
473.749	121.69
473.968	117.69
474.187	129.69
474.406	117.69
474.625	115.69
474.844	132.69
475.063	127.69
475.282	130.69
475.501	125.69
475.72	125.69
475.939	116.69
476.158	133.69
476.377	129.69
476.596	116.69
476.814	100.69
477.033	110.69
477.252	119.69
477.471	126.69
477.69	135.69
477.908	145.69
478.127	141.69
478.346	134.69
478.564	143.69
478.783	135.69
479.002	131.69
479.22	134.69
479.439	124.69
479.658	125.69
479.876	113.69
480.095	113.69
480.313	108.69
480.532	121.69
480.751	111.69
480.969	103.69
481.188	92.69
481.406	89.69
481.624	87.69
481.843	86.69
482.061	96.69
482.28	115.69
482.498	110.69
482.717	94.69
482.935	110.69
483.153	146.69
483.372	150.69
483.59	168.69
483.808	141.69
484.027	128.69
484.245	122.69
484.463	128.69
484.681	171.69
484.9	135.69
485.118	138.69
485.336	122.69
485.554	104.69
485.772	94.69
485.99	96.69
486.209	108.69
486.427	124.69
486.645	108.69
486.863	141.69
487.081	139.69
487.299	156.69
487.517	141.69
487.735	153.69
487.953	177.69
488.171	183.69
488.389	158.69
488.607	158.69
488.825	139.69
489.043	139.69
489.261	129.69
489.479	142.69
489.696	129.69
489.914	139.69
490.132	128.69
490.35	143.69
490.568	145.69
490.786	161.69
491.003	173.69
491.221	181.69
491.439	165.69
491.657	187.69
491.874	208.69
492.092	214.69
492.31	230.69
492.527	228.69
492.745	211.69
492.963	193.69
493.18	175.69
493.398	179.69
493.615	169.69
493.833	185.69
494.05	164.69
494.268	179.69
494.485	156.69
494.703	161.69
494.92	175.69
495.138	161.69
495.355	177.69
495.573	170.69
495.79	159.69
496.008	162.69
496.225	153.69
496.442	165.69
496.66	150.69
496.877	151.69
497.094	172.69
497.312	162.69
497.529	164.69
497.746	139.69
497.963	128.69
498.181	133.69
498.398	123.69
498.615	127.69
498.832	108.69
499.049	121.69
499.267	129.69
499.484	128.69
499.701	132.69
499.918	143.69
500.135	143.69
500.352	142.69
500.569	121.69
500.786	141.69
501.003	150.69
501.22	144.69
501.437	139.69
501.654	135.69
501.871	127.69
502.088	125.69
502.305	134.69
502.522	130.69
502.739	117.69
502.956	121.69
503.172	122.69
503.389	126.69
503.606	131.69
503.823	126.69
504.04	123.69
504.256	132.69
504.473	134.69
504.69	114.69
504.907	131.69
505.123	139.69
505.34	122.69
505.557	132.69
505.773	124.69
505.99	131.69
506.207	121.69
506.423	115.69
506.64	115.69
506.856	125.69
507.073	122.69
507.289	125.69
507.506	108.69
507.722	119.69
507.939	120.69
508.155	122.69
508.372	124.69
508.588	111.69
508.805	110.69
509.021	106.69
509.238	119.69
509.454	101.69
509.67	92.69
509.887	95.69
510.103	89.69
510.319	89.69
510.536	106.69
510.752	93.69
510.968	82.69
511.184	86.69
511.401	85.69
511.617	100.69
