Data from Location4.07152019.Energy5.Lamp.07192019.3%Agarose_HRD10591_16-19-18-925.txt Node
Date: Fri Jul 19 16:19:18 EDT 2019
User: cochatt
Spectrometer: HR+D1059
Trigger mode: 1
Integration Time (sec): 1.000000E-1
Scans to average: 1
Electric dark correction enabled: true
Nonlinearity correction enabled: false
Boxcar width: 0
XAxis mode: Wavelengths
Number of Pixels in Spectrum: 2048
>>>>>Begin Spectral Data<<<<<
223.165	-13.25
223.4	-13.25
223.635	-13.25
223.869	-17.25
224.104	-18.25
224.338	-13.25
224.573	-14.25
224.808	9.75
225.042	-26.25
225.277	-2.25
225.511	-8.25
225.746	9.75
225.98	6.75
226.215	8.75
226.449	11.75
226.683	11.75
226.918	22.75
227.152	31.75
227.387	46.75
227.621	30.75
227.856	32.75
228.09	46.75
228.324	59.75
228.559	46.75
228.793	54.75
229.027	55.75
229.262	61.75
229.496	73.75
229.73	79.75
229.964	83.75
230.199	75.75
230.433	75.75
230.667	81.75
230.901	73.75
231.136	79.75
231.37	76.75
231.604	89.75
231.838	79.75
232.072	77.75
232.306	85.75
232.541	79.75
232.775	67.75
233.009	73.75
233.243	83.75
233.477	93.75
233.711	88.75
233.945	79.75
234.179	80.75
234.413	95.75
234.647	75.75
234.881	79.75
235.115	77.75
235.349	90.75
235.583	92.75
235.817	85.75
236.051	87.75
236.285	71.75
236.519	83.75
236.753	80.75
236.987	72.75
237.221	63.75
237.455	85.75
237.689	89.75
237.922	88.75
238.156	70.75
238.39	78.75
238.624	81.75
238.858	72.75
239.091	70.75
239.325	75.75
239.559	74.75
239.793	74.75
240.027	68.75
240.26	78.75
240.494	69.75
240.728	79.75
240.961	80.75
241.195	83.75
241.429	67.75
241.662	65.75
241.896	65.75
242.13	81.75
242.363	78.75
242.597	68.75
242.83	74.75
243.064	73.75
243.298	71.75
243.531	69.75
243.765	68.75
243.998	88.75
244.232	87.75
244.465	76.75
244.699	62.75
244.932	77.75
245.166	70.75
245.399	65.75
245.633	71.75
245.866	77.75
246.099	76.75
246.333	79.75
246.566	79.75
246.8	82.75
247.033	71.75
247.266	80.75
247.5	69.75
247.733	57.75
247.966	84.75
248.2	89.75
248.433	75.75
248.666	91.75
248.899	66.75
249.133	74.75
249.366	77.75
249.599	72.75
249.832	72.75
250.066	79.75
250.299	74.75
250.532	80.75
250.765	69.75
250.998	69.75
251.231	75.75
251.465	74.75
251.698	81.75
251.931	77.75
252.164	72.75
252.397	68.75
252.63	63.75
252.863	85.75
253.096	79.75
253.329	69.75
253.562	80.75
253.795	91.75
254.028	85.75
254.261	82.75
254.494	91.75
254.727	68.75
254.96	88.75
255.193	88.75
255.426	81.75
255.659	72.75
255.892	70.75
256.124	77.75
256.357	65.75
256.59	83.75
256.823	79.75
257.056	69.75
257.289	75.75
257.521	83.75
257.754	81.75
257.987	87.75
258.22	70.75
258.452	72.75
258.685	89.75
258.918	80.75
259.151	87.75
259.383	76.75
259.616	78.75
259.849	81.75
260.081	87.75
260.314	80.75
260.547	65.75
260.779	74.75
261.012	89.75
261.244	67.75
261.477	91.75
261.71	74.75
261.942	82.75
262.175	77.75
262.407	75.75
262.64	71.75
262.872	74.75
263.105	75.75
263.337	77.75
263.57	76.75
263.802	81.75
264.035	94.75
264.267	83.75
264.499	86.75
264.732	86.75
264.964	86.75
265.197	75.75
265.429	83.75
265.661	85.75
265.894	88.75
266.126	98.75
266.358	78.75
266.591	60.75
266.823	81.75
267.055	83.75
267.287	80.75
267.52	71.75
267.752	82.75
267.984	84.75
268.216	80.75
268.448	88.75
268.681	81.75
268.913	76.75
269.145	71.75
269.377	71.75
269.609	74.75
269.841	92.75
270.073	81.75
270.306	78.75
270.538	74.75
270.77	73.75
271.002	80.75
271.234	75.75
271.466	80.75
271.698	83.75
271.93	86.75
272.162	88.75
272.394	72.75
272.626	80.75
272.858	81.75
273.09	79.75
273.322	87.75
273.553	66.75
273.785	72.75
274.017	69.75
274.249	79.75
274.481	82.75
274.713	77.75
274.945	68.75
275.176	79.75
275.408	86.75
275.64	85.75
275.872	71.75
276.104	78.75
276.335	78.75
276.567	88.75
276.799	78.75
277.031	85.75
277.262	74.75
277.494	91.75
277.726	86.75
277.957	74.75
278.189	81.75
278.421	74.75
278.652	72.75
278.884	72.75
279.115	88.75
279.347	80.75
279.579	67.75
279.81	67.75
280.042	88.75
280.273	91.75
280.505	81.75
280.736	80.75
280.968	80.75
281.199	95.75
281.431	87.75
281.662	86.75
281.894	72.75
282.125	74.75
282.356	62.75
282.588	84.75
282.819	101.75
283.051	85.75
283.282	86.75
283.513	86.75
283.745	83.75
283.976	93.75
284.207	71.75
284.439	72.75
284.67	72.75
284.901	93.75
285.132	72.75
285.364	74.75
285.595	88.75
285.826	74.75
286.057	83.75
286.288	80.75
286.52	77.75
286.751	91.75
286.982	74.75
287.213	77.75
287.444	85.75
287.675	88.75
287.906	81.75
288.138	86.75
288.369	83.75
288.6	69.75
288.831	89.75
289.062	85.75
289.293	93.75
289.524	82.75
289.755	74.75
289.986	66.75
290.217	74.75
290.448	76.75
290.679	98.75
290.91	77.75
291.141	73.75
291.371	85.75
291.602	74.75
291.833	79.75
292.064	69.75
292.295	71.75
292.526	78.75
292.757	83.75
292.987	85.75
293.218	72.75
293.449	89.75
293.68	85.75
293.91	74.75
294.141	87.75
294.372	74.75
294.603	79.75
294.833	81.75
295.064	83.75
295.295	89.75
295.525	85.75
295.756	82.75
295.987	88.75
296.217	73.75
296.448	70.75
296.679	62.75
296.909	81.75
297.14	83.75
297.37	89.75
297.601	84.75
297.831	85.75
298.062	70.75
298.292	71.75
298.523	72.75
298.753	86.75
298.984	74.75
299.214	90.75
299.445	97.75
299.675	80.75
299.905	82.75
300.136	83.75
300.366	87.75
300.597	76.75
300.827	85.75
301.057	91.75
301.288	89.75
301.518	85.75
301.748	82.75
301.979	90.75
302.209	98.75
302.439	84.75
302.669	90.75
302.9	74.75
303.13	75.75
303.36	85.75
303.59	74.75
303.82	82.75
304.051	77.75
304.281	78.75
304.511	88.75
304.741	97.75
304.971	80.75
305.201	88.75
305.431	79.75
305.661	79.75
305.891	84.75
306.121	88.75
306.352	72.75
306.582	87.75
306.812	72.75
307.042	78.75
307.272	75.75
307.502	78.75
307.731	81.75
307.961	92.75
308.191	74.75
308.421	88.75
308.651	76.75
308.881	83.75
309.111	77.75
309.341	74.75
309.571	79.75
309.8	71.75
310.03	71.75
310.26	76.75
310.49	85.75
310.72	80.75
310.949	82.75
311.179	79.75
311.409	86.75
311.639	81.75
311.868	78.75
312.098	76.75
312.328	79.75
312.557	75.75
312.787	83.75
313.017	74.75
313.246	88.75
313.476	83.75
313.706	99.75
313.935	85.75
314.165	77.75
314.394	78.75
314.624	87.75
314.853	86.75
315.083	93.75
315.312	75.75
315.542	74.75
315.771	91.75
316.001	88.75
316.23	70.75
316.46	85.75
316.689	74.75
316.919	73.75
317.148	75.75
317.377	80.75
317.607	95.75
317.836	94.75
318.065	81.75
318.295	94.75
318.524	68.75
318.753	73.75
318.983	85.75
319.212	79.75
319.441	60.75
319.67	87.75
319.9	85.75
320.129	75.75
320.358	86.75
320.587	74.75
320.816	98.75
321.046	81.75
321.275	87.75
321.504	81.75
321.733	78.75
321.962	75.75
322.191	81.75
322.42	73.75
322.649	79.75
322.878	79.75
323.108	78.75
323.337	84.75
323.566	94.75
323.795	79.75
324.024	84.75
324.253	71.75
324.482	81.75
324.71	80.75
324.939	87.75
325.168	88.75
325.397	72.75
325.626	89.75
325.855	69.75
326.084	74.75
326.313	71.75
326.542	77.75
326.77	100.75
326.999	82.75
327.228	77.75
327.457	82.75
327.686	87.75
327.914	96.75
328.143	83.75
328.372	72.75
328.6	72.75
328.829	88.75
329.058	94.75
329.287	88.75
329.515	74.75
329.744	92.75
329.972	75.75
330.201	75.75
330.43	80.75
330.658	90.75
330.887	77.75
331.115	77.75
331.344	75.75
331.572	86.75
331.801	77.75
332.03	90.75
332.258	88.75
332.486	88.75
332.715	97.75
332.943	93.75
333.172	69.75
333.4	70.75
333.629	86.75
333.857	68.75
334.085	88.75
334.314	82.75
334.542	80.75
334.771	73.75
334.999	79.75
335.227	69.75
335.455	78.75
335.684	74.75
335.912	82.75
336.14	80.75
336.369	73.75
336.597	71.75
336.825	74.75
337.053	88.75
337.281	63.75
337.51	82.75
337.738	81.75
337.966	78.75
338.194	81.75
338.422	80.75
338.65	73.75
338.878	79.75
339.106	91.75
339.334	102.75
339.562	81.75
339.79	81.75
340.018	87.75
340.246	77.75
340.474	71.75
340.702	96.75
340.93	86.75
341.158	87.75
341.386	87.75
341.614	82.75
341.842	79.75
342.07	79.75
342.298	83.75
342.526	65.75
342.754	72.75
342.981	77.75
343.209	82.75
343.437	77.75
343.665	80.75
343.893	79.75
344.12	78.75
344.348	70.75
344.576	83.75
344.804	89.75
345.031	97.75
345.259	79.75
345.487	86.75
345.714	72.75
345.942	92.75
346.17	80.75
346.397	78.75
346.625	73.75
346.853	64.75
347.08	88.75
347.308	79.75
347.535	71.75
347.763	89.75
347.99	99.75
348.218	61.75
348.445	63.75
348.673	81.75
348.9	89.75
349.128	75.75
349.355	82.75
349.583	73.75
349.81	80.75
350.037	95.75
350.265	83.75
350.492	91.75
350.72	66.75
350.947	76.75
351.174	82.75
351.402	81.75
351.629	87.75
351.856	87.75
352.083	95.75
352.311	71.75
352.538	71.75
352.765	77.75
352.992	90.75
353.22	82.75
353.447	64.75
353.674	73.75
353.901	81.75
354.128	72.75
354.355	83.75
354.583	78.75
354.81	85.75
355.037	86.75
355.264	80.75
355.491	81.75
355.718	82.75
355.945	75.75
356.172	89.75
356.399	85.75
356.626	85.75
356.853	90.75
357.08	83.75
357.307	79.75
357.534	81.75
357.761	74.75
357.988	65.75
358.215	55.75
358.441	55.75
358.668	82.75
358.895	77.75
359.122	79.75
359.349	83.75
359.576	90.75
359.802	86.75
360.029	73.75
360.256	67.75
360.483	71.75
360.709	85.75
360.936	88.75
361.163	80.75
361.39	84.75
361.616	88.75
361.843	73.75
362.07	84.75
362.296	79.75
362.523	68.75
362.749	81.75
362.976	82.75
363.203	84.75
363.429	86.75
363.656	82.75
363.882	72.75
364.109	78.75
364.335	77.75
364.562	82.75
364.788	79.75
365.015	95.75
365.241	93.75
365.468	98.75
365.694	73.75
365.92	80.75
366.147	84.75
366.373	83.75
366.599	86.75
366.826	84.75
367.052	85.75
367.278	82.75
367.505	91.75
367.731	81.75
367.957	83.75
368.184	81.75
368.41	78.75
368.636	80.75
368.862	85.75
369.089	66.75
369.315	90.75
369.541	84.75
369.767	84.75
369.993	80.75
370.219	71.75
370.445	87.75
370.672	86.75
370.898	92.75
371.124	100.75
371.35	92.75
371.576	85.75
371.802	77.75
372.028	88.75
372.254	83.75
372.48	89.75
372.706	96.75
372.932	74.75
373.158	86.75
373.384	85.75
373.61	76.75
373.835	98.75
374.061	101.75
374.287	86.75
374.513	86.75
374.739	78.75
374.965	84.75
375.191	83.75
375.416	92.75
375.642	107.75
375.868	90.75
376.094	85.75
376.319	83.75
376.545	91.75
376.771	102.75
376.997	90.75
377.222	88.75
377.448	92.75
377.674	101.75
377.899	85.75
378.125	79.75
378.35	101.75
378.576	71.75
378.802	91.75
379.027	88.75
379.253	80.75
379.478	91.75
379.704	96.75
379.929	94.75
380.155	81.75
380.38	91.75
380.606	88.75
380.831	90.75
381.057	105.75
381.282	83.75
381.507	78.75
381.733	96.75
381.958	68.75
382.184	89.75
382.409	86.75
382.634	86.75
382.86	96.75
383.085	99.75
383.31	91.75
383.535	93.75
383.761	98.75
383.986	99.75
384.211	88.75
384.436	93.75
384.662	85.75
384.887	77.75
385.112	82.75
385.337	97.75
385.562	102.75
385.787	100.75
386.013	99.75
386.238	95.75
386.463	103.75
386.688	95.75
386.913	93.75
387.138	84.75
387.363	98.75
387.588	102.75
387.813	86.75
388.038	78.75
388.263	101.75
388.488	101.75
388.713	101.75
388.938	110.75
389.163	103.75
389.387	95.75
389.612	100.75
389.837	99.75
390.062	90.75
390.287	83.75
390.512	89.75
390.736	100.75
390.961	84.75
391.186	90.75
391.411	89.75
391.636	93.75
391.86	94.75
392.085	106.75
392.31	96.75
392.534	102.75
392.759	89.75
392.984	96.75
393.208	91.75
393.433	90.75
393.658	93.75
393.882	101.75
394.107	95.75
394.331	103.75
394.556	116.75
394.78	109.75
395.005	91.75
395.229	113.75
395.454	111.75
395.678	96.75
395.903	103.75
396.127	106.75
396.352	101.75
396.576	110.75
396.801	95.75
397.025	98.75
397.249	104.75
397.474	96.75
397.698	97.75
397.922	102.75
398.147	97.75
398.371	96.75
398.595	102.75
398.82	86.75
399.044	109.75
399.268	113.75
399.492	99.75
399.717	104.75
399.941	121.75
400.165	98.75
400.389	119.75
400.613	117.75
400.837	107.75
401.062	103.75
401.286	111.75
401.51	118.75
401.734	99.75
401.958	110.75
402.182	92.75
402.406	102.75
402.63	87.75
402.854	99.75
403.078	117.75
403.302	99.75
403.526	111.75
403.75	111.75
403.974	97.75
404.198	110.75
404.422	115.75
404.645	102.75
404.869	104.75
405.093	105.75
405.317	104.75
405.541	110.75
405.765	105.75
405.988	108.75
406.212	106.75
406.436	98.75
406.66	108.75
406.883	121.75
407.107	107.75
407.331	107.75
407.555	115.75
407.778	113.75
408.002	116.75
408.226	118.75
408.449	125.75
408.673	107.75
408.896	117.75
409.12	135.75
409.344	129.75
409.567	143.75
409.791	129.75
410.014	112.75
410.238	104.75
410.461	102.75
410.685	122.75
410.908	116.75
411.132	109.75
411.355	110.75
411.578	121.75
411.802	115.75
412.025	118.75
412.249	107.75
412.472	123.75
412.695	122.75
412.919	108.75
413.142	109.75
413.365	118.75
413.589	111.75
413.812	105.75
414.035	125.75
414.258	98.75
414.482	124.75
414.705	121.75
414.928	113.75
415.151	111.75
415.374	109.75
415.597	130.75
415.821	119.75
416.044	112.75
416.267	126.75
416.49	120.75
416.713	115.75
416.936	129.75
417.159	130.75
417.382	104.75
417.605	121.75
417.828	119.75
418.051	117.75
418.274	119.75
418.497	138.75
418.72	130.75
418.943	129.75
419.166	128.75
419.389	130.75
419.611	133.75
419.834	131.75
420.057	120.75
420.28	129.75
420.503	125.75
420.726	130.75
420.948	134.75
421.171	149.75
421.394	125.75
421.617	118.75
421.839	137.75
422.062	139.75
422.285	126.75
422.507	129.75
422.73	119.75
422.953	119.75
423.175	103.75
423.398	139.75
423.621	129.75
423.843	134.75
424.066	139.75
424.288	125.75
424.511	134.75
424.733	135.75
424.956	143.75
425.178	133.75
425.401	123.75
425.623	132.75
425.846	131.75
426.068	115.75
426.291	122.75
426.513	119.75
426.735	138.75
426.958	127.75
427.18	129.75
427.402	127.75
427.625	130.75
427.847	131.75
428.069	123.75
428.292	128.75
428.514	103.75
428.736	115.75
428.958	130.75
429.181	111.75
429.403	121.75
429.625	119.75
429.847	127.75
430.069	131.75
430.292	118.75
430.514	121.75
430.736	118.75
430.958	127.75
431.18	127.75
431.402	120.75
431.624	115.75
431.846	101.75
432.068	89.75
432.29	96.75
432.512	104.75
432.734	117.75
432.956	125.75
433.178	146.75
433.4	148.75
433.622	122.75
433.844	134.75
434.066	98.75
434.287	97.75
434.509	98.75
434.731	83.75
434.953	105.75
435.175	119.75
435.397	138.75
435.618	112.75
435.84	119.75
436.062	125.75
436.284	116.75
436.505	126.75
436.727	116.75
436.949	134.75
437.17	120.75
437.392	120.75
437.614	113.75
437.835	97.75
438.057	96.75
438.278	120.75
438.5	114.75
438.721	113.75
438.943	140.75
439.165	128.75
439.386	133.75
439.608	138.75
439.829	135.75
440.05	134.75
440.272	148.75
440.493	140.75
440.715	146.75
440.936	139.75
441.158	138.75
441.379	129.75
441.6	142.75
441.822	140.75
442.043	139.75
442.264	139.75
442.486	132.75
442.707	119.75
442.928	138.75
443.149	134.75
443.371	136.75
443.592	136.75
443.813	135.75
444.034	130.75
444.255	136.75
444.476	120.75
444.698	122.75
444.919	122.75
445.14	265.75
445.361	190.75
445.582	136.75
445.803	153.75
446.024	135.75
446.245	139.75
446.466	137.75
446.687	149.75
446.908	144.75
447.129	146.75
447.35	150.75
447.571	144.75
447.792	140.75
448.013	139.75
448.234	139.75
448.455	129.75
448.675	149.75
448.896	142.75
449.117	127.75
449.338	137.75
449.559	133.75
449.779	136.75
450	135.75
450.221	137.75
450.442	137.75
450.662	138.75
450.883	132.75
451.104	122.75
451.324	129.75
451.545	117.75
451.766	138.75
451.986	125.75
452.207	119.75
452.428	121.75
452.648	130.75
452.869	118.75
453.089	98.75
453.31	111.75
453.53	97.75
453.751	114.75
453.971	93.75
454.192	105.75
454.412	117.75
454.633	102.75
454.853	112.75
455.073	125.75
455.294	119.75
455.514	132.75
455.734	127.75
455.955	125.75
456.175	112.75
456.395	101.75
456.616	114.75
456.836	115.75
457.056	105.75
457.276	103.75
457.497	97.75
457.717	125.75
457.937	104.75
458.157	99.75
458.377	107.75
458.598	107.75
458.818	84.75
459.038	81.75
459.258	73.75
459.478	95.75
459.698	91.75
459.918	105.75
460.138	97.75
460.358	109.75
460.578	121.75
460.798	137.75
461.018	107.75
461.238	106.75
461.458	118.75
461.678	119.75
461.898	115.75
462.118	114.75
462.338	96.75
462.558	105.75
462.777	113.75
462.997	113.75
463.217	111.75
463.437	114.75
463.657	102.75
463.876	104.75
464.096	117.75
464.316	108.75
464.536	113.75
464.755	94.75
464.975	104.75
465.195	122.75
465.414	109.75
465.634	98.75
465.854	112.75
466.073	119.75
466.293	121.75
466.512	120.75
466.732	133.75
466.951	133.75
467.171	138.75
467.391	117.75
467.61	132.75
467.829	134.75
468.049	121.75
468.268	131.75
468.488	146.75
468.707	135.75
468.927	131.75
469.146	132.75
469.365	139.75
469.585	136.75
469.804	143.75
470.023	157.75
470.243	137.75
470.462	142.75
470.681	153.75
470.901	158.75
471.12	143.75
471.339	134.75
471.558	131.75
471.777	140.75
471.997	135.75
472.216	134.75
472.435	111.75
472.654	99.75
472.873	114.75
473.092	122.75
473.311	113.75
473.53	140.75
473.749	123.75
473.968	132.75
474.187	103.75
474.406	120.75
474.625	120.75
474.844	148.75
475.063	112.75
475.282	125.75
475.501	119.75
475.72	128.75
475.939	117.75
476.158	129.75
476.377	126.75
476.596	119.75
476.814	119.75
477.033	102.75
477.252	127.75
477.471	131.75
477.69	125.75
477.908	156.75
478.127	147.75
478.346	153.75
478.564	124.75
478.783	118.75
479.002	108.75
479.22	127.75
479.439	124.75
479.658	118.75
479.876	125.75
480.095	116.75
480.313	123.75
480.532	129.75
480.751	102.75
480.969	106.75
481.188	83.75
481.406	75.75
481.624	103.75
481.843	94.75
482.061	110.75
482.28	114.75
482.498	91.75
482.717	118.75
482.935	123.75
483.153	162.75
483.372	143.75
483.59	168.75
483.808	133.75
484.027	135.75
484.245	126.75
484.463	140.75
484.681	175.75
484.9	122.75
485.118	133.75
485.336	139.75
485.554	109.75
485.772	99.75
485.99	107.75
486.209	105.75
486.427	104.75
486.645	122.75
486.863	120.75
487.081	134.75
487.299	124.75
487.517	135.75
487.735	157.75
487.953	177.75
488.171	177.75
488.389	157.75
488.607	154.75
488.825	137.75
489.043	116.75
489.261	129.75
489.479	131.75
489.696	133.75
489.914	125.75
490.132	151.75
490.35	149.75
490.568	146.75
490.786	155.75
491.003	189.75
491.221	183.75
491.439	168.75
491.657	190.75
491.874	197.75
492.092	212.75
492.31	221.75
492.527	204.75
492.745	201.75
492.963	182.75
493.18	192.75
493.398	171.75
493.615	169.75
493.833	166.75
494.05	167.75
494.268	170.75
494.485	152.75
494.703	162.75
494.92	143.75
495.138	166.75
495.355	174.75
495.573	165.75
495.79	178.75
496.008	156.75
496.225	165.75
496.442	151.75
496.66	167.75
496.877	152.75
497.094	165.75
497.312	151.75
497.529	169.75
497.746	145.75
497.963	133.75
498.181	131.75
498.398	126.75
498.615	115.75
498.832	126.75
499.049	118.75
499.267	115.75
499.484	119.75
499.701	127.75
499.918	132.75
500.135	137.75
500.352	132.75
500.569	132.75
500.786	142.75
501.003	139.75
501.22	133.75
501.437	139.75
501.654	153.75
501.871	142.75
502.088	131.75
502.305	124.75
502.522	122.75
502.739	146.75
502.956	130.75
503.172	119.75
503.389	127.75
503.606	134.75
503.823	119.75
504.04	122.75
504.256	122.75
504.473	110.75
504.69	132.75
504.907	123.75
505.123	117.75
505.34	118.75
505.557	126.75
505.773	125.75
505.99	94.75
506.207	120.75
506.423	132.75
506.64	117.75
506.856	113.75
507.073	112.75
507.289	122.75
507.506	123.75
507.722	115.75
507.939	113.75
508.155	98.75
508.372	118.75
508.588	129.75
508.805	103.75
509.021	123.75
509.238	111.75
509.454	95.75
509.67	114.75
509.887	89.75
510.103	93.75
510.319	105.75
510.536	91.75
510.752	91.75
510.968	96.75
511.184	76.75
511.401	90.75
511.617	89.75
511.833	92.75
512.049	93.75
512.265	85.75
