Data from Location4.07152019.Energy5.Lamp.07192019.3%Agarose_HRD10591_16-20-36-925.txt Node
Date: Fri Jul 19 16:20:36 EDT 2019
User: cochatt
Spectrometer: HR+D1059
Trigger mode: 1
Integration Time (sec): 1.000000E-1
Scans to average: 1
Electric dark correction enabled: true
Nonlinearity correction enabled: false
Boxcar width: 0
XAxis mode: Wavelengths
Number of Pixels in Spectrum: 2048
>>>>>Begin Spectral Data<<<<<
223.165	-15.75
223.4	-15.75
223.635	-15.75
223.869	6.25
224.104	-29.75
224.338	-19.75
224.573	-15.75
224.808	-13.75
225.042	-6.75
225.277	-4.75
225.511	-0.75
225.746	-0.75
225.98	0.25
226.215	10.25
226.449	18.25
226.683	17.25
226.918	36.25
227.152	19.25
227.387	29.25
227.621	46.25
227.856	48.25
228.09	42.25
228.324	43.25
228.559	51.25
228.793	62.25
229.027	60.25
229.262	64.25
229.496	63.25
229.73	54.25
229.964	66.25
230.199	56.25
230.433	76.25
230.667	73.25
230.901	72.25
231.136	78.25
231.37	83.25
231.604	83.25
231.838	76.25
232.072	72.25
232.306	78.25
232.541	83.25
232.775	82.25
233.009	76.25
233.243	78.25
233.477	82.25
233.711	83.25
233.945	95.25
234.179	89.25
234.413	75.25
234.647	75.25
234.881	75.25
235.115	73.25
235.349	68.25
235.583	74.25
235.817	75.25
236.051	71.25
236.285	75.25
236.519	68.25
236.753	60.25
236.987	83.25
237.221	67.25
237.455	74.25
237.689	66.25
237.922	67.25
238.156	64.25
238.39	67.25
238.624	87.25
238.858	71.25
239.091	77.25
239.325	71.25
239.559	69.25
239.793	74.25
240.027	66.25
240.26	74.25
240.494	78.25
240.728	78.25
240.961	79.25
241.195	80.25
241.429	79.25
241.662	78.25
241.896	74.25
242.13	74.25
242.363	94.25
242.597	79.25
242.83	78.25
243.064	69.25
243.298	80.25
243.531	71.25
243.765	68.25
243.998	95.25
244.232	65.25
244.465	74.25
244.699	94.25
244.932	81.25
245.166	71.25
245.399	86.25
245.633	73.25
245.866	74.25
246.099	84.25
246.333	72.25
246.566	72.25
246.8	67.25
247.033	86.25
247.266	66.25
247.5	81.25
247.733	82.25
247.966	76.25
248.2	75.25
248.433	73.25
248.666	83.25
248.899	78.25
249.133	89.25
249.366	82.25
249.599	72.25
249.832	70.25
250.066	76.25
250.299	78.25
250.532	84.25
250.765	74.25
250.998	71.25
251.231	94.25
251.465	63.25
251.698	81.25
251.931	78.25
252.164	81.25
252.397	101.25
252.63	86.25
252.863	79.25
253.096	78.25
253.329	88.25
253.562	79.25
253.795	79.25
254.028	73.25
254.261	84.25
254.494	75.25
254.727	87.25
254.96	77.25
255.193	58.25
255.426	74.25
255.659	84.25
255.892	74.25
256.124	70.25
256.357	67.25
256.59	69.25
256.823	76.25
257.056	93.25
257.289	74.25
257.521	74.25
257.754	65.25
257.987	71.25
258.22	84.25
258.452	76.25
258.685	86.25
258.918	87.25
259.151	86.25
259.383	82.25
259.616	84.25
259.849	81.25
260.081	81.25
260.314	80.25
260.547	81.25
260.779	78.25
261.012	87.25
261.244	104.25
261.477	87.25
261.71	78.25
261.942	73.25
262.175	78.25
262.407	82.25
262.64	72.25
262.872	78.25
263.105	85.25
263.337	90.25
263.57	69.25
263.802	81.25
264.035	80.25
264.267	75.25
264.499	80.25
264.732	89.25
264.964	80.25
265.197	76.25
265.429	71.25
265.661	83.25
265.894	77.25
266.126	83.25
266.358	76.25
266.591	82.25
266.823	86.25
267.055	76.25
267.287	80.25
267.52	81.25
267.752	71.25
267.984	76.25
268.216	82.25
268.448	69.25
268.681	86.25
268.913	84.25
269.145	77.25
269.377	91.25
269.609	85.25
269.841	82.25
270.073	73.25
270.306	89.25
270.538	84.25
270.77	74.25
271.002	86.25
271.234	76.25
271.466	76.25
271.698	72.25
271.93	75.25
272.162	95.25
272.394	82.25
272.626	80.25
272.858	88.25
273.09	85.25
273.322	82.25
273.553	75.25
273.785	84.25
274.017	76.25
274.249	81.25
274.481	75.25
274.713	75.25
274.945	83.25
275.176	89.25
275.408	84.25
275.64	85.25
275.872	83.25
276.104	90.25
276.335	77.25
276.567	87.25
276.799	80.25
277.031	91.25
277.262	83.25
277.494	93.25
277.726	76.25
277.957	86.25
278.189	79.25
278.421	95.25
278.652	98.25
278.884	82.25
279.115	71.25
279.347	91.25
279.579	82.25
279.81	87.25
280.042	98.25
280.273	78.25
280.505	76.25
280.736	84.25
280.968	76.25
281.199	79.25
281.431	73.25
281.662	80.25
281.894	84.25
282.125	79.25
282.356	87.25
282.588	83.25
282.819	81.25
283.051	92.25
283.282	92.25
283.513	90.25
283.745	95.25
283.976	93.25
284.207	81.25
284.439	82.25
284.67	83.25
284.901	77.25
285.132	82.25
285.364	77.25
285.595	75.25
285.826	86.25
286.057	70.25
286.288	83.25
286.52	65.25
286.751	79.25
286.982	83.25
287.213	81.25
287.444	73.25
287.675	86.25
287.906	92.25
288.138	76.25
288.369	75.25
288.6	81.25
288.831	86.25
289.062	88.25
289.293	73.25
289.524	76.25
289.755	87.25
289.986	75.25
290.217	85.25
290.448	74.25
290.679	85.25
290.91	81.25
291.141	84.25
291.371	79.25
291.602	92.25
291.833	91.25
292.064	78.25
292.295	74.25
292.526	83.25
292.757	80.25
292.987	76.25
293.218	82.25
293.449	89.25
293.68	80.25
293.91	87.25
294.141	82.25
294.372	91.25
294.603	97.25
294.833	73.25
295.064	81.25
295.295	66.25
295.525	74.25
295.756	76.25
295.987	95.25
296.217	82.25
296.448	85.25
296.679	75.25
296.909	79.25
297.14	94.25
297.37	88.25
297.601	69.25
297.831	74.25
298.062	78.25
298.292	84.25
298.523	90.25
298.753	74.25
298.984	84.25
299.214	79.25
299.445	97.25
299.675	87.25
299.905	84.25
300.136	73.25
300.366	68.25
300.597	79.25
300.827	82.25
301.057	75.25
301.288	88.25
301.518	84.25
301.748	72.25
301.979	87.25
302.209	81.25
302.439	80.25
302.669	75.25
302.9	72.25
303.13	77.25
303.36	78.25
303.59	99.25
303.82	86.25
304.051	81.25
304.281	80.25
304.511	94.25
304.741	89.25
304.971	75.25
305.201	67.25
305.431	85.25
305.661	86.25
305.891	87.25
306.121	81.25
306.352	82.25
306.582	95.25
306.812	83.25
307.042	96.25
307.272	67.25
307.502	82.25
307.731	81.25
307.961	79.25
308.191	75.25
308.421	78.25
308.651	97.25
308.881	72.25
309.111	80.25
309.341	82.25
309.571	82.25
309.8	67.25
310.03	84.25
310.26	71.25
310.49	93.25
310.72	85.25
310.949	90.25
311.179	92.25
311.409	87.25
311.639	75.25
311.868	91.25
312.098	69.25
312.328	70.25
312.557	83.25
312.787	82.25
313.017	83.25
313.246	97.25
313.476	95.25
313.706	88.25
313.935	62.25
314.165	76.25
314.394	70.25
314.624	64.25
314.853	87.25
315.083	93.25
315.312	88.25
315.542	79.25
315.771	81.25
316.001	89.25
316.23	88.25
316.46	91.25
316.689	83.25
316.919	94.25
317.148	77.25
317.377	77.25
317.607	82.25
317.836	71.25
318.065	82.25
318.295	92.25
318.524	78.25
318.753	73.25
318.983	92.25
319.212	89.25
319.441	84.25
319.67	90.25
319.9	80.25
320.129	77.25
320.358	86.25
320.587	82.25
320.816	95.25
321.046	95.25
321.275	76.25
321.504	75.25
321.733	81.25
321.962	76.25
322.191	85.25
322.42	95.25
322.649	68.25
322.878	85.25
323.108	76.25
323.337	84.25
323.566	69.25
323.795	88.25
324.024	72.25
324.253	96.25
324.482	84.25
324.71	94.25
324.939	90.25
325.168	85.25
325.397	86.25
325.626	88.25
325.855	84.25
326.084	78.25
326.313	92.25
326.542	87.25
326.77	82.25
326.999	89.25
327.228	76.25
327.457	85.25
327.686	94.25
327.914	80.25
328.143	92.25
328.372	81.25
328.6	96.25
328.829	94.25
329.058	83.25
329.287	79.25
329.515	71.25
329.744	84.25
329.972	89.25
330.201	90.25
330.43	88.25
330.658	81.25
330.887	86.25
331.115	73.25
331.344	76.25
331.572	98.25
331.801	79.25
332.03	76.25
332.258	83.25
332.486	86.25
332.715	83.25
332.943	92.25
333.172	86.25
333.4	81.25
333.629	79.25
333.857	81.25
334.085	82.25
334.314	81.25
334.542	84.25
334.771	88.25
334.999	90.25
335.227	79.25
335.455	83.25
335.684	75.25
335.912	97.25
336.14	85.25
336.369	81.25
336.597	76.25
336.825	79.25
337.053	88.25
337.281	80.25
337.51	84.25
337.738	95.25
337.966	86.25
338.194	76.25
338.422	87.25
338.65	75.25
338.878	76.25
339.106	87.25
339.334	93.25
339.562	94.25
339.79	75.25
340.018	88.25
340.246	85.25
340.474	75.25
340.702	87.25
340.93	66.25
341.158	81.25
341.386	75.25
341.614	74.25
341.842	75.25
342.07	79.25
342.298	91.25
342.526	93.25
342.754	91.25
342.981	80.25
343.209	85.25
343.437	91.25
343.665	73.25
343.893	86.25
344.12	87.25
344.348	82.25
344.576	82.25
344.804	88.25
345.031	88.25
345.259	93.25
345.487	80.25
345.714	97.25
345.942	89.25
346.17	89.25
346.397	84.25
346.625	85.25
346.853	91.25
347.08	91.25
347.308	85.25
347.535	78.25
347.763	79.25
347.99	86.25
348.218	83.25
348.445	73.25
348.673	82.25
348.9	76.25
349.128	84.25
349.355	88.25
349.583	82.25
349.81	88.25
350.037	86.25
350.265	76.25
350.492	85.25
350.72	75.25
350.947	95.25
351.174	86.25
351.402	83.25
351.629	79.25
351.856	80.25
352.083	73.25
352.311	82.25
352.538	94.25
352.765	75.25
352.992	67.25
353.22	86.25
353.447	86.25
353.674	86.25
353.901	86.25
354.128	70.25
354.355	70.25
354.583	84.25
354.81	73.25
355.037	72.25
355.264	87.25
355.491	80.25
355.718	82.25
355.945	89.25
356.172	76.25
356.399	87.25
356.626	77.25
356.853	80.25
357.08	71.25
357.307	77.25
357.534	92.25
357.761	82.25
357.988	73.25
358.215	85.25
358.441	93.25
358.668	75.25
358.895	75.25
359.122	74.25
359.349	81.25
359.576	92.25
359.802	98.25
360.029	82.25
360.256	90.25
360.483	83.25
360.709	70.25
360.936	90.25
361.163	86.25
361.39	91.25
361.616	77.25
361.843	94.25
362.07	95.25
362.296	82.25
362.523	88.25
362.749	96.25
362.976	80.25
363.203	82.25
363.429	83.25
363.656	77.25
363.882	91.25
364.109	87.25
364.335	73.25
364.562	83.25
364.788	86.25
365.015	91.25
365.241	76.25
365.468	84.25
365.694	83.25
365.92	82.25
366.147	84.25
366.373	82.25
366.599	89.25
366.826	89.25
367.052	83.25
367.278	90.25
367.505	71.25
367.731	81.25
367.957	75.25
368.184	99.25
368.41	95.25
368.636	97.25
368.862	83.25
369.089	72.25
369.315	66.25
369.541	75.25
369.767	101.25
369.993	80.25
370.219	101.25
370.445	81.25
370.672	82.25
370.898	85.25
371.124	94.25
371.35	91.25
371.576	85.25
371.802	88.25
372.028	84.25
372.254	84.25
372.48	88.25
372.706	107.25
372.932	86.25
373.158	73.25
373.384	98.25
373.61	86.25
373.835	96.25
374.061	95.25
374.287	99.25
374.513	101.25
374.739	84.25
374.965	92.25
375.191	93.25
375.416	87.25
375.642	106.25
375.868	97.25
376.094	98.25
376.319	86.25
376.545	98.25
376.771	96.25
376.997	96.25
377.222	93.25
377.448	81.25
377.674	75.25
377.899	74.25
378.125	106.25
378.35	94.25
378.576	91.25
378.802	102.25
379.027	80.25
379.253	95.25
379.478	94.25
379.704	85.25
379.929	88.25
380.155	87.25
380.38	91.25
380.606	89.25
380.831	100.25
381.057	92.25
381.282	102.25
381.507	97.25
381.733	95.25
381.958	87.25
382.184	95.25
382.409	91.25
382.634	82.25
382.86	105.25
383.085	96.25
383.31	88.25
383.535	91.25
383.761	89.25
383.986	91.25
384.211	106.25
384.436	99.25
384.662	98.25
384.887	86.25
385.112	102.25
385.337	102.25
385.562	92.25
385.787	82.25
386.013	105.25
386.238	101.25
386.463	105.25
386.688	87.25
386.913	94.25
387.138	104.25
387.363	103.25
387.588	83.25
387.813	99.25
388.038	109.25
388.263	98.25
388.488	116.25
388.713	99.25
388.938	96.25
389.163	105.25
389.387	121.25
389.612	97.25
389.837	94.25
390.062	107.25
390.287	108.25
390.512	96.25
390.736	107.25
390.961	106.25
391.186	128.25
391.411	102.25
391.636	103.25
391.86	105.25
392.085	102.25
392.31	110.25
392.534	106.25
392.759	103.25
392.984	99.25
393.208	113.25
393.433	95.25
393.658	110.25
393.882	110.25
394.107	100.25
394.331	93.25
394.556	117.25
394.78	103.25
395.005	117.25
395.229	97.25
395.454	110.25
395.678	104.25
395.903	92.25
396.127	114.25
396.352	103.25
396.576	105.25
396.801	87.25
397.025	100.25
397.249	113.25
397.474	106.25
397.698	114.25
397.922	114.25
398.147	114.25
398.371	117.25
398.595	103.25
398.82	105.25
399.044	106.25
399.268	105.25
399.492	105.25
399.717	107.25
399.941	99.25
400.165	101.25
400.389	110.25
400.613	114.25
400.837	100.25
401.062	119.25
401.286	89.25
401.51	116.25
401.734	110.25
401.958	100.25
402.182	103.25
402.406	116.25
402.63	113.25
402.854	122.25
403.078	116.25
403.302	112.25
403.526	107.25
403.75	102.25
403.974	105.25
404.198	110.25
404.422	110.25
404.645	100.25
404.869	110.25
405.093	118.25
405.317	113.25
405.541	126.25
405.765	117.25
405.988	114.25
406.212	116.25
406.436	105.25
406.66	115.25
406.883	110.25
407.107	110.25
407.331	118.25
407.555	111.25
407.778	100.25
408.002	130.25
408.226	122.25
408.449	121.25
408.673	125.25
408.896	114.25
409.12	126.25
409.344	127.25
409.567	123.25
409.791	112.25
410.014	103.25
410.238	107.25
410.461	123.25
410.685	125.25
410.908	112.25
411.132	119.25
411.355	123.25
411.578	115.25
411.802	121.25
412.025	114.25
412.249	116.25
412.472	114.25
412.695	124.25
412.919	115.25
413.142	138.25
413.365	116.25
413.589	105.25
413.812	110.25
414.035	117.25
414.258	108.25
414.482	105.25
414.705	101.25
414.928	118.25
415.151	112.25
415.374	122.25
415.597	121.25
415.821	128.25
416.044	114.25
416.267	111.25
416.49	135.25
416.713	118.25
416.936	122.25
417.159	132.25
417.382	113.25
417.605	118.25
417.828	135.25
418.051	114.25
418.274	126.25
418.497	124.25
418.72	131.25
418.943	123.25
419.166	126.25
419.389	140.25
419.611	127.25
419.834	130.25
420.057	116.25
420.28	128.25
420.503	136.25
420.726	121.25
420.948	125.25
421.171	111.25
421.394	141.25
421.617	140.25
421.839	120.25
422.062	146.25
422.285	117.25
422.507	131.25
422.73	127.25
422.953	121.25
423.175	127.25
423.398	122.25
423.621	138.25
423.843	136.25
424.066	142.25
424.288	134.25
424.511	138.25
424.733	136.25
424.956	135.25
425.178	118.25
425.401	143.25
425.623	146.25
425.846	132.25
426.068	127.25
426.291	132.25
426.513	135.25
426.735	140.25
426.958	131.25
427.18	138.25
427.402	112.25
427.625	122.25
427.847	141.25
428.069	126.25
428.292	125.25
428.514	128.25
428.736	116.25
428.958	114.25
429.181	125.25
429.403	130.25
429.625	126.25
429.847	131.25
430.069	112.25
430.292	143.25
430.514	113.25
430.736	121.25
430.958	123.25
431.18	130.25
431.402	135.25
431.624	121.25
431.846	107.25
432.068	105.25
432.29	100.25
432.512	100.25
432.734	120.25
432.956	134.25
433.178	130.25
433.4	150.25
433.622	140.25
433.844	126.25
434.066	121.25
434.287	107.25
434.509	93.25
434.731	101.25
434.953	108.25
435.175	124.25
435.397	121.25
435.618	118.25
435.84	124.25
436.062	123.25
436.284	116.25
436.505	123.25
436.727	132.25
436.949	137.25
437.17	135.25
437.392	119.25
437.614	119.25
437.835	109.25
438.057	99.25
438.278	116.25
438.5	111.25
438.721	133.25
438.943	123.25
439.165	140.25
439.386	143.25
439.608	128.25
439.829	136.25
440.05	146.25
440.272	139.25
440.493	150.25
440.715	146.25
440.936	133.25
441.158	150.25
441.379	130.25
441.6	120.25
441.822	148.25
442.043	143.25
442.264	137.25
442.486	142.25
442.707	138.25
442.928	125.25
443.149	129.25
443.371	132.25
443.592	146.25
443.813	137.25
444.034	128.25
444.255	133.25
444.476	145.25
444.698	144.25
444.919	142.25
445.14	274.25
445.361	177.25
445.582	154.25
445.803	148.25
446.024	143.25
446.245	160.25
446.466	126.25
446.687	145.25
446.908	152.25
447.129	156.25
447.35	158.25
447.571	145.25
447.792	161.25
448.013	149.25
448.234	146.25
448.455	140.25
448.675	136.25
448.896	135.25
449.117	131.25
449.338	135.25
449.559	144.25
449.779	140.25
450	119.25
450.221	142.25
450.442	130.25
450.662	132.25
450.883	132.25
451.104	133.25
451.324	122.25
451.545	122.25
451.766	143.25
451.986	124.25
452.207	120.25
452.428	134.25
452.648	123.25
452.869	122.25
453.089	96.25
453.31	106.25
453.53	119.25
453.751	103.25
453.971	95.25
454.192	90.25
454.412	102.25
454.633	111.25
454.853	110.25
455.073	120.25
455.294	115.25
455.514	136.25
455.734	128.25
455.955	122.25
456.175	112.25
456.395	110.25
456.616	114.25
456.836	99.25
457.056	100.25
457.276	97.25
457.497	106.25
457.717	123.25
457.937	94.25
458.157	106.25
458.377	98.25
458.598	94.25
458.818	90.25
459.038	80.25
459.258	83.25
459.478	88.25
459.698	103.25
459.918	106.25
460.138	92.25
460.358	100.25
460.578	105.25
460.798	108.25
461.018	110.25
461.238	124.25
461.458	134.25
461.678	104.25
461.898	113.25
462.118	113.25
462.338	108.25
462.558	108.25
462.777	115.25
462.997	97.25
463.217	95.25
463.437	117.25
463.657	103.25
463.876	110.25
464.096	100.25
464.316	90.25
464.536	114.25
464.755	122.25
464.975	102.25
465.195	114.25
465.414	113.25
465.634	133.25
465.854	115.25
466.073	111.25
466.293	123.25
466.512	120.25
466.732	126.25
466.951	130.25
467.171	137.25
467.391	128.25
467.61	127.25
467.829	128.25
468.049	129.25
468.268	128.25
468.488	133.25
468.707	137.25
468.927	122.25
469.146	117.25
469.365	133.25
469.585	139.25
469.804	128.25
470.023	133.25
470.243	122.25
470.462	135.25
470.681	131.25
470.901	155.25
471.12	134.25
471.339	140.25
471.558	142.25
471.777	126.25
471.997	122.25
472.216	121.25
472.435	107.25
472.654	103.25
472.873	118.25
473.092	98.25
473.311	120.25
473.53	126.25
473.749	127.25
473.968	125.25
474.187	124.25
474.406	118.25
474.625	128.25
474.844	125.25
475.063	141.25
475.282	124.25
475.501	118.25
475.72	118.25
475.939	118.25
476.158	119.25
476.377	105.25
476.596	129.25
476.814	107.25
477.033	118.25
477.252	114.25
477.471	122.25
477.69	138.25
477.908	119.25
478.127	121.25
478.346	148.25
478.564	118.25
478.783	131.25
479.002	134.25
479.22	128.25
479.439	113.25
479.658	114.25
479.876	102.25
480.095	100.25
480.313	119.25
480.532	124.25
480.751	108.25
480.969	115.25
481.188	80.25
481.406	76.25
481.624	88.25
481.843	98.25
482.061	88.25
482.28	120.25
482.498	110.25
482.717	96.25
482.935	112.25
483.153	124.25
483.372	140.25
483.59	158.25
483.808	160.25
484.027	128.25
484.245	127.25
484.463	139.25
484.681	156.25
484.9	154.25
485.118	145.25
485.336	139.25
485.554	108.25
485.772	94.25
485.99	101.25
486.209	116.25
486.427	116.25
486.645	115.25
486.863	130.25
487.081	155.25
487.299	140.25
487.517	136.25
487.735	169.25
487.953	189.25
488.171	158.25
488.389	151.25
488.607	164.25
488.825	126.25
489.043	129.25
489.261	138.25
489.479	127.25
489.696	136.25
489.914	153.25
490.132	128.25
490.35	158.25
490.568	149.25
490.786	177.25
491.003	170.25
491.221	171.25
491.439	171.25
491.657	183.25
491.874	177.25
492.092	210.25
492.31	234.25
492.527	216.25
492.745	203.25
492.963	191.25
493.18	179.25
493.398	186.25
493.615	178.25
493.833	177.25
494.05	141.25
494.268	171.25
494.485	169.25
494.703	168.25
494.92	171.25
495.138	182.25
495.355	164.25
495.573	156.25
495.79	155.25
496.008	168.25
496.225	149.25
496.442	141.25
496.66	167.25
496.877	146.25
497.094	156.25
497.312	147.25
497.529	141.25
497.746	148.25
497.963	131.25
498.181	130.25
498.398	123.25
498.615	120.25
498.832	118.25
499.049	120.25
499.267	123.25
499.484	119.25
499.701	122.25
499.918	132.25
500.135	119.25
500.352	127.25
500.569	124.25
500.786	157.25
501.003	129.25
501.22	138.25
501.437	132.25
501.654	115.25
501.871	121.25
502.088	135.25
502.305	115.25
502.522	114.25
502.739	127.25
502.956	130.25
503.172	117.25
503.389	111.25
503.606	120.25
503.823	122.25
504.04	126.25
504.256	120.25
504.473	114.25
504.69	130.25
504.907	118.25
505.123	115.25
505.34	130.25
505.557	122.25
505.773	120.25
505.99	123.25
506.207	106.25
506.423	122.25
506.64	110.25
506.856	132.25
507.073	120.25
507.289	130.25
507.506	107.25
507.722	122.25
507.939	125.25
508.155	114.25
508.372	131.25
508.588	119.25
508.805	107.25
509.021	118.25
509.238	84.25
509.454	90.25
509.67	102.25
509.887	110.25
510.103	101.25
510.319	82.25
510.536	106.25
510.752	88.25
510.968	79.25
511.184	84.25
511.401	81.25
511.617	79.25
511.833	96.25
