Data from Location4.07152019.Energy5.Lamp.07192019.3%Agarose_HRD10591_16-19-42-925.txt Node
Date: Fri Jul 19 16:19:42 EDT 2019
User: cochatt
Spectrometer: HR+D1059
Trigger mode: 1
Integration Time (sec): 1.000000E-1
Scans to average: 1
Electric dark correction enabled: true
Nonlinearity correction enabled: false
Boxcar width: 0
XAxis mode: Wavelengths
Number of Pixels in Spectrum: 2048
>>>>>Begin Spectral Data<<<<<
223.165	-21.25
223.4	-21.25
223.635	-21.25
223.869	-30.25
224.104	-0.25
224.338	-19.25
224.573	-8.25
224.808	-4.25
225.042	-14.25
225.277	-21.25
225.511	6.75
225.746	-13.25
225.98	9.75
226.215	18.75
226.449	18.75
226.683	21.75
226.918	22.75
227.152	33.75
227.387	22.75
227.621	38.75
227.856	43.75
228.09	49.75
228.324	50.75
228.559	51.75
228.793	47.75
229.027	53.75
229.262	62.75
229.496	59.75
229.73	76.75
229.964	53.75
230.199	80.75
230.433	73.75
230.667	73.75
230.901	80.75
231.136	82.75
231.37	72.75
231.604	82.75
231.838	80.75
232.072	89.75
232.306	69.75
232.541	69.75
232.775	81.75
233.009	81.75
233.243	77.75
233.477	82.75
233.711	94.75
233.945	86.75
234.179	83.75
234.413	72.75
234.647	81.75
234.881	81.75
235.115	76.75
235.349	73.75
235.583	76.75
235.817	92.75
236.051	67.75
236.285	73.75
236.519	69.75
236.753	84.75
236.987	92.75
237.221	73.75
237.455	78.75
237.689	73.75
237.922	74.75
238.156	77.75
238.39	73.75
238.624	67.75
238.858	73.75
239.091	73.75
239.325	80.75
239.559	72.75
239.793	69.75
240.027	77.75
240.26	75.75
240.494	77.75
240.728	61.75
240.961	79.75
241.195	82.75
241.429	88.75
241.662	79.75
241.896	66.75
242.13	77.75
242.363	73.75
242.597	80.75
242.83	65.75
243.064	62.75
243.298	63.75
243.531	75.75
243.765	85.75
243.998	80.75
244.232	83.75
244.465	78.75
244.699	81.75
244.932	77.75
245.166	87.75
245.399	82.75
245.633	96.75
245.866	72.75
246.099	78.75
246.333	90.75
246.566	77.75
246.8	62.75
247.033	67.75
247.266	62.75
247.5	79.75
247.733	68.75
247.966	69.75
248.2	83.75
248.433	71.75
248.666	78.75
248.899	79.75
249.133	79.75
249.366	79.75
249.599	71.75
249.832	89.75
250.066	90.75
250.299	75.75
250.532	80.75
250.765	76.75
250.998	66.75
251.231	87.75
251.465	89.75
251.698	74.75
251.931	75.75
252.164	95.75
252.397	68.75
252.63	74.75
252.863	85.75
253.096	61.75
253.329	73.75
253.562	92.75
253.795	81.75
254.028	85.75
254.261	91.75
254.494	79.75
254.727	90.75
254.96	80.75
255.193	69.75
255.426	72.75
255.659	86.75
255.892	59.75
256.124	90.75
256.357	78.75
256.59	83.75
256.823	80.75
257.056	84.75
257.289	84.75
257.521	80.75
257.754	91.75
257.987	87.75
258.22	84.75
258.452	77.75
258.685	81.75
258.918	72.75
259.151	90.75
259.383	94.75
259.616	78.75
259.849	86.75
260.081	90.75
260.314	79.75
260.547	59.75
260.779	70.75
261.012	77.75
261.244	80.75
261.477	80.75
261.71	88.75
261.942	74.75
262.175	69.75
262.407	71.75
262.64	81.75
262.872	90.75
263.105	78.75
263.337	85.75
263.57	71.75
263.802	77.75
264.035	80.75
264.267	82.75
264.499	80.75
264.732	76.75
264.964	93.75
265.197	79.75
265.429	85.75
265.661	87.75
265.894	77.75
266.126	75.75
266.358	79.75
266.591	89.75
266.823	81.75
267.055	87.75
267.287	74.75
267.52	80.75
267.752	74.75
267.984	97.75
268.216	74.75
268.448	73.75
268.681	80.75
268.913	84.75
269.145	84.75
269.377	75.75
269.609	82.75
269.841	79.75
270.073	73.75
270.306	83.75
270.538	86.75
270.77	79.75
271.002	100.75
271.234	77.75
271.466	81.75
271.698	96.75
271.93	86.75
272.162	63.75
272.394	90.75
272.626	82.75
272.858	81.75
273.09	90.75
273.322	86.75
273.553	92.75
273.785	82.75
274.017	90.75
274.249	76.75
274.481	78.75
274.713	64.75
274.945	65.75
275.176	74.75
275.408	78.75
275.64	89.75
275.872	81.75
276.104	81.75
276.335	73.75
276.567	78.75
276.799	81.75
277.031	77.75
277.262	77.75
277.494	87.75
277.726	67.75
277.957	88.75
278.189	87.75
278.421	84.75
278.652	86.75
278.884	83.75
279.115	77.75
279.347	83.75
279.579	90.75
279.81	80.75
280.042	70.75
280.273	79.75
280.505	72.75
280.736	83.75
280.968	88.75
281.199	85.75
281.431	81.75
281.662	82.75
281.894	76.75
282.125	73.75
282.356	78.75
282.588	74.75
282.819	67.75
283.051	80.75
283.282	80.75
283.513	87.75
283.745	81.75
283.976	87.75
284.207	86.75
284.439	83.75
284.67	102.75
284.901	89.75
285.132	74.75
285.364	82.75
285.595	78.75
285.826	78.75
286.057	95.75
286.288	78.75
286.52	80.75
286.751	86.75
286.982	86.75
287.213	75.75
287.444	76.75
287.675	98.75
287.906	89.75
288.138	96.75
288.369	82.75
288.6	73.75
288.831	80.75
289.062	88.75
289.293	85.75
289.524	89.75
289.755	75.75
289.986	72.75
290.217	82.75
290.448	84.75
290.679	88.75
290.91	68.75
291.141	69.75
291.371	80.75
291.602	82.75
291.833	77.75
292.064	81.75
292.295	94.75
292.526	93.75
292.757	87.75
292.987	88.75
293.218	74.75
293.449	87.75
293.68	72.75
293.91	68.75
294.141	89.75
294.372	67.75
294.603	78.75
294.833	94.75
295.064	73.75
295.295	68.75
295.525	95.75
295.756	88.75
295.987	80.75
296.217	84.75
296.448	75.75
296.679	90.75
296.909	84.75
297.14	76.75
297.37	85.75
297.601	94.75
297.831	81.75
298.062	80.75
298.292	79.75
298.523	89.75
298.753	70.75
298.984	85.75
299.214	75.75
299.445	66.75
299.675	77.75
299.905	85.75
300.136	76.75
300.366	77.75
300.597	84.75
300.827	79.75
301.057	74.75
301.288	87.75
301.518	89.75
301.748	87.75
301.979	94.75
302.209	81.75
302.439	83.75
302.669	72.75
302.9	84.75
303.13	69.75
303.36	91.75
303.59	75.75
303.82	72.75
304.051	92.75
304.281	94.75
304.511	97.75
304.741	79.75
304.971	83.75
305.201	88.75
305.431	106.75
305.661	92.75
305.891	86.75
306.121	75.75
306.352	82.75
306.582	85.75
306.812	69.75
307.042	83.75
307.272	78.75
307.502	96.75
307.731	70.75
307.961	88.75
308.191	82.75
308.421	83.75
308.651	86.75
308.881	73.75
309.111	94.75
309.341	82.75
309.571	87.75
309.8	84.75
310.03	84.75
310.26	85.75
310.49	95.75
310.72	89.75
310.949	72.75
311.179	78.75
311.409	78.75
311.639	81.75
311.868	87.75
312.098	76.75
312.328	85.75
312.557	66.75
312.787	80.75
313.017	79.75
313.246	88.75
313.476	87.75
313.706	81.75
313.935	73.75
314.165	88.75
314.394	75.75
314.624	79.75
314.853	87.75
315.083	72.75
315.312	88.75
315.542	86.75
315.771	88.75
316.001	87.75
316.23	91.75
316.46	90.75
316.689	92.75
316.919	75.75
317.148	90.75
317.377	80.75
317.607	79.75
317.836	76.75
318.065	78.75
318.295	85.75
318.524	71.75
318.753	90.75
318.983	81.75
319.212	84.75
319.441	89.75
319.67	71.75
319.9	83.75
320.129	92.75
320.358	77.75
320.587	94.75
320.816	86.75
321.046	83.75
321.275	77.75
321.504	71.75
321.733	73.75
321.962	94.75
322.191	90.75
322.42	88.75
322.649	102.75
322.878	92.75
323.108	100.75
323.337	77.75
323.566	74.75
323.795	69.75
324.024	74.75
324.253	91.75
324.482	70.75
324.71	77.75
324.939	94.75
325.168	102.75
325.397	83.75
325.626	75.75
325.855	91.75
326.084	87.75
326.313	72.75
326.542	73.75
326.77	83.75
326.999	77.75
327.228	87.75
327.457	90.75
327.686	79.75
327.914	88.75
328.143	91.75
328.372	84.75
328.6	83.75
328.829	93.75
329.058	84.75
329.287	81.75
329.515	76.75
329.744	72.75
329.972	80.75
330.201	70.75
330.43	82.75
330.658	93.75
330.887	90.75
331.115	76.75
331.344	97.75
331.572	73.75
331.801	85.75
332.03	66.75
332.258	85.75
332.486	88.75
332.715	75.75
332.943	94.75
333.172	95.75
333.4	74.75
333.629	89.75
333.857	75.75
334.085	79.75
334.314	85.75
334.542	82.75
334.771	80.75
334.999	83.75
335.227	71.75
335.455	89.75
335.684	68.75
335.912	87.75
336.14	63.75
336.369	93.75
336.597	80.75
336.825	88.75
337.053	85.75
337.281	85.75
337.51	73.75
337.738	87.75
337.966	77.75
338.194	85.75
338.422	69.75
338.65	78.75
338.878	68.75
339.106	78.75
339.334	86.75
339.562	83.75
339.79	86.75
340.018	78.75
340.246	75.75
340.474	74.75
340.702	81.75
340.93	81.75
341.158	93.75
341.386	75.75
341.614	71.75
341.842	78.75
342.07	81.75
342.298	85.75
342.526	83.75
342.754	75.75
342.981	73.75
343.209	82.75
343.437	87.75
343.665	86.75
343.893	82.75
344.12	82.75
344.348	81.75
344.576	90.75
344.804	79.75
345.031	82.75
345.259	89.75
345.487	86.75
345.714	90.75
345.942	83.75
346.17	89.75
346.397	76.75
346.625	82.75
346.853	77.75
347.08	82.75
347.308	82.75
347.535	91.75
347.763	90.75
347.99	81.75
348.218	81.75
348.445	74.75
348.673	73.75
348.9	74.75
349.128	80.75
349.355	97.75
349.583	73.75
349.81	76.75
350.037	98.75
350.265	70.75
350.492	67.75
350.72	86.75
350.947	93.75
351.174	92.75
351.402	82.75
351.629	73.75
351.856	73.75
352.083	81.75
352.311	91.75
352.538	79.75
352.765	74.75
352.992	75.75
353.22	73.75
353.447	88.75
353.674	77.75
353.901	85.75
354.128	73.75
354.355	76.75
354.583	79.75
354.81	80.75
355.037	87.75
355.264	84.75
355.491	80.75
355.718	77.75
355.945	64.75
356.172	77.75
356.399	85.75
356.626	67.75
356.853	77.75
357.08	93.75
357.307	74.75
357.534	90.75
357.761	83.75
357.988	74.75
358.215	85.75
358.441	71.75
358.668	75.75
358.895	91.75
359.122	75.75
359.349	83.75
359.576	82.75
359.802	97.75
360.029	92.75
360.256	83.75
360.483	79.75
360.709	69.75
360.936	85.75
361.163	80.75
361.39	80.75
361.616	95.75
361.843	84.75
362.07	71.75
362.296	77.75
362.523	81.75
362.749	78.75
362.976	72.75
363.203	75.75
363.429	83.75
363.656	86.75
363.882	91.75
364.109	83.75
364.335	96.75
364.562	91.75
364.788	70.75
365.015	85.75
365.241	73.75
365.468	75.75
365.694	73.75
365.92	73.75
366.147	78.75
366.373	81.75
366.599	88.75
366.826	82.75
367.052	76.75
367.278	80.75
367.505	91.75
367.731	97.75
367.957	84.75
368.184	94.75
368.41	86.75
368.636	89.75
368.862	83.75
369.089	77.75
369.315	83.75
369.541	81.75
369.767	94.75
369.993	86.75
370.219	68.75
370.445	86.75
370.672	87.75
370.898	88.75
371.124	87.75
371.35	101.75
371.576	93.75
371.802	95.75
372.028	83.75
372.254	83.75
372.48	88.75
372.706	97.75
372.932	92.75
373.158	83.75
373.384	93.75
373.61	84.75
373.835	87.75
374.061	81.75
374.287	90.75
374.513	77.75
374.739	90.75
374.965	99.75
375.191	90.75
375.416	86.75
375.642	97.75
375.868	88.75
376.094	91.75
376.319	93.75
376.545	78.75
376.771	100.75
376.997	105.75
377.222	85.75
377.448	93.75
377.674	95.75
377.899	97.75
378.125	95.75
378.35	78.75
378.576	85.75
378.802	90.75
379.027	83.75
379.253	101.75
379.478	98.75
379.704	85.75
379.929	90.75
380.155	91.75
380.38	91.75
380.606	80.75
380.831	89.75
381.057	100.75
381.282	80.75
381.507	93.75
381.733	91.75
381.958	99.75
382.184	94.75
382.409	85.75
382.634	96.75
382.86	75.75
383.085	116.75
383.31	97.75
383.535	91.75
383.761	112.75
383.986	99.75
384.211	106.75
384.436	87.75
384.662	78.75
384.887	90.75
385.112	102.75
385.337	88.75
385.562	97.75
385.787	90.75
386.013	98.75
386.238	103.75
386.463	93.75
386.688	87.75
386.913	86.75
387.138	94.75
387.363	102.75
387.588	98.75
387.813	95.75
388.038	98.75
388.263	89.75
388.488	97.75
388.713	105.75
388.938	99.75
389.163	103.75
389.387	101.75
389.612	101.75
389.837	95.75
390.062	117.75
390.287	104.75
390.512	95.75
390.736	97.75
390.961	98.75
391.186	87.75
391.411	105.75
391.636	86.75
391.86	100.75
392.085	109.75
392.31	86.75
392.534	101.75
392.759	102.75
392.984	102.75
393.208	104.75
393.433	99.75
393.658	107.75
393.882	102.75
394.107	92.75
394.331	118.75
394.556	96.75
394.78	103.75
395.005	100.75
395.229	112.75
395.454	99.75
395.678	112.75
395.903	111.75
396.127	113.75
396.352	96.75
396.576	103.75
396.801	99.75
397.025	87.75
397.249	98.75
397.474	113.75
397.698	106.75
397.922	97.75
398.147	105.75
398.371	107.75
398.595	113.75
398.82	96.75
399.044	107.75
399.268	93.75
399.492	103.75
399.717	105.75
399.941	104.75
400.165	119.75
400.389	114.75
400.613	115.75
400.837	106.75
401.062	101.75
401.286	90.75
401.51	105.75
401.734	112.75
401.958	101.75
402.182	107.75
402.406	117.75
402.63	83.75
402.854	117.75
403.078	117.75
403.302	107.75
403.526	103.75
403.75	121.75
403.974	107.75
404.198	119.75
404.422	101.75
404.645	107.75
404.869	115.75
405.093	103.75
405.317	112.75
405.541	113.75
405.765	117.75
405.988	104.75
406.212	111.75
406.436	107.75
406.66	114.75
406.883	118.75
407.107	103.75
407.331	96.75
407.555	96.75
407.778	112.75
408.002	123.75
408.226	106.75
408.449	112.75
408.673	120.75
408.896	103.75
409.12	115.75
409.344	117.75
409.567	117.75
409.791	107.75
410.014	114.75
410.238	133.75
410.461	124.75
410.685	105.75
410.908	118.75
411.132	117.75
411.355	109.75
411.578	106.75
411.802	119.75
412.025	124.75
412.249	117.75
412.472	127.75
412.695	122.75
412.919	113.75
413.142	113.75
413.365	118.75
413.589	104.75
413.812	104.75
414.035	105.75
414.258	105.75
414.482	123.75
414.705	129.75
414.928	114.75
415.151	118.75
415.374	127.75
415.597	110.75
415.821	112.75
416.044	119.75
416.267	109.75
416.49	109.75
416.713	114.75
416.936	129.75
417.159	135.75
417.382	122.75
417.605	111.75
417.828	123.75
418.051	122.75
418.274	120.75
418.497	129.75
418.72	136.75
418.943	124.75
419.166	134.75
419.389	138.75
419.611	128.75
419.834	119.75
420.057	127.75
420.28	114.75
420.503	138.75
420.726	124.75
420.948	123.75
421.171	116.75
421.394	139.75
421.617	127.75
421.839	125.75
422.062	118.75
422.285	116.75
422.507	121.75
422.73	121.75
422.953	126.75
423.175	113.75
423.398	118.75
423.621	127.75
423.843	130.75
424.066	141.75
424.288	129.75
424.511	131.75
424.733	137.75
424.956	135.75
425.178	136.75
425.401	118.75
425.623	127.75
425.846	131.75
426.068	137.75
426.291	118.75
426.513	119.75
426.735	129.75
426.958	137.75
427.18	128.75
427.402	128.75
427.625	125.75
427.847	131.75
428.069	127.75
428.292	134.75
428.514	105.75
428.736	120.75
428.958	129.75
429.181	114.75
429.403	125.75
429.625	123.75
429.847	119.75
430.069	124.75
430.292	132.75
430.514	121.75
430.736	125.75
430.958	126.75
431.18	121.75
431.402	124.75
431.624	114.75
431.846	115.75
432.068	85.75
432.29	95.75
432.512	105.75
432.734	122.75
432.956	117.75
433.178	138.75
433.4	132.75
433.622	129.75
433.844	127.75
434.066	119.75
434.287	94.75
434.509	103.75
434.731	89.75
434.953	110.75
435.175	113.75
435.397	117.75
435.618	113.75
435.84	115.75
436.062	112.75
436.284	114.75
436.505	131.75
436.727	121.75
436.949	135.75
437.17	128.75
437.392	123.75
437.614	110.75
437.835	121.75
438.057	111.75
438.278	119.75
438.5	106.75
438.721	121.75
438.943	121.75
439.165	116.75
439.386	131.75
439.608	145.75
439.829	125.75
440.05	134.75
440.272	155.75
440.493	131.75
440.715	139.75
440.936	135.75
441.158	135.75
441.379	155.75
441.6	139.75
441.822	138.75
442.043	158.75
442.264	129.75
442.486	147.75
442.707	127.75
442.928	144.75
443.149	125.75
443.371	139.75
443.592	152.75
443.813	138.75
444.034	138.75
444.255	125.75
444.476	121.75
444.698	125.75
444.919	125.75
445.14	271.75
445.361	190.75
445.582	154.75
445.803	137.75
446.024	139.75
446.245	156.75
446.466	155.75
446.687	125.75
446.908	146.75
447.129	140.75
447.35	151.75
447.571	147.75
447.792	148.75
448.013	135.75
448.234	143.75
448.455	141.75
448.675	135.75
448.896	143.75
449.117	134.75
449.338	129.75
449.559	139.75
449.779	126.75
450	125.75
450.221	127.75
450.442	141.75
450.662	136.75
450.883	118.75
451.104	129.75
451.324	124.75
451.545	117.75
451.766	120.75
451.986	119.75
452.207	120.75
452.428	122.75
452.648	135.75
452.869	144.75
453.089	129.75
453.31	109.75
453.53	110.75
453.751	80.75
453.971	98.75
454.192	115.75
454.412	101.75
454.633	104.75
454.853	114.75
455.073	125.75
455.294	114.75
455.514	113.75
455.734	101.75
455.955	121.75
456.175	123.75
456.395	114.75
456.616	101.75
456.836	116.75
457.056	105.75
457.276	113.75
457.497	107.75
457.717	95.75
457.937	107.75
458.157	106.75
458.377	98.75
458.598	105.75
458.818	95.75
459.038	99.75
459.258	102.75
459.478	76.75
459.698	89.75
459.918	109.75
460.138	104.75
460.358	107.75
460.578	119.75
460.798	126.75
461.018	101.75
461.238	113.75
461.458	113.75
461.678	107.75
461.898	99.75
462.118	112.75
462.338	112.75
462.558	102.75
462.777	116.75
462.997	119.75
463.217	101.75
463.437	84.75
463.657	109.75
463.876	93.75
464.096	95.75
464.316	107.75
464.536	120.75
464.755	104.75
464.975	100.75
465.195	121.75
465.414	125.75
465.634	112.75
465.854	106.75
466.073	118.75
466.293	117.75
466.512	111.75
466.732	122.75
466.951	121.75
467.171	118.75
467.391	127.75
467.61	145.75
467.829	121.75
468.049	133.75
468.268	115.75
468.488	113.75
468.707	145.75
468.927	138.75
469.146	131.75
469.365	149.75
469.585	126.75
469.804	135.75
470.023	121.75
470.243	142.75
470.462	156.75
470.681	137.75
470.901	130.75
471.12	131.75
471.339	126.75
471.558	128.75
471.777	121.75
471.997	125.75
472.216	121.75
472.435	120.75
472.654	114.75
472.873	99.75
473.092	105.75
473.311	131.75
473.53	129.75
473.749	130.75
473.968	128.75
474.187	115.75
474.406	125.75
474.625	127.75
474.844	124.75
475.063	124.75
475.282	125.75
475.501	118.75
475.72	110.75
475.939	109.75
476.158	121.75
476.377	130.75
476.596	129.75
476.814	112.75
477.033	96.75
477.252	104.75
477.471	120.75
477.69	137.75
477.908	133.75
478.127	154.75
478.346	149.75
478.564	137.75
478.783	134.75
479.002	128.75
479.22	159.75
479.439	127.75
479.658	121.75
479.876	117.75
480.095	111.75
480.313	122.75
480.532	132.75
480.751	118.75
480.969	113.75
481.188	90.75
481.406	91.75
481.624	93.75
481.843	92.75
482.061	100.75
482.28	102.75
482.498	103.75
482.717	101.75
482.935	124.75
483.153	138.75
483.372	148.75
483.59	142.75
483.808	147.75
484.027	120.75
484.245	140.75
484.463	161.75
484.681	145.75
484.9	126.75
485.118	127.75
485.336	124.75
485.554	121.75
485.772	101.75
485.99	93.75
486.209	101.75
486.427	99.75
486.645	116.75
486.863	128.75
487.081	125.75
487.299	117.75
487.517	145.75
487.735	166.75
487.953	167.75
488.171	182.75
488.389	153.75
488.607	145.75
488.825	149.75
489.043	141.75
489.261	137.75
489.479	147.75
489.696	155.75
489.914	145.75
490.132	131.75
490.35	141.75
490.568	165.75
490.786	158.75
491.003	155.75
491.221	167.75
491.439	182.75
491.657	193.75
491.874	193.75
492.092	203.75
492.31	235.75
492.527	210.75
492.745	193.75
492.963	186.75
493.18	190.75
493.398	168.75
493.615	175.75
493.833	169.75
494.05	181.75
494.268	174.75
494.485	155.75
494.703	163.75
494.92	165.75
495.138	164.75
495.355	167.75
495.573	179.75
495.79	154.75
496.008	153.75
496.225	164.75
496.442	157.75
496.66	163.75
496.877	149.75
497.094	151.75
497.312	158.75
497.529	148.75
497.746	148.75
497.963	121.75
498.181	121.75
498.398	127.75
498.615	118.75
498.832	123.75
499.049	117.75
499.267	125.75
499.484	134.75
499.701	154.75
499.918	146.75
500.135	127.75
500.352	136.75
500.569	136.75
500.786	135.75
501.003	132.75
501.22	125.75
501.437	125.75
501.654	127.75
501.871	139.75
502.088	121.75
502.305	131.75
502.522	129.75
502.739	123.75
502.956	120.75
503.172	127.75
503.389	118.75
503.606	103.75
503.823	121.75
504.04	126.75
504.256	114.75
504.473	121.75
504.69	113.75
504.907	119.75
505.123	119.75
505.34	112.75
505.557	117.75
505.773	107.75
505.99	112.75
506.207	119.75
506.423	122.75
506.64	105.75
506.856	115.75
507.073	111.75
507.289	114.75
507.506	112.75
507.722	113.75
507.939	110.75
508.155	127.75
508.372	122.75
508.588	112.75
508.805	118.75
509.021	109.75
509.238	106.75
509.454	97.75
509.67	93.75
509.887	96.75
510.103	90.75
510.319	86.75
510.536	90.75
510.752	92.75
510.968	93.75
511.184	77.75
511.401	75.75
511.617	84.75
511.833	93.75
512.049	88.75
