Data from Location4.07152019.Energy5.Lamp.07192019.3%Agarose_HRD10591_16-20-44-925.txt Node
Date: Fri Jul 19 16:20:44 EDT 2019
User: cochatt
Spectrometer: HR+D1059
Trigger mode: 1
Integration Time (sec): 1.000000E-1
Scans to average: 1
Electric dark correction enabled: true
Nonlinearity correction enabled: false
Boxcar width: 0
XAxis mode: Wavelengths
Number of Pixels in Spectrum: 2048
>>>>>Begin Spectral Data<<<<<
223.165	-7.06
223.4	-7.06
223.635	-7.06
223.869	-15.06
224.104	-23.06
224.338	-17.06
224.573	-18.06
224.808	-14.06
225.042	-10.06
225.277	-9.06
225.511	-11.06
225.746	0.94
225.98	8.94
226.215	14.94
226.449	16.94
226.683	14.94
226.918	21.94
227.152	45.94
227.387	34.94
227.621	44.94
227.856	38.94
228.09	33.94
228.324	38.94
228.559	77.94
228.793	54.94
229.027	55.94
229.262	71.94
229.496	66.94
229.73	73.94
229.964	64.94
230.199	72.94
230.433	69.94
230.667	67.94
230.901	87.94
231.136	80.94
231.37	75.94
231.604	77.94
231.838	84.94
232.072	92.94
232.306	79.94
232.541	96.94
232.775	73.94
233.009	86.94
233.243	80.94
233.477	86.94
233.711	89.94
233.945	81.94
234.179	79.94
234.413	83.94
234.647	87.94
234.881	75.94
235.115	91.94
235.349	82.94
235.583	83.94
235.817	77.94
236.051	74.94
236.285	76.94
236.519	80.94
236.753	79.94
236.987	85.94
237.221	74.94
237.455	68.94
237.689	81.94
237.922	79.94
238.156	88.94
238.39	83.94
238.624	82.94
238.858	89.94
239.091	77.94
239.325	83.94
239.559	79.94
239.793	72.94
240.027	79.94
240.26	72.94
240.494	86.94
240.728	79.94
240.961	64.94
241.195	75.94
241.429	86.94
241.662	88.94
241.896	71.94
242.13	76.94
242.363	84.94
242.597	80.94
242.83	75.94
243.064	73.94
243.298	79.94
243.531	64.94
243.765	74.94
243.998	66.94
244.232	74.94
244.465	81.94
244.699	69.94
244.932	69.94
245.166	86.94
245.399	80.94
245.633	101.94
245.866	74.94
246.099	85.94
246.333	70.94
246.566	66.94
246.8	86.94
247.033	82.94
247.266	88.94
247.5	74.94
247.733	96.94
247.966	73.94
248.2	69.94
248.433	84.94
248.666	73.94
248.899	65.94
249.133	78.94
249.366	66.94
249.599	98.94
249.832	67.94
250.066	84.94
250.299	72.94
250.532	71.94
250.765	80.94
250.998	88.94
251.231	78.94
251.465	93.94
251.698	74.94
251.931	87.94
252.164	83.94
252.397	71.94
252.63	83.94
252.863	84.94
253.096	90.94
253.329	78.94
253.562	85.94
253.795	97.94
254.028	76.94
254.261	74.94
254.494	78.94
254.727	86.94
254.96	77.94
255.193	92.94
255.426	83.94
255.659	71.94
255.892	78.94
256.124	82.94
256.357	85.94
256.59	83.94
256.823	84.94
257.056	89.94
257.289	88.94
257.521	77.94
257.754	92.94
257.987	93.94
258.22	92.94
258.452	79.94
258.685	88.94
258.918	92.94
259.151	81.94
259.383	91.94
259.616	78.94
259.849	72.94
260.081	90.94
260.314	69.94
260.547	90.94
260.779	89.94
261.012	82.94
261.244	81.94
261.477	89.94
261.71	95.94
261.942	87.94
262.175	84.94
262.407	80.94
262.64	86.94
262.872	70.94
263.105	74.94
263.337	80.94
263.57	79.94
263.802	68.94
264.035	97.94
264.267	98.94
264.499	78.94
264.732	74.94
264.964	81.94
265.197	105.94
265.429	76.94
265.661	82.94
265.894	78.94
266.126	94.94
266.358	72.94
266.591	78.94
266.823	95.94
267.055	98.94
267.287	84.94
267.52	81.94
267.752	94.94
267.984	88.94
268.216	89.94
268.448	83.94
268.681	100.94
268.913	78.94
269.145	101.94
269.377	82.94
269.609	89.94
269.841	84.94
270.073	91.94
270.306	83.94
270.538	75.94
270.77	68.94
271.002	90.94
271.234	100.94
271.466	90.94
271.698	81.94
271.93	80.94
272.162	88.94
272.394	76.94
272.626	71.94
272.858	88.94
273.09	88.94
273.322	94.94
273.553	88.94
273.785	81.94
274.017	79.94
274.249	78.94
274.481	80.94
274.713	97.94
274.945	89.94
275.176	84.94
275.408	89.94
275.64	86.94
275.872	73.94
276.104	95.94
276.335	78.94
276.567	77.94
276.799	84.94
277.031	85.94
277.262	97.94
277.494	87.94
277.726	81.94
277.957	92.94
278.189	85.94
278.421	80.94
278.652	84.94
278.884	75.94
279.115	90.94
279.347	106.94
279.579	81.94
279.81	93.94
280.042	88.94
280.273	87.94
280.505	75.94
280.736	86.94
280.968	72.94
281.199	99.94
281.431	85.94
281.662	90.94
281.894	98.94
282.125	90.94
282.356	75.94
282.588	70.94
282.819	88.94
283.051	84.94
283.282	84.94
283.513	91.94
283.745	78.94
283.976	93.94
284.207	76.94
284.439	78.94
284.67	90.94
284.901	83.94
285.132	91.94
285.364	98.94
285.595	109.94
285.826	85.94
286.057	87.94
286.288	88.94
286.52	104.94
286.751	94.94
286.982	88.94
287.213	87.94
287.444	87.94
287.675	74.94
287.906	85.94
288.138	83.94
288.369	88.94
288.6	80.94
288.831	84.94
289.062	74.94
289.293	83.94
289.524	83.94
289.755	77.94
289.986	79.94
290.217	73.94
290.448	73.94
290.679	91.94
290.91	95.94
291.141	91.94
291.371	90.94
291.602	84.94
291.833	72.94
292.064	91.94
292.295	85.94
292.526	90.94
292.757	86.94
292.987	90.94
293.218	94.94
293.449	97.94
293.68	82.94
293.91	83.94
294.141	89.94
294.372	76.94
294.603	86.94
294.833	88.94
295.064	84.94
295.295	92.94
295.525	98.94
295.756	76.94
295.987	84.94
296.217	92.94
296.448	94.94
296.679	90.94
296.909	78.94
297.14	88.94
297.37	94.94
297.601	100.94
297.831	83.94
298.062	93.94
298.292	84.94
298.523	97.94
298.753	102.94
298.984	85.94
299.214	83.94
299.445	94.94
299.675	94.94
299.905	104.94
300.136	85.94
300.366	96.94
300.597	92.94
300.827	80.94
301.057	84.94
301.288	84.94
301.518	73.94
301.748	92.94
301.979	98.94
302.209	91.94
302.439	91.94
302.669	83.94
302.9	83.94
303.13	93.94
303.36	86.94
303.59	84.94
303.82	75.94
304.051	87.94
304.281	102.94
304.511	80.94
304.741	90.94
304.971	71.94
305.201	85.94
305.431	83.94
305.661	92.94
305.891	82.94
306.121	90.94
306.352	91.94
306.582	104.94
306.812	93.94
307.042	92.94
307.272	87.94
307.502	83.94
307.731	79.94
307.961	82.94
308.191	91.94
308.421	92.94
308.651	90.94
308.881	97.94
309.111	92.94
309.341	80.94
309.571	83.94
309.8	77.94
310.03	85.94
310.26	93.94
310.49	75.94
310.72	81.94
310.949	84.94
311.179	99.94
311.409	80.94
311.639	91.94
311.868	88.94
312.098	91.94
312.328	100.94
312.557	86.94
312.787	103.94
313.017	95.94
313.246	78.94
313.476	86.94
313.706	81.94
313.935	87.94
314.165	86.94
314.394	99.94
314.624	83.94
314.853	92.94
315.083	88.94
315.312	100.94
315.542	96.94
315.771	84.94
316.001	82.94
316.23	93.94
316.46	90.94
316.689	84.94
316.919	91.94
317.148	92.94
317.377	84.94
317.607	94.94
317.836	85.94
318.065	88.94
318.295	88.94
318.524	78.94
318.753	94.94
318.983	86.94
319.212	92.94
319.441	79.94
319.67	95.94
319.9	84.94
320.129	70.94
320.358	80.94
320.587	80.94
320.816	92.94
321.046	95.94
321.275	75.94
321.504	76.94
321.733	81.94
321.962	73.94
322.191	77.94
322.42	78.94
322.649	85.94
322.878	94.94
323.108	79.94
323.337	73.94
323.566	95.94
323.795	89.94
324.024	90.94
324.253	94.94
324.482	88.94
324.71	77.94
324.939	81.94
325.168	79.94
325.397	84.94
325.626	95.94
325.855	91.94
326.084	87.94
326.313	84.94
326.542	76.94
326.77	84.94
326.999	81.94
327.228	78.94
327.457	68.94
327.686	81.94
327.914	90.94
328.143	91.94
328.372	84.94
328.6	74.94
328.829	94.94
329.058	87.94
329.287	87.94
329.515	98.94
329.744	88.94
329.972	83.94
330.201	88.94
330.43	94.94
330.658	100.94
330.887	90.94
331.115	88.94
331.344	82.94
331.572	88.94
331.801	89.94
332.03	103.94
332.258	99.94
332.486	90.94
332.715	74.94
332.943	89.94
333.172	72.94
333.4	88.94
333.629	84.94
333.857	88.94
334.085	98.94
334.314	93.94
334.542	99.94
334.771	88.94
334.999	89.94
335.227	98.94
335.455	96.94
335.684	90.94
335.912	93.94
336.14	78.94
336.369	81.94
336.597	85.94
336.825	74.94
337.053	96.94
337.281	87.94
337.51	91.94
337.738	74.94
337.966	83.94
338.194	71.94
338.422	80.94
338.65	78.94
338.878	74.94
339.106	104.94
339.334	91.94
339.562	102.94
339.79	92.94
340.018	91.94
340.246	82.94
340.474	86.94
340.702	89.94
340.93	96.94
341.158	88.94
341.386	91.94
341.614	70.94
341.842	77.94
342.07	86.94
342.298	87.94
342.526	86.94
342.754	79.94
342.981	90.94
343.209	88.94
343.437	100.94
343.665	93.94
343.893	95.94
344.12	97.94
344.348	97.94
344.576	103.94
344.804	76.94
345.031	83.94
345.259	92.94
345.487	101.94
345.714	89.94
345.942	84.94
346.17	93.94
346.397	103.94
346.625	93.94
346.853	92.94
347.08	88.94
347.308	85.94
347.535	81.94
347.763	90.94
347.99	90.94
348.218	83.94
348.445	88.94
348.673	93.94
348.9	87.94
349.128	93.94
349.355	87.94
349.583	101.94
349.81	80.94
350.037	82.94
350.265	79.94
350.492	102.94
350.72	87.94
350.947	86.94
351.174	103.94
351.402	90.94
351.629	84.94
351.856	89.94
352.083	84.94
352.311	88.94
352.538	92.94
352.765	82.94
352.992	91.94
353.22	76.94
353.447	83.94
353.674	85.94
353.901	90.94
354.128	84.94
354.355	87.94
354.583	92.94
354.81	71.94
355.037	105.94
355.264	88.94
355.491	95.94
355.718	91.94
355.945	95.94
356.172	103.94
356.399	94.94
356.626	92.94
356.853	74.94
357.08	96.94
357.307	88.94
357.534	85.94
357.761	87.94
357.988	79.94
358.215	80.94
358.441	97.94
358.668	76.94
358.895	86.94
359.122	93.94
359.349	83.94
359.576	103.94
359.802	85.94
360.029	80.94
360.256	79.94
360.483	78.94
360.709	75.94
360.936	83.94
361.163	78.94
361.39	81.94
361.616	89.94
361.843	85.94
362.07	90.94
362.296	94.94
362.523	74.94
362.749	79.94
362.976	79.94
363.203	88.94
363.429	79.94
363.656	80.94
363.882	74.94
364.109	95.94
364.335	90.94
364.562	91.94
364.788	93.94
365.015	81.94
365.241	92.94
365.468	88.94
365.694	89.94
365.92	101.94
366.147	94.94
366.373	86.94
366.599	93.94
366.826	90.94
367.052	79.94
367.278	87.94
367.505	89.94
367.731	79.94
367.957	82.94
368.184	104.94
368.41	98.94
368.636	76.94
368.862	106.94
369.089	93.94
369.315	86.94
369.541	113.94
369.767	80.94
369.993	102.94
370.219	78.94
370.445	91.94
370.672	93.94
370.898	107.94
371.124	95.94
371.35	101.94
371.576	81.94
371.802	94.94
372.028	90.94
372.254	92.94
372.48	91.94
372.706	99.94
372.932	88.94
373.158	111.94
373.384	99.94
373.61	98.94
373.835	86.94
374.061	99.94
374.287	102.94
374.513	80.94
374.739	84.94
374.965	110.94
375.191	102.94
375.416	95.94
375.642	80.94
375.868	87.94
376.094	78.94
376.319	93.94
376.545	96.94
376.771	78.94
376.997	78.94
377.222	100.94
377.448	106.94
377.674	92.94
377.899	96.94
378.125	90.94
378.35	119.94
378.576	105.94
378.802	88.94
379.027	105.94
379.253	110.94
379.478	85.94
379.704	100.94
379.929	98.94
380.155	86.94
380.38	98.94
380.606	86.94
380.831	105.94
381.057	97.94
381.282	78.94
381.507	100.94
381.733	106.94
381.958	100.94
382.184	97.94
382.409	101.94
382.634	95.94
382.86	93.94
383.085	110.94
383.31	87.94
383.535	100.94
383.761	103.94
383.986	98.94
384.211	115.94
384.436	87.94
384.662	94.94
384.887	94.94
385.112	93.94
385.337	91.94
385.562	101.94
385.787	101.94
386.013	102.94
386.238	103.94
386.463	109.94
386.688	86.94
386.913	102.94
387.138	91.94
387.363	94.94
387.588	87.94
387.813	93.94
388.038	83.94
388.263	87.94
388.488	101.94
388.713	104.94
388.938	109.94
389.163	100.94
389.387	85.94
389.612	99.94
389.837	112.94
390.062	113.94
390.287	101.94
390.512	107.94
390.736	106.94
390.961	103.94
391.186	111.94
391.411	93.94
391.636	119.94
391.86	122.94
392.085	116.94
392.31	109.94
392.534	107.94
392.759	109.94
392.984	94.94
393.208	100.94
393.433	90.94
393.658	111.94
393.882	112.94
394.107	99.94
394.331	103.94
394.556	95.94
394.78	93.94
395.005	106.94
395.229	112.94
395.454	124.94
395.678	110.94
395.903	103.94
396.127	106.94
396.352	120.94
396.576	114.94
396.801	116.94
397.025	99.94
397.249	127.94
397.474	113.94
397.698	115.94
397.922	116.94
398.147	103.94
398.371	116.94
398.595	121.94
398.82	108.94
399.044	100.94
399.268	117.94
399.492	122.94
399.717	110.94
399.941	104.94
400.165	114.94
400.389	112.94
400.613	108.94
400.837	118.94
401.062	100.94
401.286	117.94
401.51	110.94
401.734	111.94
401.958	106.94
402.182	123.94
402.406	107.94
402.63	109.94
402.854	128.94
403.078	107.94
403.302	114.94
403.526	105.94
403.75	117.94
403.974	114.94
404.198	98.94
404.422	118.94
404.645	130.94
404.869	107.94
405.093	120.94
405.317	123.94
405.541	119.94
405.765	114.94
405.988	122.94
406.212	112.94
406.436	102.94
406.66	141.94
406.883	122.94
407.107	118.94
407.331	120.94
407.555	125.94
407.778	106.94
408.002	109.94
408.226	117.94
408.449	118.94
408.673	119.94
408.896	130.94
409.12	126.94
409.344	131.94
409.567	102.94
409.791	114.94
410.014	112.94
410.238	116.94
410.461	118.94
410.685	119.94
410.908	120.94
411.132	120.94
411.355	133.94
411.578	99.94
411.802	120.94
412.025	127.94
412.249	118.94
412.472	111.94
412.695	122.94
412.919	128.94
413.142	126.94
413.365	122.94
413.589	124.94
413.812	123.94
414.035	134.94
414.258	126.94
414.482	122.94
414.705	131.94
414.928	112.94
415.151	136.94
415.374	120.94
415.597	117.94
415.821	131.94
416.044	126.94
416.267	134.94
416.49	148.94
416.713	137.94
416.936	136.94
417.159	122.94
417.382	124.94
417.605	127.94
417.828	107.94
418.051	116.94
418.274	146.94
418.497	146.94
418.72	128.94
418.943	115.94
419.166	124.94
419.389	134.94
419.611	144.94
419.834	143.94
420.057	140.94
420.28	131.94
420.503	147.94
420.726	133.94
420.948	106.94
421.171	114.94
421.394	126.94
421.617	149.94
421.839	130.94
422.062	139.94
422.285	112.94
422.507	134.94
422.73	136.94
422.953	126.94
423.175	136.94
423.398	138.94
423.621	137.94
423.843	139.94
424.066	147.94
424.288	144.94
424.511	151.94
424.733	146.94
424.956	128.94
425.178	136.94
425.401	125.94
425.623	140.94
425.846	132.94
426.068	122.94
426.291	122.94
426.513	127.94
426.735	137.94
426.958	133.94
427.18	123.94
427.402	126.94
427.625	134.94
427.847	130.94
428.069	122.94
428.292	110.94
428.514	126.94
428.736	134.94
428.958	127.94
429.181	138.94
429.403	138.94
429.625	122.94
429.847	130.94
430.069	140.94
430.292	132.94
430.514	126.94
430.736	134.94
430.958	131.94
431.18	123.94
431.402	128.94
431.624	126.94
431.846	118.94
432.068	87.94
432.29	101.94
432.512	125.94
432.734	116.94
432.956	132.94
433.178	158.94
433.4	136.94
433.622	131.94
433.844	135.94
434.066	132.94
434.287	122.94
434.509	116.94
434.731	108.94
434.953	111.94
435.175	116.94
435.397	126.94
435.618	127.94
435.84	92.94
436.062	115.94
436.284	124.94
436.505	133.94
436.727	144.94
436.949	137.94
437.17	127.94
437.392	135.94
437.614	123.94
437.835	117.94
438.057	114.94
438.278	101.94
438.5	125.94
438.721	118.94
438.943	130.94
439.165	139.94
439.386	132.94
439.608	133.94
439.829	141.94
440.05	161.94
440.272	148.94
440.493	138.94
440.715	144.94
440.936	137.94
441.158	146.94
441.379	126.94
441.6	148.94
441.822	150.94
442.043	125.94
442.264	137.94
442.486	126.94
442.707	142.94
442.928	149.94
443.149	134.94
443.371	154.94
443.592	138.94
443.813	128.94
444.034	139.94
444.255	138.94
444.476	127.94
444.698	154.94
444.919	158.94
445.14	290.94
445.361	194.94
445.582	142.94
445.803	140.94
446.024	137.94
446.245	143.94
446.466	156.94
446.687	138.94
446.908	159.94
447.129	150.94
447.35	158.94
447.571	143.94
447.792	147.94
448.013	152.94
448.234	138.94
448.455	152.94
448.675	138.94
448.896	135.94
449.117	108.94
449.338	139.94
449.559	139.94
449.779	139.94
450	132.94
450.221	123.94
450.442	138.94
450.662	148.94
450.883	129.94
451.104	138.94
451.324	124.94
451.545	122.94
451.766	124.94
451.986	120.94
452.207	135.94
452.428	120.94
452.648	139.94
452.869	120.94
453.089	119.94
453.31	118.94
453.53	120.94
453.751	104.94
453.971	106.94
454.192	110.94
454.412	109.94
454.633	134.94
454.853	118.94
455.073	130.94
455.294	124.94
455.514	128.94
455.734	127.94
455.955	117.94
456.175	125.94
456.395	100.94
456.616	126.94
456.836	94.94
457.056	111.94
457.276	100.94
457.497	102.94
457.717	108.94
457.937	120.94
458.157	106.94
458.377	107.94
458.598	92.94
458.818	89.94
459.038	89.94
459.258	97.94
459.478	79.94
459.698	82.94
459.918	90.94
460.138	105.94
460.358	108.94
460.578	107.94
460.798	105.94
461.018	133.94
461.238	110.94
461.458	126.94
461.678	108.94
461.898	106.94
462.118	110.94
462.338	114.94
462.558	114.94
462.777	115.94
462.997	135.94
463.217	110.94
463.437	120.94
463.657	109.94
463.876	107.94
464.096	125.94
464.316	110.94
464.536	118.94
464.755	119.94
464.975	122.94
465.195	106.94
465.414	124.94
465.634	122.94
465.854	127.94
466.073	134.94
466.293	114.94
466.512	128.94
466.732	113.94
466.951	124.94
467.171	142.94
467.391	134.94
467.61	124.94
467.829	128.94
468.049	134.94
468.268	126.94
468.488	144.94
468.707	128.94
468.927	143.94
469.146	126.94
469.365	157.94
469.585	157.94
469.804	131.94
470.023	118.94
470.243	152.94
470.462	141.94
470.681	142.94
470.901	151.94
471.12	142.94
471.339	148.94
471.558	150.94
471.777	142.94
471.997	135.94
472.216	130.94
472.435	109.94
472.654	95.94
472.873	103.94
473.092	142.94
473.311	124.94
473.53	129.94
473.749	134.94
473.968	127.94
474.187	130.94
474.406	122.94
474.625	130.94
474.844	145.94
475.063	134.94
475.282	135.94
475.501	118.94
475.72	124.94
475.939	123.94
476.158	125.94
476.377	131.94
476.596	130.94
476.814	103.94
477.033	101.94
477.252	110.94
477.471	144.94
477.69	143.94
477.908	137.94
478.127	133.94
478.346	143.94
478.564	128.94
478.783	141.94
479.002	127.94
479.22	137.94
479.439	129.94
479.658	125.94
479.876	118.94
480.095	118.94
480.313	135.94
480.532	126.94
480.751	102.94
480.969	105.94
481.188	98.94
481.406	91.94
481.624	90.94
481.843	90.94
482.061	108.94
482.28	117.94
482.498	118.94
482.717	117.94
482.935	124.94
483.153	132.94
483.372	149.94
483.59	159.94
483.808	124.94
484.027	150.94
484.245	143.94
484.463	151.94
484.681	164.94
484.9	152.94
485.118	152.94
485.336	143.94
485.554	105.94
485.772	110.94
485.99	106.94
486.209	123.94
486.427	126.94
486.645	125.94
486.863	144.94
487.081	154.94
487.299	143.94
487.517	144.94
487.735	173.94
487.953	183.94
488.171	190.94
488.389	176.94
488.607	169.94
488.825	138.94
489.043	134.94
489.261	134.94
489.479	129.94
489.696	136.94
489.914	142.94
490.132	142.94
490.35	161.94
490.568	157.94
490.786	157.94
491.003	184.94
491.221	187.94
491.439	187.94
491.657	188.94
491.874	192.94
492.092	238.94
492.31	238.94
492.527	223.94
492.745	208.94
492.963	197.94
493.18	172.94
493.398	173.94
493.615	175.94
493.833	161.94
494.05	171.94
494.268	161.94
494.485	168.94
494.703	173.94
494.92	167.94
495.138	157.94
495.355	191.94
495.573	165.94
495.79	165.94
496.008	187.94
496.225	168.94
496.442	147.94
496.66	167.94
496.877	175.94
497.094	169.94
497.312	145.94
497.529	160.94
497.746	155.94
497.963	134.94
498.181	140.94
498.398	131.94
498.615	114.94
498.832	99.94
499.049	124.94
499.267	102.94
499.484	111.94
499.701	132.94
499.918	142.94
500.135	149.94
500.352	143.94
500.569	140.94
500.786	146.94
501.003	145.94
501.22	128.94
501.437	138.94
501.654	152.94
501.871	143.94
502.088	131.94
502.305	119.94
502.522	132.94
502.739	126.94
502.956	125.94
503.172	131.94
503.389	115.94
503.606	109.94
503.823	119.94
504.04	133.94
504.256	144.94
504.473	123.94
504.69	127.94
504.907	124.94
505.123	119.94
505.34	128.94
505.557	119.94
505.773	134.94
505.99	122.94
506.207	115.94
506.423	127.94
506.64	122.94
506.856	109.94
507.073	119.94
507.289	124.94
507.506	99.94
507.722	126.94
507.939	114.94
508.155	130.94
508.372	111.94
508.588	123.94
508.805	125.94
509.021	99.94
509.238	118.94
509.454	104.94
509.67	100.94
509.887	99.94
510.103	103.94
510.319	108.94
510.536	82.94
510.752	85.94
510.968	91.94
