Data from Location4.07152019.Energy5.Lamp.07192019.3%Agarose_HRD10591_16-18-15-925.txt Node
Date: Fri Jul 19 16:18:15 EDT 2019
User: cochatt
Spectrometer: HR+D1059
Trigger mode: 1
Integration Time (sec): 1.000000E-1
Scans to average: 1
Electric dark correction enabled: true
Nonlinearity correction enabled: false
Boxcar width: 0
XAxis mode: Wavelengths
Number of Pixels in Spectrum: 2048
>>>>>Begin Spectral Data<<<<<
223.165	-21.88
223.4	-21.88
223.635	-21.88
223.869	-10.88
224.104	-14.88
224.338	-11.88
224.573	-20.88
224.808	-10.88
225.042	4.12
225.277	-11.88
225.511	-8.88
225.746	21.12
225.98	8.12
226.215	7.12
226.449	9.12
226.683	20.12
226.918	16.12
227.152	26.12
227.387	34.12
227.621	33.12
227.856	32.12
228.09	38.12
228.324	51.12
228.559	48.12
228.793	68.12
229.027	56.12
229.262	80.12
229.496	77.12
229.73	70.12
229.964	76.12
230.199	84.12
230.433	54.12
230.667	77.12
230.901	88.12
231.136	95.12
231.37	78.12
231.604	80.12
231.838	92.12
232.072	78.12
232.306	81.12
232.541	72.12
232.775	82.12
233.009	89.12
233.243	84.12
233.477	82.12
233.711	93.12
233.945	81.12
234.179	93.12
234.413	94.12
234.647	85.12
234.881	78.12
235.115	102.12
235.349	79.12
235.583	92.12
235.817	82.12
236.051	84.12
236.285	78.12
236.519	87.12
236.753	80.12
236.987	70.12
237.221	78.12
237.455	86.12
237.689	80.12
237.922	82.12
238.156	80.12
238.39	74.12
238.624	66.12
238.858	76.12
239.091	84.12
239.325	74.12
239.559	86.12
239.793	81.12
240.027	65.12
240.26	76.12
240.494	80.12
240.728	68.12
240.961	88.12
241.195	76.12
241.429	75.12
241.662	93.12
241.896	74.12
242.13	76.12
242.363	86.12
242.597	87.12
242.83	66.12
243.064	85.12
243.298	82.12
243.531	82.12
243.765	97.12
243.998	74.12
244.232	78.12
244.465	75.12
244.699	81.12
244.932	80.12
245.166	73.12
245.399	83.12
245.633	80.12
245.866	78.12
246.099	85.12
246.333	82.12
246.566	68.12
246.8	81.12
247.033	89.12
247.266	100.12
247.5	87.12
247.733	85.12
247.966	72.12
248.2	88.12
248.433	83.12
248.666	87.12
248.899	79.12
249.133	82.12
249.366	83.12
249.599	75.12
249.832	78.12
250.066	83.12
250.299	89.12
250.532	79.12
250.765	83.12
250.998	76.12
251.231	72.12
251.465	77.12
251.698	68.12
251.931	78.12
252.164	65.12
252.397	90.12
252.63	78.12
252.863	74.12
253.096	97.12
253.329	66.12
253.562	69.12
253.795	78.12
254.028	85.12
254.261	82.12
254.494	83.12
254.727	70.12
254.96	93.12
255.193	88.12
255.426	91.12
255.659	83.12
255.892	89.12
256.124	83.12
256.357	87.12
256.59	74.12
256.823	64.12
257.056	85.12
257.289	83.12
257.521	80.12
257.754	87.12
257.987	78.12
258.22	74.12
258.452	67.12
258.685	77.12
258.918	86.12
259.151	84.12
259.383	77.12
259.616	91.12
259.849	76.12
260.081	67.12
260.314	74.12
260.547	86.12
260.779	77.12
261.012	78.12
261.244	84.12
261.477	83.12
261.71	80.12
261.942	99.12
262.175	78.12
262.407	89.12
262.64	75.12
262.872	75.12
263.105	74.12
263.337	74.12
263.57	86.12
263.802	94.12
264.035	67.12
264.267	82.12
264.499	89.12
264.732	81.12
264.964	102.12
265.197	89.12
265.429	88.12
265.661	83.12
265.894	90.12
266.126	85.12
266.358	83.12
266.591	84.12
266.823	81.12
267.055	74.12
267.287	73.12
267.52	83.12
267.752	72.12
267.984	85.12
268.216	87.12
268.448	86.12
268.681	88.12
268.913	93.12
269.145	87.12
269.377	83.12
269.609	78.12
269.841	67.12
270.073	79.12
270.306	86.12
270.538	76.12
270.77	68.12
271.002	84.12
271.234	94.12
271.466	87.12
271.698	88.12
271.93	81.12
272.162	86.12
272.394	86.12
272.626	86.12
272.858	90.12
273.09	85.12
273.322	85.12
273.553	82.12
273.785	81.12
274.017	73.12
274.249	76.12
274.481	87.12
274.713	82.12
274.945	84.12
275.176	76.12
275.408	86.12
275.64	97.12
275.872	82.12
276.104	88.12
276.335	97.12
276.567	78.12
276.799	77.12
277.031	84.12
277.262	60.12
277.494	71.12
277.726	71.12
277.957	69.12
278.189	88.12
278.421	74.12
278.652	69.12
278.884	89.12
279.115	82.12
279.347	83.12
279.579	81.12
279.81	85.12
280.042	78.12
280.273	90.12
280.505	82.12
280.736	78.12
280.968	86.12
281.199	84.12
281.431	78.12
281.662	94.12
281.894	89.12
282.125	90.12
282.356	77.12
282.588	81.12
282.819	74.12
283.051	85.12
283.282	73.12
283.513	82.12
283.745	87.12
283.976	81.12
284.207	91.12
284.439	103.12
284.67	93.12
284.901	92.12
285.132	87.12
285.364	76.12
285.595	82.12
285.826	81.12
286.057	68.12
286.288	93.12
286.52	85.12
286.751	84.12
286.982	82.12
287.213	89.12
287.444	81.12
287.675	78.12
287.906	84.12
288.138	84.12
288.369	82.12
288.6	78.12
288.831	81.12
289.062	75.12
289.293	80.12
289.524	78.12
289.755	99.12
289.986	72.12
290.217	76.12
290.448	78.12
290.679	95.12
290.91	92.12
291.141	84.12
291.371	84.12
291.602	92.12
291.833	87.12
292.064	79.12
292.295	77.12
292.526	91.12
292.757	100.12
292.987	99.12
293.218	86.12
293.449	91.12
293.68	90.12
293.91	95.12
294.141	87.12
294.372	96.12
294.603	64.12
294.833	75.12
295.064	88.12
295.295	93.12
295.525	78.12
295.756	91.12
295.987	84.12
296.217	93.12
296.448	86.12
296.679	81.12
296.909	96.12
297.14	90.12
297.37	78.12
297.601	80.12
297.831	99.12
298.062	94.12
298.292	83.12
298.523	103.12
298.753	80.12
298.984	85.12
299.214	96.12
299.445	84.12
299.675	92.12
299.905	87.12
300.136	94.12
300.366	89.12
300.597	82.12
300.827	100.12
301.057	88.12
301.288	77.12
301.518	74.12
301.748	84.12
301.979	88.12
302.209	78.12
302.439	86.12
302.669	82.12
302.9	88.12
303.13	93.12
303.36	65.12
303.59	83.12
303.82	72.12
304.051	86.12
304.281	79.12
304.511	88.12
304.741	92.12
304.971	84.12
305.201	82.12
305.431	83.12
305.661	90.12
305.891	88.12
306.121	90.12
306.352	90.12
306.582	73.12
306.812	83.12
307.042	76.12
307.272	84.12
307.502	87.12
307.731	82.12
307.961	75.12
308.191	80.12
308.421	80.12
308.651	77.12
308.881	82.12
309.111	79.12
309.341	91.12
309.571	85.12
309.8	79.12
310.03	83.12
310.26	86.12
310.49	81.12
310.72	98.12
310.949	78.12
311.179	72.12
311.409	80.12
311.639	79.12
311.868	91.12
312.098	106.12
312.328	94.12
312.557	94.12
312.787	88.12
313.017	85.12
313.246	89.12
313.476	75.12
313.706	91.12
313.935	80.12
314.165	87.12
314.394	93.12
314.624	64.12
314.853	84.12
315.083	87.12
315.312	84.12
315.542	82.12
315.771	92.12
316.001	95.12
316.23	83.12
316.46	97.12
316.689	92.12
316.919	91.12
317.148	94.12
317.377	79.12
317.607	102.12
317.836	81.12
318.065	84.12
318.295	93.12
318.524	86.12
318.753	97.12
318.983	101.12
319.212	90.12
319.441	77.12
319.67	94.12
319.9	85.12
320.129	83.12
320.358	82.12
320.587	99.12
320.816	91.12
321.046	78.12
321.275	99.12
321.504	88.12
321.733	89.12
321.962	96.12
322.191	72.12
322.42	84.12
322.649	85.12
322.878	90.12
323.108	89.12
323.337	93.12
323.566	99.12
323.795	89.12
324.024	76.12
324.253	88.12
324.482	97.12
324.71	82.12
324.939	81.12
325.168	94.12
325.397	75.12
325.626	64.12
325.855	86.12
326.084	77.12
326.313	76.12
326.542	100.12
326.77	89.12
326.999	85.12
327.228	86.12
327.457	89.12
327.686	85.12
327.914	82.12
328.143	79.12
328.372	93.12
328.6	82.12
328.829	63.12
329.058	91.12
329.287	80.12
329.515	89.12
329.744	93.12
329.972	90.12
330.201	87.12
330.43	73.12
330.658	90.12
330.887	92.12
331.115	80.12
331.344	84.12
331.572	97.12
331.801	96.12
332.03	84.12
332.258	102.12
332.486	84.12
332.715	74.12
332.943	79.12
333.172	84.12
333.4	79.12
333.629	85.12
333.857	77.12
334.085	85.12
334.314	78.12
334.542	93.12
334.771	74.12
334.999	100.12
335.227	74.12
335.455	78.12
335.684	93.12
335.912	87.12
336.14	85.12
336.369	86.12
336.597	84.12
336.825	86.12
337.053	73.12
337.281	93.12
337.51	81.12
337.738	89.12
337.966	82.12
338.194	75.12
338.422	86.12
338.65	91.12
338.878	89.12
339.106	89.12
339.334	92.12
339.562	71.12
339.79	81.12
340.018	80.12
340.246	97.12
340.474	91.12
340.702	93.12
340.93	92.12
341.158	85.12
341.386	75.12
341.614	98.12
341.842	84.12
342.07	88.12
342.298	82.12
342.526	88.12
342.754	97.12
342.981	90.12
343.209	77.12
343.437	62.12
343.665	79.12
343.893	77.12
344.12	86.12
344.348	77.12
344.576	61.12
344.804	85.12
345.031	88.12
345.259	78.12
345.487	85.12
345.714	92.12
345.942	80.12
346.17	75.12
346.397	86.12
346.625	86.12
346.853	76.12
347.08	79.12
347.308	77.12
347.535	68.12
347.763	103.12
347.99	83.12
348.218	85.12
348.445	81.12
348.673	78.12
348.9	93.12
349.128	79.12
349.355	94.12
349.583	88.12
349.81	78.12
350.037	81.12
350.265	85.12
350.492	80.12
350.72	84.12
350.947	91.12
351.174	87.12
351.402	77.12
351.629	88.12
351.856	84.12
352.083	90.12
352.311	90.12
352.538	89.12
352.765	100.12
352.992	91.12
353.22	89.12
353.447	89.12
353.674	83.12
353.901	74.12
354.128	78.12
354.355	79.12
354.583	84.12
354.81	84.12
355.037	85.12
355.264	75.12
355.491	88.12
355.718	102.12
355.945	86.12
356.172	85.12
356.399	84.12
356.626	81.12
356.853	97.12
357.08	85.12
357.307	83.12
357.534	75.12
357.761	89.12
357.988	74.12
358.215	90.12
358.441	90.12
358.668	74.12
358.895	95.12
359.122	77.12
359.349	69.12
359.576	84.12
359.802	87.12
360.029	83.12
360.256	90.12
360.483	75.12
360.709	90.12
360.936	88.12
361.163	75.12
361.39	73.12
361.616	65.12
361.843	87.12
362.07	84.12
362.296	82.12
362.523	87.12
362.749	84.12
362.976	82.12
363.203	90.12
363.429	77.12
363.656	92.12
363.882	79.12
364.109	83.12
364.335	76.12
364.562	91.12
364.788	77.12
365.015	92.12
365.241	86.12
365.468	90.12
365.694	87.12
365.92	90.12
366.147	95.12
366.373	91.12
366.599	85.12
366.826	80.12
367.052	99.12
367.278	79.12
367.505	93.12
367.731	81.12
367.957	99.12
368.184	91.12
368.41	95.12
368.636	90.12
368.862	89.12
369.089	78.12
369.315	75.12
369.541	86.12
369.767	79.12
369.993	94.12
370.219	96.12
370.445	79.12
370.672	87.12
370.898	99.12
371.124	83.12
371.35	88.12
371.576	97.12
371.802	90.12
372.028	101.12
372.254	95.12
372.48	90.12
372.706	87.12
372.932	77.12
373.158	92.12
373.384	102.12
373.61	95.12
373.835	100.12
374.061	94.12
374.287	85.12
374.513	89.12
374.739	73.12
374.965	94.12
375.191	94.12
375.416	100.12
375.642	102.12
375.868	96.12
376.094	95.12
376.319	107.12
376.545	90.12
376.771	84.12
376.997	96.12
377.222	108.12
377.448	107.12
377.674	95.12
377.899	90.12
378.125	95.12
378.35	88.12
378.576	92.12
378.802	100.12
379.027	104.12
379.253	107.12
379.478	106.12
379.704	101.12
379.929	93.12
380.155	101.12
380.38	98.12
380.606	93.12
380.831	107.12
381.057	106.12
381.282	112.12
381.507	99.12
381.733	100.12
381.958	110.12
382.184	80.12
382.409	96.12
382.634	102.12
382.86	91.12
383.085	86.12
383.31	92.12
383.535	86.12
383.761	92.12
383.986	96.12
384.211	99.12
384.436	99.12
384.662	98.12
384.887	105.12
385.112	96.12
385.337	93.12
385.562	98.12
385.787	96.12
386.013	100.12
386.238	92.12
386.463	108.12
386.688	98.12
386.913	99.12
387.138	107.12
387.363	106.12
387.588	96.12
387.813	100.12
388.038	96.12
388.263	107.12
388.488	99.12
388.713	88.12
388.938	95.12
389.163	105.12
389.387	91.12
389.612	96.12
389.837	85.12
390.062	101.12
390.287	108.12
390.512	105.12
390.736	101.12
390.961	95.12
391.186	105.12
391.411	100.12
391.636	98.12
391.86	113.12
392.085	102.12
392.31	110.12
392.534	99.12
392.759	104.12
392.984	101.12
393.208	97.12
393.433	106.12
393.658	107.12
393.882	81.12
394.107	98.12
394.331	113.12
394.556	117.12
394.78	111.12
395.005	94.12
395.229	95.12
395.454	105.12
395.678	115.12
395.903	116.12
396.127	100.12
396.352	113.12
396.576	97.12
396.801	103.12
397.025	102.12
397.249	117.12
397.474	107.12
397.698	98.12
397.922	117.12
398.147	107.12
398.371	126.12
398.595	104.12
398.82	115.12
399.044	109.12
399.268	104.12
399.492	106.12
399.717	114.12
399.941	114.12
400.165	117.12
400.389	103.12
400.613	106.12
400.837	108.12
401.062	110.12
401.286	107.12
401.51	108.12
401.734	94.12
401.958	104.12
402.182	116.12
402.406	106.12
402.63	119.12
402.854	100.12
403.078	113.12
403.302	122.12
403.526	119.12
403.75	116.12
403.974	112.12
404.198	118.12
404.422	128.12
404.645	117.12
404.869	103.12
405.093	125.12
405.317	122.12
405.541	119.12
405.765	120.12
405.988	115.12
406.212	112.12
406.436	110.12
406.66	130.12
406.883	100.12
407.107	127.12
407.331	121.12
407.555	125.12
407.778	123.12
408.002	107.12
408.226	116.12
408.449	122.12
408.673	125.12
408.896	121.12
409.12	113.12
409.344	109.12
409.567	112.12
409.791	119.12
410.014	108.12
410.238	130.12
410.461	116.12
410.685	110.12
410.908	109.12
411.132	122.12
411.355	119.12
411.578	122.12
411.802	115.12
412.025	124.12
412.249	106.12
412.472	124.12
412.695	121.12
412.919	116.12
413.142	113.12
413.365	110.12
413.589	114.12
413.812	131.12
414.035	134.12
414.258	129.12
414.482	129.12
414.705	119.12
414.928	122.12
415.151	124.12
415.374	121.12
415.597	116.12
415.821	130.12
416.044	130.12
416.267	127.12
416.49	132.12
416.713	123.12
416.936	132.12
417.159	122.12
417.382	128.12
417.605	141.12
417.828	132.12
418.051	125.12
418.274	125.12
418.497	131.12
418.72	136.12
418.943	131.12
419.166	140.12
419.389	141.12
419.611	136.12
419.834	124.12
420.057	154.12
420.28	137.12
420.503	132.12
420.726	129.12
420.948	141.12
421.171	107.12
421.394	147.12
421.617	160.12
421.839	138.12
422.062	130.12
422.285	133.12
422.507	129.12
422.73	115.12
422.953	114.12
423.175	142.12
423.398	126.12
423.621	135.12
423.843	125.12
424.066	145.12
424.288	139.12
424.511	158.12
424.733	128.12
424.956	152.12
425.178	148.12
425.401	142.12
425.623	136.12
425.846	125.12
426.068	130.12
426.291	122.12
426.513	133.12
426.735	128.12
426.958	129.12
427.18	116.12
427.402	125.12
427.625	125.12
427.847	145.12
428.069	139.12
428.292	129.12
428.514	121.12
428.736	117.12
428.958	138.12
429.181	120.12
429.403	128.12
429.625	125.12
429.847	117.12
430.069	130.12
430.292	123.12
430.514	130.12
430.736	130.12
430.958	140.12
431.18	137.12
431.402	127.12
431.624	116.12
431.846	110.12
432.068	93.12
432.29	92.12
432.512	119.12
432.734	116.12
432.956	129.12
433.178	127.12
433.4	127.12
433.622	140.12
433.844	138.12
434.066	124.12
434.287	97.12
434.509	92.12
434.731	110.12
434.953	121.12
435.175	126.12
435.397	131.12
435.618	112.12
435.84	106.12
436.062	116.12
436.284	136.12
436.505	133.12
436.727	134.12
436.949	139.12
437.17	130.12
437.392	123.12
437.614	129.12
437.835	114.12
438.057	117.12
438.278	118.12
438.5	138.12
438.721	139.12
438.943	133.12
439.165	136.12
439.386	134.12
439.608	149.12
439.829	144.12
440.05	130.12
440.272	150.12
440.493	148.12
440.715	148.12
440.936	140.12
441.158	137.12
441.379	144.12
441.6	146.12
441.822	154.12
442.043	130.12
442.264	136.12
442.486	133.12
442.707	138.12
442.928	148.12
443.149	142.12
443.371	138.12
443.592	147.12
443.813	144.12
444.034	128.12
444.255	133.12
444.476	134.12
444.698	160.12
444.919	143.12
445.14	270.12
445.361	200.12
445.582	158.12
445.803	160.12
446.024	150.12
446.245	146.12
446.466	160.12
446.687	144.12
446.908	158.12
447.129	168.12
447.35	163.12
447.571	153.12
447.792	160.12
448.013	149.12
448.234	131.12
448.455	139.12
448.675	134.12
448.896	145.12
449.117	154.12
449.338	123.12
449.559	146.12
449.779	138.12
450	140.12
450.221	133.12
450.442	138.12
450.662	128.12
450.883	140.12
451.104	145.12
451.324	123.12
451.545	124.12
451.766	125.12
451.986	115.12
452.207	120.12
452.428	128.12
452.648	121.12
452.869	121.12
453.089	108.12
453.31	107.12
453.53	113.12
453.751	104.12
453.971	117.12
454.192	108.12
454.412	99.12
454.633	112.12
454.853	106.12
455.073	118.12
455.294	110.12
455.514	118.12
455.734	120.12
455.955	122.12
456.175	114.12
456.395	113.12
456.616	106.12
456.836	98.12
457.056	107.12
457.276	113.12
457.497	113.12
457.717	99.12
457.937	103.12
458.157	119.12
458.377	94.12
458.598	107.12
458.818	96.12
459.038	81.12
459.258	76.12
459.478	97.12
459.698	89.12
459.918	105.12
460.138	105.12
460.358	119.12
460.578	117.12
460.798	115.12
461.018	115.12
461.238	128.12
461.458	116.12
461.678	108.12
461.898	110.12
462.118	117.12
462.338	104.12
462.558	114.12
462.777	100.12
462.997	105.12
463.217	115.12
463.437	106.12
463.657	123.12
463.876	103.12
464.096	116.12
464.316	109.12
464.536	108.12
464.755	109.12
464.975	120.12
465.195	112.12
465.414	107.12
465.634	117.12
465.854	112.12
466.073	127.12
466.293	132.12
466.512	127.12
466.732	125.12
466.951	133.12
467.171	145.12
467.391	138.12
467.61	140.12
467.829	136.12
468.049	132.12
468.268	122.12
468.488	130.12
468.707	133.12
468.927	132.12
469.146	125.12
469.365	136.12
469.585	137.12
469.804	143.12
470.023	150.12
470.243	139.12
470.462	141.12
470.681	141.12
470.901	137.12
471.12	126.12
471.339	133.12
471.558	158.12
471.777	132.12
471.997	125.12
472.216	132.12
472.435	122.12
472.654	108.12
472.873	92.12
473.092	108.12
473.311	130.12
473.53	140.12
473.749	133.12
473.968	133.12
474.187	125.12
474.406	123.12
474.625	117.12
474.844	128.12
475.063	141.12
475.282	113.12
475.501	124.12
475.72	127.12
475.939	124.12
476.158	112.12
476.377	138.12
476.596	109.12
476.814	132.12
477.033	102.12
477.252	110.12
477.471	106.12
477.69	125.12
477.908	122.12
478.127	137.12
478.346	134.12
478.564	147.12
478.783	132.12
479.002	147.12
479.22	143.12
479.439	129.12
479.658	122.12
479.876	106.12
480.095	134.12
480.313	128.12
480.532	104.12
480.751	118.12
480.969	88.12
481.188	86.12
481.406	92.12
481.624	79.12
481.843	90.12
482.061	114.12
482.28	108.12
482.498	109.12
482.717	113.12
482.935	115.12
483.153	146.12
483.372	161.12
483.59	157.12
483.808	142.12
484.027	122.12
484.245	140.12
484.463	158.12
484.681	168.12
484.9	159.12
485.118	140.12
485.336	125.12
485.554	118.12
485.772	97.12
485.99	107.12
486.209	121.12
486.427	114.12
486.645	121.12
486.863	142.12
487.081	146.12
487.299	132.12
487.517	124.12
487.735	160.12
487.953	180.12
488.171	165.12
488.389	171.12
488.607	183.12
488.825	146.12
489.043	134.12
489.261	134.12
489.479	139.12
489.696	138.12
489.914	135.12
490.132	136.12
490.35	164.12
490.568	161.12
490.786	185.12
491.003	176.12
491.221	180.12
491.439	186.12
491.657	185.12
491.874	206.12
492.092	224.12
492.31	236.12
492.527	229.12
492.745	204.12
492.963	197.12
493.18	198.12
493.398	179.12
493.615	164.12
493.833	184.12
494.05	178.12
494.268	180.12
494.485	190.12
494.703	176.12
494.92	159.12
495.138	174.12
495.355	172.12
495.573	173.12
495.79	174.12
496.008	155.12
496.225	155.12
496.442	169.12
496.66	165.12
496.877	164.12
497.094	155.12
497.312	155.12
497.529	165.12
497.746	155.12
497.963	133.12
498.181	132.12
498.398	124.12
498.615	126.12
498.832	106.12
499.049	126.12
499.267	123.12
499.484	125.12
499.701	130.12
499.918	128.12
500.135	151.12
500.352	132.12
500.569	136.12
500.786	144.12
501.003	143.12
501.22	123.12
501.437	144.12
501.654	121.12
501.871	136.12
502.088	137.12
502.305	139.12
502.522	134.12
502.739	125.12
502.956	116.12
503.172	127.12
503.389	122.12
503.606	122.12
503.823	112.12
504.04	135.12
504.256	132.12
504.473	112.12
504.69	116.12
504.907	103.12
505.123	117.12
505.34	118.12
505.557	124.12
505.773	116.12
505.99	120.12
506.207	125.12
506.423	117.12
506.64	120.12
506.856	132.12
507.073	124.12
507.289	116.12
507.506	126.12
507.722	106.12
507.939	120.12
508.155	120.12
508.372	118.12
508.588	115.12
508.805	114.12
509.021	103.12
509.238	109.12
509.454	107.12
509.67	109.12
509.887	101.12
510.103	93.12
510.319	93.12
510.536	99.12
510.752	91.12
510.968	78.12
511.184	80.12
511.401	86.12
