Data from Location4.07152019.Energy5.Lamp.07192019.3%Agarose_HRD10591_16-21-20-926.txt Node
Date: Fri Jul 19 16:21:20 EDT 2019
User: cochatt
Spectrometer: HR+D1059
Trigger mode: 1
Integration Time (sec): 1.000000E-1
Scans to average: 1
Electric dark correction enabled: true
Nonlinearity correction enabled: false
Boxcar width: 0
XAxis mode: Wavelengths
Number of Pixels in Spectrum: 2048
>>>>>Begin Spectral Data<<<<<
223.165	-14.62
223.4	-14.62
223.635	-14.62
223.869	-16.62
224.104	-10.62
224.338	-16.62
224.573	-14.62
224.808	-27.62
225.042	-13.62
225.277	-5.62
225.511	-0.62
225.746	-14.62
225.98	15.38
226.215	16.38
226.449	23.38
226.683	28.38
226.918	17.38
227.152	34.38
227.387	28.38
227.621	28.38
227.856	27.38
228.09	39.38
228.324	53.38
228.559	78.38
228.793	56.38
229.027	64.38
229.262	74.38
229.496	64.38
229.73	50.38
229.964	73.38
230.199	70.38
230.433	73.38
230.667	74.38
230.901	59.38
231.136	69.38
231.37	59.38
231.604	78.38
231.838	94.38
232.072	60.38
232.306	67.38
232.541	75.38
232.775	73.38
233.009	78.38
233.243	84.38
233.477	81.38
233.711	86.38
233.945	81.38
234.179	79.38
234.413	74.38
234.647	84.38
234.881	85.38
235.115	87.38
235.349	72.38
235.583	85.38
235.817	67.38
236.051	62.38
236.285	85.38
236.519	85.38
236.753	70.38
236.987	60.38
237.221	82.38
237.455	72.38
237.689	75.38
237.922	69.38
238.156	71.38
238.39	74.38
238.624	81.38
238.858	66.38
239.091	65.38
239.325	72.38
239.559	85.38
239.793	81.38
240.027	86.38
240.26	76.38
240.494	63.38
240.728	74.38
240.961	53.38
241.195	67.38
241.429	74.38
241.662	81.38
241.896	80.38
242.13	73.38
242.363	87.38
242.597	61.38
242.83	87.38
243.064	67.38
243.298	83.38
243.531	90.38
243.765	75.38
243.998	67.38
244.232	70.38
244.465	81.38
244.699	69.38
244.932	72.38
245.166	77.38
245.399	80.38
245.633	78.38
245.866	69.38
246.099	72.38
246.333	79.38
246.566	73.38
246.8	70.38
247.033	65.38
247.266	80.38
247.5	70.38
247.733	71.38
247.966	68.38
248.2	84.38
248.433	82.38
248.666	77.38
248.899	74.38
249.133	81.38
249.366	80.38
249.599	73.38
249.832	82.38
250.066	74.38
250.299	72.38
250.532	76.38
250.765	73.38
250.998	70.38
251.231	68.38
251.465	87.38
251.698	72.38
251.931	73.38
252.164	89.38
252.397	73.38
252.63	69.38
252.863	81.38
253.096	83.38
253.329	76.38
253.562	83.38
253.795	85.38
254.028	101.38
254.261	78.38
254.494	70.38
254.727	72.38
254.96	70.38
255.193	69.38
255.426	77.38
255.659	73.38
255.892	77.38
256.124	86.38
256.357	88.38
256.59	69.38
256.823	92.38
257.056	64.38
257.289	72.38
257.521	72.38
257.754	83.38
257.987	72.38
258.22	77.38
258.452	61.38
258.685	82.38
258.918	73.38
259.151	71.38
259.383	78.38
259.616	70.38
259.849	68.38
260.081	77.38
260.314	88.38
260.547	70.38
260.779	78.38
261.012	88.38
261.244	74.38
261.477	76.38
261.71	71.38
261.942	74.38
262.175	76.38
262.407	76.38
262.64	83.38
262.872	71.38
263.105	75.38
263.337	77.38
263.57	73.38
263.802	79.38
264.035	62.38
264.267	89.38
264.499	63.38
264.732	85.38
264.964	76.38
265.197	79.38
265.429	71.38
265.661	93.38
265.894	80.38
266.126	72.38
266.358	89.38
266.591	74.38
266.823	78.38
267.055	75.38
267.287	87.38
267.52	79.38
267.752	60.38
267.984	72.38
268.216	87.38
268.448	84.38
268.681	71.38
268.913	69.38
269.145	82.38
269.377	87.38
269.609	93.38
269.841	71.38
270.073	73.38
270.306	79.38
270.538	72.38
270.77	96.38
271.002	86.38
271.234	78.38
271.466	95.38
271.698	63.38
271.93	74.38
272.162	74.38
272.394	80.38
272.626	85.38
272.858	99.38
273.09	88.38
273.322	74.38
273.553	78.38
273.785	76.38
274.017	91.38
274.249	69.38
274.481	71.38
274.713	68.38
274.945	76.38
275.176	70.38
275.408	70.38
275.64	81.38
275.872	68.38
276.104	85.38
276.335	77.38
276.567	74.38
276.799	83.38
277.031	80.38
277.262	85.38
277.494	78.38
277.726	82.38
277.957	73.38
278.189	81.38
278.421	84.38
278.652	82.38
278.884	80.38
279.115	73.38
279.347	75.38
279.579	78.38
279.81	79.38
280.042	77.38
280.273	66.38
280.505	76.38
280.736	69.38
280.968	94.38
281.199	81.38
281.431	79.38
281.662	81.38
281.894	89.38
282.125	88.38
282.356	81.38
282.588	76.38
282.819	80.38
283.051	57.38
283.282	79.38
283.513	68.38
283.745	67.38
283.976	77.38
284.207	80.38
284.439	76.38
284.67	97.38
284.901	83.38
285.132	92.38
285.364	86.38
285.595	79.38
285.826	74.38
286.057	84.38
286.288	81.38
286.52	97.38
286.751	83.38
286.982	85.38
287.213	78.38
287.444	74.38
287.675	77.38
287.906	100.38
288.138	79.38
288.369	84.38
288.6	76.38
288.831	86.38
289.062	97.38
289.293	80.38
289.524	74.38
289.755	80.38
289.986	84.38
290.217	78.38
290.448	77.38
290.679	73.38
290.91	84.38
291.141	82.38
291.371	78.38
291.602	92.38
291.833	70.38
292.064	82.38
292.295	80.38
292.526	79.38
292.757	81.38
292.987	84.38
293.218	83.38
293.449	87.38
293.68	80.38
293.91	79.38
294.141	62.38
294.372	74.38
294.603	69.38
294.833	85.38
295.064	74.38
295.295	86.38
295.525	86.38
295.756	80.38
295.987	75.38
296.217	90.38
296.448	76.38
296.679	86.38
296.909	80.38
297.14	83.38
297.37	80.38
297.601	70.38
297.831	85.38
298.062	85.38
298.292	87.38
298.523	85.38
298.753	75.38
298.984	78.38
299.214	87.38
299.445	89.38
299.675	83.38
299.905	91.38
300.136	91.38
300.366	81.38
300.597	83.38
300.827	75.38
301.057	83.38
301.288	66.38
301.518	77.38
301.748	79.38
301.979	74.38
302.209	83.38
302.439	72.38
302.669	81.38
302.9	79.38
303.13	73.38
303.36	80.38
303.59	68.38
303.82	85.38
304.051	72.38
304.281	80.38
304.511	75.38
304.741	84.38
304.971	79.38
305.201	93.38
305.431	90.38
305.661	83.38
305.891	76.38
306.121	76.38
306.352	95.38
306.582	82.38
306.812	84.38
307.042	88.38
307.272	89.38
307.502	85.38
307.731	88.38
307.961	77.38
308.191	75.38
308.421	93.38
308.651	86.38
308.881	79.38
309.111	74.38
309.341	82.38
309.571	83.38
309.8	78.38
310.03	87.38
310.26	75.38
310.49	71.38
310.72	85.38
310.949	85.38
311.179	92.38
311.409	73.38
311.639	87.38
311.868	87.38
312.098	86.38
312.328	81.38
312.557	89.38
312.787	85.38
313.017	72.38
313.246	84.38
313.476	73.38
313.706	73.38
313.935	70.38
314.165	74.38
314.394	82.38
314.624	77.38
314.853	80.38
315.083	76.38
315.312	82.38
315.542	87.38
315.771	86.38
316.001	88.38
316.23	81.38
316.46	68.38
316.689	74.38
316.919	85.38
317.148	87.38
317.377	84.38
317.607	84.38
317.836	78.38
318.065	85.38
318.295	77.38
318.524	82.38
318.753	78.38
318.983	71.38
319.212	81.38
319.441	82.38
319.67	77.38
319.9	78.38
320.129	69.38
320.358	66.38
320.587	88.38
320.816	72.38
321.046	79.38
321.275	96.38
321.504	81.38
321.733	80.38
321.962	89.38
322.191	89.38
322.42	75.38
322.649	76.38
322.878	67.38
323.108	83.38
323.337	80.38
323.566	72.38
323.795	86.38
324.024	70.38
324.253	66.38
324.482	97.38
324.71	73.38
324.939	90.38
325.168	73.38
325.397	73.38
325.626	78.38
325.855	84.38
326.084	83.38
326.313	69.38
326.542	71.38
326.77	81.38
326.999	84.38
327.228	88.38
327.457	89.38
327.686	88.38
327.914	81.38
328.143	81.38
328.372	90.38
328.6	82.38
328.829	87.38
329.058	88.38
329.287	83.38
329.515	72.38
329.744	98.38
329.972	85.38
330.201	72.38
330.43	86.38
330.658	54.38
330.887	79.38
331.115	82.38
331.344	88.38
331.572	88.38
331.801	78.38
332.03	96.38
332.258	80.38
332.486	81.38
332.715	71.38
332.943	73.38
333.172	69.38
333.4	84.38
333.629	78.38
333.857	76.38
334.085	75.38
334.314	63.38
334.542	88.38
334.771	88.38
334.999	81.38
335.227	81.38
335.455	65.38
335.684	80.38
335.912	76.38
336.14	79.38
336.369	81.38
336.597	78.38
336.825	80.38
337.053	78.38
337.281	69.38
337.51	81.38
337.738	79.38
337.966	80.38
338.194	73.38
338.422	74.38
338.65	103.38
338.878	84.38
339.106	88.38
339.334	80.38
339.562	89.38
339.79	65.38
340.018	80.38
340.246	87.38
340.474	87.38
340.702	76.38
340.93	77.38
341.158	66.38
341.386	83.38
341.614	78.38
341.842	79.38
342.07	74.38
342.298	69.38
342.526	86.38
342.754	82.38
342.981	77.38
343.209	81.38
343.437	90.38
343.665	86.38
343.893	84.38
344.12	79.38
344.348	77.38
344.576	84.38
344.804	83.38
345.031	71.38
345.259	68.38
345.487	74.38
345.714	92.38
345.942	70.38
346.17	68.38
346.397	74.38
346.625	72.38
346.853	77.38
347.08	80.38
347.308	73.38
347.535	81.38
347.763	76.38
347.99	86.38
348.218	85.38
348.445	79.38
348.673	86.38
348.9	84.38
349.128	85.38
349.355	72.38
349.583	80.38
349.81	78.38
350.037	91.38
350.265	70.38
350.492	87.38
350.72	88.38
350.947	82.38
351.174	90.38
351.402	82.38
351.629	78.38
351.856	91.38
352.083	75.38
352.311	75.38
352.538	86.38
352.765	75.38
352.992	76.38
353.22	93.38
353.447	77.38
353.674	90.38
353.901	76.38
354.128	92.38
354.355	81.38
354.583	88.38
354.81	70.38
355.037	85.38
355.264	76.38
355.491	78.38
355.718	78.38
355.945	80.38
356.172	80.38
356.399	90.38
356.626	81.38
356.853	73.38
357.08	93.38
357.307	68.38
357.534	70.38
357.761	83.38
357.988	76.38
358.215	85.38
358.441	96.38
358.668	82.38
358.895	72.38
359.122	66.38
359.349	90.38
359.576	86.38
359.802	65.38
360.029	75.38
360.256	83.38
360.483	81.38
360.709	92.38
360.936	88.38
361.163	96.38
361.39	76.38
361.616	77.38
361.843	83.38
362.07	86.38
362.296	85.38
362.523	89.38
362.749	94.38
362.976	86.38
363.203	97.38
363.429	77.38
363.656	82.38
363.882	95.38
364.109	79.38
364.335	86.38
364.562	80.38
364.788	75.38
365.015	81.38
365.241	71.38
365.468	90.38
365.694	82.38
365.92	77.38
366.147	81.38
366.373	81.38
366.599	78.38
366.826	72.38
367.052	69.38
367.278	80.38
367.505	78.38
367.731	79.38
367.957	78.38
368.184	86.38
368.41	68.38
368.636	95.38
368.862	103.38
369.089	88.38
369.315	77.38
369.541	81.38
369.767	80.38
369.993	74.38
370.219	90.38
370.445	81.38
370.672	89.38
370.898	81.38
371.124	84.38
371.35	81.38
371.576	83.38
371.802	80.38
372.028	93.38
372.254	87.38
372.48	96.38
372.706	87.38
372.932	87.38
373.158	93.38
373.384	88.38
373.61	70.38
373.835	78.38
374.061	90.38
374.287	93.38
374.513	89.38
374.739	87.38
374.965	96.38
375.191	81.38
375.416	96.38
375.642	86.38
375.868	93.38
376.094	80.38
376.319	81.38
376.545	84.38
376.771	84.38
376.997	77.38
377.222	84.38
377.448	87.38
377.674	74.38
377.899	86.38
378.125	96.38
378.35	81.38
378.576	91.38
378.802	72.38
379.027	85.38
379.253	102.38
379.478	79.38
379.704	93.38
379.929	90.38
380.155	95.38
380.38	96.38
380.606	88.38
380.831	93.38
381.057	99.38
381.282	80.38
381.507	88.38
381.733	91.38
381.958	88.38
382.184	93.38
382.409	88.38
382.634	82.38
382.86	92.38
383.085	97.38
383.31	100.38
383.535	112.38
383.761	98.38
383.986	92.38
384.211	92.38
384.436	89.38
384.662	97.38
384.887	89.38
385.112	93.38
385.337	84.38
385.562	108.38
385.787	96.38
386.013	88.38
386.238	109.38
386.463	81.38
386.688	90.38
386.913	94.38
387.138	97.38
387.363	117.38
387.588	95.38
387.813	104.38
388.038	87.38
388.263	117.38
388.488	80.38
388.713	94.38
388.938	105.38
389.163	77.38
389.387	87.38
389.612	114.38
389.837	79.38
390.062	100.38
390.287	101.38
390.512	102.38
390.736	91.38
390.961	90.38
391.186	99.38
391.411	98.38
391.636	95.38
391.86	108.38
392.085	103.38
392.31	108.38
392.534	98.38
392.759	88.38
392.984	99.38
393.208	92.38
393.433	89.38
393.658	95.38
393.882	95.38
394.107	94.38
394.331	92.38
394.556	89.38
394.78	114.38
395.005	99.38
395.229	97.38
395.454	88.38
395.678	101.38
395.903	93.38
396.127	99.38
396.352	100.38
396.576	103.38
396.801	105.38
397.025	109.38
397.249	112.38
397.474	107.38
397.698	106.38
397.922	101.38
398.147	104.38
398.371	117.38
398.595	109.38
398.82	100.38
399.044	108.38
399.268	117.38
399.492	103.38
399.717	112.38
399.941	103.38
400.165	96.38
400.389	120.38
400.613	101.38
400.837	96.38
401.062	125.38
401.286	118.38
401.51	112.38
401.734	111.38
401.958	114.38
402.182	106.38
402.406	108.38
402.63	114.38
402.854	118.38
403.078	113.38
403.302	110.38
403.526	124.38
403.75	101.38
403.974	114.38
404.198	108.38
404.422	93.38
404.645	98.38
404.869	109.38
405.093	124.38
405.317	101.38
405.541	113.38
405.765	110.38
405.988	93.38
406.212	120.38
406.436	113.38
406.66	113.38
406.883	119.38
407.107	123.38
407.331	114.38
407.555	118.38
407.778	118.38
408.002	116.38
408.226	110.38
408.449	101.38
408.673	110.38
408.896	115.38
409.12	121.38
409.344	109.38
409.567	120.38
409.791	108.38
410.014	107.38
410.238	122.38
410.461	119.38
410.685	116.38
410.908	111.38
411.132	112.38
411.355	120.38
411.578	117.38
411.802	113.38
412.025	115.38
412.249	112.38
412.472	111.38
412.695	113.38
412.919	119.38
413.142	118.38
413.365	125.38
413.589	97.38
413.812	106.38
414.035	118.38
414.258	111.38
414.482	108.38
414.705	114.38
414.928	109.38
415.151	118.38
415.374	120.38
415.597	123.38
415.821	132.38
416.044	132.38
416.267	127.38
416.49	120.38
416.713	128.38
416.936	120.38
417.159	125.38
417.382	108.38
417.605	126.38
417.828	122.38
418.051	109.38
418.274	122.38
418.497	117.38
418.72	122.38
418.943	140.38
419.166	131.38
419.389	136.38
419.611	126.38
419.834	129.38
420.057	121.38
420.28	137.38
420.503	122.38
420.726	135.38
420.948	126.38
421.171	124.38
421.394	127.38
421.617	136.38
421.839	136.38
422.062	126.38
422.285	139.38
422.507	124.38
422.73	119.38
422.953	121.38
423.175	120.38
423.398	129.38
423.621	118.38
423.843	119.38
424.066	140.38
424.288	136.38
424.511	130.38
424.733	119.38
424.956	138.38
425.178	125.38
425.401	121.38
425.623	131.38
425.846	130.38
426.068	121.38
426.291	122.38
426.513	133.38
426.735	127.38
426.958	121.38
427.18	116.38
427.402	127.38
427.625	115.38
427.847	120.38
428.069	123.38
428.292	119.38
428.514	129.38
428.736	120.38
428.958	129.38
429.181	124.38
429.403	130.38
429.625	106.38
429.847	130.38
430.069	129.38
430.292	124.38
430.514	131.38
430.736	121.38
430.958	117.38
431.18	133.38
431.402	109.38
431.624	118.38
431.846	110.38
432.068	98.38
432.29	96.38
432.512	120.38
432.734	109.38
432.956	120.38
433.178	128.38
433.4	137.38
433.622	127.38
433.844	125.38
434.066	110.38
434.287	109.38
434.509	89.38
434.731	89.38
434.953	124.38
435.175	110.38
435.397	117.38
435.618	122.38
435.84	113.38
436.062	99.38
436.284	111.38
436.505	101.38
436.727	116.38
436.949	110.38
437.17	117.38
437.392	121.38
437.614	126.38
437.835	96.38
438.057	98.38
438.278	109.38
438.5	118.38
438.721	122.38
438.943	136.38
439.165	121.38
439.386	146.38
439.608	135.38
439.829	121.38
440.05	137.38
440.272	134.38
440.493	134.38
440.715	147.38
440.936	134.38
441.158	142.38
441.379	123.38
441.6	141.38
441.822	145.38
442.043	128.38
442.264	124.38
442.486	126.38
442.707	143.38
442.928	126.38
443.149	135.38
443.371	155.38
443.592	148.38
443.813	138.38
444.034	119.38
444.255	132.38
444.476	134.38
444.698	130.38
444.919	138.38
445.14	246.38
445.361	196.38
445.582	137.38
445.803	137.38
446.024	146.38
446.245	149.38
446.466	150.38
446.687	138.38
446.908	144.38
447.129	150.38
447.35	153.38
447.571	139.38
447.792	143.38
448.013	151.38
448.234	137.38
448.455	152.38
448.675	136.38
448.896	134.38
449.117	137.38
449.338	157.38
449.559	150.38
449.779	140.38
450	131.38
450.221	126.38
450.442	130.38
450.662	124.38
450.883	148.38
451.104	126.38
451.324	139.38
451.545	121.38
451.766	137.38
451.986	119.38
452.207	127.38
452.428	131.38
452.648	129.38
452.869	105.38
453.089	105.38
453.31	121.38
453.53	98.38
453.751	112.38
453.971	99.38
454.192	107.38
454.412	112.38
454.633	110.38
454.853	120.38
455.073	117.38
455.294	127.38
455.514	117.38
455.734	119.38
455.955	99.38
456.175	115.38
456.395	105.38
456.616	100.38
456.836	104.38
457.056	102.38
457.276	105.38
457.497	101.38
457.717	101.38
457.937	101.38
458.157	109.38
458.377	88.38
458.598	89.38
458.818	94.38
459.038	103.38
459.258	90.38
459.478	101.38
459.698	103.38
459.918	92.38
460.138	116.38
460.358	100.38
460.578	121.38
460.798	115.38
461.018	110.38
461.238	106.38
461.458	111.38
461.678	110.38
461.898	90.38
462.118	117.38
462.338	109.38
462.558	109.38
462.777	105.38
462.997	106.38
463.217	97.38
463.437	102.38
463.657	95.38
463.876	116.38
464.096	102.38
464.316	93.38
464.536	105.38
464.755	118.38
464.975	100.38
465.195	118.38
465.414	119.38
465.634	104.38
465.854	121.38
466.073	110.38
466.293	116.38
466.512	118.38
466.732	117.38
466.951	138.38
467.171	118.38
467.391	144.38
467.61	127.38
467.829	137.38
468.049	133.38
468.268	124.38
468.488	137.38
468.707	126.38
468.927	130.38
469.146	148.38
469.365	133.38
469.585	146.38
469.804	120.38
470.023	124.38
470.243	136.38
470.462	142.38
470.681	140.38
470.901	137.38
471.12	131.38
471.339	143.38
471.558	137.38
471.777	140.38
471.997	132.38
472.216	121.38
472.435	111.38
472.654	97.38
472.873	110.38
473.092	112.38
473.311	126.38
473.53	112.38
473.749	124.38
473.968	144.38
474.187	107.38
474.406	95.38
474.625	120.38
474.844	124.38
475.063	129.38
475.282	121.38
475.501	136.38
475.72	116.38
475.939	128.38
476.158	120.38
476.377	121.38
476.596	118.38
476.814	109.38
477.033	104.38
477.252	95.38
477.471	136.38
477.69	144.38
477.908	133.38
478.127	142.38
478.346	132.38
478.564	129.38
478.783	130.38
479.002	125.38
479.22	137.38
479.439	138.38
479.658	106.38
479.876	110.38
480.095	95.38
480.313	116.38
480.532	122.38
480.751	104.38
480.969	98.38
481.188	87.38
481.406	98.38
481.624	90.38
481.843	88.38
482.061	106.38
482.28	119.38
482.498	118.38
482.717	112.38
482.935	126.38
483.153	139.38
483.372	147.38
483.59	137.38
483.808	132.38
484.027	112.38
484.245	145.38
484.463	148.38
484.681	163.38
484.9	152.38
485.118	134.38
485.336	128.38
485.554	110.38
485.772	92.38
485.99	98.38
486.209	103.38
486.427	114.38
486.645	124.38
486.863	130.38
487.081	132.38
487.299	134.38
487.517	128.38
487.735	152.38
487.953	163.38
488.171	163.38
488.389	169.38
488.607	147.38
488.825	141.38
489.043	135.38
489.261	138.38
489.479	125.38
489.696	135.38
489.914	142.38
490.132	146.38
490.35	150.38
490.568	162.38
490.786	162.38
491.003	189.38
491.221	150.38
491.439	180.38
491.657	177.38
491.874	198.38
492.092	217.38
492.31	224.38
492.527	219.38
492.745	206.38
492.963	192.38
493.18	181.38
493.398	179.38
493.615	172.38
493.833	175.38
494.05	177.38
494.268	173.38
494.485	153.38
494.703	164.38
494.92	160.38
495.138	158.38
495.355	169.38
495.573	170.38
495.79	135.38
496.008	162.38
496.225	153.38
496.442	170.38
496.66	157.38
496.877	162.38
497.094	152.38
497.312	150.38
497.529	156.38
497.746	148.38
497.963	153.38
498.181	129.38
498.398	109.38
498.615	121.38
498.832	117.38
499.049	113.38
499.267	127.38
499.484	139.38
499.701	121.38
499.918	154.38
500.135	127.38
500.352	137.38
500.569	136.38
500.786	132.38
501.003	136.38
501.22	140.38
501.437	117.38
501.654	135.38
501.871	118.38
502.088	128.38
502.305	130.38
502.522	118.38
502.739	124.38
502.956	122.38
503.172	127.38
503.389	108.38
503.606	116.38
503.823	112.38
504.04	113.38
504.256	120.38
504.473	116.38
504.69	116.38
504.907	119.38
505.123	127.38
505.34	111.38
505.557	120.38
505.773	119.38
505.99	112.38
506.207	117.38
506.423	119.38
506.64	114.38
506.856	112.38
507.073	119.38
507.289	105.38
507.506	132.38
507.722	102.38
507.939	102.38
508.155	112.38
508.372	124.38
508.588	119.38
508.805	113.38
509.021	99.38
509.238	88.38
509.454	92.38
509.67	100.38
509.887	82.38
510.103	114.38
510.319	91.38
510.536	82.38
510.752	99.38
510.968	83.38
511.184	84.38
511.401	77.38
511.617	100.38
511.833	103.38
512.049	103.38
512.265	101.38
