Data from Location4.07152019.Energy5.Lamp.07192019.3%Agarose_HRD10591_16-20-30-925.txt Node
Date: Fri Jul 19 16:20:30 EDT 2019
User: cochatt
Spectrometer: HR+D1059
Trigger mode: 1
Integration Time (sec): 1.000000E-1
Scans to average: 1
Electric dark correction enabled: true
Nonlinearity correction enabled: false
Boxcar width: 0
XAxis mode: Wavelengths
Number of Pixels in Spectrum: 2048
>>>>>Begin Spectral Data<<<<<
223.165	-15.62
223.4	-15.62
223.635	-15.62
223.869	-15.62
224.104	-8.62
224.338	-9.62
224.573	-6.62
224.808	0.38
225.042	-10.62
225.277	-2.62
225.511	0.38
225.746	-18.62
225.98	5.38
226.215	16.38
226.449	18.38
226.683	10.38
226.918	14.38
227.152	22.38
227.387	32.38
227.621	54.38
227.856	43.38
228.09	59.38
228.324	60.38
228.559	64.38
228.793	66.38
229.027	66.38
229.262	68.38
229.496	52.38
229.73	64.38
229.964	75.38
230.199	90.38
230.433	84.38
230.667	80.38
230.901	81.38
231.136	86.38
231.37	79.38
231.604	87.38
231.838	83.38
232.072	92.38
232.306	97.38
232.541	87.38
232.775	99.38
233.009	80.38
233.243	82.38
233.477	90.38
233.711	83.38
233.945	97.38
234.179	81.38
234.413	85.38
234.647	87.38
234.881	80.38
235.115	89.38
235.349	83.38
235.583	76.38
235.817	82.38
236.051	87.38
236.285	83.38
236.519	76.38
236.753	80.38
236.987	78.38
237.221	71.38
237.455	85.38
237.689	83.38
237.922	71.38
238.156	76.38
238.39	78.38
238.624	81.38
238.858	77.38
239.091	73.38
239.325	72.38
239.559	88.38
239.793	96.38
240.027	84.38
240.26	88.38
240.494	80.38
240.728	75.38
240.961	73.38
241.195	72.38
241.429	92.38
241.662	80.38
241.896	78.38
242.13	84.38
242.363	89.38
242.597	76.38
242.83	87.38
243.064	91.38
243.298	76.38
243.531	90.38
243.765	85.38
243.998	85.38
244.232	86.38
244.465	79.38
244.699	90.38
244.932	75.38
245.166	83.38
245.399	82.38
245.633	76.38
245.866	81.38
246.099	86.38
246.333	87.38
246.566	83.38
246.8	89.38
247.033	76.38
247.266	79.38
247.5	79.38
247.733	66.38
247.966	86.38
248.2	78.38
248.433	92.38
248.666	67.38
248.899	81.38
249.133	95.38
249.366	89.38
249.599	80.38
249.832	75.38
250.066	74.38
250.299	69.38
250.532	86.38
250.765	94.38
250.998	90.38
251.231	82.38
251.465	77.38
251.698	80.38
251.931	81.38
252.164	89.38
252.397	76.38
252.63	85.38
252.863	71.38
253.096	83.38
253.329	96.38
253.562	78.38
253.795	75.38
254.028	98.38
254.261	89.38
254.494	76.38
254.727	92.38
254.96	80.38
255.193	79.38
255.426	105.38
255.659	83.38
255.892	96.38
256.124	80.38
256.357	89.38
256.59	79.38
256.823	89.38
257.056	83.38
257.289	77.38
257.521	86.38
257.754	81.38
257.987	88.38
258.22	77.38
258.452	74.38
258.685	80.38
258.918	87.38
259.151	77.38
259.383	78.38
259.616	86.38
259.849	82.38
260.081	77.38
260.314	79.38
260.547	73.38
260.779	86.38
261.012	94.38
261.244	77.38
261.477	103.38
261.71	89.38
261.942	86.38
262.175	86.38
262.407	75.38
262.64	83.38
262.872	92.38
263.105	81.38
263.337	89.38
263.57	84.38
263.802	83.38
264.035	71.38
264.267	81.38
264.499	98.38
264.732	91.38
264.964	77.38
265.197	92.38
265.429	91.38
265.661	90.38
265.894	80.38
266.126	96.38
266.358	81.38
266.591	71.38
266.823	85.38
267.055	91.38
267.287	90.38
267.52	86.38
267.752	66.38
267.984	77.38
268.216	87.38
268.448	88.38
268.681	86.38
268.913	92.38
269.145	94.38
269.377	98.38
269.609	79.38
269.841	89.38
270.073	77.38
270.306	92.38
270.538	66.38
270.77	86.38
271.002	91.38
271.234	77.38
271.466	94.38
271.698	84.38
271.93	87.38
272.162	81.38
272.394	95.38
272.626	85.38
272.858	86.38
273.09	84.38
273.322	88.38
273.553	95.38
273.785	93.38
274.017	81.38
274.249	86.38
274.481	89.38
274.713	79.38
274.945	93.38
275.176	88.38
275.408	86.38
275.64	88.38
275.872	84.38
276.104	84.38
276.335	91.38
276.567	76.38
276.799	100.38
277.031	94.38
277.262	105.38
277.494	76.38
277.726	88.38
277.957	86.38
278.189	91.38
278.421	90.38
278.652	84.38
278.884	87.38
279.115	83.38
279.347	76.38
279.579	85.38
279.81	93.38
280.042	85.38
280.273	91.38
280.505	102.38
280.736	93.38
280.968	94.38
281.199	84.38
281.431	82.38
281.662	79.38
281.894	95.38
282.125	90.38
282.356	91.38
282.588	91.38
282.819	80.38
283.051	86.38
283.282	102.38
283.513	105.38
283.745	88.38
283.976	88.38
284.207	92.38
284.439	85.38
284.67	81.38
284.901	76.38
285.132	101.38
285.364	92.38
285.595	82.38
285.826	82.38
286.057	88.38
286.288	98.38
286.52	96.38
286.751	78.38
286.982	85.38
287.213	77.38
287.444	101.38
287.675	86.38
287.906	102.38
288.138	82.38
288.369	76.38
288.6	93.38
288.831	94.38
289.062	80.38
289.293	80.38
289.524	79.38
289.755	90.38
289.986	82.38
290.217	94.38
290.448	83.38
290.679	88.38
290.91	99.38
291.141	88.38
291.371	106.38
291.602	86.38
291.833	84.38
292.064	82.38
292.295	83.38
292.526	81.38
292.757	86.38
292.987	88.38
293.218	83.38
293.449	89.38
293.68	80.38
293.91	101.38
294.141	103.38
294.372	87.38
294.603	86.38
294.833	108.38
295.064	81.38
295.295	86.38
295.525	95.38
295.756	97.38
295.987	81.38
296.217	77.38
296.448	89.38
296.679	103.38
296.909	88.38
297.14	97.38
297.37	89.38
297.601	90.38
297.831	99.38
298.062	73.38
298.292	79.38
298.523	97.38
298.753	101.38
298.984	111.38
299.214	93.38
299.445	92.38
299.675	88.38
299.905	103.38
300.136	90.38
300.366	89.38
300.597	105.38
300.827	102.38
301.057	82.38
301.288	94.38
301.518	91.38
301.748	105.38
301.979	90.38
302.209	100.38
302.439	86.38
302.669	87.38
302.9	104.38
303.13	94.38
303.36	86.38
303.59	94.38
303.82	90.38
304.051	98.38
304.281	91.38
304.511	79.38
304.741	89.38
304.971	97.38
305.201	109.38
305.431	88.38
305.661	86.38
305.891	82.38
306.121	100.38
306.352	99.38
306.582	96.38
306.812	85.38
307.042	87.38
307.272	86.38
307.502	102.38
307.731	90.38
307.961	95.38
308.191	104.38
308.421	82.38
308.651	92.38
308.881	78.38
309.111	83.38
309.341	96.38
309.571	92.38
309.8	96.38
310.03	92.38
310.26	73.38
310.49	83.38
310.72	85.38
310.949	80.38
311.179	94.38
311.409	79.38
311.639	93.38
311.868	89.38
312.098	74.38
312.328	75.38
312.557	92.38
312.787	81.38
313.017	107.38
313.246	85.38
313.476	110.38
313.706	91.38
313.935	87.38
314.165	81.38
314.394	83.38
314.624	76.38
314.853	88.38
315.083	87.38
315.312	91.38
315.542	88.38
315.771	88.38
316.001	85.38
316.23	85.38
316.46	77.38
316.689	88.38
316.919	90.38
317.148	90.38
317.377	94.38
317.607	93.38
317.836	96.38
318.065	92.38
318.295	89.38
318.524	97.38
318.753	87.38
318.983	93.38
319.212	100.38
319.441	94.38
319.67	94.38
319.9	95.38
320.129	88.38
320.358	84.38
320.587	86.38
320.816	82.38
321.046	81.38
321.275	89.38
321.504	93.38
321.733	88.38
321.962	97.38
322.191	94.38
322.42	81.38
322.649	90.38
322.878	97.38
323.108	93.38
323.337	92.38
323.566	98.38
323.795	85.38
324.024	96.38
324.253	87.38
324.482	96.38
324.71	87.38
324.939	83.38
325.168	90.38
325.397	105.38
325.626	81.38
325.855	92.38
326.084	107.38
326.313	92.38
326.542	89.38
326.77	86.38
326.999	99.38
327.228	96.38
327.457	81.38
327.686	78.38
327.914	96.38
328.143	94.38
328.372	100.38
328.6	93.38
328.829	77.38
329.058	89.38
329.287	87.38
329.515	74.38
329.744	85.38
329.972	85.38
330.201	91.38
330.43	87.38
330.658	82.38
330.887	87.38
331.115	93.38
331.344	86.38
331.572	98.38
331.801	92.38
332.03	76.38
332.258	85.38
332.486	75.38
332.715	81.38
332.943	89.38
333.172	90.38
333.4	95.38
333.629	93.38
333.857	95.38
334.085	88.38
334.314	105.38
334.542	91.38
334.771	93.38
334.999	95.38
335.227	104.38
335.455	90.38
335.684	97.38
335.912	76.38
336.14	84.38
336.369	81.38
336.597	88.38
336.825	94.38
337.053	76.38
337.281	87.38
337.51	101.38
337.738	80.38
337.966	90.38
338.194	89.38
338.422	86.38
338.65	89.38
338.878	86.38
339.106	98.38
339.334	90.38
339.562	91.38
339.79	79.38
340.018	98.38
340.246	106.38
340.474	89.38
340.702	81.38
340.93	90.38
341.158	97.38
341.386	85.38
341.614	92.38
341.842	95.38
342.07	83.38
342.298	81.38
342.526	86.38
342.754	89.38
342.981	80.38
343.209	82.38
343.437	88.38
343.665	95.38
343.893	100.38
344.12	93.38
344.348	92.38
344.576	95.38
344.804	104.38
345.031	100.38
345.259	85.38
345.487	82.38
345.714	86.38
345.942	91.38
346.17	92.38
346.397	87.38
346.625	75.38
346.853	102.38
347.08	79.38
347.308	100.38
347.535	91.38
347.763	80.38
347.99	102.38
348.218	89.38
348.445	77.38
348.673	80.38
348.9	82.38
349.128	97.38
349.355	93.38
349.583	89.38
349.81	76.38
350.037	81.38
350.265	109.38
350.492	85.38
350.72	80.38
350.947	92.38
351.174	91.38
351.402	97.38
351.629	86.38
351.856	80.38
352.083	77.38
352.311	91.38
352.538	94.38
352.765	81.38
352.992	95.38
353.22	86.38
353.447	89.38
353.674	80.38
353.901	95.38
354.128	84.38
354.355	86.38
354.583	85.38
354.81	87.38
355.037	81.38
355.264	93.38
355.491	88.38
355.718	90.38
355.945	90.38
356.172	89.38
356.399	94.38
356.626	82.38
356.853	91.38
357.08	93.38
357.307	78.38
357.534	83.38
357.761	92.38
357.988	94.38
358.215	80.38
358.441	94.38
358.668	93.38
358.895	81.38
359.122	89.38
359.349	84.38
359.576	77.38
359.802	90.38
360.029	83.38
360.256	87.38
360.483	103.38
360.709	93.38
360.936	78.38
361.163	96.38
361.39	79.38
361.616	79.38
361.843	101.38
362.07	92.38
362.296	87.38
362.523	93.38
362.749	78.38
362.976	92.38
363.203	85.38
363.429	73.38
363.656	101.38
363.882	73.38
364.109	85.38
364.335	88.38
364.562	85.38
364.788	86.38
365.015	95.38
365.241	93.38
365.468	96.38
365.694	105.38
365.92	88.38
366.147	88.38
366.373	83.38
366.599	91.38
366.826	92.38
367.052	82.38
367.278	88.38
367.505	108.38
367.731	79.38
367.957	99.38
368.184	97.38
368.41	99.38
368.636	94.38
368.862	98.38
369.089	91.38
369.315	75.38
369.541	111.38
369.767	105.38
369.993	103.38
370.219	100.38
370.445	89.38
370.672	104.38
370.898	88.38
371.124	94.38
371.35	102.38
371.576	92.38
371.802	106.38
372.028	95.38
372.254	102.38
372.48	80.38
372.706	87.38
372.932	93.38
373.158	85.38
373.384	98.38
373.61	99.38
373.835	86.38
374.061	77.38
374.287	105.38
374.513	97.38
374.739	97.38
374.965	100.38
375.191	96.38
375.416	91.38
375.642	97.38
375.868	110.38
376.094	92.38
376.319	104.38
376.545	95.38
376.771	85.38
376.997	100.38
377.222	88.38
377.448	101.38
377.674	87.38
377.899	89.38
378.125	97.38
378.35	111.38
378.576	108.38
378.802	100.38
379.027	91.38
379.253	98.38
379.478	105.38
379.704	111.38
379.929	96.38
380.155	94.38
380.38	100.38
380.606	108.38
380.831	102.38
381.057	120.38
381.282	105.38
381.507	103.38
381.733	90.38
381.958	88.38
382.184	100.38
382.409	92.38
382.634	99.38
382.86	107.38
383.085	110.38
383.31	102.38
383.535	102.38
383.761	88.38
383.986	117.38
384.211	91.38
384.436	94.38
384.662	95.38
384.887	88.38
385.112	92.38
385.337	99.38
385.562	105.38
385.787	101.38
386.013	102.38
386.238	98.38
386.463	117.38
386.688	100.38
386.913	108.38
387.138	94.38
387.363	100.38
387.588	99.38
387.813	90.38
388.038	96.38
388.263	101.38
388.488	108.38
388.713	97.38
388.938	109.38
389.163	110.38
389.387	103.38
389.612	98.38
389.837	109.38
390.062	110.38
390.287	95.38
390.512	107.38
390.736	111.38
390.961	100.38
391.186	102.38
391.411	88.38
391.636	94.38
391.86	106.38
392.085	113.38
392.31	96.38
392.534	103.38
392.759	96.38
392.984	106.38
393.208	107.38
393.433	103.38
393.658	118.38
393.882	121.38
394.107	113.38
394.331	102.38
394.556	102.38
394.78	110.38
395.005	98.38
395.229	109.38
395.454	102.38
395.678	112.38
395.903	113.38
396.127	104.38
396.352	101.38
396.576	98.38
396.801	103.38
397.025	107.38
397.249	102.38
397.474	121.38
397.698	104.38
397.922	118.38
398.147	101.38
398.371	103.38
398.595	111.38
398.82	102.38
399.044	108.38
399.268	114.38
399.492	108.38
399.717	108.38
399.941	118.38
400.165	97.38
400.389	108.38
400.613	117.38
400.837	120.38
401.062	124.38
401.286	118.38
401.51	115.38
401.734	114.38
401.958	103.38
402.182	119.38
402.406	105.38
402.63	112.38
402.854	101.38
403.078	113.38
403.302	111.38
403.526	100.38
403.75	118.38
403.974	118.38
404.198	128.38
404.422	114.38
404.645	102.38
404.869	119.38
405.093	118.38
405.317	128.38
405.541	103.38
405.765	138.38
405.988	127.38
406.212	127.38
406.436	117.38
406.66	132.38
406.883	118.38
407.107	118.38
407.331	133.38
407.555	108.38
407.778	120.38
408.002	113.38
408.226	121.38
408.449	116.38
408.673	112.38
408.896	109.38
409.12	133.38
409.344	118.38
409.567	113.38
409.791	121.38
410.014	114.38
410.238	112.38
410.461	113.38
410.685	116.38
410.908	118.38
411.132	125.38
411.355	109.38
411.578	134.38
411.802	120.38
412.025	125.38
412.249	126.38
412.472	123.38
412.695	107.38
412.919	136.38
413.142	136.38
413.365	125.38
413.589	112.38
413.812	124.38
414.035	129.38
414.258	126.38
414.482	114.38
414.705	121.38
414.928	117.38
415.151	125.38
415.374	130.38
415.597	120.38
415.821	117.38
416.044	117.38
416.267	124.38
416.49	128.38
416.713	125.38
416.936	142.38
417.159	128.38
417.382	125.38
417.605	144.38
417.828	126.38
418.051	128.38
418.274	122.38
418.497	126.38
418.72	130.38
418.943	139.38
419.166	132.38
419.389	130.38
419.611	153.38
419.834	134.38
420.057	135.38
420.28	115.38
420.503	123.38
420.726	127.38
420.948	145.38
421.171	120.38
421.394	147.38
421.617	144.38
421.839	144.38
422.062	141.38
422.285	131.38
422.507	125.38
422.73	129.38
422.953	138.38
423.175	127.38
423.398	119.38
423.621	143.38
423.843	136.38
424.066	132.38
424.288	146.38
424.511	151.38
424.733	144.38
424.956	138.38
425.178	137.38
425.401	143.38
425.623	128.38
425.846	135.38
426.068	160.38
426.291	117.38
426.513	125.38
426.735	112.38
426.958	130.38
427.18	128.38
427.402	140.38
427.625	112.38
427.847	127.38
428.069	123.38
428.292	125.38
428.514	132.38
428.736	120.38
428.958	127.38
429.181	128.38
429.403	138.38
429.625	128.38
429.847	145.38
430.069	132.38
430.292	135.38
430.514	135.38
430.736	135.38
430.958	117.38
431.18	129.38
431.402	134.38
431.624	126.38
431.846	105.38
432.068	101.38
432.29	96.38
432.512	110.38
432.734	130.38
432.956	138.38
433.178	128.38
433.4	126.38
433.622	147.38
433.844	132.38
434.066	124.38
434.287	109.38
434.509	108.38
434.731	107.38
434.953	116.38
435.175	128.38
435.397	124.38
435.618	118.38
435.84	116.38
436.062	118.38
436.284	122.38
436.505	121.38
436.727	143.38
436.949	124.38
437.17	129.38
437.392	129.38
437.614	123.38
437.835	121.38
438.057	120.38
438.278	121.38
438.5	138.38
438.721	140.38
438.943	140.38
439.165	134.38
439.386	143.38
439.608	142.38
439.829	162.38
440.05	152.38
440.272	136.38
440.493	143.38
440.715	142.38
440.936	154.38
441.158	149.38
441.379	157.38
441.6	158.38
441.822	126.38
442.043	132.38
442.264	145.38
442.486	140.38
442.707	135.38
442.928	153.38
443.149	125.38
443.371	116.38
443.592	144.38
443.813	146.38
444.034	136.38
444.255	139.38
444.476	146.38
444.698	139.38
444.919	130.38
445.14	272.38
445.361	204.38
445.582	143.38
445.803	140.38
446.024	152.38
446.245	140.38
446.466	160.38
446.687	142.38
446.908	156.38
447.129	144.38
447.35	147.38
447.571	137.38
447.792	155.38
448.013	134.38
448.234	133.38
448.455	141.38
448.675	135.38
448.896	128.38
449.117	145.38
449.338	131.38
449.559	130.38
449.779	136.38
450	141.38
450.221	138.38
450.442	136.38
450.662	140.38
450.883	136.38
451.104	137.38
451.324	130.38
451.545	124.38
451.766	135.38
451.986	133.38
452.207	140.38
452.428	131.38
452.648	126.38
452.869	131.38
453.089	113.38
453.31	120.38
453.53	108.38
453.751	105.38
453.971	102.38
454.192	122.38
454.412	123.38
454.633	120.38
454.853	123.38
455.073	121.38
455.294	132.38
455.514	110.38
455.734	112.38
455.955	117.38
456.175	126.38
456.395	119.38
456.616	126.38
456.836	118.38
457.056	108.38
457.276	95.38
457.497	113.38
457.717	111.38
457.937	114.38
458.157	123.38
458.377	107.38
458.598	105.38
458.818	89.38
459.038	100.38
459.258	92.38
459.478	98.38
459.698	94.38
459.918	105.38
460.138	109.38
460.358	113.38
460.578	137.38
460.798	114.38
461.018	134.38
461.238	131.38
461.458	128.38
461.678	115.38
461.898	130.38
462.118	113.38
462.338	104.38
462.558	108.38
462.777	109.38
462.997	116.38
463.217	106.38
463.437	110.38
463.657	115.38
463.876	109.38
464.096	112.38
464.316	113.38
464.536	116.38
464.755	121.38
464.975	124.38
465.195	113.38
465.414	116.38
465.634	130.38
465.854	120.38
466.073	117.38
466.293	121.38
466.512	117.38
466.732	147.38
466.951	128.38
467.171	139.38
467.391	132.38
467.61	122.38
467.829	139.38
468.049	145.38
468.268	138.38
468.488	131.38
468.707	124.38
468.927	136.38
469.146	128.38
469.365	127.38
469.585	129.38
469.804	133.38
470.023	151.38
470.243	146.38
470.462	155.38
470.681	141.38
470.901	146.38
471.12	139.38
471.339	125.38
471.558	131.38
471.777	134.38
471.997	136.38
472.216	133.38
472.435	123.38
472.654	105.38
472.873	123.38
473.092	109.38
473.311	133.38
473.53	116.38
473.749	130.38
473.968	128.38
474.187	129.38
474.406	124.38
474.625	134.38
474.844	129.38
475.063	136.38
475.282	112.38
475.501	107.38
475.72	133.38
475.939	127.38
476.158	128.38
476.377	122.38
476.596	119.38
476.814	123.38
477.033	116.38
477.252	120.38
477.471	134.38
477.69	132.38
477.908	117.38
478.127	146.38
478.346	130.38
478.564	131.38
478.783	140.38
479.002	134.38
479.22	146.38
479.439	142.38
479.658	119.38
479.876	116.38
480.095	112.38
480.313	122.38
480.532	117.38
480.751	114.38
480.969	98.38
481.188	97.38
481.406	89.38
481.624	86.38
481.843	88.38
482.061	108.38
482.28	102.38
482.498	114.38
482.717	104.38
482.935	126.38
483.153	141.38
483.372	153.38
483.59	151.38
483.808	156.38
484.027	139.38
484.245	131.38
484.463	150.38
484.681	165.38
484.9	146.38
485.118	148.38
485.336	152.38
485.554	121.38
485.772	104.38
485.99	103.38
486.209	95.38
486.427	119.38
486.645	111.38
486.863	128.38
487.081	143.38
487.299	125.38
487.517	132.38
487.735	170.38
487.953	181.38
488.171	192.38
488.389	177.38
488.607	146.38
488.825	146.38
489.043	139.38
489.261	145.38
489.479	138.38
489.696	152.38
489.914	146.38
490.132	154.38
490.35	147.38
490.568	161.38
490.786	181.38
491.003	188.38
491.221	172.38
491.439	168.38
491.657	175.38
491.874	188.38
492.092	224.38
492.31	251.38
492.527	220.38
492.745	203.38
492.963	194.38
493.18	174.38
493.398	175.38
493.615	184.38
493.833	191.38
494.05	172.38
494.268	169.38
494.485	165.38
494.703	166.38
494.92	165.38
495.138	174.38
495.355	160.38
495.573	164.38
495.79	173.38
496.008	180.38
496.225	146.38
496.442	171.38
496.66	170.38
496.877	177.38
497.094	184.38
497.312	166.38
497.529	162.38
497.746	165.38
497.963	134.38
498.181	143.38
498.398	128.38
498.615	117.38
498.832	109.38
499.049	117.38
499.267	130.38
499.484	112.38
499.701	148.38
499.918	136.38
500.135	142.38
500.352	142.38
500.569	143.38
500.786	171.38
501.003	157.38
501.22	151.38
501.437	134.38
501.654	148.38
501.871	144.38
502.088	138.38
502.305	133.38
502.522	136.38
502.739	144.38
502.956	133.38
503.172	133.38
503.389	128.38
503.606	109.38
503.823	118.38
504.04	105.38
504.256	126.38
504.473	128.38
504.69	138.38
504.907	122.38
505.123	131.38
505.34	121.38
505.557	125.38
505.773	135.38
505.99	139.38
506.207	124.38
506.423	117.38
506.64	129.38
506.856	118.38
507.073	132.38
507.289	128.38
507.506	127.38
507.722	116.38
507.939	123.38
508.155	121.38
508.372	117.38
508.588	120.38
508.805	102.38
509.021	115.38
509.238	109.38
509.454	97.38
509.67	102.38
509.887	92.38
510.103	99.38
510.319	105.38
510.536	96.38
510.752	97.38
