Data from Location4.07152019.Energy5.Lamp.07192019.3%Agarose_HRD10591_16-19-54-925.txt Node
Date: Fri Jul 19 16:19:54 EDT 2019
User: cochatt
Spectrometer: HR+D1059
Trigger mode: 1
Integration Time (sec): 1.000000E-1
Scans to average: 1
Electric dark correction enabled: true
Nonlinearity correction enabled: false
Boxcar width: 0
XAxis mode: Wavelengths
Number of Pixels in Spectrum: 2048
>>>>>Begin Spectral Data<<<<<
223.165	-24.69
223.4	-24.69
223.635	-24.69
223.869	-19.69
224.104	-3.69
224.338	-13.69
224.573	-14.69
224.808	-11.69
225.042	-7.69
225.277	-3.69
225.511	-8.69
225.746	-4.69
225.98	6.31
226.215	7.31
226.449	15.31
226.683	31.31
226.918	24.31
227.152	28.31
227.387	24.31
227.621	42.31
227.856	27.31
228.09	62.31
228.324	43.31
228.559	57.31
228.793	61.31
229.027	70.31
229.262	62.31
229.496	72.31
229.73	66.31
229.964	74.31
230.199	80.31
230.433	86.31
230.667	84.31
230.901	74.31
231.136	87.31
231.37	77.31
231.604	79.31
231.838	86.31
232.072	90.31
232.306	74.31
232.541	84.31
232.775	77.31
233.009	85.31
233.243	88.31
233.477	93.31
233.711	81.31
233.945	86.31
234.179	91.31
234.413	84.31
234.647	84.31
234.881	88.31
235.115	85.31
235.349	91.31
235.583	84.31
235.817	82.31
236.051	87.31
236.285	77.31
236.519	82.31
236.753	64.31
236.987	68.31
237.221	68.31
237.455	72.31
237.689	76.31
237.922	76.31
238.156	93.31
238.39	76.31
238.624	82.31
238.858	76.31
239.091	84.31
239.325	62.31
239.559	79.31
239.793	77.31
240.027	70.31
240.26	64.31
240.494	70.31
240.728	83.31
240.961	90.31
241.195	90.31
241.429	82.31
241.662	86.31
241.896	69.31
242.13	87.31
242.363	85.31
242.597	69.31
242.83	89.31
243.064	71.31
243.298	90.31
243.531	74.31
243.765	77.31
243.998	77.31
244.232	90.31
244.465	79.31
244.699	75.31
244.932	67.31
245.166	75.31
245.399	95.31
245.633	78.31
245.866	74.31
246.099	80.31
246.333	77.31
246.566	76.31
246.8	87.31
247.033	79.31
247.266	82.31
247.5	75.31
247.733	77.31
247.966	68.31
248.2	82.31
248.433	93.31
248.666	91.31
248.899	80.31
249.133	77.31
249.366	87.31
249.599	88.31
249.832	73.31
250.066	92.31
250.299	97.31
250.532	72.31
250.765	71.31
250.998	80.31
251.231	75.31
251.465	96.31
251.698	81.31
251.931	77.31
252.164	79.31
252.397	79.31
252.63	78.31
252.863	76.31
253.096	85.31
253.329	76.31
253.562	84.31
253.795	94.31
254.028	100.31
254.261	88.31
254.494	78.31
254.727	86.31
254.96	80.31
255.193	88.31
255.426	91.31
255.659	87.31
255.892	91.31
256.124	71.31
256.357	71.31
256.59	96.31
256.823	89.31
257.056	90.31
257.289	80.31
257.521	67.31
257.754	88.31
257.987	92.31
258.22	82.31
258.452	95.31
258.685	78.31
258.918	81.31
259.151	80.31
259.383	94.31
259.616	82.31
259.849	85.31
260.081	75.31
260.314	76.31
260.547	85.31
260.779	84.31
261.012	80.31
261.244	70.31
261.477	92.31
261.71	89.31
261.942	76.31
262.175	79.31
262.407	96.31
262.64	86.31
262.872	80.31
263.105	87.31
263.337	93.31
263.57	86.31
263.802	100.31
264.035	76.31
264.267	85.31
264.499	69.31
264.732	83.31
264.964	87.31
265.197	98.31
265.429	104.31
265.661	90.31
265.894	66.31
266.126	98.31
266.358	79.31
266.591	78.31
266.823	72.31
267.055	89.31
267.287	93.31
267.52	94.31
267.752	83.31
267.984	92.31
268.216	93.31
268.448	81.31
268.681	92.31
268.913	84.31
269.145	98.31
269.377	103.31
269.609	94.31
269.841	80.31
270.073	98.31
270.306	93.31
270.538	79.31
270.77	76.31
271.002	83.31
271.234	79.31
271.466	84.31
271.698	79.31
271.93	79.31
272.162	89.31
272.394	89.31
272.626	87.31
272.858	96.31
273.09	87.31
273.322	96.31
273.553	94.31
273.785	80.31
274.017	90.31
274.249	96.31
274.481	84.31
274.713	95.31
274.945	83.31
275.176	81.31
275.408	86.31
275.64	84.31
275.872	83.31
276.104	85.31
276.335	94.31
276.567	75.31
276.799	78.31
277.031	95.31
277.262	91.31
277.494	94.31
277.726	93.31
277.957	70.31
278.189	93.31
278.421	89.31
278.652	96.31
278.884	95.31
279.115	90.31
279.347	89.31
279.579	78.31
279.81	105.31
280.042	84.31
280.273	96.31
280.505	92.31
280.736	83.31
280.968	76.31
281.199	100.31
281.431	82.31
281.662	100.31
281.894	89.31
282.125	100.31
282.356	76.31
282.588	84.31
282.819	95.31
283.051	87.31
283.282	99.31
283.513	85.31
283.745	94.31
283.976	90.31
284.207	78.31
284.439	80.31
284.67	81.31
284.901	78.31
285.132	84.31
285.364	86.31
285.595	92.31
285.826	89.31
286.057	95.31
286.288	75.31
286.52	85.31
286.751	77.31
286.982	95.31
287.213	68.31
287.444	88.31
287.675	89.31
287.906	89.31
288.138	100.31
288.369	96.31
288.6	86.31
288.831	92.31
289.062	82.31
289.293	93.31
289.524	90.31
289.755	84.31
289.986	88.31
290.217	72.31
290.448	96.31
290.679	87.31
290.91	95.31
291.141	82.31
291.371	87.31
291.602	99.31
291.833	92.31
292.064	80.31
292.295	85.31
292.526	79.31
292.757	79.31
292.987	90.31
293.218	81.31
293.449	83.31
293.68	91.31
293.91	88.31
294.141	93.31
294.372	88.31
294.603	93.31
294.833	94.31
295.064	84.31
295.295	82.31
295.525	94.31
295.756	95.31
295.987	91.31
296.217	83.31
296.448	88.31
296.679	83.31
296.909	91.31
297.14	91.31
297.37	86.31
297.601	78.31
297.831	88.31
298.062	94.31
298.292	75.31
298.523	107.31
298.753	86.31
298.984	92.31
299.214	95.31
299.445	96.31
299.675	90.31
299.905	87.31
300.136	88.31
300.366	90.31
300.597	84.31
300.827	91.31
301.057	81.31
301.288	91.31
301.518	86.31
301.748	91.31
301.979	76.31
302.209	89.31
302.439	89.31
302.669	95.31
302.9	86.31
303.13	96.31
303.36	95.31
303.59	103.31
303.82	74.31
304.051	88.31
304.281	87.31
304.511	93.31
304.741	95.31
304.971	87.31
305.201	94.31
305.431	86.31
305.661	80.31
305.891	87.31
306.121	90.31
306.352	95.31
306.582	89.31
306.812	82.31
307.042	84.31
307.272	75.31
307.502	76.31
307.731	92.31
307.961	80.31
308.191	90.31
308.421	75.31
308.651	98.31
308.881	81.31
309.111	90.31
309.341	81.31
309.571	98.31
309.8	105.31
310.03	86.31
310.26	89.31
310.49	82.31
310.72	72.31
310.949	93.31
311.179	76.31
311.409	78.31
311.639	87.31
311.868	71.31
312.098	93.31
312.328	86.31
312.557	79.31
312.787	87.31
313.017	80.31
313.246	96.31
313.476	85.31
313.706	68.31
313.935	97.31
314.165	93.31
314.394	79.31
314.624	90.31
314.853	104.31
315.083	94.31
315.312	75.31
315.542	97.31
315.771	86.31
316.001	72.31
316.23	82.31
316.46	85.31
316.689	91.31
316.919	78.31
317.148	89.31
317.377	90.31
317.607	91.31
317.836	96.31
318.065	92.31
318.295	93.31
318.524	90.31
318.753	99.31
318.983	92.31
319.212	92.31
319.441	91.31
319.67	93.31
319.9	82.31
320.129	84.31
320.358	92.31
320.587	98.31
320.816	88.31
321.046	86.31
321.275	83.31
321.504	92.31
321.733	94.31
321.962	85.31
322.191	71.31
322.42	80.31
322.649	87.31
322.878	98.31
323.108	89.31
323.337	98.31
323.566	84.31
323.795	90.31
324.024	87.31
324.253	89.31
324.482	86.31
324.71	112.31
324.939	80.31
325.168	93.31
325.397	93.31
325.626	87.31
325.855	72.31
326.084	67.31
326.313	80.31
326.542	89.31
326.77	88.31
326.999	80.31
327.228	100.31
327.457	90.31
327.686	80.31
327.914	95.31
328.143	90.31
328.372	93.31
328.6	90.31
328.829	86.31
329.058	86.31
329.287	86.31
329.515	80.31
329.744	77.31
329.972	79.31
330.201	85.31
330.43	80.31
330.658	86.31
330.887	81.31
331.115	89.31
331.344	85.31
331.572	88.31
331.801	81.31
332.03	84.31
332.258	85.31
332.486	87.31
332.715	86.31
332.943	73.31
333.172	78.31
333.4	74.31
333.629	87.31
333.857	95.31
334.085	81.31
334.314	84.31
334.542	97.31
334.771	83.31
334.999	96.31
335.227	95.31
335.455	87.31
335.684	78.31
335.912	90.31
336.14	87.31
336.369	90.31
336.597	103.31
336.825	86.31
337.053	75.31
337.281	87.31
337.51	79.31
337.738	88.31
337.966	84.31
338.194	85.31
338.422	85.31
338.65	96.31
338.878	91.31
339.106	96.31
339.334	93.31
339.562	86.31
339.79	87.31
340.018	81.31
340.246	96.31
340.474	93.31
340.702	84.31
340.93	104.31
341.158	92.31
341.386	90.31
341.614	102.31
341.842	83.31
342.07	66.31
342.298	96.31
342.526	94.31
342.754	80.31
342.981	100.31
343.209	67.31
343.437	87.31
343.665	91.31
343.893	78.31
344.12	90.31
344.348	82.31
344.576	78.31
344.804	90.31
345.031	88.31
345.259	80.31
345.487	85.31
345.714	83.31
345.942	86.31
346.17	98.31
346.397	84.31
346.625	98.31
346.853	75.31
347.08	76.31
347.308	93.31
347.535	81.31
347.763	84.31
347.99	87.31
348.218	87.31
348.445	76.31
348.673	86.31
348.9	93.31
349.128	84.31
349.355	94.31
349.583	88.31
349.81	78.31
350.037	86.31
350.265	93.31
350.492	79.31
350.72	86.31
350.947	102.31
351.174	87.31
351.402	82.31
351.629	89.31
351.856	91.31
352.083	93.31
352.311	85.31
352.538	77.31
352.765	79.31
352.992	79.31
353.22	83.31
353.447	88.31
353.674	80.31
353.901	85.31
354.128	79.31
354.355	86.31
354.583	82.31
354.81	79.31
355.037	92.31
355.264	82.31
355.491	76.31
355.718	81.31
355.945	85.31
356.172	74.31
356.399	79.31
356.626	92.31
356.853	96.31
357.08	106.31
357.307	86.31
357.534	79.31
357.761	90.31
357.988	91.31
358.215	70.31
358.441	81.31
358.668	88.31
358.895	80.31
359.122	86.31
359.349	91.31
359.576	93.31
359.802	84.31
360.029	88.31
360.256	80.31
360.483	79.31
360.709	76.31
360.936	77.31
361.163	90.31
361.39	95.31
361.616	68.31
361.843	90.31
362.07	75.31
362.296	90.31
362.523	82.31
362.749	84.31
362.976	85.31
363.203	98.31
363.429	91.31
363.656	88.31
363.882	97.31
364.109	92.31
364.335	84.31
364.562	94.31
364.788	76.31
365.015	86.31
365.241	90.31
365.468	79.31
365.694	89.31
365.92	79.31
366.147	89.31
366.373	79.31
366.599	86.31
366.826	81.31
367.052	86.31
367.278	79.31
367.505	98.31
367.731	94.31
367.957	77.31
368.184	89.31
368.41	87.31
368.636	82.31
368.862	94.31
369.089	97.31
369.315	74.31
369.541	78.31
369.767	95.31
369.993	97.31
370.219	89.31
370.445	80.31
370.672	93.31
370.898	91.31
371.124	84.31
371.35	104.31
371.576	105.31
371.802	104.31
372.028	104.31
372.254	97.31
372.48	80.31
372.706	89.31
372.932	91.31
373.158	85.31
373.384	76.31
373.61	101.31
373.835	101.31
374.061	100.31
374.287	88.31
374.513	95.31
374.739	94.31
374.965	91.31
375.191	91.31
375.416	95.31
375.642	102.31
375.868	112.31
376.094	104.31
376.319	81.31
376.545	98.31
376.771	89.31
376.997	99.31
377.222	81.31
377.448	90.31
377.674	106.31
377.899	90.31
378.125	104.31
378.35	88.31
378.576	100.31
378.802	107.31
379.027	90.31
379.253	93.31
379.478	87.31
379.704	95.31
379.929	84.31
380.155	94.31
380.38	88.31
380.606	107.31
380.831	111.31
381.057	111.31
381.282	108.31
381.507	85.31
381.733	90.31
381.958	89.31
382.184	91.31
382.409	89.31
382.634	90.31
382.86	89.31
383.085	101.31
383.31	102.31
383.535	104.31
383.761	101.31
383.986	98.31
384.211	85.31
384.436	95.31
384.662	106.31
384.887	88.31
385.112	102.31
385.337	96.31
385.562	102.31
385.787	112.31
386.013	115.31
386.238	108.31
386.463	107.31
386.688	107.31
386.913	106.31
387.138	106.31
387.363	106.31
387.588	102.31
387.813	97.31
388.038	98.31
388.263	104.31
388.488	110.31
388.713	108.31
388.938	99.31
389.163	101.31
389.387	105.31
389.612	106.31
389.837	104.31
390.062	92.31
390.287	107.31
390.512	109.31
390.736	108.31
390.961	101.31
391.186	93.31
391.411	100.31
391.636	89.31
391.86	117.31
392.085	108.31
392.31	86.31
392.534	104.31
392.759	100.31
392.984	105.31
393.208	107.31
393.433	88.31
393.658	108.31
393.882	84.31
394.107	116.31
394.331	99.31
394.556	95.31
394.78	116.31
395.005	100.31
395.229	102.31
395.454	120.31
395.678	110.31
395.903	101.31
396.127	118.31
396.352	101.31
396.576	104.31
396.801	104.31
397.025	101.31
397.249	125.31
397.474	116.31
397.698	91.31
397.922	89.31
398.147	106.31
398.371	95.31
398.595	106.31
398.82	118.31
399.044	110.31
399.268	104.31
399.492	114.31
399.717	116.31
399.941	113.31
400.165	119.31
400.389	117.31
400.613	98.31
400.837	106.31
401.062	111.31
401.286	118.31
401.51	117.31
401.734	111.31
401.958	114.31
402.182	106.31
402.406	105.31
402.63	85.31
402.854	99.31
403.078	106.31
403.302	117.31
403.526	116.31
403.75	121.31
403.974	115.31
404.198	118.31
404.422	117.31
404.645	100.31
404.869	111.31
405.093	108.31
405.317	118.31
405.541	109.31
405.765	124.31
405.988	114.31
406.212	107.31
406.436	114.31
406.66	108.31
406.883	108.31
407.107	117.31
407.331	120.31
407.555	102.31
407.778	117.31
408.002	140.31
408.226	117.31
408.449	127.31
408.673	121.31
408.896	118.31
409.12	115.31
409.344	121.31
409.567	134.31
409.791	117.31
410.014	114.31
410.238	116.31
410.461	123.31
410.685	109.31
410.908	105.31
411.132	128.31
411.355	107.31
411.578	118.31
411.802	122.31
412.025	114.31
412.249	111.31
412.472	120.31
412.695	119.31
412.919	122.31
413.142	132.31
413.365	114.31
413.589	109.31
413.812	128.31
414.035	121.31
414.258	123.31
414.482	123.31
414.705	132.31
414.928	137.31
415.151	124.31
415.374	123.31
415.597	114.31
415.821	114.31
416.044	100.31
416.267	125.31
416.49	145.31
416.713	124.31
416.936	141.31
417.159	120.31
417.382	123.31
417.605	124.31
417.828	123.31
418.051	132.31
418.274	141.31
418.497	132.31
418.72	132.31
418.943	130.31
419.166	143.31
419.389	145.31
419.611	130.31
419.834	150.31
420.057	139.31
420.28	128.31
420.503	128.31
420.726	136.31
420.948	134.31
421.171	129.31
421.394	135.31
421.617	133.31
421.839	152.31
422.062	144.31
422.285	143.31
422.507	127.31
422.73	137.31
422.953	123.31
423.175	134.31
423.398	130.31
423.621	134.31
423.843	134.31
424.066	145.31
424.288	146.31
424.511	126.31
424.733	114.31
424.956	135.31
425.178	141.31
425.401	144.31
425.623	138.31
425.846	122.31
426.068	142.31
426.291	127.31
426.513	133.31
426.735	121.31
426.958	119.31
427.18	114.31
427.402	124.31
427.625	141.31
427.847	121.31
428.069	138.31
428.292	122.31
428.514	127.31
428.736	126.31
428.958	143.31
429.181	127.31
429.403	134.31
429.625	140.31
429.847	115.31
430.069	137.31
430.292	147.31
430.514	131.31
430.736	134.31
430.958	117.31
431.18	118.31
431.402	125.31
431.624	120.31
431.846	120.31
432.068	106.31
432.29	118.31
432.512	109.31
432.734	129.31
432.956	129.31
433.178	129.31
433.4	136.31
433.622	130.31
433.844	135.31
434.066	123.31
434.287	115.31
434.509	107.31
434.731	100.31
434.953	115.31
435.175	118.31
435.397	135.31
435.618	120.31
435.84	116.31
436.062	115.31
436.284	134.31
436.505	116.31
436.727	127.31
436.949	135.31
437.17	118.31
437.392	125.31
437.614	115.31
437.835	107.31
438.057	114.31
438.278	112.31
438.5	124.31
438.721	132.31
438.943	139.31
439.165	140.31
439.386	129.31
439.608	151.31
439.829	138.31
440.05	142.31
440.272	156.31
440.493	142.31
440.715	127.31
440.936	130.31
441.158	138.31
441.379	151.31
441.6	144.31
441.822	138.31
442.043	137.31
442.264	138.31
442.486	128.31
442.707	138.31
442.928	141.31
443.149	131.31
443.371	128.31
443.592	152.31
443.813	134.31
444.034	156.31
444.255	150.31
444.476	143.31
444.698	148.31
444.919	142.31
445.14	274.31
445.361	205.31
445.582	159.31
445.803	143.31
446.024	145.31
446.245	151.31
446.466	152.31
446.687	158.31
446.908	148.31
447.129	153.31
447.35	149.31
447.571	142.31
447.792	139.31
448.013	140.31
448.234	131.31
448.455	137.31
448.675	131.31
448.896	126.31
449.117	120.31
449.338	146.31
449.559	135.31
449.779	143.31
450	132.31
450.221	135.31
450.442	148.31
450.662	130.31
450.883	145.31
451.104	139.31
451.324	136.31
451.545	128.31
451.766	126.31
451.986	133.31
452.207	120.31
452.428	127.31
452.648	109.31
452.869	117.31
453.089	118.31
453.31	107.31
453.53	105.31
453.751	101.31
453.971	101.31
454.192	118.31
454.412	110.31
454.633	118.31
454.853	120.31
455.073	110.31
455.294	131.31
455.514	126.31
455.734	121.31
455.955	123.31
456.175	105.31
456.395	108.31
456.616	123.31
456.836	101.31
457.056	114.31
457.276	111.31
457.497	114.31
457.717	106.31
457.937	101.31
458.157	98.31
458.377	96.31
458.598	106.31
458.818	119.31
459.038	89.31
459.258	106.31
459.478	90.31
459.698	84.31
459.918	94.31
460.138	110.31
460.358	104.31
460.578	123.31
460.798	111.31
461.018	124.31
461.238	122.31
461.458	118.31
461.678	113.31
461.898	106.31
462.118	118.31
462.338	118.31
462.558	119.31
462.777	123.31
462.997	118.31
463.217	114.31
463.437	108.31
463.657	101.31
463.876	98.31
464.096	123.31
464.316	103.31
464.536	110.31
464.755	124.31
464.975	112.31
465.195	130.31
465.414	117.31
465.634	131.31
465.854	105.31
466.073	124.31
466.293	119.31
466.512	116.31
466.732	134.31
466.951	132.31
467.171	132.31
467.391	126.31
467.61	119.31
467.829	124.31
468.049	132.31
468.268	136.31
468.488	130.31
468.707	139.31
468.927	150.31
469.146	138.31
469.365	148.31
469.585	130.31
469.804	139.31
470.023	137.31
470.243	134.31
470.462	136.31
470.681	149.31
470.901	131.31
471.12	136.31
471.339	147.31
471.558	134.31
471.777	152.31
471.997	136.31
472.216	132.31
472.435	124.31
472.654	101.31
472.873	108.31
473.092	122.31
473.311	127.31
473.53	136.31
473.749	132.31
473.968	126.31
474.187	108.31
474.406	122.31
474.625	136.31
474.844	142.31
475.063	145.31
475.282	128.31
475.501	110.31
475.72	104.31
475.939	124.31
476.158	150.31
476.377	141.31
476.596	106.31
476.814	111.31
477.033	110.31
477.252	112.31
477.471	128.31
477.69	140.31
477.908	135.31
478.127	138.31
478.346	134.31
478.564	137.31
478.783	140.31
479.002	123.31
479.22	146.31
479.439	141.31
479.658	123.31
479.876	117.31
480.095	122.31
480.313	119.31
480.532	119.31
480.751	114.31
480.969	107.31
481.188	89.31
481.406	79.31
481.624	76.31
481.843	111.31
482.061	108.31
482.28	114.31
482.498	111.31
482.717	126.31
482.935	125.31
483.153	133.31
483.372	158.31
483.59	146.31
483.808	141.31
484.027	138.31
484.245	149.31
484.463	135.31
484.681	158.31
484.9	142.31
485.118	138.31
485.336	119.31
485.554	115.31
485.772	116.31
485.99	101.31
486.209	100.31
486.427	106.31
486.645	110.31
486.863	124.31
487.081	151.31
487.299	148.31
487.517	135.31
487.735	162.31
487.953	169.31
488.171	184.31
488.389	178.31
488.607	164.31
488.825	152.31
489.043	158.31
489.261	138.31
489.479	136.31
489.696	152.31
489.914	142.31
490.132	136.31
490.35	165.31
490.568	151.31
490.786	163.31
491.003	180.31
491.221	184.31
491.439	170.31
491.657	192.31
491.874	190.31
492.092	212.31
492.31	237.31
492.527	221.31
492.745	199.31
492.963	187.31
493.18	181.31
493.398	159.31
493.615	186.31
493.833	180.31
494.05	174.31
494.268	173.31
494.485	164.31
494.703	171.31
494.92	168.31
495.138	179.31
495.355	158.31
495.573	176.31
495.79	171.31
496.008	173.31
496.225	172.31
496.442	161.31
496.66	168.31
496.877	166.31
497.094	167.31
497.312	174.31
497.529	135.31
497.746	140.31
497.963	129.31
498.181	133.31
498.398	122.31
498.615	122.31
498.832	123.31
499.049	117.31
499.267	131.31
499.484	126.31
499.701	125.31
499.918	143.31
500.135	137.31
500.352	142.31
500.569	144.31
500.786	150.31
501.003	142.31
501.22	149.31
501.437	135.31
501.654	144.31
501.871	152.31
502.088	139.31
502.305	145.31
502.522	125.31
502.739	138.31
502.956	119.31
503.172	116.31
503.389	127.31
503.606	130.31
503.823	132.31
504.04	118.31
504.256	100.31
504.473	122.31
504.69	115.31
504.907	134.31
505.123	135.31
505.34	115.31
505.557	128.31
505.773	125.31
505.99	129.31
506.207	118.31
506.423	116.31
506.64	96.31
506.856	119.31
507.073	118.31
507.289	102.31
507.506	135.31
507.722	114.31
507.939	99.31
508.155	124.31
508.372	102.31
508.588	122.31
508.805	111.31
509.021	104.31
509.238	108.31
509.454	91.31
509.67	123.31
509.887	102.31
510.103	111.31
510.319	100.31
510.536	94.31
510.752	101.31
510.968	109.31
511.184	86.31
