Data from Location4.07152019.Energy5.Lamp.07192019.3%Agarose_HRD10591_16-18-50-925.txt Node
Date: Fri Jul 19 16:18:50 EDT 2019
User: cochatt
Spectrometer: HR+D1059
Trigger mode: 1
Integration Time (sec): 1.000000E-1
Scans to average: 1
Electric dark correction enabled: true
Nonlinearity correction enabled: false
Boxcar width: 0
XAxis mode: Wavelengths
Number of Pixels in Spectrum: 2048
>>>>>Begin Spectral Data<<<<<
223.165	-3.12
223.4	-3.12
223.635	-3.12
223.869	-7.12
224.104	-6.12
224.338	-22.12
224.573	-6.12
224.808	-3.12
225.042	-9.12
225.277	-12.12
225.511	-16.12
225.746	3.88
225.98	-1.12
226.215	0.88
226.449	18.88
226.683	5.88
226.918	16.88
227.152	39.88
227.387	27.88
227.621	44.88
227.856	46.88
228.09	26.88
228.324	54.88
228.559	48.88
228.793	62.88
229.027	58.88
229.262	63.88
229.496	73.88
229.73	73.88
229.964	65.88
230.199	62.88
230.433	96.88
230.667	76.88
230.901	77.88
231.136	87.88
231.37	68.88
231.604	76.88
231.838	69.88
232.072	91.88
232.306	91.88
232.541	81.88
232.775	93.88
233.009	82.88
233.243	89.88
233.477	92.88
233.711	74.88
233.945	93.88
234.179	79.88
234.413	82.88
234.647	75.88
234.881	82.88
235.115	86.88
235.349	68.88
235.583	84.88
235.817	74.88
236.051	77.88
236.285	70.88
236.519	82.88
236.753	88.88
236.987	72.88
237.221	60.88
237.455	78.88
237.689	65.88
237.922	83.88
238.156	69.88
238.39	73.88
238.624	81.88
238.858	78.88
239.091	66.88
239.325	82.88
239.559	80.88
239.793	70.88
240.027	71.88
240.26	71.88
240.494	80.88
240.728	64.88
240.961	85.88
241.195	67.88
241.429	65.88
241.662	73.88
241.896	80.88
242.13	80.88
242.363	80.88
242.597	92.88
242.83	84.88
243.064	75.88
243.298	77.88
243.531	75.88
243.765	72.88
243.998	65.88
244.232	63.88
244.465	66.88
244.699	67.88
244.932	82.88
245.166	60.88
245.399	71.88
245.633	80.88
245.866	76.88
246.099	72.88
246.333	76.88
246.566	90.88
246.8	85.88
247.033	69.88
247.266	83.88
247.5	74.88
247.733	97.88
247.966	74.88
248.2	72.88
248.433	83.88
248.666	68.88
248.899	88.88
249.133	82.88
249.366	74.88
249.599	74.88
249.832	80.88
250.066	84.88
250.299	67.88
250.532	84.88
250.765	77.88
250.998	79.88
251.231	71.88
251.465	88.88
251.698	75.88
251.931	72.88
252.164	74.88
252.397	74.88
252.63	70.88
252.863	74.88
253.096	69.88
253.329	56.88
253.562	70.88
253.795	78.88
254.028	82.88
254.261	89.88
254.494	82.88
254.727	87.88
254.96	74.88
255.193	67.88
255.426	87.88
255.659	85.88
255.892	86.88
256.124	83.88
256.357	86.88
256.59	83.88
256.823	75.88
257.056	84.88
257.289	94.88
257.521	73.88
257.754	78.88
257.987	83.88
258.22	65.88
258.452	78.88
258.685	80.88
258.918	90.88
259.151	77.88
259.383	88.88
259.616	84.88
259.849	78.88
260.081	88.88
260.314	82.88
260.547	70.88
260.779	66.88
261.012	87.88
261.244	88.88
261.477	67.88
261.71	83.88
261.942	82.88
262.175	74.88
262.407	79.88
262.64	62.88
262.872	72.88
263.105	76.88
263.337	66.88
263.57	71.88
263.802	92.88
264.035	86.88
264.267	82.88
264.499	81.88
264.732	80.88
264.964	80.88
265.197	63.88
265.429	75.88
265.661	74.88
265.894	85.88
266.126	95.88
266.358	82.88
266.591	64.88
266.823	79.88
267.055	80.88
267.287	84.88
267.52	87.88
267.752	79.88
267.984	71.88
268.216	75.88
268.448	83.88
268.681	82.88
268.913	73.88
269.145	88.88
269.377	69.88
269.609	75.88
269.841	89.88
270.073	68.88
270.306	85.88
270.538	72.88
270.77	68.88
271.002	73.88
271.234	83.88
271.466	75.88
271.698	90.88
271.93	80.88
272.162	80.88
272.394	75.88
272.626	76.88
272.858	93.88
273.09	81.88
273.322	78.88
273.553	81.88
273.785	83.88
274.017	84.88
274.249	84.88
274.481	75.88
274.713	82.88
274.945	85.88
275.176	84.88
275.408	72.88
275.64	80.88
275.872	73.88
276.104	81.88
276.335	80.88
276.567	63.88
276.799	80.88
277.031	84.88
277.262	76.88
277.494	82.88
277.726	76.88
277.957	77.88
278.189	78.88
278.421	76.88
278.652	76.88
278.884	93.88
279.115	81.88
279.347	78.88
279.579	93.88
279.81	80.88
280.042	78.88
280.273	77.88
280.505	72.88
280.736	76.88
280.968	92.88
281.199	85.88
281.431	69.88
281.662	74.88
281.894	87.88
282.125	82.88
282.356	73.88
282.588	76.88
282.819	82.88
283.051	93.88
283.282	73.88
283.513	83.88
283.745	89.88
283.976	74.88
284.207	84.88
284.439	71.88
284.67	80.88
284.901	82.88
285.132	81.88
285.364	79.88
285.595	84.88
285.826	71.88
286.057	87.88
286.288	87.88
286.52	86.88
286.751	78.88
286.982	71.88
287.213	84.88
287.444	82.88
287.675	83.88
287.906	68.88
288.138	76.88
288.369	87.88
288.6	81.88
288.831	85.88
289.062	77.88
289.293	79.88
289.524	75.88
289.755	73.88
289.986	83.88
290.217	74.88
290.448	79.88
290.679	88.88
290.91	85.88
291.141	82.88
291.371	79.88
291.602	85.88
291.833	83.88
292.064	79.88
292.295	84.88
292.526	71.88
292.757	91.88
292.987	92.88
293.218	76.88
293.449	76.88
293.68	87.88
293.91	81.88
294.141	77.88
294.372	80.88
294.603	83.88
294.833	79.88
295.064	77.88
295.295	84.88
295.525	94.88
295.756	81.88
295.987	84.88
296.217	78.88
296.448	75.88
296.679	80.88
296.909	77.88
297.14	82.88
297.37	84.88
297.601	89.88
297.831	86.88
298.062	85.88
298.292	92.88
298.523	74.88
298.753	72.88
298.984	77.88
299.214	77.88
299.445	84.88
299.675	89.88
299.905	77.88
300.136	68.88
300.366	108.88
300.597	85.88
300.827	79.88
301.057	69.88
301.288	71.88
301.518	97.88
301.748	94.88
301.979	89.88
302.209	81.88
302.439	74.88
302.669	76.88
302.9	82.88
303.13	86.88
303.36	88.88
303.59	78.88
303.82	78.88
304.051	82.88
304.281	70.88
304.511	89.88
304.741	86.88
304.971	70.88
305.201	95.88
305.431	86.88
305.661	84.88
305.891	97.88
306.121	94.88
306.352	82.88
306.582	85.88
306.812	97.88
307.042	77.88
307.272	74.88
307.502	74.88
307.731	87.88
307.961	97.88
308.191	80.88
308.421	82.88
308.651	74.88
308.881	95.88
309.111	84.88
309.341	88.88
309.571	78.88
309.8	97.88
310.03	83.88
310.26	66.88
310.49	88.88
310.72	78.88
310.949	84.88
311.179	79.88
311.409	87.88
311.639	80.88
311.868	89.88
312.098	96.88
312.328	90.88
312.557	71.88
312.787	75.88
313.017	73.88
313.246	85.88
313.476	79.88
313.706	97.88
313.935	77.88
314.165	89.88
314.394	80.88
314.624	74.88
314.853	95.88
315.083	75.88
315.312	88.88
315.542	92.88
315.771	77.88
316.001	74.88
316.23	85.88
316.46	69.88
316.689	94.88
316.919	86.88
317.148	78.88
317.377	58.88
317.607	74.88
317.836	84.88
318.065	90.88
318.295	67.88
318.524	81.88
318.753	83.88
318.983	94.88
319.212	82.88
319.441	79.88
319.67	74.88
319.9	88.88
320.129	72.88
320.358	79.88
320.587	77.88
320.816	80.88
321.046	76.88
321.275	83.88
321.504	62.88
321.733	81.88
321.962	87.88
322.191	79.88
322.42	75.88
322.649	86.88
322.878	90.88
323.108	88.88
323.337	74.88
323.566	82.88
323.795	92.88
324.024	86.88
324.253	75.88
324.482	77.88
324.71	77.88
324.939	94.88
325.168	81.88
325.397	81.88
325.626	81.88
325.855	88.88
326.084	73.88
326.313	73.88
326.542	78.88
326.77	85.88
326.999	90.88
327.228	81.88
327.457	85.88
327.686	85.88
327.914	76.88
328.143	81.88
328.372	88.88
328.6	82.88
328.829	90.88
329.058	80.88
329.287	85.88
329.515	90.88
329.744	87.88
329.972	81.88
330.201	74.88
330.43	84.88
330.658	88.88
330.887	80.88
331.115	87.88
331.344	83.88
331.572	90.88
331.801	100.88
332.03	79.88
332.258	75.88
332.486	81.88
332.715	65.88
332.943	78.88
333.172	67.88
333.4	65.88
333.629	85.88
333.857	67.88
334.085	85.88
334.314	87.88
334.542	78.88
334.771	84.88
334.999	83.88
335.227	82.88
335.455	70.88
335.684	82.88
335.912	84.88
336.14	77.88
336.369	86.88
336.597	74.88
336.825	67.88
337.053	80.88
337.281	77.88
337.51	99.88
337.738	80.88
337.966	72.88
338.194	87.88
338.422	92.88
338.65	80.88
338.878	74.88
339.106	87.88
339.334	77.88
339.562	76.88
339.79	78.88
340.018	82.88
340.246	84.88
340.474	83.88
340.702	79.88
340.93	89.88
341.158	67.88
341.386	82.88
341.614	81.88
341.842	69.88
342.07	80.88
342.298	78.88
342.526	76.88
342.754	89.88
342.981	86.88
343.209	89.88
343.437	82.88
343.665	85.88
343.893	80.88
344.12	81.88
344.348	69.88
344.576	76.88
344.804	73.88
345.031	75.88
345.259	74.88
345.487	82.88
345.714	78.88
345.942	81.88
346.17	85.88
346.397	81.88
346.625	83.88
346.853	80.88
347.08	73.88
347.308	80.88
347.535	76.88
347.763	89.88
347.99	84.88
348.218	85.88
348.445	91.88
348.673	86.88
348.9	93.88
349.128	81.88
349.355	87.88
349.583	87.88
349.81	71.88
350.037	74.88
350.265	85.88
350.492	73.88
350.72	80.88
350.947	84.88
351.174	74.88
351.402	83.88
351.629	77.88
351.856	85.88
352.083	81.88
352.311	79.88
352.538	72.88
352.765	85.88
352.992	81.88
353.22	74.88
353.447	80.88
353.674	69.88
353.901	77.88
354.128	84.88
354.355	70.88
354.583	71.88
354.81	78.88
355.037	69.88
355.264	88.88
355.491	75.88
355.718	79.88
355.945	79.88
356.172	81.88
356.399	89.88
356.626	83.88
356.853	77.88
357.08	80.88
357.307	91.88
357.534	87.88
357.761	94.88
357.988	87.88
358.215	94.88
358.441	78.88
358.668	89.88
358.895	78.88
359.122	82.88
359.349	88.88
359.576	77.88
359.802	91.88
360.029	96.88
360.256	92.88
360.483	63.88
360.709	69.88
360.936	77.88
361.163	78.88
361.39	81.88
361.616	93.88
361.843	82.88
362.07	73.88
362.296	78.88
362.523	93.88
362.749	90.88
362.976	73.88
363.203	86.88
363.429	84.88
363.656	92.88
363.882	72.88
364.109	64.88
364.335	82.88
364.562	81.88
364.788	88.88
365.015	81.88
365.241	88.88
365.468	73.88
365.694	85.88
365.92	80.88
366.147	85.88
366.373	85.88
366.599	74.88
366.826	77.88
367.052	75.88
367.278	77.88
367.505	89.88
367.731	84.88
367.957	93.88
368.184	94.88
368.41	89.88
368.636	83.88
368.862	88.88
369.089	105.88
369.315	71.88
369.541	88.88
369.767	90.88
369.993	90.88
370.219	88.88
370.445	86.88
370.672	94.88
370.898	82.88
371.124	75.88
371.35	89.88
371.576	96.88
371.802	86.88
372.028	89.88
372.254	84.88
372.48	92.88
372.706	82.88
372.932	91.88
373.158	90.88
373.384	79.88
373.61	92.88
373.835	77.88
374.061	95.88
374.287	89.88
374.513	78.88
374.739	93.88
374.965	94.88
375.191	95.88
375.416	98.88
375.642	91.88
375.868	104.88
376.094	76.88
376.319	95.88
376.545	88.88
376.771	86.88
376.997	79.88
377.222	97.88
377.448	100.88
377.674	97.88
377.899	81.88
378.125	84.88
378.35	88.88
378.576	89.88
378.802	92.88
379.027	100.88
379.253	97.88
379.478	99.88
379.704	87.88
379.929	105.88
380.155	77.88
380.38	93.88
380.606	95.88
380.831	77.88
381.057	88.88
381.282	95.88
381.507	91.88
381.733	94.88
381.958	88.88
382.184	88.88
382.409	100.88
382.634	94.88
382.86	110.88
383.085	91.88
383.31	106.88
383.535	112.88
383.761	93.88
383.986	102.88
384.211	108.88
384.436	100.88
384.662	99.88
384.887	105.88
385.112	86.88
385.337	96.88
385.562	104.88
385.787	99.88
386.013	110.88
386.238	88.88
386.463	102.88
386.688	92.88
386.913	94.88
387.138	100.88
387.363	92.88
387.588	98.88
387.813	92.88
388.038	91.88
388.263	90.88
388.488	89.88
388.713	92.88
388.938	89.88
389.163	112.88
389.387	98.88
389.612	88.88
389.837	100.88
390.062	112.88
390.287	110.88
390.512	99.88
390.736	90.88
390.961	94.88
391.186	103.88
391.411	97.88
391.636	92.88
391.86	86.88
392.085	101.88
392.31	104.88
392.534	87.88
392.759	96.88
392.984	98.88
393.208	116.88
393.433	98.88
393.658	102.88
393.882	77.88
394.107	106.88
394.331	99.88
394.556	104.88
394.78	118.88
395.005	115.88
395.229	95.88
395.454	114.88
395.678	105.88
395.903	97.88
396.127	90.88
396.352	108.88
396.576	99.88
396.801	96.88
397.025	102.88
397.249	104.88
397.474	105.88
397.698	96.88
397.922	115.88
398.147	99.88
398.371	94.88
398.595	93.88
398.82	98.88
399.044	102.88
399.268	90.88
399.492	111.88
399.717	121.88
399.941	106.88
400.165	117.88
400.389	97.88
400.613	100.88
400.837	97.88
401.062	100.88
401.286	102.88
401.51	115.88
401.734	110.88
401.958	112.88
402.182	99.88
402.406	105.88
402.63	113.88
402.854	108.88
403.078	100.88
403.302	116.88
403.526	111.88
403.75	113.88
403.974	113.88
404.198	120.88
404.422	122.88
404.645	119.88
404.869	111.88
405.093	103.88
405.317	120.88
405.541	113.88
405.765	122.88
405.988	119.88
406.212	127.88
406.436	114.88
406.66	116.88
406.883	105.88
407.107	124.88
407.331	113.88
407.555	120.88
407.778	126.88
408.002	116.88
408.226	116.88
408.449	116.88
408.673	128.88
408.896	116.88
409.12	115.88
409.344	115.88
409.567	117.88
409.791	121.88
410.014	121.88
410.238	126.88
410.461	116.88
410.685	118.88
410.908	125.88
411.132	119.88
411.355	118.88
411.578	115.88
411.802	118.88
412.025	128.88
412.249	110.88
412.472	120.88
412.695	115.88
412.919	128.88
413.142	115.88
413.365	118.88
413.589	102.88
413.812	102.88
414.035	126.88
414.258	112.88
414.482	114.88
414.705	118.88
414.928	125.88
415.151	114.88
415.374	118.88
415.597	105.88
415.821	120.88
416.044	126.88
416.267	126.88
416.49	112.88
416.713	114.88
416.936	129.88
417.159	121.88
417.382	115.88
417.605	129.88
417.828	120.88
418.051	131.88
418.274	118.88
418.497	124.88
418.72	139.88
418.943	125.88
419.166	136.88
419.389	113.88
419.611	136.88
419.834	120.88
420.057	117.88
420.28	133.88
420.503	138.88
420.726	138.88
420.948	128.88
421.171	134.88
421.394	131.88
421.617	138.88
421.839	139.88
422.062	134.88
422.285	134.88
422.507	124.88
422.73	120.88
422.953	128.88
423.175	110.88
423.398	122.88
423.621	125.88
423.843	138.88
424.066	136.88
424.288	137.88
424.511	136.88
424.733	120.88
424.956	134.88
425.178	138.88
425.401	137.88
425.623	133.88
425.846	119.88
426.068	132.88
426.291	125.88
426.513	129.88
426.735	124.88
426.958	129.88
427.18	136.88
427.402	130.88
427.625	124.88
427.847	130.88
428.069	128.88
428.292	135.88
428.514	119.88
428.736	124.88
428.958	128.88
429.181	109.88
429.403	121.88
429.625	142.88
429.847	109.88
430.069	123.88
430.292	119.88
430.514	128.88
430.736	110.88
430.958	128.88
431.18	126.88
431.402	124.88
431.624	121.88
431.846	117.88
432.068	96.88
432.29	84.88
432.512	141.88
432.734	112.88
432.956	103.88
433.178	110.88
433.4	130.88
433.622	119.88
433.844	115.88
434.066	120.88
434.287	103.88
434.509	95.88
434.731	100.88
434.953	110.88
435.175	119.88
435.397	118.88
435.618	113.88
435.84	116.88
436.062	100.88
436.284	122.88
436.505	126.88
436.727	137.88
436.949	127.88
437.17	128.88
437.392	117.88
437.614	118.88
437.835	115.88
438.057	124.88
438.278	108.88
438.5	123.88
438.721	119.88
438.943	124.88
439.165	130.88
439.386	126.88
439.608	136.88
439.829	131.88
440.05	129.88
440.272	128.88
440.493	148.88
440.715	144.88
440.936	143.88
441.158	130.88
441.379	133.88
441.6	134.88
441.822	137.88
442.043	138.88
442.264	135.88
442.486	136.88
442.707	157.88
442.928	122.88
443.149	135.88
443.371	148.88
443.592	148.88
443.813	146.88
444.034	146.88
444.255	138.88
444.476	143.88
444.698	130.88
444.919	138.88
445.14	282.88
445.361	197.88
445.582	144.88
445.803	132.88
446.024	140.88
446.245	129.88
446.466	152.88
446.687	151.88
446.908	151.88
447.129	151.88
447.35	145.88
447.571	153.88
447.792	142.88
448.013	146.88
448.234	139.88
448.455	138.88
448.675	136.88
448.896	136.88
449.117	138.88
449.338	138.88
449.559	136.88
449.779	142.88
450	129.88
450.221	135.88
450.442	143.88
450.662	119.88
450.883	137.88
451.104	131.88
451.324	127.88
451.545	130.88
451.766	113.88
451.986	119.88
452.207	125.88
452.428	118.88
452.648	129.88
452.869	110.88
453.089	96.88
453.31	105.88
453.53	98.88
453.751	113.88
453.971	118.88
454.192	108.88
454.412	116.88
454.633	111.88
454.853	114.88
455.073	116.88
455.294	112.88
455.514	133.88
455.734	131.88
455.955	117.88
456.175	114.88
456.395	101.88
456.616	97.88
456.836	109.88
457.056	116.88
457.276	125.88
457.497	97.88
457.717	101.88
457.937	107.88
458.157	94.88
458.377	114.88
458.598	104.88
458.818	104.88
459.038	84.88
459.258	85.88
459.478	85.88
459.698	81.88
459.918	100.88
460.138	98.88
460.358	102.88
460.578	118.88
460.798	98.88
461.018	116.88
461.238	112.88
461.458	116.88
461.678	116.88
461.898	121.88
462.118	123.88
462.338	112.88
462.558	115.88
462.777	103.88
462.997	117.88
463.217	109.88
463.437	111.88
463.657	112.88
463.876	114.88
464.096	104.88
464.316	117.88
464.536	110.88
464.755	98.88
464.975	128.88
465.195	118.88
465.414	110.88
465.634	105.88
465.854	113.88
466.073	124.88
466.293	112.88
466.512	117.88
466.732	121.88
466.951	131.88
467.171	126.88
467.391	134.88
467.61	117.88
467.829	128.88
468.049	126.88
468.268	131.88
468.488	125.88
468.707	132.88
468.927	129.88
469.146	138.88
469.365	144.88
469.585	138.88
469.804	143.88
470.023	138.88
470.243	136.88
470.462	124.88
470.681	133.88
470.901	107.88
471.12	138.88
471.339	151.88
471.558	128.88
471.777	134.88
471.997	129.88
472.216	124.88
472.435	117.88
472.654	133.88
472.873	100.88
473.092	98.88
473.311	109.88
473.53	126.88
473.749	129.88
473.968	127.88
474.187	133.88
474.406	109.88
474.625	126.88
474.844	139.88
475.063	125.88
475.282	118.88
475.501	103.88
475.72	122.88
475.939	134.88
476.158	124.88
476.377	114.88
476.596	118.88
476.814	113.88
477.033	112.88
477.252	120.88
477.471	128.88
477.69	119.88
477.908	122.88
478.127	159.88
478.346	130.88
478.564	128.88
478.783	112.88
479.002	124.88
479.22	127.88
479.439	114.88
479.658	111.88
479.876	112.88
480.095	108.88
480.313	112.88
480.532	105.88
480.751	114.88
480.969	96.88
481.188	93.88
481.406	92.88
481.624	82.88
481.843	86.88
482.061	83.88
482.28	108.88
482.498	117.88
482.717	101.88
482.935	128.88
483.153	138.88
483.372	137.88
483.59	136.88
483.808	124.88
484.027	131.88
484.245	143.88
484.463	132.88
484.681	164.88
484.9	149.88
485.118	150.88
485.336	136.88
485.554	110.88
485.772	82.88
485.99	96.88
486.209	117.88
486.427	112.88
486.645	117.88
486.863	140.88
487.081	153.88
487.299	131.88
487.517	144.88
487.735	154.88
487.953	177.88
488.171	182.88
488.389	169.88
488.607	164.88
488.825	131.88
489.043	142.88
489.261	124.88
489.479	135.88
489.696	149.88
489.914	125.88
490.132	151.88
490.35	143.88
490.568	156.88
490.786	157.88
491.003	179.88
491.221	176.88
491.439	184.88
491.657	177.88
491.874	198.88
492.092	212.88
492.31	229.88
492.527	216.88
492.745	200.88
492.963	174.88
493.18	182.88
493.398	191.88
493.615	183.88
493.833	170.88
494.05	154.88
494.268	153.88
494.485	166.88
494.703	172.88
494.92	184.88
495.138	160.88
495.355	164.88
495.573	168.88
495.79	143.88
496.008	164.88
496.225	180.88
496.442	152.88
496.66	166.88
496.877	173.88
497.094	154.88
497.312	151.88
497.529	136.88
497.746	138.88
497.963	132.88
498.181	125.88
498.398	122.88
498.615	121.88
498.832	103.88
499.049	116.88
499.267	112.88
499.484	136.88
499.701	125.88
499.918	139.88
500.135	128.88
500.352	124.88
500.569	136.88
500.786	126.88
501.003	133.88
501.22	136.88
501.437	143.88
501.654	133.88
501.871	131.88
502.088	130.88
502.305	131.88
502.522	127.88
502.739	108.88
502.956	110.88
503.172	123.88
503.389	121.88
503.606	114.88
503.823	125.88
504.04	114.88
504.256	117.88
504.473	113.88
504.69	120.88
504.907	111.88
505.123	144.88
505.34	131.88
505.557	125.88
505.773	122.88
505.99	124.88
506.207	122.88
506.423	113.88
506.64	121.88
506.856	122.88
507.073	100.88
507.289	120.88
507.506	116.88
507.722	113.88
507.939	117.88
508.155	100.88
508.372	112.88
508.588	117.88
508.805	102.88
509.021	116.88
509.238	113.88
509.454	100.88
509.67	97.88
509.887	92.88
510.103	94.88
510.319	77.88
510.536	106.88
510.752	99.88
510.968	86.88
511.184	104.88
511.401	90.88
511.617	87.88
511.833	100.88
512.049	87.88
