Data from Location4.07152019.Energy5.Lamp.07192019.3%Agarose_HRD10591_16-20-22-925.txt Node
Date: Fri Jul 19 16:20:22 EDT 2019
User: cochatt
Spectrometer: HR+D1059
Trigger mode: 1
Integration Time (sec): 1.000000E-1
Scans to average: 1
Electric dark correction enabled: true
Nonlinearity correction enabled: false
Boxcar width: 0
XAxis mode: Wavelengths
Number of Pixels in Spectrum: 2048
>>>>>Begin Spectral Data<<<<<
223.165	-27.38
223.4	-27.38
223.635	-27.38
223.869	-17.38
224.104	-13.38
224.338	-10.38
224.573	-8.38
224.808	-8.38
225.042	-20.38
225.277	-9.38
225.511	-3.38
225.746	2.62
225.98	8.62
226.215	3.62
226.449	12.62
226.683	31.62
226.918	32.62
227.152	26.62
227.387	28.62
227.621	26.62
227.856	32.62
228.09	49.62
228.324	44.62
228.559	54.62
228.793	60.62
229.027	57.62
229.262	74.62
229.496	62.62
229.73	76.62
229.964	59.62
230.199	67.62
230.433	79.62
230.667	76.62
230.901	73.62
231.136	82.62
231.37	85.62
231.604	75.62
231.838	70.62
232.072	82.62
232.306	84.62
232.541	87.62
232.775	86.62
233.009	74.62
233.243	77.62
233.477	83.62
233.711	81.62
233.945	76.62
234.179	91.62
234.413	80.62
234.647	76.62
234.881	86.62
235.115	82.62
235.349	79.62
235.583	80.62
235.817	71.62
236.051	87.62
236.285	77.62
236.519	56.62
236.753	66.62
236.987	72.62
237.221	74.62
237.455	77.62
237.689	85.62
237.922	77.62
238.156	78.62
238.39	76.62
238.624	68.62
238.858	76.62
239.091	74.62
239.325	61.62
239.559	75.62
239.793	78.62
240.027	83.62
240.26	74.62
240.494	71.62
240.728	79.62
240.961	81.62
241.195	76.62
241.429	74.62
241.662	76.62
241.896	70.62
242.13	65.62
242.363	84.62
242.597	70.62
242.83	75.62
243.064	78.62
243.298	73.62
243.531	68.62
243.765	80.62
243.998	81.62
244.232	84.62
244.465	71.62
244.699	72.62
244.932	81.62
245.166	79.62
245.399	76.62
245.633	71.62
245.866	72.62
246.099	80.62
246.333	78.62
246.566	78.62
246.8	73.62
247.033	76.62
247.266	78.62
247.5	73.62
247.733	69.62
247.966	67.62
248.2	70.62
248.433	78.62
248.666	70.62
248.899	76.62
249.133	73.62
249.366	77.62
249.599	86.62
249.832	71.62
250.066	74.62
250.299	87.62
250.532	90.62
250.765	58.62
250.998	66.62
251.231	70.62
251.465	88.62
251.698	89.62
251.931	76.62
252.164	67.62
252.397	78.62
252.63	67.62
252.863	69.62
253.096	75.62
253.329	81.62
253.562	82.62
253.795	89.62
254.028	80.62
254.261	88.62
254.494	76.62
254.727	90.62
254.96	80.62
255.193	72.62
255.426	82.62
255.659	75.62
255.892	77.62
256.124	78.62
256.357	88.62
256.59	67.62
256.823	75.62
257.056	79.62
257.289	65.62
257.521	78.62
257.754	78.62
257.987	90.62
258.22	80.62
258.452	77.62
258.685	82.62
258.918	79.62
259.151	63.62
259.383	64.62
259.616	71.62
259.849	93.62
260.081	72.62
260.314	91.62
260.547	82.62
260.779	76.62
261.012	91.62
261.244	76.62
261.477	80.62
261.71	83.62
261.942	75.62
262.175	77.62
262.407	82.62
262.64	68.62
262.872	77.62
263.105	80.62
263.337	75.62
263.57	82.62
263.802	68.62
264.035	80.62
264.267	78.62
264.499	72.62
264.732	81.62
264.964	93.62
265.197	73.62
265.429	80.62
265.661	87.62
265.894	76.62
266.126	89.62
266.358	83.62
266.591	78.62
266.823	68.62
267.055	63.62
267.287	70.62
267.52	92.62
267.752	85.62
267.984	74.62
268.216	78.62
268.448	77.62
268.681	69.62
268.913	81.62
269.145	81.62
269.377	70.62
269.609	86.62
269.841	81.62
270.073	69.62
270.306	75.62
270.538	83.62
270.77	81.62
271.002	97.62
271.234	81.62
271.466	94.62
271.698	85.62
271.93	83.62
272.162	80.62
272.394	82.62
272.626	92.62
272.858	77.62
273.09	75.62
273.322	80.62
273.553	96.62
273.785	90.62
274.017	81.62
274.249	75.62
274.481	86.62
274.713	80.62
274.945	68.62
275.176	69.62
275.408	78.62
275.64	74.62
275.872	82.62
276.104	83.62
276.335	75.62
276.567	86.62
276.799	70.62
277.031	59.62
277.262	94.62
277.494	79.62
277.726	87.62
277.957	71.62
278.189	82.62
278.421	86.62
278.652	83.62
278.884	69.62
279.115	76.62
279.347	85.62
279.579	82.62
279.81	88.62
280.042	85.62
280.273	80.62
280.505	85.62
280.736	76.62
280.968	72.62
281.199	80.62
281.431	73.62
281.662	72.62
281.894	79.62
282.125	89.62
282.356	78.62
282.588	73.62
282.819	94.62
283.051	74.62
283.282	73.62
283.513	75.62
283.745	71.62
283.976	78.62
284.207	74.62
284.439	74.62
284.67	71.62
284.901	93.62
285.132	99.62
285.364	84.62
285.595	92.62
285.826	84.62
286.057	93.62
286.288	77.62
286.52	95.62
286.751	77.62
286.982	68.62
287.213	74.62
287.444	66.62
287.675	78.62
287.906	85.62
288.138	67.62
288.369	82.62
288.6	71.62
288.831	86.62
289.062	83.62
289.293	82.62
289.524	89.62
289.755	82.62
289.986	76.62
290.217	78.62
290.448	73.62
290.679	81.62
290.91	76.62
291.141	90.62
291.371	73.62
291.602	87.62
291.833	88.62
292.064	81.62
292.295	73.62
292.526	85.62
292.757	79.62
292.987	68.62
293.218	74.62
293.449	75.62
293.68	98.62
293.91	67.62
294.141	89.62
294.372	75.62
294.603	76.62
294.833	76.62
295.064	90.62
295.295	84.62
295.525	83.62
295.756	91.62
295.987	87.62
296.217	83.62
296.448	94.62
296.679	87.62
296.909	73.62
297.14	81.62
297.37	76.62
297.601	90.62
297.831	87.62
298.062	86.62
298.292	90.62
298.523	78.62
298.753	83.62
298.984	84.62
299.214	86.62
299.445	95.62
299.675	89.62
299.905	93.62
300.136	75.62
300.366	76.62
300.597	79.62
300.827	90.62
301.057	82.62
301.288	101.62
301.518	94.62
301.748	74.62
301.979	88.62
302.209	96.62
302.439	71.62
302.669	75.62
302.9	81.62
303.13	73.62
303.36	81.62
303.59	83.62
303.82	86.62
304.051	76.62
304.281	87.62
304.511	67.62
304.741	82.62
304.971	84.62
305.201	82.62
305.431	85.62
305.661	71.62
305.891	80.62
306.121	81.62
306.352	84.62
306.582	84.62
306.812	86.62
307.042	87.62
307.272	84.62
307.502	89.62
307.731	94.62
307.961	97.62
308.191	76.62
308.421	86.62
308.651	80.62
308.881	80.62
309.111	88.62
309.341	71.62
309.571	76.62
309.8	87.62
310.03	76.62
310.26	69.62
310.49	81.62
310.72	87.62
310.949	90.62
311.179	82.62
311.409	75.62
311.639	82.62
311.868	75.62
312.098	90.62
312.328	84.62
312.557	86.62
312.787	79.62
313.017	89.62
313.246	78.62
313.476	80.62
313.706	75.62
313.935	81.62
314.165	83.62
314.394	81.62
314.624	85.62
314.853	88.62
315.083	84.62
315.312	86.62
315.542	99.62
315.771	87.62
316.001	84.62
316.23	88.62
316.46	75.62
316.689	77.62
316.919	80.62
317.148	92.62
317.377	84.62
317.607	81.62
317.836	72.62
318.065	81.62
318.295	72.62
318.524	75.62
318.753	86.62
318.983	91.62
319.212	88.62
319.441	107.62
319.67	86.62
319.9	86.62
320.129	87.62
320.358	73.62
320.587	95.62
320.816	85.62
321.046	62.62
321.275	80.62
321.504	93.62
321.733	79.62
321.962	90.62
322.191	73.62
322.42	89.62
322.649	90.62
322.878	89.62
323.108	84.62
323.337	80.62
323.566	71.62
323.795	81.62
324.024	86.62
324.253	80.62
324.482	82.62
324.71	83.62
324.939	81.62
325.168	82.62
325.397	74.62
325.626	80.62
325.855	79.62
326.084	92.62
326.313	77.62
326.542	82.62
326.77	73.62
326.999	71.62
327.228	74.62
327.457	80.62
327.686	76.62
327.914	80.62
328.143	71.62
328.372	90.62
328.6	80.62
328.829	76.62
329.058	80.62
329.287	81.62
329.515	66.62
329.744	73.62
329.972	79.62
330.201	76.62
330.43	88.62
330.658	87.62
330.887	80.62
331.115	77.62
331.344	92.62
331.572	80.62
331.801	96.62
332.03	79.62
332.258	85.62
332.486	64.62
332.715	79.62
332.943	86.62
333.172	78.62
333.4	81.62
333.629	83.62
333.857	105.62
334.085	81.62
334.314	81.62
334.542	74.62
334.771	70.62
334.999	76.62
335.227	83.62
335.455	78.62
335.684	82.62
335.912	87.62
336.14	81.62
336.369	82.62
336.597	87.62
336.825	85.62
337.053	77.62
337.281	73.62
337.51	71.62
337.738	87.62
337.966	74.62
338.194	83.62
338.422	85.62
338.65	92.62
338.878	80.62
339.106	80.62
339.334	90.62
339.562	81.62
339.79	79.62
340.018	74.62
340.246	59.62
340.474	98.62
340.702	83.62
340.93	88.62
341.158	87.62
341.386	72.62
341.614	92.62
341.842	93.62
342.07	96.62
342.298	82.62
342.526	82.62
342.754	69.62
342.981	77.62
343.209	80.62
343.437	89.62
343.665	82.62
343.893	91.62
344.12	86.62
344.348	79.62
344.576	91.62
344.804	76.62
345.031	86.62
345.259	79.62
345.487	94.62
345.714	86.62
345.942	78.62
346.17	78.62
346.397	84.62
346.625	81.62
346.853	88.62
347.08	80.62
347.308	90.62
347.535	83.62
347.763	64.62
347.99	84.62
348.218	85.62
348.445	75.62
348.673	75.62
348.9	83.62
349.128	83.62
349.355	76.62
349.583	71.62
349.81	79.62
350.037	76.62
350.265	89.62
350.492	69.62
350.72	74.62
350.947	80.62
351.174	84.62
351.402	85.62
351.629	81.62
351.856	75.62
352.083	87.62
352.311	78.62
352.538	79.62
352.765	81.62
352.992	78.62
353.22	76.62
353.447	80.62
353.674	89.62
353.901	81.62
354.128	92.62
354.355	84.62
354.583	83.62
354.81	91.62
355.037	73.62
355.264	80.62
355.491	97.62
355.718	70.62
355.945	83.62
356.172	90.62
356.399	96.62
356.626	80.62
356.853	78.62
357.08	92.62
357.307	76.62
357.534	82.62
357.761	87.62
357.988	81.62
358.215	91.62
358.441	70.62
358.668	87.62
358.895	83.62
359.122	75.62
359.349	82.62
359.576	82.62
359.802	86.62
360.029	90.62
360.256	88.62
360.483	86.62
360.709	88.62
360.936	94.62
361.163	86.62
361.39	79.62
361.616	68.62
361.843	83.62
362.07	77.62
362.296	80.62
362.523	81.62
362.749	87.62
362.976	84.62
363.203	81.62
363.429	86.62
363.656	60.62
363.882	84.62
364.109	89.62
364.335	90.62
364.562	80.62
364.788	78.62
365.015	86.62
365.241	79.62
365.468	88.62
365.694	87.62
365.92	77.62
366.147	80.62
366.373	84.62
366.599	81.62
366.826	78.62
367.052	86.62
367.278	83.62
367.505	87.62
367.731	86.62
367.957	84.62
368.184	97.62
368.41	87.62
368.636	77.62
368.862	106.62
369.089	80.62
369.315	88.62
369.541	94.62
369.767	94.62
369.993	85.62
370.219	90.62
370.445	97.62
370.672	72.62
370.898	90.62
371.124	86.62
371.35	88.62
371.576	87.62
371.802	86.62
372.028	92.62
372.254	84.62
372.48	104.62
372.706	94.62
372.932	86.62
373.158	85.62
373.384	101.62
373.61	98.62
373.835	81.62
374.061	78.62
374.287	87.62
374.513	105.62
374.739	89.62
374.965	75.62
375.191	87.62
375.416	83.62
375.642	100.62
375.868	88.62
376.094	97.62
376.319	90.62
376.545	97.62
376.771	87.62
376.997	87.62
377.222	91.62
377.448	94.62
377.674	92.62
377.899	92.62
378.125	84.62
378.35	95.62
378.576	94.62
378.802	95.62
379.027	97.62
379.253	94.62
379.478	97.62
379.704	80.62
379.929	97.62
380.155	89.62
380.38	95.62
380.606	103.62
380.831	92.62
381.057	92.62
381.282	103.62
381.507	100.62
381.733	84.62
381.958	91.62
382.184	99.62
382.409	106.62
382.634	115.62
382.86	95.62
383.085	115.62
383.31	83.62
383.535	95.62
383.761	85.62
383.986	88.62
384.211	96.62
384.436	97.62
384.662	81.62
384.887	89.62
385.112	106.62
385.337	103.62
385.562	95.62
385.787	104.62
386.013	89.62
386.238	99.62
386.463	81.62
386.688	96.62
386.913	101.62
387.138	98.62
387.363	106.62
387.588	99.62
387.813	110.62
388.038	98.62
388.263	91.62
388.488	90.62
388.713	97.62
388.938	92.62
389.163	98.62
389.387	95.62
389.612	92.62
389.837	110.62
390.062	118.62
390.287	114.62
390.512	104.62
390.736	86.62
390.961	95.62
391.186	93.62
391.411	100.62
391.636	102.62
391.86	93.62
392.085	113.62
392.31	102.62
392.534	97.62
392.759	103.62
392.984	107.62
393.208	106.62
393.433	96.62
393.658	107.62
393.882	116.62
394.107	94.62
394.331	112.62
394.556	87.62
394.78	93.62
395.005	84.62
395.229	114.62
395.454	106.62
395.678	95.62
395.903	97.62
396.127	97.62
396.352	106.62
396.576	107.62
396.801	99.62
397.025	100.62
397.249	107.62
397.474	112.62
397.698	98.62
397.922	108.62
398.147	100.62
398.371	104.62
398.595	103.62
398.82	111.62
399.044	103.62
399.268	103.62
399.492	102.62
399.717	101.62
399.941	96.62
400.165	98.62
400.389	99.62
400.613	111.62
400.837	104.62
401.062	106.62
401.286	104.62
401.51	114.62
401.734	106.62
401.958	108.62
402.182	95.62
402.406	111.62
402.63	106.62
402.854	93.62
403.078	102.62
403.302	102.62
403.526	103.62
403.75	108.62
403.974	110.62
404.198	112.62
404.422	105.62
404.645	98.62
404.869	114.62
405.093	116.62
405.317	101.62
405.541	128.62
405.765	105.62
405.988	105.62
406.212	104.62
406.436	106.62
406.66	110.62
406.883	126.62
407.107	112.62
407.331	122.62
407.555	118.62
407.778	111.62
408.002	115.62
408.226	111.62
408.449	116.62
408.673	115.62
408.896	120.62
409.12	116.62
409.344	122.62
409.567	101.62
409.791	114.62
410.014	113.62
410.238	110.62
410.461	122.62
410.685	119.62
410.908	112.62
411.132	134.62
411.355	123.62
411.578	119.62
411.802	128.62
412.025	106.62
412.249	131.62
412.472	119.62
412.695	107.62
412.919	121.62
413.142	118.62
413.365	123.62
413.589	118.62
413.812	105.62
414.035	126.62
414.258	114.62
414.482	121.62
414.705	117.62
414.928	116.62
415.151	108.62
415.374	118.62
415.597	101.62
415.821	118.62
416.044	115.62
416.267	120.62
416.49	106.62
416.713	119.62
416.936	120.62
417.159	120.62
417.382	114.62
417.605	108.62
417.828	114.62
418.051	126.62
418.274	126.62
418.497	129.62
418.72	125.62
418.943	128.62
419.166	134.62
419.389	140.62
419.611	148.62
419.834	131.62
420.057	131.62
420.28	129.62
420.503	134.62
420.726	120.62
420.948	118.62
421.171	128.62
421.394	129.62
421.617	116.62
421.839	124.62
422.062	135.62
422.285	123.62
422.507	131.62
422.73	117.62
422.953	138.62
423.175	130.62
423.398	135.62
423.621	126.62
423.843	131.62
424.066	135.62
424.288	123.62
424.511	133.62
424.733	147.62
424.956	143.62
425.178	140.62
425.401	132.62
425.623	140.62
425.846	124.62
426.068	123.62
426.291	132.62
426.513	138.62
426.735	120.62
426.958	138.62
427.18	116.62
427.402	113.62
427.625	114.62
427.847	113.62
428.069	128.62
428.292	118.62
428.514	123.62
428.736	127.62
428.958	126.62
429.181	124.62
429.403	132.62
429.625	130.62
429.847	138.62
430.069	117.62
430.292	130.62
430.514	106.62
430.736	129.62
430.958	132.62
431.18	118.62
431.402	116.62
431.624	117.62
431.846	87.62
432.068	90.62
432.29	92.62
432.512	110.62
432.734	128.62
432.956	132.62
433.178	132.62
433.4	148.62
433.622	125.62
433.844	136.62
434.066	124.62
434.287	100.62
434.509	108.62
434.731	99.62
434.953	97.62
435.175	123.62
435.397	118.62
435.618	116.62
435.84	117.62
436.062	133.62
436.284	119.62
436.505	120.62
436.727	132.62
436.949	106.62
437.17	119.62
437.392	122.62
437.614	116.62
437.835	116.62
438.057	120.62
438.278	105.62
438.5	112.62
438.721	118.62
438.943	119.62
439.165	130.62
439.386	133.62
439.608	132.62
439.829	125.62
440.05	139.62
440.272	152.62
440.493	124.62
440.715	156.62
440.936	137.62
441.158	142.62
441.379	130.62
441.6	138.62
441.822	142.62
442.043	140.62
442.264	144.62
442.486	139.62
442.707	139.62
442.928	133.62
443.149	135.62
443.371	138.62
443.592	130.62
443.813	119.62
444.034	138.62
444.255	132.62
444.476	143.62
444.698	151.62
444.919	137.62
445.14	274.62
445.361	191.62
445.582	136.62
445.803	137.62
446.024	148.62
446.245	127.62
446.466	142.62
446.687	152.62
446.908	127.62
447.129	141.62
447.35	157.62
447.571	153.62
447.792	146.62
448.013	159.62
448.234	135.62
448.455	133.62
448.675	123.62
448.896	153.62
449.117	147.62
449.338	124.62
449.559	134.62
449.779	144.62
450	130.62
450.221	131.62
450.442	128.62
450.662	139.62
450.883	123.62
451.104	134.62
451.324	123.62
451.545	113.62
451.766	118.62
451.986	122.62
452.207	126.62
452.428	118.62
452.648	117.62
452.869	121.62
453.089	116.62
453.31	104.62
453.53	102.62
453.751	110.62
453.971	114.62
454.192	85.62
454.412	108.62
454.633	108.62
454.853	121.62
455.073	109.62
455.294	119.62
455.514	116.62
455.734	116.62
455.955	117.62
456.175	116.62
456.395	120.62
456.616	101.62
456.836	107.62
457.056	105.62
457.276	113.62
457.497	105.62
457.717	106.62
457.937	116.62
458.157	116.62
458.377	106.62
458.598	104.62
458.818	92.62
459.038	73.62
459.258	81.62
459.478	81.62
459.698	92.62
459.918	101.62
460.138	106.62
460.358	106.62
460.578	122.62
460.798	119.62
461.018	103.62
461.238	110.62
461.458	130.62
461.678	106.62
461.898	110.62
462.118	112.62
462.338	95.62
462.558	116.62
462.777	101.62
462.997	101.62
463.217	103.62
463.437	103.62
463.657	96.62
463.876	104.62
464.096	112.62
464.316	102.62
464.536	95.62
464.755	111.62
464.975	128.62
465.195	113.62
465.414	104.62
465.634	106.62
465.854	113.62
466.073	126.62
466.293	123.62
466.512	126.62
466.732	117.62
466.951	122.62
467.171	134.62
467.391	130.62
467.61	119.62
467.829	130.62
468.049	131.62
468.268	126.62
468.488	130.62
468.707	115.62
468.927	133.62
469.146	141.62
469.365	141.62
469.585	128.62
469.804	128.62
470.023	135.62
470.243	129.62
470.462	140.62
470.681	123.62
470.901	135.62
471.12	130.62
471.339	139.62
471.558	137.62
471.777	145.62
471.997	122.62
472.216	127.62
472.435	95.62
472.654	116.62
472.873	99.62
473.092	115.62
473.311	126.62
473.53	138.62
473.749	114.62
473.968	133.62
474.187	122.62
474.406	124.62
474.625	130.62
474.844	130.62
475.063	123.62
475.282	122.62
475.501	123.62
475.72	131.62
475.939	113.62
476.158	107.62
476.377	118.62
476.596	122.62
476.814	120.62
477.033	112.62
477.252	104.62
477.471	126.62
477.69	122.62
477.908	128.62
478.127	144.62
478.346	137.62
478.564	137.62
478.783	127.62
479.002	126.62
479.22	123.62
479.439	130.62
479.658	115.62
479.876	114.62
480.095	121.62
480.313	98.62
480.532	121.62
480.751	100.62
480.969	97.62
481.188	75.62
481.406	103.62
481.624	88.62
481.843	98.62
482.061	92.62
482.28	122.62
482.498	116.62
482.717	95.62
482.935	110.62
483.153	132.62
483.372	152.62
483.59	134.62
483.808	129.62
484.027	117.62
484.245	127.62
484.463	158.62
484.681	153.62
484.9	141.62
485.118	133.62
485.336	128.62
485.554	116.62
485.772	112.62
485.99	110.62
486.209	97.62
486.427	118.62
486.645	107.62
486.863	133.62
487.081	134.62
487.299	120.62
487.517	127.62
487.735	161.62
487.953	187.62
488.171	176.62
488.389	167.62
488.607	154.62
488.825	146.62
489.043	126.62
489.261	128.62
489.479	127.62
489.696	119.62
489.914	141.62
490.132	126.62
490.35	147.62
490.568	159.62
490.786	152.62
491.003	161.62
491.221	169.62
491.439	185.62
491.657	186.62
491.874	195.62
492.092	219.62
492.31	228.62
492.527	211.62
492.745	196.62
492.963	179.62
493.18	174.62
493.398	161.62
493.615	154.62
493.833	167.62
494.05	168.62
494.268	162.62
494.485	164.62
494.703	174.62
494.92	158.62
495.138	164.62
495.355	162.62
495.573	167.62
495.79	168.62
496.008	157.62
496.225	168.62
496.442	139.62
496.66	172.62
496.877	149.62
497.094	155.62
497.312	159.62
497.529	163.62
497.746	152.62
497.963	134.62
498.181	137.62
498.398	119.62
498.615	120.62
498.832	112.62
499.049	115.62
499.267	116.62
499.484	130.62
499.701	132.62
499.918	131.62
500.135	130.62
500.352	114.62
500.569	144.62
500.786	144.62
501.003	151.62
501.22	133.62
501.437	130.62
501.654	132.62
501.871	122.62
502.088	135.62
502.305	130.62
502.522	125.62
502.739	122.62
502.956	133.62
503.172	126.62
503.389	136.62
503.606	123.62
503.823	128.62
504.04	127.62
504.256	105.62
504.473	116.62
504.69	107.62
504.907	119.62
505.123	132.62
505.34	120.62
505.557	117.62
505.773	112.62
505.99	133.62
506.207	116.62
506.423	128.62
506.64	126.62
506.856	108.62
507.073	104.62
507.289	127.62
507.506	112.62
507.722	113.62
507.939	134.62
508.155	131.62
508.372	110.62
508.588	107.62
508.805	112.62
509.021	117.62
509.238	99.62
509.454	103.62
509.67	92.62
509.887	101.62
510.103	78.62
510.319	100.62
510.536	99.62
510.752	85.62
510.968	69.62
511.184	83.62
511.401	90.62
511.617	101.62
511.833	101.62
512.049	100.62
