Data from Location4.07152019.Energy5.Lamp.07192019.3%Agarose_HRD10591_16-20-17-926.txt Node
Date: Fri Jul 19 16:20:17 EDT 2019
User: cochatt
Spectrometer: HR+D1059
Trigger mode: 1
Integration Time (sec): 1.000000E-1
Scans to average: 1
Electric dark correction enabled: true
Nonlinearity correction enabled: false
Boxcar width: 0
XAxis mode: Wavelengths
Number of Pixels in Spectrum: 2048
>>>>>Begin Spectral Data<<<<<
223.165	-16.44
223.4	-16.44
223.635	-16.44
223.869	-2.44
224.104	-27.44
224.338	-25.44
224.573	-21.44
224.808	-24.44
225.042	-1.44
225.277	-5.44
225.511	-1.44
225.746	2.56
225.98	8.56
226.215	19.56
226.449	22.56
226.683	23.56
226.918	16.56
227.152	32.56
227.387	34.56
227.621	36.56
227.856	51.56
228.09	50.56
228.324	54.56
228.559	37.56
228.793	43.56
229.027	67.56
229.262	74.56
229.496	66.56
229.73	60.56
229.964	74.56
230.199	73.56
230.433	83.56
230.667	79.56
230.901	71.56
231.136	73.56
231.37	63.56
231.604	80.56
231.838	84.56
232.072	81.56
232.306	72.56
232.541	77.56
232.775	75.56
233.009	85.56
233.243	105.56
233.477	86.56
233.711	101.56
233.945	78.56
234.179	89.56
234.413	95.56
234.647	82.56
234.881	84.56
235.115	57.56
235.349	69.56
235.583	67.56
235.817	78.56
236.051	69.56
236.285	80.56
236.519	80.56
236.753	82.56
236.987	61.56
237.221	78.56
237.455	65.56
237.689	88.56
237.922	84.56
238.156	82.56
238.39	62.56
238.624	75.56
238.858	72.56
239.091	82.56
239.325	83.56
239.559	80.56
239.793	91.56
240.027	82.56
240.26	66.56
240.494	73.56
240.728	76.56
240.961	80.56
241.195	80.56
241.429	82.56
241.662	80.56
241.896	86.56
242.13	88.56
242.363	86.56
242.597	78.56
242.83	71.56
243.064	70.56
243.298	59.56
243.531	67.56
243.765	96.56
243.998	80.56
244.232	83.56
244.465	69.56
244.699	81.56
244.932	81.56
245.166	81.56
245.399	65.56
245.633	78.56
245.866	75.56
246.099	81.56
246.333	82.56
246.566	79.56
246.8	86.56
247.033	70.56
247.266	76.56
247.5	83.56
247.733	84.56
247.966	88.56
248.2	83.56
248.433	86.56
248.666	75.56
248.899	78.56
249.133	73.56
249.366	66.56
249.599	79.56
249.832	68.56
250.066	80.56
250.299	73.56
250.532	82.56
250.765	71.56
250.998	86.56
251.231	76.56
251.465	92.56
251.698	73.56
251.931	60.56
252.164	72.56
252.397	80.56
252.63	73.56
252.863	74.56
253.096	79.56
253.329	88.56
253.562	81.56
253.795	87.56
254.028	84.56
254.261	87.56
254.494	81.56
254.727	81.56
254.96	83.56
255.193	72.56
255.426	91.56
255.659	71.56
255.892	71.56
256.124	87.56
256.357	80.56
256.59	78.56
256.823	65.56
257.056	76.56
257.289	66.56
257.521	77.56
257.754	86.56
257.987	84.56
258.22	82.56
258.452	83.56
258.685	73.56
258.918	74.56
259.151	73.56
259.383	76.56
259.616	85.56
259.849	71.56
260.081	76.56
260.314	65.56
260.547	82.56
260.779	81.56
261.012	95.56
261.244	91.56
261.477	80.56
261.71	78.56
261.942	82.56
262.175	87.56
262.407	74.56
262.64	57.56
262.872	70.56
263.105	79.56
263.337	83.56
263.57	81.56
263.802	68.56
264.035	91.56
264.267	76.56
264.499	81.56
264.732	85.56
264.964	99.56
265.197	75.56
265.429	79.56
265.661	88.56
265.894	91.56
266.126	92.56
266.358	84.56
266.591	67.56
266.823	81.56
267.055	82.56
267.287	84.56
267.52	76.56
267.752	84.56
267.984	66.56
268.216	85.56
268.448	87.56
268.681	85.56
268.913	73.56
269.145	97.56
269.377	82.56
269.609	84.56
269.841	86.56
270.073	85.56
270.306	84.56
270.538	71.56
270.77	81.56
271.002	85.56
271.234	63.56
271.466	92.56
271.698	88.56
271.93	100.56
272.162	83.56
272.394	82.56
272.626	80.56
272.858	88.56
273.09	85.56
273.322	83.56
273.553	73.56
273.785	84.56
274.017	69.56
274.249	83.56
274.481	84.56
274.713	83.56
274.945	86.56
275.176	75.56
275.408	92.56
275.64	84.56
275.872	94.56
276.104	84.56
276.335	77.56
276.567	83.56
276.799	84.56
277.031	73.56
277.262	75.56
277.494	79.56
277.726	96.56
277.957	99.56
278.189	80.56
278.421	84.56
278.652	93.56
278.884	83.56
279.115	80.56
279.347	70.56
279.579	85.56
279.81	78.56
280.042	67.56
280.273	71.56
280.505	62.56
280.736	88.56
280.968	82.56
281.199	85.56
281.431	99.56
281.662	82.56
281.894	75.56
282.125	76.56
282.356	85.56
282.588	88.56
282.819	82.56
283.051	99.56
283.282	75.56
283.513	79.56
283.745	70.56
283.976	99.56
284.207	84.56
284.439	80.56
284.67	84.56
284.901	70.56
285.132	86.56
285.364	85.56
285.595	92.56
285.826	74.56
286.057	88.56
286.288	76.56
286.52	99.56
286.751	86.56
286.982	72.56
287.213	92.56
287.444	101.56
287.675	78.56
287.906	72.56
288.138	89.56
288.369	83.56
288.6	79.56
288.831	82.56
289.062	82.56
289.293	77.56
289.524	82.56
289.755	70.56
289.986	82.56
290.217	91.56
290.448	84.56
290.679	104.56
290.91	99.56
291.141	59.56
291.371	79.56
291.602	80.56
291.833	95.56
292.064	79.56
292.295	82.56
292.526	83.56
292.757	78.56
292.987	72.56
293.218	82.56
293.449	97.56
293.68	99.56
293.91	80.56
294.141	81.56
294.372	93.56
294.603	80.56
294.833	91.56
295.064	90.56
295.295	86.56
295.525	75.56
295.756	90.56
295.987	74.56
296.217	85.56
296.448	74.56
296.679	89.56
296.909	81.56
297.14	94.56
297.37	87.56
297.601	74.56
297.831	80.56
298.062	85.56
298.292	77.56
298.523	79.56
298.753	83.56
298.984	89.56
299.214	74.56
299.445	95.56
299.675	89.56
299.905	86.56
300.136	75.56
300.366	83.56
300.597	85.56
300.827	85.56
301.057	72.56
301.288	95.56
301.518	98.56
301.748	72.56
301.979	81.56
302.209	84.56
302.439	74.56
302.669	92.56
302.9	94.56
303.13	72.56
303.36	79.56
303.59	91.56
303.82	90.56
304.051	79.56
304.281	85.56
304.511	79.56
304.741	86.56
304.971	58.56
305.201	83.56
305.431	84.56
305.661	85.56
305.891	87.56
306.121	69.56
306.352	86.56
306.582	100.56
306.812	73.56
307.042	92.56
307.272	90.56
307.502	94.56
307.731	81.56
307.961	87.56
308.191	78.56
308.421	82.56
308.651	88.56
308.881	72.56
309.111	88.56
309.341	82.56
309.571	74.56
309.8	81.56
310.03	94.56
310.26	90.56
310.49	101.56
310.72	89.56
310.949	89.56
311.179	82.56
311.409	82.56
311.639	70.56
311.868	90.56
312.098	88.56
312.328	76.56
312.557	89.56
312.787	97.56
313.017	80.56
313.246	80.56
313.476	74.56
313.706	96.56
313.935	82.56
314.165	86.56
314.394	90.56
314.624	79.56
314.853	89.56
315.083	89.56
315.312	85.56
315.542	94.56
315.771	72.56
316.001	75.56
316.23	71.56
316.46	87.56
316.689	70.56
316.919	90.56
317.148	80.56
317.377	90.56
317.607	76.56
317.836	85.56
318.065	84.56
318.295	85.56
318.524	84.56
318.753	78.56
318.983	81.56
319.212	93.56
319.441	76.56
319.67	74.56
319.9	84.56
320.129	88.56
320.358	72.56
320.587	80.56
320.816	76.56
321.046	83.56
321.275	91.56
321.504	73.56
321.733	70.56
321.962	81.56
322.191	84.56
322.42	98.56
322.649	74.56
322.878	89.56
323.108	82.56
323.337	88.56
323.566	93.56
323.795	82.56
324.024	88.56
324.253	75.56
324.482	81.56
324.71	82.56
324.939	93.56
325.168	70.56
325.397	73.56
325.626	63.56
325.855	77.56
326.084	81.56
326.313	74.56
326.542	86.56
326.77	76.56
326.999	94.56
327.228	84.56
327.457	80.56
327.686	78.56
327.914	91.56
328.143	81.56
328.372	78.56
328.6	86.56
328.829	93.56
329.058	87.56
329.287	81.56
329.515	79.56
329.744	76.56
329.972	74.56
330.201	88.56
330.43	78.56
330.658	94.56
330.887	74.56
331.115	91.56
331.344	76.56
331.572	80.56
331.801	96.56
332.03	77.56
332.258	83.56
332.486	74.56
332.715	86.56
332.943	80.56
333.172	87.56
333.4	73.56
333.629	87.56
333.857	79.56
334.085	81.56
334.314	82.56
334.542	82.56
334.771	97.56
334.999	86.56
335.227	79.56
335.455	75.56
335.684	82.56
335.912	79.56
336.14	87.56
336.369	86.56
336.597	83.56
336.825	74.56
337.053	82.56
337.281	76.56
337.51	80.56
337.738	94.56
337.966	83.56
338.194	80.56
338.422	86.56
338.65	79.56
338.878	100.56
339.106	73.56
339.334	80.56
339.562	98.56
339.79	81.56
340.018	82.56
340.246	86.56
340.474	98.56
340.702	86.56
340.93	82.56
341.158	78.56
341.386	88.56
341.614	71.56
341.842	78.56
342.07	67.56
342.298	72.56
342.526	71.56
342.754	82.56
342.981	78.56
343.209	77.56
343.437	71.56
343.665	79.56
343.893	91.56
344.12	98.56
344.348	86.56
344.576	78.56
344.804	73.56
345.031	76.56
345.259	77.56
345.487	92.56
345.714	94.56
345.942	70.56
346.17	86.56
346.397	81.56
346.625	83.56
346.853	86.56
347.08	59.56
347.308	78.56
347.535	84.56
347.763	67.56
347.99	86.56
348.218	77.56
348.445	81.56
348.673	72.56
348.9	85.56
349.128	86.56
349.355	69.56
349.583	82.56
349.81	81.56
350.037	88.56
350.265	85.56
350.492	82.56
350.72	88.56
350.947	86.56
351.174	79.56
351.402	83.56
351.629	75.56
351.856	72.56
352.083	77.56
352.311	71.56
352.538	74.56
352.765	69.56
352.992	95.56
353.22	73.56
353.447	67.56
353.674	79.56
353.901	81.56
354.128	83.56
354.355	66.56
354.583	76.56
354.81	79.56
355.037	95.56
355.264	64.56
355.491	67.56
355.718	66.56
355.945	80.56
356.172	75.56
356.399	81.56
356.626	83.56
356.853	65.56
357.08	80.56
357.307	89.56
357.534	74.56
357.761	79.56
357.988	68.56
358.215	86.56
358.441	82.56
358.668	90.56
358.895	80.56
359.122	107.56
359.349	89.56
359.576	73.56
359.802	91.56
360.029	77.56
360.256	82.56
360.483	80.56
360.709	71.56
360.936	85.56
361.163	76.56
361.39	82.56
361.616	97.56
361.843	80.56
362.07	79.56
362.296	81.56
362.523	85.56
362.749	94.56
362.976	89.56
363.203	94.56
363.429	86.56
363.656	64.56
363.882	71.56
364.109	77.56
364.335	80.56
364.562	88.56
364.788	81.56
365.015	84.56
365.241	85.56
365.468	82.56
365.694	76.56
365.92	87.56
366.147	79.56
366.373	70.56
366.599	82.56
366.826	75.56
367.052	80.56
367.278	102.56
367.505	83.56
367.731	92.56
367.957	81.56
368.184	89.56
368.41	81.56
368.636	89.56
368.862	100.56
369.089	90.56
369.315	90.56
369.541	88.56
369.767	85.56
369.993	86.56
370.219	98.56
370.445	82.56
370.672	83.56
370.898	89.56
371.124	91.56
371.35	88.56
371.576	102.56
371.802	87.56
372.028	84.56
372.254	81.56
372.48	80.56
372.706	90.56
372.932	91.56
373.158	92.56
373.384	91.56
373.61	83.56
373.835	78.56
374.061	96.56
374.287	78.56
374.513	96.56
374.739	85.56
374.965	95.56
375.191	91.56
375.416	94.56
375.642	97.56
375.868	92.56
376.094	104.56
376.319	91.56
376.545	91.56
376.771	84.56
376.997	80.56
377.222	94.56
377.448	89.56
377.674	84.56
377.899	83.56
378.125	90.56
378.35	100.56
378.576	83.56
378.802	97.56
379.027	91.56
379.253	87.56
379.478	91.56
379.704	97.56
379.929	94.56
380.155	88.56
380.38	87.56
380.606	92.56
380.831	89.56
381.057	92.56
381.282	93.56
381.507	84.56
381.733	96.56
381.958	89.56
382.184	100.56
382.409	97.56
382.634	101.56
382.86	98.56
383.085	94.56
383.31	99.56
383.535	67.56
383.761	99.56
383.986	99.56
384.211	83.56
384.436	97.56
384.662	95.56
384.887	100.56
385.112	87.56
385.337	94.56
385.562	79.56
385.787	96.56
386.013	100.56
386.238	99.56
386.463	91.56
386.688	98.56
386.913	108.56
387.138	106.56
387.363	94.56
387.588	116.56
387.813	103.56
388.038	94.56
388.263	82.56
388.488	107.56
388.713	97.56
388.938	98.56
389.163	99.56
389.387	95.56
389.612	96.56
389.837	106.56
390.062	86.56
390.287	92.56
390.512	97.56
390.736	96.56
390.961	91.56
391.186	95.56
391.411	100.56
391.636	100.56
391.86	99.56
392.085	95.56
392.31	92.56
392.534	91.56
392.759	108.56
392.984	103.56
393.208	100.56
393.433	101.56
393.658	91.56
393.882	87.56
394.107	103.56
394.331	107.56
394.556	114.56
394.78	98.56
395.005	100.56
395.229	96.56
395.454	97.56
395.678	95.56
395.903	99.56
396.127	109.56
396.352	90.56
396.576	94.56
396.801	107.56
397.025	98.56
397.249	100.56
397.474	109.56
397.698	112.56
397.922	109.56
398.147	98.56
398.371	100.56
398.595	99.56
398.82	94.56
399.044	102.56
399.268	98.56
399.492	117.56
399.717	116.56
399.941	119.56
400.165	92.56
400.389	111.56
400.613	114.56
400.837	105.56
401.062	114.56
401.286	104.56
401.51	121.56
401.734	117.56
401.958	107.56
402.182	110.56
402.406	115.56
402.63	104.56
402.854	108.56
403.078	111.56
403.302	128.56
403.526	97.56
403.75	102.56
403.974	112.56
404.198	118.56
404.422	102.56
404.645	111.56
404.869	102.56
405.093	114.56
405.317	107.56
405.541	113.56
405.765	112.56
405.988	116.56
406.212	106.56
406.436	120.56
406.66	131.56
406.883	117.56
407.107	106.56
407.331	105.56
407.555	107.56
407.778	118.56
408.002	114.56
408.226	114.56
408.449	115.56
408.673	114.56
408.896	115.56
409.12	106.56
409.344	103.56
409.567	121.56
409.791	106.56
410.014	107.56
410.238	107.56
410.461	126.56
410.685	128.56
410.908	108.56
411.132	125.56
411.355	119.56
411.578	125.56
411.802	122.56
412.025	122.56
412.249	131.56
412.472	105.56
412.695	114.56
412.919	109.56
413.142	104.56
413.365	130.56
413.589	105.56
413.812	110.56
414.035	114.56
414.258	117.56
414.482	103.56
414.705	102.56
414.928	119.56
415.151	121.56
415.374	120.56
415.597	118.56
415.821	117.56
416.044	96.56
416.267	112.56
416.49	128.56
416.713	110.56
416.936	133.56
417.159	127.56
417.382	107.56
417.605	123.56
417.828	134.56
418.051	125.56
418.274	121.56
418.497	119.56
418.72	115.56
418.943	127.56
419.166	148.56
419.389	128.56
419.611	138.56
419.834	122.56
420.057	120.56
420.28	129.56
420.503	126.56
420.726	119.56
420.948	126.56
421.171	125.56
421.394	124.56
421.617	147.56
421.839	138.56
422.062	134.56
422.285	116.56
422.507	132.56
422.73	114.56
422.953	124.56
423.175	127.56
423.398	121.56
423.621	128.56
423.843	121.56
424.066	126.56
424.288	140.56
424.511	139.56
424.733	127.56
424.956	147.56
425.178	135.56
425.401	135.56
425.623	115.56
425.846	130.56
426.068	124.56
426.291	114.56
426.513	128.56
426.735	115.56
426.958	139.56
427.18	116.56
427.402	153.56
427.625	133.56
427.847	108.56
428.069	130.56
428.292	126.56
428.514	130.56
428.736	130.56
428.958	123.56
429.181	125.56
429.403	123.56
429.625	117.56
429.847	127.56
430.069	122.56
430.292	130.56
430.514	127.56
430.736	131.56
430.958	126.56
431.18	115.56
431.402	120.56
431.624	120.56
431.846	101.56
432.068	98.56
432.29	91.56
432.512	120.56
432.734	128.56
432.956	131.56
433.178	116.56
433.4	132.56
433.622	141.56
433.844	147.56
434.066	127.56
434.287	102.56
434.509	110.56
434.731	110.56
434.953	117.56
435.175	118.56
435.397	123.56
435.618	114.56
435.84	99.56
436.062	106.56
436.284	120.56
436.505	136.56
436.727	119.56
436.949	130.56
437.17	125.56
437.392	136.56
437.614	141.56
437.835	113.56
438.057	109.56
438.278	121.56
438.5	106.56
438.721	126.56
438.943	122.56
439.165	130.56
439.386	134.56
439.608	138.56
439.829	133.56
440.05	157.56
440.272	148.56
440.493	138.56
440.715	147.56
440.936	122.56
441.158	140.56
441.379	141.56
441.6	156.56
441.822	160.56
442.043	147.56
442.264	130.56
442.486	147.56
442.707	122.56
442.928	115.56
443.149	124.56
443.371	128.56
443.592	136.56
443.813	140.56
444.034	133.56
444.255	151.56
444.476	131.56
444.698	140.56
444.919	137.56
445.14	277.56
445.361	198.56
445.582	135.56
445.803	146.56
446.024	127.56
446.245	154.56
446.466	152.56
446.687	146.56
446.908	164.56
447.129	142.56
447.35	145.56
447.571	156.56
447.792	144.56
448.013	141.56
448.234	146.56
448.455	134.56
448.675	122.56
448.896	150.56
449.117	145.56
449.338	136.56
449.559	136.56
449.779	135.56
450	124.56
450.221	128.56
450.442	128.56
450.662	138.56
450.883	133.56
451.104	153.56
451.324	135.56
451.545	138.56
451.766	138.56
451.986	118.56
452.207	138.56
452.428	119.56
452.648	123.56
452.869	122.56
453.089	107.56
453.31	126.56
453.53	98.56
453.751	92.56
453.971	113.56
454.192	102.56
454.412	120.56
454.633	107.56
454.853	114.56
455.073	116.56
455.294	113.56
455.514	115.56
455.734	132.56
455.955	103.56
456.175	118.56
456.395	105.56
456.616	110.56
456.836	114.56
457.056	112.56
457.276	112.56
457.497	106.56
457.717	104.56
457.937	111.56
458.157	101.56
458.377	98.56
458.598	123.56
458.818	105.56
459.038	95.56
459.258	85.56
459.478	74.56
459.698	103.56
459.918	97.56
460.138	95.56
460.358	110.56
460.578	116.56
460.798	105.56
461.018	107.56
461.238	114.56
461.458	118.56
461.678	122.56
461.898	111.56
462.118	110.56
462.338	112.56
462.558	109.56
462.777	108.56
462.997	115.56
463.217	102.56
463.437	114.56
463.657	112.56
463.876	108.56
464.096	108.56
464.316	120.56
464.536	106.56
464.755	134.56
464.975	116.56
465.195	97.56
465.414	128.56
465.634	110.56
465.854	115.56
466.073	104.56
466.293	128.56
466.512	126.56
466.732	123.56
466.951	131.56
467.171	123.56
467.391	127.56
467.61	125.56
467.829	126.56
468.049	122.56
468.268	140.56
468.488	122.56
468.707	131.56
468.927	121.56
469.146	132.56
469.365	124.56
469.585	127.56
469.804	132.56
470.023	138.56
470.243	132.56
470.462	154.56
470.681	143.56
470.901	155.56
471.12	146.56
471.339	132.56
471.558	136.56
471.777	123.56
471.997	128.56
472.216	128.56
472.435	121.56
472.654	102.56
472.873	105.56
473.092	120.56
473.311	126.56
473.53	121.56
473.749	123.56
473.968	119.56
474.187	127.56
474.406	106.56
474.625	126.56
474.844	128.56
475.063	126.56
475.282	138.56
475.501	118.56
475.72	139.56
475.939	115.56
476.158	134.56
476.377	126.56
476.596	114.56
476.814	123.56
477.033	113.56
477.252	114.56
477.471	126.56
477.69	131.56
477.908	118.56
478.127	151.56
478.346	150.56
478.564	147.56
478.783	141.56
479.002	146.56
479.22	151.56
479.439	126.56
479.658	112.56
479.876	113.56
480.095	95.56
480.313	106.56
480.532	110.56
480.751	110.56
480.969	102.56
481.188	88.56
481.406	82.56
481.624	90.56
481.843	76.56
482.061	101.56
482.28	105.56
482.498	123.56
482.717	98.56
482.935	115.56
483.153	144.56
483.372	124.56
483.59	154.56
483.808	138.56
484.027	132.56
484.245	138.56
484.463	138.56
484.681	163.56
484.9	159.56
485.118	131.56
485.336	124.56
485.554	112.56
485.772	107.56
485.99	91.56
486.209	100.56
486.427	112.56
486.645	130.56
486.863	123.56
487.081	140.56
487.299	119.56
487.517	138.56
487.735	170.56
487.953	178.56
488.171	198.56
488.389	184.56
488.607	143.56
488.825	144.56
489.043	150.56
489.261	124.56
489.479	128.56
489.696	160.56
489.914	133.56
490.132	135.56
490.35	141.56
490.568	158.56
490.786	172.56
491.003	150.56
491.221	176.56
491.439	176.56
491.657	184.56
491.874	205.56
492.092	215.56
492.31	246.56
492.527	219.56
492.745	199.56
492.963	190.56
493.18	167.56
493.398	175.56
493.615	180.56
493.833	167.56
494.05	165.56
494.268	169.56
494.485	183.56
494.703	150.56
494.92	180.56
495.138	169.56
495.355	165.56
495.573	168.56
495.79	167.56
496.008	155.56
496.225	155.56
496.442	167.56
496.66	152.56
496.877	161.56
497.094	160.56
497.312	134.56
497.529	161.56
497.746	158.56
497.963	131.56
498.181	130.56
498.398	107.56
498.615	112.56
498.832	122.56
499.049	130.56
499.267	126.56
499.484	119.56
499.701	115.56
499.918	124.56
500.135	149.56
500.352	124.56
500.569	146.56
500.786	146.56
501.003	129.56
501.22	135.56
501.437	133.56
501.654	126.56
501.871	117.56
502.088	126.56
502.305	119.56
502.522	135.56
502.739	131.56
502.956	115.56
503.172	124.56
503.389	119.56
503.606	108.56
503.823	128.56
504.04	124.56
504.256	133.56
504.473	128.56
504.69	107.56
504.907	137.56
505.123	129.56
505.34	132.56
505.557	128.56
505.773	114.56
505.99	114.56
506.207	129.56
506.423	112.56
506.64	119.56
506.856	113.56
507.073	109.56
507.289	115.56
507.506	125.56
507.722	112.56
507.939	124.56
508.155	117.56
508.372	89.56
508.588	108.56
508.805	94.56
509.021	112.56
509.238	107.56
509.454	97.56
509.67	83.56
509.887	104.56
510.103	89.56
510.319	87.56
510.536	90.56
510.752	92.56
510.968	81.56
511.184	88.56
511.401	82.56
511.617	95.56
511.833	82.56
512.049	79.56
