Data from Location4.07152019.Energy5.Lamp.07192019.3%Agarose_HRD10591_16-19-03-930.txt Node
Date: Fri Jul 19 16:19:03 EDT 2019
User: cochatt
Spectrometer: HR+D1059
Trigger mode: 1
Integration Time (sec): 1.000000E-1
Scans to average: 1
Electric dark correction enabled: true
Nonlinearity correction enabled: false
Boxcar width: 0
XAxis mode: Wavelengths
Number of Pixels in Spectrum: 2048
>>>>>Begin Spectral Data<<<<<
223.165	-4.19
223.4	-4.19
223.635	-4.19
223.869	-17.19
224.104	-9.19
224.338	-35.19
224.573	-13.19
224.808	-25.19
225.042	-7.19
225.277	-10.19
225.511	-1.19
225.746	14.81
225.98	7.81
226.215	22.81
226.449	8.81
226.683	16.81
226.918	24.81
227.152	26.81
227.387	27.81
227.621	44.81
227.856	43.81
228.09	42.81
228.324	56.81
228.559	58.81
228.793	62.81
229.027	53.81
229.262	54.81
229.496	63.81
229.73	48.81
229.964	73.81
230.199	70.81
230.433	68.81
230.667	73.81
230.901	66.81
231.136	69.81
231.37	80.81
231.604	82.81
231.838	83.81
232.072	75.81
232.306	67.81
232.541	81.81
232.775	74.81
233.009	92.81
233.243	79.81
233.477	83.81
233.711	59.81
233.945	78.81
234.179	71.81
234.413	70.81
234.647	86.81
234.881	82.81
235.115	84.81
235.349	67.81
235.583	66.81
235.817	77.81
236.051	76.81
236.285	85.81
236.519	81.81
236.753	87.81
236.987	75.81
237.221	60.81
237.455	66.81
237.689	71.81
237.922	79.81
238.156	61.81
238.39	72.81
238.624	76.81
238.858	86.81
239.091	76.81
239.325	82.81
239.559	78.81
239.793	74.81
240.027	89.81
240.26	87.81
240.494	73.81
240.728	67.81
240.961	65.81
241.195	73.81
241.429	63.81
241.662	71.81
241.896	74.81
242.13	76.81
242.363	80.81
242.597	75.81
242.83	76.81
243.064	73.81
243.298	78.81
243.531	68.81
243.765	70.81
243.998	70.81
244.232	83.81
244.465	67.81
244.699	71.81
244.932	81.81
245.166	71.81
245.399	75.81
245.633	88.81
245.866	71.81
246.099	87.81
246.333	68.81
246.566	81.81
246.8	84.81
247.033	75.81
247.266	76.81
247.5	84.81
247.733	67.81
247.966	71.81
248.2	76.81
248.433	67.81
248.666	81.81
248.899	77.81
249.133	78.81
249.366	83.81
249.599	84.81
249.832	64.81
250.066	59.81
250.299	80.81
250.532	96.81
250.765	67.81
250.998	73.81
251.231	71.81
251.465	74.81
251.698	78.81
251.931	80.81
252.164	81.81
252.397	94.81
252.63	77.81
252.863	80.81
253.096	76.81
253.329	82.81
253.562	78.81
253.795	71.81
254.028	73.81
254.261	81.81
254.494	78.81
254.727	74.81
254.96	81.81
255.193	70.81
255.426	80.81
255.659	78.81
255.892	73.81
256.124	77.81
256.357	74.81
256.59	77.81
256.823	74.81
257.056	76.81
257.289	68.81
257.521	87.81
257.754	75.81
257.987	80.81
258.22	80.81
258.452	88.81
258.685	65.81
258.918	71.81
259.151	79.81
259.383	84.81
259.616	98.81
259.849	75.81
260.081	77.81
260.314	86.81
260.547	74.81
260.779	73.81
261.012	85.81
261.244	74.81
261.477	88.81
261.71	84.81
261.942	87.81
262.175	83.81
262.407	83.81
262.64	97.81
262.872	83.81
263.105	79.81
263.337	76.81
263.57	72.81
263.802	77.81
264.035	59.81
264.267	80.81
264.499	75.81
264.732	90.81
264.964	69.81
265.197	83.81
265.429	74.81
265.661	88.81
265.894	65.81
266.126	66.81
266.358	70.81
266.591	65.81
266.823	78.81
267.055	73.81
267.287	79.81
267.52	92.81
267.752	81.81
267.984	77.81
268.216	95.81
268.448	80.81
268.681	88.81
268.913	77.81
269.145	78.81
269.377	79.81
269.609	71.81
269.841	79.81
270.073	79.81
270.306	87.81
270.538	91.81
270.77	69.81
271.002	74.81
271.234	81.81
271.466	86.81
271.698	72.81
271.93	83.81
272.162	91.81
272.394	76.81
272.626	80.81
272.858	82.81
273.09	84.81
273.322	76.81
273.553	98.81
273.785	86.81
274.017	73.81
274.249	98.81
274.481	80.81
274.713	83.81
274.945	80.81
275.176	86.81
275.408	69.81
275.64	80.81
275.872	87.81
276.104	79.81
276.335	76.81
276.567	84.81
276.799	80.81
277.031	82.81
277.262	80.81
277.494	86.81
277.726	87.81
277.957	75.81
278.189	76.81
278.421	97.81
278.652	87.81
278.884	84.81
279.115	90.81
279.347	95.81
279.579	76.81
279.81	86.81
280.042	69.81
280.273	82.81
280.505	74.81
280.736	76.81
280.968	88.81
281.199	98.81
281.431	85.81
281.662	83.81
281.894	66.81
282.125	76.81
282.356	79.81
282.588	90.81
282.819	84.81
283.051	77.81
283.282	73.81
283.513	80.81
283.745	76.81
283.976	81.81
284.207	88.81
284.439	78.81
284.67	94.81
284.901	79.81
285.132	83.81
285.364	79.81
285.595	82.81
285.826	89.81
286.057	96.81
286.288	96.81
286.52	75.81
286.751	89.81
286.982	84.81
287.213	56.81
287.444	82.81
287.675	76.81
287.906	79.81
288.138	86.81
288.369	85.81
288.6	71.81
288.831	92.81
289.062	76.81
289.293	86.81
289.524	87.81
289.755	89.81
289.986	78.81
290.217	94.81
290.448	89.81
290.679	72.81
290.91	94.81
291.141	85.81
291.371	87.81
291.602	79.81
291.833	77.81
292.064	78.81
292.295	97.81
292.526	79.81
292.757	73.81
292.987	99.81
293.218	72.81
293.449	75.81
293.68	71.81
293.91	87.81
294.141	78.81
294.372	83.81
294.603	93.81
294.833	76.81
295.064	85.81
295.295	77.81
295.525	85.81
295.756	75.81
295.987	86.81
296.217	74.81
296.448	90.81
296.679	83.81
296.909	82.81
297.14	86.81
297.37	89.81
297.601	87.81
297.831	87.81
298.062	77.81
298.292	78.81
298.523	80.81
298.753	80.81
298.984	74.81
299.214	82.81
299.445	88.81
299.675	86.81
299.905	72.81
300.136	90.81
300.366	85.81
300.597	86.81
300.827	75.81
301.057	96.81
301.288	92.81
301.518	81.81
301.748	74.81
301.979	71.81
302.209	89.81
302.439	93.81
302.669	83.81
302.9	80.81
303.13	69.81
303.36	87.81
303.59	81.81
303.82	84.81
304.051	79.81
304.281	88.81
304.511	88.81
304.741	81.81
304.971	74.81
305.201	70.81
305.431	71.81
305.661	78.81
305.891	91.81
306.121	82.81
306.352	88.81
306.582	93.81
306.812	96.81
307.042	79.81
307.272	86.81
307.502	91.81
307.731	78.81
307.961	84.81
308.191	77.81
308.421	87.81
308.651	100.81
308.881	84.81
309.111	89.81
309.341	69.81
309.571	82.81
309.8	81.81
310.03	79.81
310.26	78.81
310.49	75.81
310.72	75.81
310.949	75.81
311.179	72.81
311.409	86.81
311.639	85.81
311.868	93.81
312.098	82.81
312.328	76.81
312.557	76.81
312.787	83.81
313.017	76.81
313.246	91.81
313.476	90.81
313.706	78.81
313.935	76.81
314.165	71.81
314.394	81.81
314.624	91.81
314.853	81.81
315.083	63.81
315.312	87.81
315.542	82.81
315.771	89.81
316.001	88.81
316.23	83.81
316.46	79.81
316.689	69.81
316.919	74.81
317.148	91.81
317.377	82.81
317.607	77.81
317.836	89.81
318.065	74.81
318.295	82.81
318.524	76.81
318.753	87.81
318.983	100.81
319.212	90.81
319.441	90.81
319.67	95.81
319.9	88.81
320.129	64.81
320.358	80.81
320.587	77.81
320.816	82.81
321.046	67.81
321.275	75.81
321.504	73.81
321.733	73.81
321.962	78.81
322.191	86.81
322.42	91.81
322.649	81.81
322.878	83.81
323.108	96.81
323.337	84.81
323.566	88.81
323.795	94.81
324.024	76.81
324.253	84.81
324.482	68.81
324.71	82.81
324.939	86.81
325.168	79.81
325.397	85.81
325.626	80.81
325.855	83.81
326.084	88.81
326.313	72.81
326.542	92.81
326.77	83.81
326.999	94.81
327.228	80.81
327.457	82.81
327.686	73.81
327.914	81.81
328.143	77.81
328.372	86.81
328.6	74.81
328.829	89.81
329.058	91.81
329.287	81.81
329.515	89.81
329.744	85.81
329.972	107.81
330.201	95.81
330.43	85.81
330.658	75.81
330.887	87.81
331.115	95.81
331.344	79.81
331.572	74.81
331.801	75.81
332.03	89.81
332.258	95.81
332.486	89.81
332.715	78.81
332.943	77.81
333.172	70.81
333.4	74.81
333.629	70.81
333.857	86.81
334.085	86.81
334.314	97.81
334.542	86.81
334.771	80.81
334.999	89.81
335.227	72.81
335.455	79.81
335.684	83.81
335.912	91.81
336.14	75.81
336.369	81.81
336.597	76.81
336.825	74.81
337.053	86.81
337.281	81.81
337.51	86.81
337.738	66.81
337.966	77.81
338.194	80.81
338.422	71.81
338.65	90.81
338.878	75.81
339.106	88.81
339.334	92.81
339.562	90.81
339.79	86.81
340.018	75.81
340.246	88.81
340.474	76.81
340.702	89.81
340.93	86.81
341.158	77.81
341.386	84.81
341.614	89.81
341.842	92.81
342.07	97.81
342.298	88.81
342.526	87.81
342.754	85.81
342.981	91.81
343.209	83.81
343.437	83.81
343.665	96.81
343.893	82.81
344.12	80.81
344.348	74.81
344.576	75.81
344.804	75.81
345.031	77.81
345.259	79.81
345.487	86.81
345.714	78.81
345.942	90.81
346.17	88.81
346.397	81.81
346.625	89.81
346.853	87.81
347.08	96.81
347.308	79.81
347.535	71.81
347.763	73.81
347.99	75.81
348.218	87.81
348.445	81.81
348.673	98.81
348.9	77.81
349.128	87.81
349.355	81.81
349.583	91.81
349.81	79.81
350.037	76.81
350.265	83.81
350.492	81.81
350.72	72.81
350.947	79.81
351.174	82.81
351.402	79.81
351.629	81.81
351.856	86.81
352.083	85.81
352.311	71.81
352.538	82.81
352.765	76.81
352.992	92.81
353.22	89.81
353.447	77.81
353.674	76.81
353.901	78.81
354.128	82.81
354.355	67.81
354.583	82.81
354.81	68.81
355.037	66.81
355.264	74.81
355.491	78.81
355.718	86.81
355.945	79.81
356.172	69.81
356.399	80.81
356.626	90.81
356.853	78.81
357.08	87.81
357.307	81.81
357.534	77.81
357.761	94.81
357.988	90.81
358.215	80.81
358.441	76.81
358.668	62.81
358.895	74.81
359.122	85.81
359.349	74.81
359.576	92.81
359.802	90.81
360.029	80.81
360.256	96.81
360.483	75.81
360.709	92.81
360.936	71.81
361.163	82.81
361.39	72.81
361.616	77.81
361.843	83.81
362.07	87.81
362.296	84.81
362.523	80.81
362.749	78.81
362.976	74.81
363.203	80.81
363.429	83.81
363.656	76.81
363.882	75.81
364.109	84.81
364.335	90.81
364.562	83.81
364.788	82.81
365.015	84.81
365.241	94.81
365.468	81.81
365.694	77.81
365.92	93.81
366.147	82.81
366.373	97.81
366.599	88.81
366.826	81.81
367.052	97.81
367.278	77.81
367.505	87.81
367.731	81.81
367.957	83.81
368.184	83.81
368.41	97.81
368.636	91.81
368.862	81.81
369.089	87.81
369.315	95.81
369.541	81.81
369.767	96.81
369.993	85.81
370.219	74.81
370.445	84.81
370.672	80.81
370.898	92.81
371.124	85.81
371.35	82.81
371.576	96.81
371.802	84.81
372.028	101.81
372.254	98.81
372.48	83.81
372.706	93.81
372.932	87.81
373.158	80.81
373.384	96.81
373.61	86.81
373.835	104.81
374.061	85.81
374.287	89.81
374.513	84.81
374.739	81.81
374.965	89.81
375.191	84.81
375.416	87.81
375.642	87.81
375.868	101.81
376.094	101.81
376.319	79.81
376.545	102.81
376.771	87.81
376.997	88.81
377.222	82.81
377.448	91.81
377.674	94.81
377.899	82.81
378.125	102.81
378.35	93.81
378.576	82.81
378.802	85.81
379.027	81.81
379.253	101.81
379.478	94.81
379.704	88.81
379.929	97.81
380.155	104.81
380.38	74.81
380.606	98.81
380.831	94.81
381.057	97.81
381.282	100.81
381.507	90.81
381.733	84.81
381.958	112.81
382.184	95.81
382.409	83.81
382.634	95.81
382.86	93.81
383.085	92.81
383.31	92.81
383.535	90.81
383.761	95.81
383.986	94.81
384.211	89.81
384.436	105.81
384.662	91.81
384.887	102.81
385.112	106.81
385.337	105.81
385.562	105.81
385.787	90.81
386.013	91.81
386.238	103.81
386.463	93.81
386.688	101.81
386.913	97.81
387.138	96.81
387.363	108.81
387.588	102.81
387.813	108.81
388.038	87.81
388.263	104.81
388.488	91.81
388.713	101.81
388.938	104.81
389.163	100.81
389.387	83.81
389.612	91.81
389.837	100.81
390.062	101.81
390.287	83.81
390.512	103.81
390.736	84.81
390.961	97.81
391.186	96.81
391.411	111.81
391.636	100.81
391.86	112.81
392.085	103.81
392.31	93.81
392.534	99.81
392.759	101.81
392.984	103.81
393.208	103.81
393.433	104.81
393.658	104.81
393.882	102.81
394.107	94.81
394.331	98.81
394.556	92.81
394.78	100.81
395.005	110.81
395.229	95.81
395.454	96.81
395.678	90.81
395.903	99.81
396.127	112.81
396.352	106.81
396.576	104.81
396.801	105.81
397.025	105.81
397.249	105.81
397.474	110.81
397.698	116.81
397.922	97.81
398.147	99.81
398.371	98.81
398.595	106.81
398.82	111.81
399.044	111.81
399.268	96.81
399.492	107.81
399.717	107.81
399.941	110.81
400.165	98.81
400.389	107.81
400.613	115.81
400.837	96.81
401.062	101.81
401.286	109.81
401.51	112.81
401.734	98.81
401.958	98.81
402.182	114.81
402.406	111.81
402.63	111.81
402.854	111.81
403.078	107.81
403.302	88.81
403.526	103.81
403.75	118.81
403.974	122.81
404.198	129.81
404.422	130.81
404.645	110.81
404.869	96.81
405.093	114.81
405.317	116.81
405.541	105.81
405.765	106.81
405.988	119.81
406.212	114.81
406.436	122.81
406.66	103.81
406.883	122.81
407.107	119.81
407.331	106.81
407.555	115.81
407.778	116.81
408.002	104.81
408.226	100.81
408.449	103.81
408.673	103.81
408.896	123.81
409.12	116.81
409.344	112.81
409.567	111.81
409.791	118.81
410.014	118.81
410.238	110.81
410.461	115.81
410.685	117.81
410.908	107.81
411.132	114.81
411.355	122.81
411.578	117.81
411.802	121.81
412.025	112.81
412.249	107.81
412.472	104.81
412.695	123.81
412.919	122.81
413.142	115.81
413.365	114.81
413.589	123.81
413.812	114.81
414.035	107.81
414.258	124.81
414.482	118.81
414.705	116.81
414.928	121.81
415.151	102.81
415.374	104.81
415.597	118.81
415.821	131.81
416.044	122.81
416.267	109.81
416.49	113.81
416.713	119.81
416.936	127.81
417.159	121.81
417.382	125.81
417.605	114.81
417.828	116.81
418.051	129.81
418.274	128.81
418.497	129.81
418.72	128.81
418.943	128.81
419.166	130.81
419.389	122.81
419.611	132.81
419.834	146.81
420.057	133.81
420.28	122.81
420.503	119.81
420.726	132.81
420.948	134.81
421.171	117.81
421.394	138.81
421.617	139.81
421.839	126.81
422.062	119.81
422.285	131.81
422.507	122.81
422.73	120.81
422.953	108.81
423.175	124.81
423.398	126.81
423.621	128.81
423.843	131.81
424.066	132.81
424.288	149.81
424.511	132.81
424.733	141.81
424.956	136.81
425.178	141.81
425.401	136.81
425.623	128.81
425.846	124.81
426.068	120.81
426.291	121.81
426.513	142.81
426.735	126.81
426.958	130.81
427.18	132.81
427.402	123.81
427.625	114.81
427.847	118.81
428.069	120.81
428.292	119.81
428.514	143.81
428.736	122.81
428.958	113.81
429.181	139.81
429.403	120.81
429.625	136.81
429.847	124.81
430.069	139.81
430.292	123.81
430.514	139.81
430.736	122.81
430.958	124.81
431.18	119.81
431.402	123.81
431.624	123.81
431.846	102.81
432.068	94.81
432.29	87.81
432.512	113.81
432.734	136.81
432.956	136.81
433.178	144.81
433.4	138.81
433.622	127.81
433.844	137.81
434.066	128.81
434.287	110.81
434.509	102.81
434.731	100.81
434.953	111.81
435.175	120.81
435.397	135.81
435.618	113.81
435.84	106.81
436.062	110.81
436.284	132.81
436.505	120.81
436.727	121.81
436.949	122.81
437.17	127.81
437.392	116.81
437.614	110.81
437.835	115.81
438.057	112.81
438.278	117.81
438.5	126.81
438.721	132.81
438.943	128.81
439.165	126.81
439.386	126.81
439.608	133.81
439.829	133.81
440.05	131.81
440.272	129.81
440.493	148.81
440.715	129.81
440.936	145.81
441.158	125.81
441.379	136.81
441.6	149.81
441.822	150.81
442.043	148.81
442.264	148.81
442.486	131.81
442.707	139.81
442.928	112.81
443.149	128.81
443.371	130.81
443.592	134.81
443.813	143.81
444.034	139.81
444.255	136.81
444.476	141.81
444.698	129.81
444.919	147.81
445.14	250.81
445.361	186.81
445.582	148.81
445.803	142.81
446.024	151.81
446.245	140.81
446.466	154.81
446.687	157.81
446.908	123.81
447.129	147.81
447.35	140.81
447.571	142.81
447.792	146.81
448.013	143.81
448.234	140.81
448.455	141.81
448.675	136.81
448.896	132.81
449.117	136.81
449.338	133.81
449.559	136.81
449.779	130.81
450	145.81
450.221	132.81
450.442	140.81
450.662	143.81
450.883	133.81
451.104	142.81
451.324	141.81
451.545	119.81
451.766	129.81
451.986	122.81
452.207	137.81
452.428	121.81
452.648	102.81
452.869	116.81
453.089	114.81
453.31	113.81
453.53	111.81
453.751	108.81
453.971	120.81
454.192	103.81
454.412	113.81
454.633	104.81
454.853	114.81
455.073	118.81
455.294	119.81
455.514	114.81
455.734	118.81
455.955	113.81
456.175	116.81
456.395	102.81
456.616	102.81
456.836	95.81
457.056	111.81
457.276	96.81
457.497	108.81
457.717	106.81
457.937	122.81
458.157	106.81
458.377	94.81
458.598	93.81
458.818	103.81
459.038	87.81
459.258	89.81
459.478	85.81
459.698	77.81
459.918	93.81
460.138	106.81
460.358	104.81
460.578	106.81
460.798	121.81
461.018	92.81
461.238	112.81
461.458	102.81
461.678	94.81
461.898	105.81
462.118	119.81
462.338	106.81
462.558	106.81
462.777	111.81
462.997	98.81
463.217	103.81
463.437	94.81
463.657	108.81
463.876	123.81
464.096	120.81
464.316	96.81
464.536	102.81
464.755	114.81
464.975	111.81
465.195	106.81
465.414	108.81
465.634	122.81
465.854	110.81
466.073	106.81
466.293	116.81
466.512	116.81
466.732	128.81
466.951	116.81
467.171	140.81
467.391	130.81
467.61	133.81
467.829	137.81
468.049	126.81
468.268	120.81
468.488	125.81
468.707	139.81
468.927	121.81
469.146	130.81
469.365	138.81
469.585	135.81
469.804	130.81
470.023	124.81
470.243	128.81
470.462	129.81
470.681	146.81
470.901	133.81
471.12	126.81
471.339	138.81
471.558	124.81
471.777	127.81
471.997	136.81
472.216	121.81
472.435	112.81
472.654	120.81
472.873	111.81
473.092	118.81
473.311	96.81
473.53	106.81
473.749	124.81
473.968	117.81
474.187	116.81
474.406	146.81
474.625	120.81
474.844	121.81
475.063	133.81
475.282	126.81
475.501	115.81
475.72	120.81
475.939	120.81
476.158	115.81
476.377	126.81
476.596	125.81
476.814	116.81
477.033	125.81
477.252	110.81
477.471	112.81
477.69	131.81
477.908	137.81
478.127	148.81
478.346	128.81
478.564	139.81
478.783	131.81
479.002	122.81
479.22	138.81
479.439	126.81
479.658	87.81
479.876	109.81
480.095	95.81
480.313	116.81
480.532	102.81
480.751	116.81
480.969	89.81
481.188	94.81
481.406	88.81
481.624	91.81
481.843	99.81
482.061	101.81
482.28	100.81
482.498	110.81
482.717	120.81
482.935	118.81
483.153	145.81
483.372	147.81
483.59	147.81
483.808	143.81
484.027	134.81
484.245	126.81
484.463	130.81
484.681	165.81
484.9	151.81
485.118	128.81
485.336	134.81
485.554	111.81
485.772	110.81
485.99	89.81
486.209	116.81
486.427	117.81
486.645	115.81
486.863	126.81
487.081	136.81
487.299	129.81
487.517	141.81
487.735	149.81
487.953	169.81
488.171	190.81
488.389	180.81
488.607	160.81
488.825	148.81
489.043	112.81
489.261	126.81
489.479	130.81
489.696	133.81
489.914	142.81
490.132	152.81
490.35	147.81
490.568	160.81
490.786	166.81
491.003	181.81
491.221	181.81
491.439	182.81
491.657	188.81
491.874	205.81
492.092	226.81
492.31	231.81
492.527	217.81
492.745	187.81
492.963	198.81
493.18	194.81
493.398	186.81
493.615	171.81
493.833	168.81
494.05	170.81
494.268	164.81
494.485	188.81
494.703	162.81
494.92	154.81
495.138	155.81
495.355	176.81
495.573	168.81
495.79	154.81
496.008	158.81
496.225	158.81
496.442	180.81
496.66	177.81
496.877	147.81
497.094	174.81
497.312	153.81
497.529	152.81
497.746	132.81
497.963	135.81
498.181	139.81
498.398	130.81
498.615	120.81
498.832	102.81
499.049	114.81
499.267	118.81
499.484	120.81
499.701	116.81
499.918	141.81
500.135	116.81
500.352	127.81
500.569	132.81
500.786	135.81
501.003	131.81
501.22	134.81
501.437	130.81
501.654	125.81
501.871	126.81
502.088	121.81
502.305	143.81
502.522	130.81
502.739	139.81
502.956	130.81
503.172	127.81
503.389	119.81
503.606	122.81
503.823	99.81
504.04	107.81
504.256	113.81
504.473	113.81
504.69	106.81
504.907	120.81
505.123	124.81
505.34	124.81
505.557	122.81
505.773	124.81
505.99	120.81
506.207	125.81
506.423	106.81
506.64	117.81
506.856	111.81
507.073	124.81
507.289	114.81
507.506	117.81
507.722	108.81
507.939	112.81
508.155	120.81
508.372	123.81
508.588	106.81
508.805	107.81
509.021	110.81
509.238	112.81
509.454	88.81
509.67	93.81
509.887	95.81
510.103	89.81
510.319	89.81
510.536	98.81
510.752	87.81
510.968	94.81
511.184	91.81
511.401	82.81
511.617	92.81
511.833	90.81
512.049	98.81
