Data from Location4.07152019.Energy5.Lamp.07192019.3%Agarose_HRD10591_16-21-11-926.txt Node
Date: Fri Jul 19 16:21:11 EDT 2019
User: cochatt
Spectrometer: HR+D1059
Trigger mode: 1
Integration Time (sec): 1.000000E-1
Scans to average: 1
Electric dark correction enabled: true
Nonlinearity correction enabled: false
Boxcar width: 0
XAxis mode: Wavelengths
Number of Pixels in Spectrum: 2048
>>>>>Begin Spectral Data<<<<<
223.165	-14.94
223.4	-14.94
223.635	-14.94
223.869	-2.94
224.104	-12.94
224.338	-13.94
224.573	-20.94
224.808	-20.94
225.042	-1.94
225.277	0.06
225.511	-13.94
225.746	-0.94
225.98	9.06
226.215	11.06
226.449	9.06
226.683	16.06
226.918	22.06
227.152	36.06
227.387	29.06
227.621	35.06
227.856	46.06
228.09	44.06
228.324	54.06
228.559	54.06
228.793	51.06
229.027	66.06
229.262	49.06
229.496	53.06
229.73	76.06
229.964	76.06
230.199	76.06
230.433	74.06
230.667	78.06
230.901	80.06
231.136	70.06
231.37	71.06
231.604	82.06
231.838	71.06
232.072	80.06
232.306	77.06
232.541	89.06
232.775	85.06
233.009	75.06
233.243	68.06
233.477	80.06
233.711	71.06
233.945	82.06
234.179	68.06
234.413	91.06
234.647	70.06
234.881	60.06
235.115	65.06
235.349	79.06
235.583	77.06
235.817	87.06
236.051	80.06
236.285	74.06
236.519	76.06
236.753	75.06
236.987	76.06
237.221	83.06
237.455	78.06
237.689	78.06
237.922	84.06
238.156	81.06
238.39	75.06
238.624	77.06
238.858	67.06
239.091	80.06
239.325	76.06
239.559	75.06
239.793	71.06
240.027	84.06
240.26	76.06
240.494	84.06
240.728	86.06
240.961	70.06
241.195	72.06
241.429	72.06
241.662	75.06
241.896	83.06
242.13	74.06
242.363	68.06
242.597	82.06
242.83	76.06
243.064	65.06
243.298	66.06
243.531	80.06
243.765	92.06
243.998	89.06
244.232	75.06
244.465	84.06
244.699	67.06
244.932	72.06
245.166	81.06
245.399	83.06
245.633	81.06
245.866	87.06
246.099	90.06
246.333	90.06
246.566	51.06
246.8	68.06
247.033	74.06
247.266	76.06
247.5	72.06
247.733	71.06
247.966	67.06
248.2	75.06
248.433	71.06
248.666	72.06
248.899	77.06
249.133	77.06
249.366	72.06
249.599	81.06
249.832	72.06
250.066	72.06
250.299	88.06
250.532	74.06
250.765	67.06
250.998	75.06
251.231	61.06
251.465	65.06
251.698	87.06
251.931	72.06
252.164	86.06
252.397	72.06
252.63	85.06
252.863	82.06
253.096	86.06
253.329	72.06
253.562	79.06
253.795	62.06
254.028	79.06
254.261	67.06
254.494	73.06
254.727	73.06
254.96	76.06
255.193	74.06
255.426	67.06
255.659	77.06
255.892	84.06
256.124	76.06
256.357	69.06
256.59	88.06
256.823	76.06
257.056	90.06
257.289	91.06
257.521	76.06
257.754	81.06
257.987	79.06
258.22	73.06
258.452	82.06
258.685	92.06
258.918	85.06
259.151	88.06
259.383	75.06
259.616	75.06
259.849	96.06
260.081	78.06
260.314	74.06
260.547	68.06
260.779	90.06
261.012	81.06
261.244	73.06
261.477	82.06
261.71	72.06
261.942	75.06
262.175	69.06
262.407	83.06
262.64	85.06
262.872	71.06
263.105	74.06
263.337	86.06
263.57	72.06
263.802	82.06
264.035	91.06
264.267	81.06
264.499	86.06
264.732	84.06
264.964	95.06
265.197	89.06
265.429	78.06
265.661	74.06
265.894	65.06
266.126	90.06
266.358	107.06
266.591	76.06
266.823	77.06
267.055	78.06
267.287	86.06
267.52	82.06
267.752	73.06
267.984	85.06
268.216	66.06
268.448	90.06
268.681	72.06
268.913	84.06
269.145	87.06
269.377	88.06
269.609	76.06
269.841	72.06
270.073	68.06
270.306	88.06
270.538	90.06
270.77	76.06
271.002	70.06
271.234	79.06
271.466	77.06
271.698	94.06
271.93	75.06
272.162	71.06
272.394	74.06
272.626	74.06
272.858	74.06
273.09	86.06
273.322	85.06
273.553	71.06
273.785	82.06
274.017	77.06
274.249	75.06
274.481	85.06
274.713	98.06
274.945	87.06
275.176	87.06
275.408	75.06
275.64	84.06
275.872	97.06
276.104	88.06
276.335	80.06
276.567	78.06
276.799	86.06
277.031	63.06
277.262	77.06
277.494	77.06
277.726	78.06
277.957	88.06
278.189	80.06
278.421	64.06
278.652	84.06
278.884	84.06
279.115	73.06
279.347	81.06
279.579	63.06
279.81	73.06
280.042	84.06
280.273	79.06
280.505	75.06
280.736	89.06
280.968	90.06
281.199	79.06
281.431	84.06
281.662	87.06
281.894	83.06
282.125	75.06
282.356	82.06
282.588	72.06
282.819	81.06
283.051	88.06
283.282	82.06
283.513	78.06
283.745	80.06
283.976	99.06
284.207	88.06
284.439	96.06
284.67	98.06
284.901	100.06
285.132	90.06
285.364	86.06
285.595	79.06
285.826	96.06
286.057	77.06
286.288	76.06
286.52	93.06
286.751	74.06
286.982	81.06
287.213	81.06
287.444	71.06
287.675	83.06
287.906	83.06
288.138	83.06
288.369	65.06
288.6	74.06
288.831	92.06
289.062	69.06
289.293	82.06
289.524	89.06
289.755	103.06
289.986	88.06
290.217	82.06
290.448	80.06
290.679	90.06
290.91	84.06
291.141	90.06
291.371	82.06
291.602	85.06
291.833	82.06
292.064	86.06
292.295	73.06
292.526	85.06
292.757	84.06
292.987	87.06
293.218	80.06
293.449	96.06
293.68	86.06
293.91	86.06
294.141	82.06
294.372	83.06
294.603	76.06
294.833	83.06
295.064	82.06
295.295	80.06
295.525	79.06
295.756	82.06
295.987	83.06
296.217	98.06
296.448	86.06
296.679	89.06
296.909	91.06
297.14	88.06
297.37	88.06
297.601	72.06
297.831	89.06
298.062	87.06
298.292	89.06
298.523	95.06
298.753	85.06
298.984	89.06
299.214	81.06
299.445	91.06
299.675	85.06
299.905	85.06
300.136	90.06
300.366	76.06
300.597	70.06
300.827	81.06
301.057	87.06
301.288	81.06
301.518	76.06
301.748	89.06
301.979	86.06
302.209	85.06
302.439	82.06
302.669	81.06
302.9	81.06
303.13	75.06
303.36	83.06
303.59	75.06
303.82	80.06
304.051	95.06
304.281	81.06
304.511	83.06
304.741	84.06
304.971	92.06
305.201	76.06
305.431	76.06
305.661	76.06
305.891	88.06
306.121	81.06
306.352	85.06
306.582	75.06
306.812	75.06
307.042	90.06
307.272	83.06
307.502	84.06
307.731	90.06
307.961	86.06
308.191	90.06
308.421	76.06
308.651	88.06
308.881	89.06
309.111	76.06
309.341	87.06
309.571	86.06
309.8	96.06
310.03	82.06
310.26	91.06
310.49	98.06
310.72	84.06
310.949	72.06
311.179	84.06
311.409	82.06
311.639	94.06
311.868	94.06
312.098	89.06
312.328	88.06
312.557	74.06
312.787	81.06
313.017	80.06
313.246	96.06
313.476	68.06
313.706	75.06
313.935	78.06
314.165	76.06
314.394	75.06
314.624	92.06
314.853	87.06
315.083	80.06
315.312	68.06
315.542	80.06
315.771	84.06
316.001	75.06
316.23	68.06
316.46	91.06
316.689	102.06
316.919	63.06
317.148	88.06
317.377	89.06
317.607	98.06
317.836	91.06
318.065	100.06
318.295	83.06
318.524	85.06
318.753	76.06
318.983	76.06
319.212	103.06
319.441	81.06
319.67	80.06
319.9	84.06
320.129	76.06
320.358	76.06
320.587	90.06
320.816	66.06
321.046	92.06
321.275	94.06
321.504	81.06
321.733	88.06
321.962	88.06
322.191	76.06
322.42	89.06
322.649	84.06
322.878	79.06
323.108	84.06
323.337	86.06
323.566	66.06
323.795	75.06
324.024	84.06
324.253	82.06
324.482	85.06
324.71	80.06
324.939	91.06
325.168	96.06
325.397	77.06
325.626	98.06
325.855	85.06
326.084	82.06
326.313	77.06
326.542	78.06
326.77	67.06
326.999	86.06
327.228	80.06
327.457	83.06
327.686	84.06
327.914	83.06
328.143	93.06
328.372	87.06
328.6	90.06
328.829	77.06
329.058	90.06
329.287	81.06
329.515	92.06
329.744	95.06
329.972	68.06
330.201	94.06
330.43	63.06
330.658	87.06
330.887	95.06
331.115	87.06
331.344	75.06
331.572	89.06
331.801	96.06
332.03	73.06
332.258	82.06
332.486	87.06
332.715	98.06
332.943	82.06
333.172	80.06
333.4	83.06
333.629	81.06
333.857	86.06
334.085	95.06
334.314	86.06
334.542	66.06
334.771	78.06
334.999	90.06
335.227	85.06
335.455	90.06
335.684	79.06
335.912	82.06
336.14	75.06
336.369	73.06
336.597	65.06
336.825	90.06
337.053	85.06
337.281	87.06
337.51	85.06
337.738	83.06
337.966	81.06
338.194	93.06
338.422	74.06
338.65	85.06
338.878	87.06
339.106	88.06
339.334	87.06
339.562	90.06
339.79	89.06
340.018	84.06
340.246	86.06
340.474	82.06
340.702	86.06
340.93	94.06
341.158	65.06
341.386	90.06
341.614	86.06
341.842	80.06
342.07	86.06
342.298	75.06
342.526	89.06
342.754	81.06
342.981	87.06
343.209	82.06
343.437	79.06
343.665	87.06
343.893	83.06
344.12	93.06
344.348	88.06
344.576	71.06
344.804	92.06
345.031	62.06
345.259	74.06
345.487	83.06
345.714	81.06
345.942	80.06
346.17	71.06
346.397	74.06
346.625	85.06
346.853	83.06
347.08	89.06
347.308	87.06
347.535	74.06
347.763	76.06
347.99	83.06
348.218	79.06
348.445	86.06
348.673	92.06
348.9	82.06
349.128	84.06
349.355	91.06
349.583	83.06
349.81	77.06
350.037	76.06
350.265	76.06
350.492	84.06
350.72	70.06
350.947	77.06
351.174	86.06
351.402	81.06
351.629	87.06
351.856	91.06
352.083	90.06
352.311	84.06
352.538	74.06
352.765	78.06
352.992	79.06
353.22	85.06
353.447	92.06
353.674	93.06
353.901	92.06
354.128	86.06
354.355	74.06
354.583	63.06
354.81	82.06
355.037	74.06
355.264	90.06
355.491	74.06
355.718	89.06
355.945	75.06
356.172	81.06
356.399	68.06
356.626	91.06
356.853	69.06
357.08	89.06
357.307	90.06
357.534	86.06
357.761	84.06
357.988	79.06
358.215	71.06
358.441	83.06
358.668	79.06
358.895	93.06
359.122	75.06
359.349	76.06
359.576	94.06
359.802	102.06
360.029	90.06
360.256	94.06
360.483	82.06
360.709	72.06
360.936	92.06
361.163	77.06
361.39	76.06
361.616	89.06
361.843	63.06
362.07	74.06
362.296	79.06
362.523	93.06
362.749	76.06
362.976	89.06
363.203	74.06
363.429	88.06
363.656	92.06
363.882	97.06
364.109	91.06
364.335	79.06
364.562	91.06
364.788	80.06
365.015	96.06
365.241	83.06
365.468	96.06
365.694	88.06
365.92	83.06
366.147	83.06
366.373	94.06
366.599	96.06
366.826	87.06
367.052	87.06
367.278	84.06
367.505	85.06
367.731	80.06
367.957	80.06
368.184	74.06
368.41	80.06
368.636	94.06
368.862	88.06
369.089	96.06
369.315	99.06
369.541	88.06
369.767	79.06
369.993	87.06
370.219	83.06
370.445	84.06
370.672	82.06
370.898	79.06
371.124	80.06
371.35	95.06
371.576	87.06
371.802	88.06
372.028	90.06
372.254	85.06
372.48	92.06
372.706	96.06
372.932	79.06
373.158	97.06
373.384	88.06
373.61	96.06
373.835	89.06
374.061	84.06
374.287	85.06
374.513	91.06
374.739	78.06
374.965	88.06
375.191	76.06
375.416	74.06
375.642	95.06
375.868	88.06
376.094	91.06
376.319	81.06
376.545	97.06
376.771	86.06
376.997	85.06
377.222	96.06
377.448	91.06
377.674	94.06
377.899	86.06
378.125	88.06
378.35	100.06
378.576	99.06
378.802	80.06
379.027	91.06
379.253	92.06
379.478	88.06
379.704	101.06
379.929	80.06
380.155	111.06
380.38	83.06
380.606	88.06
380.831	101.06
381.057	108.06
381.282	84.06
381.507	97.06
381.733	83.06
381.958	96.06
382.184	88.06
382.409	88.06
382.634	94.06
382.86	106.06
383.085	99.06
383.31	96.06
383.535	102.06
383.761	108.06
383.986	99.06
384.211	92.06
384.436	90.06
384.662	93.06
384.887	95.06
385.112	91.06
385.337	97.06
385.562	91.06
385.787	90.06
386.013	99.06
386.238	99.06
386.463	90.06
386.688	90.06
386.913	102.06
387.138	85.06
387.363	98.06
387.588	89.06
387.813	100.06
388.038	100.06
388.263	97.06
388.488	93.06
388.713	102.06
388.938	95.06
389.163	95.06
389.387	99.06
389.612	87.06
389.837	96.06
390.062	107.06
390.287	101.06
390.512	102.06
390.736	112.06
390.961	99.06
391.186	107.06
391.411	94.06
391.636	93.06
391.86	102.06
392.085	102.06
392.31	89.06
392.534	103.06
392.759	101.06
392.984	101.06
393.208	90.06
393.433	84.06
393.658	103.06
393.882	119.06
394.107	103.06
394.331	104.06
394.556	116.06
394.78	95.06
395.005	97.06
395.229	109.06
395.454	106.06
395.678	102.06
395.903	114.06
396.127	105.06
396.352	101.06
396.576	106.06
396.801	86.06
397.025	103.06
397.249	119.06
397.474	108.06
397.698	105.06
397.922	110.06
398.147	115.06
398.371	111.06
398.595	95.06
398.82	110.06
399.044	103.06
399.268	92.06
399.492	111.06
399.717	98.06
399.941	96.06
400.165	112.06
400.389	122.06
400.613	120.06
400.837	101.06
401.062	101.06
401.286	106.06
401.51	112.06
401.734	95.06
401.958	114.06
402.182	97.06
402.406	94.06
402.63	101.06
402.854	118.06
403.078	111.06
403.302	82.06
403.526	107.06
403.75	118.06
403.974	102.06
404.198	110.06
404.422	111.06
404.645	112.06
404.869	126.06
405.093	102.06
405.317	126.06
405.541	133.06
405.765	111.06
405.988	119.06
406.212	101.06
406.436	128.06
406.66	122.06
406.883	116.06
407.107	116.06
407.331	100.06
407.555	102.06
407.778	101.06
408.002	124.06
408.226	114.06
408.449	103.06
408.673	106.06
408.896	110.06
409.12	104.06
409.344	121.06
409.567	91.06
409.791	102.06
410.014	119.06
410.238	118.06
410.461	110.06
410.685	128.06
410.908	126.06
411.132	118.06
411.355	123.06
411.578	120.06
411.802	104.06
412.025	121.06
412.249	115.06
412.472	119.06
412.695	95.06
412.919	98.06
413.142	134.06
413.365	136.06
413.589	123.06
413.812	130.06
414.035	121.06
414.258	122.06
414.482	111.06
414.705	107.06
414.928	113.06
415.151	130.06
415.374	126.06
415.597	127.06
415.821	137.06
416.044	139.06
416.267	117.06
416.49	131.06
416.713	113.06
416.936	129.06
417.159	119.06
417.382	122.06
417.605	113.06
417.828	117.06
418.051	122.06
418.274	137.06
418.497	137.06
418.72	122.06
418.943	138.06
419.166	131.06
419.389	134.06
419.611	138.06
419.834	127.06
420.057	106.06
420.28	124.06
420.503	138.06
420.726	138.06
420.948	128.06
421.171	124.06
421.394	134.06
421.617	128.06
421.839	129.06
422.062	136.06
422.285	124.06
422.507	131.06
422.73	118.06
422.953	121.06
423.175	130.06
423.398	122.06
423.621	139.06
423.843	136.06
424.066	130.06
424.288	135.06
424.511	129.06
424.733	145.06
424.956	139.06
425.178	123.06
425.401	130.06
425.623	130.06
425.846	112.06
426.068	136.06
426.291	127.06
426.513	143.06
426.735	127.06
426.958	119.06
427.18	121.06
427.402	135.06
427.625	108.06
427.847	112.06
428.069	118.06
428.292	130.06
428.514	124.06
428.736	126.06
428.958	116.06
429.181	119.06
429.403	132.06
429.625	115.06
429.847	128.06
430.069	116.06
430.292	126.06
430.514	121.06
430.736	118.06
430.958	126.06
431.18	135.06
431.402	100.06
431.624	98.06
431.846	110.06
432.068	102.06
432.29	83.06
432.512	100.06
432.734	123.06
432.956	113.06
433.178	139.06
433.4	125.06
433.622	126.06
433.844	128.06
434.066	121.06
434.287	95.06
434.509	96.06
434.731	112.06
434.953	118.06
435.175	116.06
435.397	116.06
435.618	104.06
435.84	114.06
436.062	122.06
436.284	114.06
436.505	126.06
436.727	119.06
436.949	124.06
437.17	126.06
437.392	134.06
437.614	119.06
437.835	113.06
438.057	118.06
438.278	111.06
438.5	113.06
438.721	126.06
438.943	139.06
439.165	129.06
439.386	143.06
439.608	149.06
439.829	140.06
440.05	138.06
440.272	131.06
440.493	145.06
440.715	135.06
440.936	137.06
441.158	152.06
441.379	146.06
441.6	134.06
441.822	151.06
442.043	141.06
442.264	129.06
442.486	110.06
442.707	126.06
442.928	116.06
443.149	144.06
443.371	134.06
443.592	131.06
443.813	138.06
444.034	141.06
444.255	147.06
444.476	140.06
444.698	133.06
444.919	140.06
445.14	264.06
445.361	191.06
445.582	147.06
445.803	146.06
446.024	144.06
446.245	143.06
446.466	156.06
446.687	151.06
446.908	149.06
447.129	146.06
447.35	139.06
447.571	138.06
447.792	141.06
448.013	120.06
448.234	136.06
448.455	138.06
448.675	126.06
448.896	139.06
449.117	128.06
449.338	128.06
449.559	134.06
449.779	121.06
450	133.06
450.221	134.06
450.442	123.06
450.662	128.06
450.883	130.06
451.104	127.06
451.324	120.06
451.545	141.06
451.766	124.06
451.986	135.06
452.207	112.06
452.428	118.06
452.648	105.06
452.869	113.06
453.089	112.06
453.31	114.06
453.53	115.06
453.751	101.06
453.971	102.06
454.192	121.06
454.412	96.06
454.633	108.06
454.853	116.06
455.073	131.06
455.294	116.06
455.514	124.06
455.734	102.06
455.955	106.06
456.175	113.06
456.395	115.06
456.616	97.06
456.836	115.06
457.056	112.06
457.276	110.06
457.497	99.06
457.717	90.06
457.937	98.06
458.157	91.06
458.377	98.06
458.598	102.06
458.818	97.06
459.038	87.06
459.258	84.06
459.478	90.06
459.698	117.06
459.918	90.06
460.138	91.06
460.358	106.06
460.578	112.06
460.798	105.06
461.018	107.06
461.238	118.06
461.458	118.06
461.678	113.06
461.898	101.06
462.118	126.06
462.338	104.06
462.558	130.06
462.777	101.06
462.997	104.06
463.217	114.06
463.437	93.06
463.657	118.06
463.876	117.06
464.096	111.06
464.316	101.06
464.536	108.06
464.755	106.06
464.975	106.06
465.195	106.06
465.414	119.06
465.634	110.06
465.854	121.06
466.073	117.06
466.293	115.06
466.512	113.06
466.732	119.06
466.951	139.06
467.171	131.06
467.391	127.06
467.61	128.06
467.829	135.06
468.049	135.06
468.268	124.06
468.488	113.06
468.707	133.06
468.927	129.06
469.146	128.06
469.365	149.06
469.585	151.06
469.804	140.06
470.023	137.06
470.243	140.06
470.462	138.06
470.681	145.06
470.901	132.06
471.12	137.06
471.339	140.06
471.558	133.06
471.777	134.06
471.997	119.06
472.216	124.06
472.435	109.06
472.654	116.06
472.873	104.06
473.092	120.06
473.311	103.06
473.53	126.06
473.749	119.06
473.968	129.06
474.187	122.06
474.406	120.06
474.625	122.06
474.844	114.06
475.063	114.06
475.282	123.06
475.501	112.06
475.72	105.06
475.939	121.06
476.158	103.06
476.377	116.06
476.596	130.06
476.814	102.06
477.033	103.06
477.252	118.06
477.471	115.06
477.69	126.06
477.908	132.06
478.127	136.06
478.346	120.06
478.564	138.06
478.783	142.06
479.002	117.06
479.22	138.06
479.439	118.06
479.658	132.06
479.876	115.06
480.095	104.06
480.313	106.06
480.532	121.06
480.751	120.06
480.969	100.06
481.188	101.06
481.406	75.06
481.624	83.06
481.843	104.06
482.061	87.06
482.28	100.06
482.498	125.06
482.717	105.06
482.935	118.06
483.153	143.06
483.372	152.06
483.59	145.06
483.808	137.06
484.027	136.06
484.245	134.06
484.463	135.06
484.681	153.06
484.9	138.06
485.118	139.06
485.336	126.06
485.554	101.06
485.772	80.06
485.99	104.06
486.209	112.06
486.427	104.06
486.645	120.06
486.863	141.06
487.081	139.06
487.299	118.06
487.517	142.06
487.735	167.06
487.953	165.06
488.171	185.06
488.389	160.06
488.607	160.06
488.825	139.06
489.043	132.06
489.261	129.06
489.479	136.06
489.696	139.06
489.914	152.06
490.132	132.06
490.35	151.06
490.568	163.06
490.786	158.06
491.003	163.06
491.221	155.06
491.439	183.06
491.657	175.06
491.874	191.06
492.092	193.06
492.31	229.06
492.527	224.06
492.745	210.06
492.963	201.06
493.18	155.06
493.398	167.06
493.615	169.06
493.833	171.06
494.05	159.06
494.268	182.06
494.485	182.06
494.703	156.06
494.92	170.06
495.138	146.06
495.355	171.06
495.573	168.06
495.79	169.06
496.008	163.06
496.225	161.06
496.442	152.06
496.66	164.06
496.877	160.06
497.094	164.06
497.312	150.06
497.529	140.06
497.746	154.06
497.963	143.06
498.181	139.06
498.398	112.06
498.615	108.06
498.832	125.06
499.049	126.06
499.267	125.06
499.484	112.06
499.701	132.06
499.918	130.06
500.135	131.06
500.352	145.06
500.569	136.06
500.786	140.06
501.003	138.06
501.22	141.06
501.437	126.06
501.654	123.06
501.871	119.06
502.088	123.06
502.305	124.06
502.522	124.06
502.739	119.06
502.956	127.06
503.172	120.06
503.389	110.06
503.606	117.06
503.823	113.06
504.04	114.06
504.256	124.06
504.473	120.06
504.69	120.06
504.907	115.06
505.123	125.06
505.34	115.06
505.557	118.06
505.773	99.06
505.99	127.06
506.207	106.06
506.423	141.06
506.64	121.06
506.856	115.06
507.073	118.06
507.289	117.06
507.506	111.06
507.722	112.06
507.939	115.06
508.155	124.06
508.372	122.06
508.588	111.06
508.805	120.06
509.021	117.06
509.238	112.06
509.454	112.06
509.67	101.06
509.887	80.06
510.103	99.06
510.319	90.06
510.536	94.06
510.752	86.06
510.968	82.06
511.184	85.06
511.401	71.06
511.617	83.06
511.833	80.06
512.049	76.06
