Data from Location4.07152019.Energy5.Lamp.07192019.3%Agarose_HRD10591_16-20-37-927.txt Node
Date: Fri Jul 19 16:20:37 EDT 2019
User: cochatt
Spectrometer: HR+D1059
Trigger mode: 1
Integration Time (sec): 1.000000E-1
Scans to average: 1
Electric dark correction enabled: true
Nonlinearity correction enabled: false
Boxcar width: 0
XAxis mode: Wavelengths
Number of Pixels in Spectrum: 2048
>>>>>Begin Spectral Data<<<<<
223.165	-22.44
223.4	-22.44
223.635	-22.44
223.869	-19.44
224.104	-3.44
224.338	-26.44
224.573	-20.44
224.808	-12.44
225.042	1.56
225.277	3.56
225.511	-11.44
225.746	1.56
225.98	5.56
226.215	24.56
226.449	22.56
226.683	11.56
226.918	9.56
227.152	35.56
227.387	30.56
227.621	32.56
227.856	36.56
228.09	54.56
228.324	55.56
228.559	52.56
228.793	47.56
229.027	61.56
229.262	51.56
229.496	68.56
229.73	66.56
229.964	69.56
230.199	88.56
230.433	76.56
230.667	78.56
230.901	86.56
231.136	86.56
231.37	70.56
231.604	80.56
231.838	85.56
232.072	88.56
232.306	66.56
232.541	74.56
232.775	86.56
233.009	88.56
233.243	70.56
233.477	77.56
233.711	79.56
233.945	79.56
234.179	77.56
234.413	78.56
234.647	77.56
234.881	86.56
235.115	73.56
235.349	80.56
235.583	83.56
235.817	82.56
236.051	83.56
236.285	67.56
236.519	80.56
236.753	66.56
236.987	82.56
237.221	69.56
237.455	70.56
237.689	83.56
237.922	85.56
238.156	78.56
238.39	76.56
238.624	73.56
238.858	81.56
239.091	74.56
239.325	68.56
239.559	86.56
239.793	53.56
240.027	89.56
240.26	77.56
240.494	71.56
240.728	68.56
240.961	64.56
241.195	81.56
241.429	81.56
241.662	77.56
241.896	63.56
242.13	66.56
242.363	71.56
242.597	68.56
242.83	86.56
243.064	77.56
243.298	80.56
243.531	70.56
243.765	67.56
243.998	70.56
244.232	84.56
244.465	74.56
244.699	69.56
244.932	85.56
245.166	81.56
245.399	86.56
245.633	69.56
245.866	64.56
246.099	77.56
246.333	74.56
246.566	74.56
246.8	77.56
247.033	74.56
247.266	80.56
247.5	61.56
247.733	68.56
247.966	88.56
248.2	70.56
248.433	69.56
248.666	77.56
248.899	87.56
249.133	81.56
249.366	92.56
249.599	84.56
249.832	80.56
250.066	81.56
250.299	68.56
250.532	87.56
250.765	72.56
250.998	73.56
251.231	77.56
251.465	72.56
251.698	78.56
251.931	75.56
252.164	75.56
252.397	79.56
252.63	78.56
252.863	83.56
253.096	76.56
253.329	83.56
253.562	87.56
253.795	77.56
254.028	90.56
254.261	72.56
254.494	85.56
254.727	81.56
254.96	75.56
255.193	82.56
255.426	83.56
255.659	77.56
255.892	95.56
256.124	69.56
256.357	91.56
256.59	84.56
256.823	85.56
257.056	91.56
257.289	88.56
257.521	67.56
257.754	82.56
257.987	70.56
258.22	85.56
258.452	80.56
258.685	70.56
258.918	78.56
259.151	70.56
259.383	82.56
259.616	59.56
259.849	76.56
260.081	81.56
260.314	84.56
260.547	90.56
260.779	81.56
261.012	68.56
261.244	78.56
261.477	103.56
261.71	90.56
261.942	73.56
262.175	67.56
262.407	88.56
262.64	76.56
262.872	88.56
263.105	96.56
263.337	80.56
263.57	73.56
263.802	76.56
264.035	83.56
264.267	89.56
264.499	79.56
264.732	78.56
264.964	89.56
265.197	83.56
265.429	81.56
265.661	91.56
265.894	81.56
266.126	80.56
266.358	76.56
266.591	84.56
266.823	84.56
267.055	80.56
267.287	75.56
267.52	83.56
267.752	80.56
267.984	86.56
268.216	82.56
268.448	85.56
268.681	85.56
268.913	66.56
269.145	79.56
269.377	72.56
269.609	75.56
269.841	70.56
270.073	100.56
270.306	74.56
270.538	86.56
270.77	82.56
271.002	72.56
271.234	84.56
271.466	80.56
271.698	88.56
271.93	78.56
272.162	83.56
272.394	84.56
272.626	81.56
272.858	76.56
273.09	76.56
273.322	81.56
273.553	76.56
273.785	79.56
274.017	71.56
274.249	78.56
274.481	89.56
274.713	80.56
274.945	86.56
275.176	69.56
275.408	78.56
275.64	95.56
275.872	86.56
276.104	92.56
276.335	88.56
276.567	83.56
276.799	75.56
277.031	76.56
277.262	93.56
277.494	84.56
277.726	67.56
277.957	70.56
278.189	83.56
278.421	80.56
278.652	81.56
278.884	81.56
279.115	78.56
279.347	76.56
279.579	84.56
279.81	68.56
280.042	78.56
280.273	80.56
280.505	81.56
280.736	82.56
280.968	91.56
281.199	81.56
281.431	74.56
281.662	63.56
281.894	90.56
282.125	89.56
282.356	70.56
282.588	89.56
282.819	69.56
283.051	81.56
283.282	79.56
283.513	99.56
283.745	83.56
283.976	74.56
284.207	99.56
284.439	92.56
284.67	89.56
284.901	67.56
285.132	76.56
285.364	92.56
285.595	88.56
285.826	78.56
286.057	78.56
286.288	101.56
286.52	95.56
286.751	87.56
286.982	75.56
287.213	72.56
287.444	83.56
287.675	77.56
287.906	88.56
288.138	81.56
288.369	89.56
288.6	71.56
288.831	86.56
289.062	71.56
289.293	73.56
289.524	81.56
289.755	82.56
289.986	77.56
290.217	74.56
290.448	93.56
290.679	86.56
290.91	87.56
291.141	67.56
291.371	74.56
291.602	82.56
291.833	81.56
292.064	69.56
292.295	83.56
292.526	73.56
292.757	81.56
292.987	97.56
293.218	101.56
293.449	87.56
293.68	89.56
293.91	65.56
294.141	86.56
294.372	81.56
294.603	86.56
294.833	81.56
295.064	75.56
295.295	91.56
295.525	74.56
295.756	96.56
295.987	76.56
296.217	77.56
296.448	78.56
296.679	71.56
296.909	82.56
297.14	95.56
297.37	83.56
297.601	86.56
297.831	93.56
298.062	76.56
298.292	98.56
298.523	90.56
298.753	82.56
298.984	84.56
299.214	98.56
299.445	85.56
299.675	81.56
299.905	95.56
300.136	97.56
300.366	67.56
300.597	89.56
300.827	83.56
301.057	92.56
301.288	79.56
301.518	68.56
301.748	79.56
301.979	94.56
302.209	83.56
302.439	85.56
302.669	87.56
302.9	90.56
303.13	81.56
303.36	81.56
303.59	84.56
303.82	83.56
304.051	84.56
304.281	81.56
304.511	76.56
304.741	83.56
304.971	74.56
305.201	70.56
305.431	82.56
305.661	86.56
305.891	87.56
306.121	93.56
306.352	96.56
306.582	90.56
306.812	79.56
307.042	66.56
307.272	70.56
307.502	76.56
307.731	87.56
307.961	96.56
308.191	84.56
308.421	85.56
308.651	84.56
308.881	82.56
309.111	88.56
309.341	64.56
309.571	68.56
309.8	85.56
310.03	81.56
310.26	77.56
310.49	83.56
310.72	91.56
310.949	90.56
311.179	74.56
311.409	70.56
311.639	89.56
311.868	83.56
312.098	83.56
312.328	86.56
312.557	69.56
312.787	84.56
313.017	87.56
313.246	89.56
313.476	96.56
313.706	76.56
313.935	88.56
314.165	79.56
314.394	77.56
314.624	104.56
314.853	79.56
315.083	89.56
315.312	83.56
315.542	85.56
315.771	74.56
316.001	86.56
316.23	81.56
316.46	88.56
316.689	72.56
316.919	89.56
317.148	79.56
317.377	90.56
317.607	92.56
317.836	79.56
318.065	74.56
318.295	87.56
318.524	99.56
318.753	94.56
318.983	85.56
319.212	77.56
319.441	78.56
319.67	74.56
319.9	71.56
320.129	82.56
320.358	78.56
320.587	84.56
320.816	71.56
321.046	95.56
321.275	83.56
321.504	91.56
321.733	68.56
321.962	105.56
322.191	87.56
322.42	88.56
322.649	95.56
322.878	94.56
323.108	85.56
323.337	78.56
323.566	79.56
323.795	85.56
324.024	87.56
324.253	70.56
324.482	88.56
324.71	75.56
324.939	94.56
325.168	105.56
325.397	99.56
325.626	75.56
325.855	78.56
326.084	87.56
326.313	86.56
326.542	79.56
326.77	84.56
326.999	79.56
327.228	79.56
327.457	80.56
327.686	83.56
327.914	82.56
328.143	77.56
328.372	91.56
328.6	79.56
328.829	89.56
329.058	102.56
329.287	90.56
329.515	78.56
329.744	93.56
329.972	72.56
330.201	71.56
330.43	76.56
330.658	84.56
330.887	73.56
331.115	87.56
331.344	86.56
331.572	90.56
331.801	80.56
332.03	82.56
332.258	75.56
332.486	89.56
332.715	71.56
332.943	72.56
333.172	76.56
333.4	81.56
333.629	87.56
333.857	83.56
334.085	87.56
334.314	96.56
334.542	90.56
334.771	85.56
334.999	87.56
335.227	69.56
335.455	81.56
335.684	91.56
335.912	87.56
336.14	69.56
336.369	68.56
336.597	88.56
336.825	79.56
337.053	83.56
337.281	79.56
337.51	83.56
337.738	90.56
337.966	60.56
338.194	81.56
338.422	73.56
338.65	92.56
338.878	77.56
339.106	87.56
339.334	84.56
339.562	97.56
339.79	97.56
340.018	86.56
340.246	65.56
340.474	81.56
340.702	79.56
340.93	83.56
341.158	81.56
341.386	85.56
341.614	84.56
341.842	89.56
342.07	85.56
342.298	78.56
342.526	78.56
342.754	79.56
342.981	74.56
343.209	73.56
343.437	90.56
343.665	65.56
343.893	69.56
344.12	77.56
344.348	83.56
344.576	90.56
344.804	86.56
345.031	93.56
345.259	86.56
345.487	83.56
345.714	90.56
345.942	92.56
346.17	84.56
346.397	80.56
346.625	70.56
346.853	93.56
347.08	85.56
347.308	78.56
347.535	79.56
347.763	85.56
347.99	75.56
348.218	83.56
348.445	77.56
348.673	95.56
348.9	89.56
349.128	86.56
349.355	74.56
349.583	87.56
349.81	71.56
350.037	73.56
350.265	81.56
350.492	80.56
350.72	70.56
350.947	88.56
351.174	95.56
351.402	90.56
351.629	83.56
351.856	83.56
352.083	85.56
352.311	91.56
352.538	77.56
352.765	75.56
352.992	68.56
353.22	66.56
353.447	90.56
353.674	81.56
353.901	87.56
354.128	83.56
354.355	83.56
354.583	89.56
354.81	90.56
355.037	75.56
355.264	79.56
355.491	83.56
355.718	76.56
355.945	88.56
356.172	76.56
356.399	86.56
356.626	75.56
356.853	84.56
357.08	83.56
357.307	73.56
357.534	71.56
357.761	75.56
357.988	81.56
358.215	78.56
358.441	81.56
358.668	90.56
358.895	83.56
359.122	82.56
359.349	83.56
359.576	91.56
359.802	80.56
360.029	84.56
360.256	90.56
360.483	63.56
360.709	83.56
360.936	82.56
361.163	86.56
361.39	83.56
361.616	91.56
361.843	82.56
362.07	80.56
362.296	78.56
362.523	81.56
362.749	81.56
362.976	89.56
363.203	87.56
363.429	91.56
363.656	81.56
363.882	67.56
364.109	77.56
364.335	76.56
364.562	84.56
364.788	87.56
365.015	77.56
365.241	82.56
365.468	84.56
365.694	77.56
365.92	81.56
366.147	83.56
366.373	88.56
366.599	74.56
366.826	84.56
367.052	87.56
367.278	78.56
367.505	95.56
367.731	88.56
367.957	99.56
368.184	92.56
368.41	95.56
368.636	79.56
368.862	90.56
369.089	77.56
369.315	76.56
369.541	88.56
369.767	94.56
369.993	81.56
370.219	100.56
370.445	86.56
370.672	91.56
370.898	77.56
371.124	92.56
371.35	85.56
371.576	75.56
371.802	85.56
372.028	83.56
372.254	96.56
372.48	91.56
372.706	72.56
372.932	100.56
373.158	66.56
373.384	86.56
373.61	98.56
373.835	101.56
374.061	89.56
374.287	81.56
374.513	96.56
374.739	79.56
374.965	89.56
375.191	92.56
375.416	93.56
375.642	87.56
375.868	96.56
376.094	106.56
376.319	101.56
376.545	80.56
376.771	100.56
376.997	91.56
377.222	83.56
377.448	92.56
377.674	84.56
377.899	84.56
378.125	88.56
378.35	95.56
378.576	99.56
378.802	85.56
379.027	90.56
379.253	100.56
379.478	84.56
379.704	91.56
379.929	92.56
380.155	101.56
380.38	95.56
380.606	84.56
380.831	101.56
381.057	120.56
381.282	96.56
381.507	91.56
381.733	108.56
381.958	88.56
382.184	81.56
382.409	84.56
382.634	106.56
382.86	85.56
383.085	79.56
383.31	99.56
383.535	91.56
383.761	90.56
383.986	98.56
384.211	98.56
384.436	93.56
384.662	95.56
384.887	98.56
385.112	93.56
385.337	94.56
385.562	99.56
385.787	102.56
386.013	106.56
386.238	88.56
386.463	104.56
386.688	84.56
386.913	80.56
387.138	88.56
387.363	97.56
387.588	98.56
387.813	100.56
388.038	96.56
388.263	106.56
388.488	99.56
388.713	101.56
388.938	102.56
389.163	87.56
389.387	98.56
389.612	93.56
389.837	103.56
390.062	107.56
390.287	107.56
390.512	77.56
390.736	99.56
390.961	97.56
391.186	103.56
391.411	112.56
391.636	95.56
391.86	115.56
392.085	115.56
392.31	92.56
392.534	107.56
392.759	109.56
392.984	114.56
393.208	83.56
393.433	99.56
393.658	111.56
393.882	87.56
394.107	101.56
394.331	109.56
394.556	101.56
394.78	95.56
395.005	108.56
395.229	113.56
395.454	103.56
395.678	89.56
395.903	100.56
396.127	99.56
396.352	101.56
396.576	101.56
396.801	114.56
397.025	102.56
397.249	104.56
397.474	115.56
397.698	90.56
397.922	96.56
398.147	103.56
398.371	108.56
398.595	101.56
398.82	119.56
399.044	107.56
399.268	116.56
399.492	125.56
399.717	117.56
399.941	106.56
400.165	113.56
400.389	101.56
400.613	114.56
400.837	105.56
401.062	105.56
401.286	121.56
401.51	120.56
401.734	95.56
401.958	103.56
402.182	91.56
402.406	105.56
402.63	99.56
402.854	111.56
403.078	107.56
403.302	94.56
403.526	105.56
403.75	124.56
403.974	123.56
404.198	113.56
404.422	118.56
404.645	104.56
404.869	101.56
405.093	108.56
405.317	109.56
405.541	111.56
405.765	93.56
405.988	120.56
406.212	109.56
406.436	116.56
406.66	108.56
406.883	113.56
407.107	117.56
407.331	122.56
407.555	123.56
407.778	113.56
408.002	134.56
408.226	117.56
408.449	119.56
408.673	115.56
408.896	112.56
409.12	111.56
409.344	124.56
409.567	109.56
409.791	120.56
410.014	115.56
410.238	138.56
410.461	111.56
410.685	131.56
410.908	106.56
411.132	105.56
411.355	125.56
411.578	127.56
411.802	120.56
412.025	120.56
412.249	117.56
412.472	110.56
412.695	119.56
412.919	120.56
413.142	103.56
413.365	103.56
413.589	107.56
413.812	100.56
414.035	119.56
414.258	121.56
414.482	91.56
414.705	122.56
414.928	115.56
415.151	111.56
415.374	135.56
415.597	124.56
415.821	131.56
416.044	111.56
416.267	120.56
416.49	121.56
416.713	127.56
416.936	116.56
417.159	129.56
417.382	111.56
417.605	124.56
417.828	135.56
418.051	125.56
418.274	124.56
418.497	135.56
418.72	131.56
418.943	135.56
419.166	137.56
419.389	131.56
419.611	139.56
419.834	141.56
420.057	132.56
420.28	143.56
420.503	122.56
420.726	128.56
420.948	133.56
421.171	125.56
421.394	126.56
421.617	135.56
421.839	134.56
422.062	149.56
422.285	129.56
422.507	111.56
422.73	113.56
422.953	122.56
423.175	103.56
423.398	137.56
423.621	124.56
423.843	140.56
424.066	114.56
424.288	125.56
424.511	125.56
424.733	139.56
424.956	147.56
425.178	117.56
425.401	151.56
425.623	130.56
425.846	124.56
426.068	127.56
426.291	125.56
426.513	132.56
426.735	139.56
426.958	120.56
427.18	124.56
427.402	127.56
427.625	142.56
427.847	125.56
428.069	137.56
428.292	136.56
428.514	117.56
428.736	132.56
428.958	135.56
429.181	129.56
429.403	115.56
429.625	131.56
429.847	125.56
430.069	127.56
430.292	135.56
430.514	119.56
430.736	127.56
430.958	119.56
431.18	130.56
431.402	119.56
431.624	108.56
431.846	116.56
432.068	97.56
432.29	107.56
432.512	99.56
432.734	106.56
432.956	126.56
433.178	130.56
433.4	137.56
433.622	129.56
433.844	140.56
434.066	121.56
434.287	117.56
434.509	100.56
434.731	100.56
434.953	108.56
435.175	122.56
435.397	110.56
435.618	100.56
435.84	115.56
436.062	109.56
436.284	109.56
436.505	123.56
436.727	125.56
436.949	134.56
437.17	120.56
437.392	129.56
437.614	111.56
437.835	107.56
438.057	121.56
438.278	119.56
438.5	128.56
438.721	143.56
438.943	138.56
439.165	131.56
439.386	138.56
439.608	139.56
439.829	136.56
440.05	152.56
440.272	133.56
440.493	147.56
440.715	153.56
440.936	145.56
441.158	156.56
441.379	136.56
441.6	140.56
441.822	136.56
442.043	143.56
442.264	147.56
442.486	135.56
442.707	145.56
442.928	135.56
443.149	127.56
443.371	129.56
443.592	148.56
443.813	126.56
444.034	141.56
444.255	134.56
444.476	144.56
444.698	144.56
444.919	144.56
445.14	275.56
445.361	179.56
445.582	137.56
445.803	139.56
446.024	127.56
446.245	157.56
446.466	143.56
446.687	150.56
446.908	148.56
447.129	155.56
447.35	127.56
447.571	140.56
447.792	139.56
448.013	131.56
448.234	130.56
448.455	133.56
448.675	127.56
448.896	126.56
449.117	131.56
449.338	120.56
449.559	135.56
449.779	136.56
450	139.56
450.221	130.56
450.442	134.56
450.662	120.56
450.883	124.56
451.104	123.56
451.324	135.56
451.545	139.56
451.766	119.56
451.986	118.56
452.207	116.56
452.428	129.56
452.648	141.56
452.869	132.56
453.089	103.56
453.31	122.56
453.53	103.56
453.751	117.56
453.971	107.56
454.192	116.56
454.412	111.56
454.633	101.56
454.853	101.56
455.073	123.56
455.294	127.56
455.514	131.56
455.734	116.56
455.955	126.56
456.175	127.56
456.395	106.56
456.616	95.56
456.836	116.56
457.056	108.56
457.276	98.56
457.497	106.56
457.717	112.56
457.937	109.56
458.157	111.56
458.377	114.56
458.598	103.56
458.818	91.56
459.038	82.56
459.258	88.56
459.478	96.56
459.698	89.56
459.918	106.56
460.138	105.56
460.358	111.56
460.578	119.56
460.798	120.56
461.018	106.56
461.238	123.56
461.458	114.56
461.678	113.56
461.898	106.56
462.118	106.56
462.338	112.56
462.558	107.56
462.777	95.56
462.997	109.56
463.217	106.56
463.437	102.56
463.657	109.56
463.876	104.56
464.096	108.56
464.316	116.56
464.536	117.56
464.755	120.56
464.975	105.56
465.195	100.56
465.414	123.56
465.634	116.56
465.854	106.56
466.073	123.56
466.293	117.56
466.512	125.56
466.732	145.56
466.951	117.56
467.171	127.56
467.391	125.56
467.61	141.56
467.829	131.56
468.049	128.56
468.268	124.56
468.488	132.56
468.707	133.56
468.927	133.56
469.146	144.56
469.365	143.56
469.585	137.56
469.804	147.56
470.023	143.56
470.243	125.56
470.462	122.56
470.681	133.56
470.901	137.56
471.12	129.56
471.339	140.56
471.558	127.56
471.777	130.56
471.997	125.56
472.216	127.56
472.435	122.56
472.654	95.56
472.873	107.56
473.092	120.56
473.311	121.56
473.53	118.56
473.749	133.56
473.968	124.56
474.187	106.56
474.406	111.56
474.625	108.56
474.844	137.56
475.063	126.56
475.282	122.56
475.501	115.56
475.72	104.56
475.939	110.56
476.158	109.56
476.377	121.56
476.596	101.56
476.814	121.56
477.033	119.56
477.252	121.56
477.471	127.56
477.69	137.56
477.908	129.56
478.127	136.56
478.346	124.56
478.564	120.56
478.783	135.56
479.002	148.56
479.22	127.56
479.439	133.56
479.658	120.56
479.876	119.56
480.095	110.56
480.313	105.56
480.532	134.56
480.751	117.56
480.969	108.56
481.188	89.56
481.406	90.56
481.624	89.56
481.843	93.56
482.061	108.56
482.28	128.56
482.498	112.56
482.717	114.56
482.935	105.56
483.153	139.56
483.372	139.56
483.59	140.56
483.808	148.56
484.027	139.56
484.245	137.56
484.463	136.56
484.681	162.56
484.9	154.56
485.118	128.56
485.336	119.56
485.554	118.56
485.772	99.56
485.99	98.56
486.209	115.56
486.427	115.56
486.645	121.56
486.863	147.56
487.081	156.56
487.299	147.56
487.517	126.56
487.735	173.56
487.953	184.56
488.171	186.56
488.389	180.56
488.607	162.56
488.825	135.56
489.043	138.56
489.261	143.56
489.479	141.56
489.696	137.56
489.914	146.56
490.132	153.56
490.35	147.56
490.568	161.56
490.786	170.56
491.003	154.56
491.221	167.56
491.439	180.56
491.657	200.56
491.874	197.56
492.092	227.56
492.31	241.56
492.527	232.56
492.745	200.56
492.963	191.56
493.18	180.56
493.398	185.56
493.615	179.56
493.833	178.56
494.05	153.56
494.268	179.56
494.485	163.56
494.703	169.56
494.92	173.56
495.138	157.56
495.355	165.56
495.573	160.56
495.79	179.56
496.008	160.56
496.225	163.56
496.442	170.56
496.66	182.56
496.877	162.56
497.094	177.56
497.312	149.56
497.529	151.56
497.746	153.56
497.963	135.56
498.181	139.56
498.398	120.56
498.615	116.56
498.832	121.56
499.049	119.56
499.267	123.56
499.484	117.56
499.701	114.56
499.918	137.56
500.135	134.56
500.352	137.56
500.569	147.56
500.786	151.56
501.003	138.56
501.22	145.56
501.437	131.56
501.654	129.56
501.871	129.56
502.088	122.56
502.305	135.56
502.522	123.56
502.739	129.56
502.956	131.56
503.172	123.56
503.389	127.56
503.606	107.56
503.823	127.56
504.04	115.56
504.256	111.56
504.473	116.56
504.69	119.56
504.907	115.56
505.123	116.56
505.34	121.56
505.557	117.56
505.773	131.56
505.99	121.56
506.207	111.56
506.423	123.56
506.64	125.56
506.856	132.56
507.073	134.56
507.289	130.56
507.506	121.56
507.722	117.56
507.939	116.56
508.155	121.56
508.372	85.56
508.588	114.56
508.805	113.56
509.021	105.56
509.238	107.56
509.454	101.56
509.67	94.56
509.887	96.56
510.103	83.56
510.319	93.56
510.536	105.56
510.752	95.56
510.968	83.56
511.184	86.56
511.401	82.56
511.617	92.56
511.833	92.56
