Data from Location4.07152019.Energy5.Lamp.07192019.3%Agarose_HRD10591_16-20-32-926.txt Node
Date: Fri Jul 19 16:20:32 EDT 2019
User: cochatt
Spectrometer: HR+D1059
Trigger mode: 1
Integration Time (sec): 1.000000E-1
Scans to average: 1
Electric dark correction enabled: true
Nonlinearity correction enabled: false
Boxcar width: 0
XAxis mode: Wavelengths
Number of Pixels in Spectrum: 2048
>>>>>Begin Spectral Data<<<<<
223.165	3.12
223.4	3.12
223.635	3.12
223.869	-22.88
224.104	-10.88
224.338	-8.88
224.573	-17.88
224.808	-14.88
225.042	-4.88
225.277	-6.88
225.511	-8.88
225.746	7.12
225.98	9.12
226.215	1.12
226.449	7.12
226.683	18.12
226.918	20.12
227.152	30.12
227.387	50.12
227.621	54.12
227.856	43.12
228.09	56.12
228.324	49.12
228.559	63.12
228.793	63.12
229.027	68.12
229.262	71.12
229.496	64.12
229.73	71.12
229.964	77.12
230.199	62.12
230.433	68.12
230.667	78.12
230.901	81.12
231.136	74.12
231.37	70.12
231.604	78.12
231.838	77.12
232.072	73.12
232.306	83.12
232.541	78.12
232.775	92.12
233.009	68.12
233.243	94.12
233.477	89.12
233.711	73.12
233.945	91.12
234.179	88.12
234.413	80.12
234.647	79.12
234.881	79.12
235.115	80.12
235.349	93.12
235.583	87.12
235.817	85.12
236.051	87.12
236.285	84.12
236.519	70.12
236.753	84.12
236.987	91.12
237.221	78.12
237.455	88.12
237.689	65.12
237.922	86.12
238.156	78.12
238.39	70.12
238.624	85.12
238.858	77.12
239.091	70.12
239.325	75.12
239.559	81.12
239.793	72.12
240.027	83.12
240.26	80.12
240.494	80.12
240.728	93.12
240.961	85.12
241.195	76.12
241.429	71.12
241.662	73.12
241.896	69.12
242.13	84.12
242.363	73.12
242.597	60.12
242.83	79.12
243.064	66.12
243.298	89.12
243.531	75.12
243.765	80.12
243.998	81.12
244.232	73.12
244.465	78.12
244.699	72.12
244.932	67.12
245.166	77.12
245.399	83.12
245.633	74.12
245.866	86.12
246.099	82.12
246.333	76.12
246.566	79.12
246.8	79.12
247.033	83.12
247.266	77.12
247.5	94.12
247.733	85.12
247.966	67.12
248.2	83.12
248.433	85.12
248.666	84.12
248.899	73.12
249.133	71.12
249.366	85.12
249.599	71.12
249.832	65.12
250.066	85.12
250.299	82.12
250.532	78.12
250.765	80.12
250.998	77.12
251.231	76.12
251.465	74.12
251.698	81.12
251.931	82.12
252.164	81.12
252.397	76.12
252.63	66.12
252.863	90.12
253.096	85.12
253.329	79.12
253.562	73.12
253.795	75.12
254.028	77.12
254.261	78.12
254.494	97.12
254.727	79.12
254.96	83.12
255.193	83.12
255.426	83.12
255.659	74.12
255.892	72.12
256.124	83.12
256.357	79.12
256.59	88.12
256.823	84.12
257.056	75.12
257.289	76.12
257.521	93.12
257.754	77.12
257.987	83.12
258.22	90.12
258.452	79.12
258.685	80.12
258.918	76.12
259.151	83.12
259.383	87.12
259.616	82.12
259.849	87.12
260.081	88.12
260.314	89.12
260.547	88.12
260.779	86.12
261.012	77.12
261.244	86.12
261.477	96.12
261.71	75.12
261.942	82.12
262.175	89.12
262.407	70.12
262.64	87.12
262.872	75.12
263.105	85.12
263.337	86.12
263.57	70.12
263.802	54.12
264.035	90.12
264.267	75.12
264.499	85.12
264.732	90.12
264.964	91.12
265.197	72.12
265.429	87.12
265.661	91.12
265.894	82.12
266.126	78.12
266.358	87.12
266.591	93.12
266.823	76.12
267.055	78.12
267.287	95.12
267.52	78.12
267.752	68.12
267.984	79.12
268.216	74.12
268.448	76.12
268.681	79.12
268.913	81.12
269.145	75.12
269.377	85.12
269.609	90.12
269.841	98.12
270.073	74.12
270.306	81.12
270.538	81.12
270.77	93.12
271.002	83.12
271.234	83.12
271.466	81.12
271.698	87.12
271.93	66.12
272.162	87.12
272.394	78.12
272.626	88.12
272.858	75.12
273.09	87.12
273.322	72.12
273.553	91.12
273.785	73.12
274.017	79.12
274.249	92.12
274.481	79.12
274.713	83.12
274.945	82.12
275.176	83.12
275.408	88.12
275.64	92.12
275.872	84.12
276.104	89.12
276.335	89.12
276.567	83.12
276.799	76.12
277.031	86.12
277.262	84.12
277.494	78.12
277.726	73.12
277.957	85.12
278.189	94.12
278.421	79.12
278.652	82.12
278.884	85.12
279.115	76.12
279.347	84.12
279.579	93.12
279.81	84.12
280.042	85.12
280.273	89.12
280.505	100.12
280.736	89.12
280.968	71.12
281.199	75.12
281.431	71.12
281.662	83.12
281.894	81.12
282.125	82.12
282.356	79.12
282.588	81.12
282.819	90.12
283.051	77.12
283.282	84.12
283.513	82.12
283.745	77.12
283.976	94.12
284.207	87.12
284.439	70.12
284.67	90.12
284.901	79.12
285.132	75.12
285.364	71.12
285.595	89.12
285.826	103.12
286.057	85.12
286.288	81.12
286.52	87.12
286.751	95.12
286.982	80.12
287.213	98.12
287.444	83.12
287.675	77.12
287.906	90.12
288.138	82.12
288.369	91.12
288.6	83.12
288.831	87.12
289.062	86.12
289.293	86.12
289.524	79.12
289.755	94.12
289.986	84.12
290.217	102.12
290.448	85.12
290.679	89.12
290.91	69.12
291.141	85.12
291.371	82.12
291.602	86.12
291.833	68.12
292.064	84.12
292.295	99.12
292.526	81.12
292.757	93.12
292.987	90.12
293.218	86.12
293.449	81.12
293.68	82.12
293.91	92.12
294.141	78.12
294.372	78.12
294.603	79.12
294.833	82.12
295.064	79.12
295.295	87.12
295.525	76.12
295.756	87.12
295.987	86.12
296.217	86.12
296.448	73.12
296.679	84.12
296.909	93.12
297.14	80.12
297.37	93.12
297.601	94.12
297.831	71.12
298.062	89.12
298.292	90.12
298.523	78.12
298.753	86.12
298.984	90.12
299.214	90.12
299.445	94.12
299.675	88.12
299.905	85.12
300.136	90.12
300.366	87.12
300.597	93.12
300.827	93.12
301.057	94.12
301.288	96.12
301.518	90.12
301.748	77.12
301.979	86.12
302.209	95.12
302.439	86.12
302.669	94.12
302.9	77.12
303.13	94.12
303.36	82.12
303.59	85.12
303.82	70.12
304.051	86.12
304.281	87.12
304.511	86.12
304.741	93.12
304.971	86.12
305.201	78.12
305.431	97.12
305.661	76.12
305.891	81.12
306.121	80.12
306.352	84.12
306.582	84.12
306.812	80.12
307.042	87.12
307.272	87.12
307.502	79.12
307.731	78.12
307.961	79.12
308.191	80.12
308.421	90.12
308.651	84.12
308.881	84.12
309.111	88.12
309.341	94.12
309.571	84.12
309.8	92.12
310.03	85.12
310.26	78.12
310.49	89.12
310.72	92.12
310.949	94.12
311.179	88.12
311.409	84.12
311.639	74.12
311.868	83.12
312.098	79.12
312.328	100.12
312.557	85.12
312.787	95.12
313.017	83.12
313.246	81.12
313.476	82.12
313.706	88.12
313.935	72.12
314.165	79.12
314.394	82.12
314.624	91.12
314.853	74.12
315.083	85.12
315.312	93.12
315.542	88.12
315.771	88.12
316.001	75.12
316.23	79.12
316.46	82.12
316.689	75.12
316.919	79.12
317.148	79.12
317.377	90.12
317.607	74.12
317.836	83.12
318.065	99.12
318.295	77.12
318.524	83.12
318.753	91.12
318.983	91.12
319.212	91.12
319.441	75.12
319.67	74.12
319.9	89.12
320.129	93.12
320.358	78.12
320.587	86.12
320.816	86.12
321.046	79.12
321.275	81.12
321.504	81.12
321.733	89.12
321.962	59.12
322.191	87.12
322.42	77.12
322.649	88.12
322.878	83.12
323.108	75.12
323.337	79.12
323.566	73.12
323.795	91.12
324.024	88.12
324.253	97.12
324.482	81.12
324.71	75.12
324.939	89.12
325.168	92.12
325.397	73.12
325.626	89.12
325.855	86.12
326.084	79.12
326.313	83.12
326.542	87.12
326.77	83.12
326.999	75.12
327.228	74.12
327.457	106.12
327.686	94.12
327.914	87.12
328.143	94.12
328.372	92.12
328.6	87.12
328.829	82.12
329.058	79.12
329.287	93.12
329.515	82.12
329.744	77.12
329.972	87.12
330.201	91.12
330.43	91.12
330.658	86.12
330.887	85.12
331.115	93.12
331.344	88.12
331.572	75.12
331.801	77.12
332.03	81.12
332.258	83.12
332.486	89.12
332.715	86.12
332.943	97.12
333.172	88.12
333.4	87.12
333.629	87.12
333.857	79.12
334.085	83.12
334.314	60.12
334.542	81.12
334.771	94.12
334.999	87.12
335.227	80.12
335.455	84.12
335.684	90.12
335.912	86.12
336.14	102.12
336.369	88.12
336.597	68.12
336.825	79.12
337.053	99.12
337.281	82.12
337.51	85.12
337.738	82.12
337.966	75.12
338.194	78.12
338.422	88.12
338.65	85.12
338.878	75.12
339.106	76.12
339.334	85.12
339.562	92.12
339.79	91.12
340.018	78.12
340.246	90.12
340.474	77.12
340.702	87.12
340.93	97.12
341.158	80.12
341.386	88.12
341.614	84.12
341.842	83.12
342.07	79.12
342.298	87.12
342.526	76.12
342.754	86.12
342.981	80.12
343.209	91.12
343.437	87.12
343.665	89.12
343.893	89.12
344.12	80.12
344.348	79.12
344.576	73.12
344.804	77.12
345.031	86.12
345.259	75.12
345.487	87.12
345.714	73.12
345.942	83.12
346.17	84.12
346.397	76.12
346.625	82.12
346.853	87.12
347.08	91.12
347.308	78.12
347.535	79.12
347.763	93.12
347.99	93.12
348.218	89.12
348.445	91.12
348.673	79.12
348.9	103.12
349.128	89.12
349.355	89.12
349.583	90.12
349.81	81.12
350.037	84.12
350.265	75.12
350.492	93.12
350.72	88.12
350.947	71.12
351.174	84.12
351.402	89.12
351.629	85.12
351.856	87.12
352.083	86.12
352.311	79.12
352.538	87.12
352.765	81.12
352.992	87.12
353.22	81.12
353.447	84.12
353.674	78.12
353.901	98.12
354.128	85.12
354.355	67.12
354.583	86.12
354.81	83.12
355.037	97.12
355.264	83.12
355.491	80.12
355.718	90.12
355.945	79.12
356.172	87.12
356.399	72.12
356.626	85.12
356.853	90.12
357.08	92.12
357.307	95.12
357.534	102.12
357.761	88.12
357.988	89.12
358.215	91.12
358.441	86.12
358.668	85.12
358.895	94.12
359.122	97.12
359.349	96.12
359.576	86.12
359.802	87.12
360.029	98.12
360.256	77.12
360.483	93.12
360.709	83.12
360.936	97.12
361.163	89.12
361.39	65.12
361.616	71.12
361.843	86.12
362.07	78.12
362.296	89.12
362.523	84.12
362.749	92.12
362.976	83.12
363.203	85.12
363.429	90.12
363.656	87.12
363.882	76.12
364.109	79.12
364.335	95.12
364.562	91.12
364.788	87.12
365.015	88.12
365.241	92.12
365.468	79.12
365.694	85.12
365.92	84.12
366.147	90.12
366.373	85.12
366.599	95.12
366.826	92.12
367.052	83.12
367.278	80.12
367.505	81.12
367.731	86.12
367.957	81.12
368.184	90.12
368.41	79.12
368.636	99.12
368.862	93.12
369.089	90.12
369.315	94.12
369.541	96.12
369.767	95.12
369.993	88.12
370.219	86.12
370.445	79.12
370.672	98.12
370.898	95.12
371.124	103.12
371.35	86.12
371.576	96.12
371.802	87.12
372.028	101.12
372.254	82.12
372.48	79.12
372.706	92.12
372.932	95.12
373.158	89.12
373.384	109.12
373.61	94.12
373.835	96.12
374.061	101.12
374.287	87.12
374.513	103.12
374.739	91.12
374.965	79.12
375.191	87.12
375.416	94.12
375.642	97.12
375.868	93.12
376.094	100.12
376.319	104.12
376.545	84.12
376.771	94.12
376.997	103.12
377.222	95.12
377.448	94.12
377.674	106.12
377.899	93.12
378.125	84.12
378.35	88.12
378.576	91.12
378.802	112.12
379.027	95.12
379.253	96.12
379.478	93.12
379.704	103.12
379.929	108.12
380.155	92.12
380.38	82.12
380.606	91.12
380.831	85.12
381.057	105.12
381.282	102.12
381.507	89.12
381.733	104.12
381.958	99.12
382.184	88.12
382.409	91.12
382.634	101.12
382.86	99.12
383.085	92.12
383.31	97.12
383.535	99.12
383.761	87.12
383.986	108.12
384.211	96.12
384.436	104.12
384.662	115.12
384.887	101.12
385.112	92.12
385.337	87.12
385.562	85.12
385.787	89.12
386.013	83.12
386.238	99.12
386.463	108.12
386.688	106.12
386.913	99.12
387.138	100.12
387.363	109.12
387.588	118.12
387.813	117.12
388.038	90.12
388.263	109.12
388.488	101.12
388.713	85.12
388.938	95.12
389.163	106.12
389.387	94.12
389.612	117.12
389.837	106.12
390.062	88.12
390.287	106.12
390.512	94.12
390.736	107.12
390.961	109.12
391.186	111.12
391.411	111.12
391.636	110.12
391.86	123.12
392.085	91.12
392.31	104.12
392.534	107.12
392.759	97.12
392.984	101.12
393.208	109.12
393.433	107.12
393.658	111.12
393.882	90.12
394.107	101.12
394.331	84.12
394.556	95.12
394.78	95.12
395.005	114.12
395.229	103.12
395.454	121.12
395.678	116.12
395.903	108.12
396.127	108.12
396.352	104.12
396.576	108.12
396.801	114.12
397.025	111.12
397.249	113.12
397.474	105.12
397.698	110.12
397.922	108.12
398.147	112.12
398.371	109.12
398.595	106.12
398.82	99.12
399.044	118.12
399.268	105.12
399.492	111.12
399.717	110.12
399.941	110.12
400.165	107.12
400.389	92.12
400.613	125.12
400.837	105.12
401.062	118.12
401.286	117.12
401.51	111.12
401.734	105.12
401.958	108.12
402.182	107.12
402.406	106.12
402.63	103.12
402.854	108.12
403.078	122.12
403.302	116.12
403.526	126.12
403.75	124.12
403.974	113.12
404.198	119.12
404.422	119.12
404.645	121.12
404.869	125.12
405.093	123.12
405.317	125.12
405.541	117.12
405.765	113.12
405.988	114.12
406.212	128.12
406.436	138.12
406.66	115.12
406.883	130.12
407.107	117.12
407.331	120.12
407.555	122.12
407.778	118.12
408.002	112.12
408.226	109.12
408.449	120.12
408.673	122.12
408.896	132.12
409.12	124.12
409.344	127.12
409.567	115.12
409.791	123.12
410.014	127.12
410.238	121.12
410.461	114.12
410.685	127.12
410.908	124.12
411.132	132.12
411.355	121.12
411.578	119.12
411.802	105.12
412.025	115.12
412.249	124.12
412.472	126.12
412.695	124.12
412.919	114.12
413.142	111.12
413.365	129.12
413.589	117.12
413.812	124.12
414.035	126.12
414.258	119.12
414.482	141.12
414.705	127.12
414.928	116.12
415.151	121.12
415.374	121.12
415.597	118.12
415.821	128.12
416.044	133.12
416.267	127.12
416.49	122.12
416.713	124.12
416.936	121.12
417.159	134.12
417.382	115.12
417.605	132.12
417.828	118.12
418.051	135.12
418.274	123.12
418.497	143.12
418.72	132.12
418.943	122.12
419.166	144.12
419.389	117.12
419.611	124.12
419.834	132.12
420.057	135.12
420.28	131.12
420.503	122.12
420.726	138.12
420.948	135.12
421.171	124.12
421.394	133.12
421.617	129.12
421.839	148.12
422.062	136.12
422.285	133.12
422.507	125.12
422.73	122.12
422.953	127.12
423.175	127.12
423.398	124.12
423.621	147.12
423.843	133.12
424.066	132.12
424.288	144.12
424.511	144.12
424.733	142.12
424.956	131.12
425.178	139.12
425.401	137.12
425.623	137.12
425.846	130.12
426.068	123.12
426.291	117.12
426.513	132.12
426.735	133.12
426.958	121.12
427.18	135.12
427.402	126.12
427.625	132.12
427.847	126.12
428.069	138.12
428.292	136.12
428.514	127.12
428.736	145.12
428.958	125.12
429.181	131.12
429.403	131.12
429.625	123.12
429.847	131.12
430.069	133.12
430.292	124.12
430.514	126.12
430.736	136.12
430.958	141.12
431.18	131.12
431.402	127.12
431.624	115.12
431.846	125.12
432.068	97.12
432.29	100.12
432.512	116.12
432.734	130.12
432.956	132.12
433.178	146.12
433.4	131.12
433.622	140.12
433.844	137.12
434.066	117.12
434.287	96.12
434.509	105.12
434.731	93.12
434.953	110.12
435.175	123.12
435.397	120.12
435.618	121.12
435.84	102.12
436.062	121.12
436.284	125.12
436.505	120.12
436.727	122.12
436.949	130.12
437.17	149.12
437.392	134.12
437.614	127.12
437.835	111.12
438.057	121.12
438.278	119.12
438.5	119.12
438.721	107.12
438.943	135.12
439.165	137.12
439.386	136.12
439.608	148.12
439.829	132.12
440.05	133.12
440.272	150.12
440.493	132.12
440.715	133.12
440.936	142.12
441.158	110.12
441.379	126.12
441.6	153.12
441.822	152.12
442.043	129.12
442.264	149.12
442.486	153.12
442.707	133.12
442.928	135.12
443.149	137.12
443.371	139.12
443.592	141.12
443.813	124.12
444.034	139.12
444.255	131.12
444.476	137.12
444.698	144.12
444.919	128.12
445.14	282.12
445.361	191.12
445.582	142.12
445.803	143.12
446.024	140.12
446.245	143.12
446.466	157.12
446.687	153.12
446.908	140.12
447.129	158.12
447.35	146.12
447.571	151.12
447.792	149.12
448.013	150.12
448.234	153.12
448.455	145.12
448.675	133.12
448.896	123.12
449.117	139.12
449.338	135.12
449.559	140.12
449.779	137.12
450	130.12
450.221	145.12
450.442	130.12
450.662	125.12
450.883	133.12
451.104	134.12
451.324	132.12
451.545	143.12
451.766	143.12
451.986	130.12
452.207	131.12
452.428	113.12
452.648	140.12
452.869	114.12
453.089	103.12
453.31	111.12
453.53	119.12
453.751	115.12
453.971	98.12
454.192	111.12
454.412	115.12
454.633	118.12
454.853	128.12
455.073	129.12
455.294	134.12
455.514	123.12
455.734	126.12
455.955	107.12
456.175	103.12
456.395	101.12
456.616	127.12
456.836	110.12
457.056	119.12
457.276	116.12
457.497	113.12
457.717	117.12
457.937	108.12
458.157	101.12
458.377	103.12
458.598	99.12
458.818	100.12
459.038	97.12
459.258	90.12
459.478	80.12
459.698	100.12
459.918	106.12
460.138	109.12
460.358	115.12
460.578	118.12
460.798	119.12
461.018	113.12
461.238	123.12
461.458	121.12
461.678	116.12
461.898	117.12
462.118	113.12
462.338	124.12
462.558	113.12
462.777	113.12
462.997	125.12
463.217	109.12
463.437	108.12
463.657	109.12
463.876	108.12
464.096	99.12
464.316	111.12
464.536	123.12
464.755	122.12
464.975	121.12
465.195	101.12
465.414	127.12
465.634	122.12
465.854	131.12
466.073	129.12
466.293	105.12
466.512	123.12
466.732	137.12
466.951	118.12
467.171	121.12
467.391	143.12
467.61	126.12
467.829	146.12
468.049	139.12
468.268	128.12
468.488	133.12
468.707	125.12
468.927	138.12
469.146	140.12
469.365	132.12
469.585	126.12
469.804	153.12
470.023	151.12
470.243	144.12
470.462	145.12
470.681	164.12
470.901	154.12
471.12	155.12
471.339	135.12
471.558	142.12
471.777	120.12
471.997	127.12
472.216	126.12
472.435	116.12
472.654	101.12
472.873	109.12
473.092	122.12
473.311	126.12
473.53	124.12
473.749	125.12
473.968	129.12
474.187	130.12
474.406	134.12
474.625	126.12
474.844	138.12
475.063	138.12
475.282	117.12
475.501	135.12
475.72	125.12
475.939	125.12
476.158	130.12
476.377	120.12
476.596	112.12
476.814	121.12
477.033	113.12
477.252	136.12
477.471	133.12
477.69	143.12
477.908	136.12
478.127	140.12
478.346	137.12
478.564	134.12
478.783	135.12
479.002	135.12
479.22	136.12
479.439	138.12
479.658	115.12
479.876	119.12
480.095	117.12
480.313	124.12
480.532	117.12
480.751	111.12
480.969	82.12
481.188	100.12
481.406	90.12
481.624	85.12
481.843	93.12
482.061	108.12
482.28	110.12
482.498	116.12
482.717	113.12
482.935	115.12
483.153	132.12
483.372	143.12
483.59	158.12
483.808	141.12
484.027	136.12
484.245	134.12
484.463	138.12
484.681	160.12
484.9	156.12
485.118	129.12
485.336	141.12
485.554	114.12
485.772	102.12
485.99	107.12
486.209	98.12
486.427	115.12
486.645	125.12
486.863	139.12
487.081	157.12
487.299	134.12
487.517	141.12
487.735	171.12
487.953	189.12
488.171	192.12
488.389	182.12
488.607	148.12
488.825	137.12
489.043	121.12
489.261	133.12
489.479	123.12
489.696	136.12
489.914	147.12
490.132	137.12
490.35	166.12
490.568	155.12
490.786	150.12
491.003	168.12
491.221	187.12
491.439	182.12
491.657	183.12
491.874	206.12
492.092	225.12
492.31	233.12
492.527	223.12
492.745	221.12
492.963	214.12
493.18	206.12
493.398	182.12
493.615	183.12
493.833	170.12
494.05	171.12
494.268	153.12
494.485	173.12
494.703	181.12
494.92	168.12
495.138	163.12
495.355	167.12
495.573	162.12
495.79	183.12
496.008	163.12
496.225	151.12
496.442	155.12
496.66	169.12
496.877	167.12
497.094	155.12
497.312	156.12
497.529	159.12
497.746	139.12
497.963	148.12
498.181	139.12
498.398	122.12
498.615	126.12
498.832	119.12
499.049	102.12
499.267	121.12
499.484	106.12
499.701	131.12
499.918	144.12
500.135	134.12
500.352	141.12
500.569	137.12
500.786	130.12
501.003	136.12
501.22	147.12
501.437	129.12
501.654	123.12
501.871	128.12
502.088	123.12
502.305	139.12
502.522	143.12
502.739	136.12
502.956	124.12
503.172	131.12
503.389	121.12
503.606	119.12
503.823	133.12
504.04	123.12
504.256	122.12
504.473	118.12
504.69	121.12
504.907	113.12
505.123	119.12
505.34	114.12
505.557	125.12
505.773	127.12
505.99	126.12
506.207	117.12
506.423	104.12
506.64	129.12
506.856	114.12
507.073	118.12
507.289	114.12
507.506	110.12
507.722	106.12
507.939	102.12
508.155	120.12
508.372	109.12
508.588	116.12
508.805	103.12
509.021	114.12
509.238	109.12
509.454	95.12
509.67	96.12
509.887	102.12
510.103	107.12
510.319	91.12
510.536	97.12
510.752	84.12
510.968	99.12
511.184	83.12
511.401	83.12
511.617	100.12
