Data from Location4.07152019.Energy5.Lamp.07192019.3%Agarose_HRD10591_16-18-34-926.txt Node
Date: Fri Jul 19 16:18:34 EDT 2019
User: cochatt
Spectrometer: HR+D1059
Trigger mode: 1
Integration Time (sec): 1.000000E-1
Scans to average: 1
Electric dark correction enabled: true
Nonlinearity correction enabled: false
Boxcar width: 0
XAxis mode: Wavelengths
Number of Pixels in Spectrum: 2048
>>>>>Begin Spectral Data<<<<<
223.165	-26.25
223.4	-26.25
223.635	-26.25
223.869	-9.25
224.104	-10.25
224.338	-20.25
224.573	-5.25
224.808	-19.25
225.042	-6.25
225.277	-10.25
225.511	-10.25
225.746	10.75
225.98	12.75
226.215	5.75
226.449	16.75
226.683	14.75
226.918	20.75
227.152	35.75
227.387	36.75
227.621	44.75
227.856	39.75
228.09	39.75
228.324	43.75
228.559	63.75
228.793	53.75
229.027	62.75
229.262	62.75
229.496	56.75
229.73	74.75
229.964	67.75
230.199	76.75
230.433	58.75
230.667	65.75
230.901	79.75
231.136	75.75
231.37	80.75
231.604	82.75
231.838	78.75
232.072	90.75
232.306	79.75
232.541	85.75
232.775	96.75
233.009	86.75
233.243	87.75
233.477	87.75
233.711	69.75
233.945	95.75
234.179	86.75
234.413	86.75
234.647	85.75
234.881	81.75
235.115	85.75
235.349	69.75
235.583	67.75
235.817	76.75
236.051	64.75
236.285	77.75
236.519	71.75
236.753	74.75
236.987	76.75
237.221	82.75
237.455	80.75
237.689	64.75
237.922	76.75
238.156	79.75
238.39	74.75
238.624	87.75
238.858	75.75
239.091	65.75
239.325	66.75
239.559	76.75
239.793	71.75
240.027	91.75
240.26	70.75
240.494	82.75
240.728	76.75
240.961	77.75
241.195	84.75
241.429	84.75
241.662	72.75
241.896	79.75
242.13	76.75
242.363	85.75
242.597	70.75
242.83	68.75
243.064	67.75
243.298	76.75
243.531	88.75
243.765	81.75
243.998	91.75
244.232	82.75
244.465	84.75
244.699	75.75
244.932	76.75
245.166	69.75
245.399	71.75
245.633	71.75
245.866	83.75
246.099	70.75
246.333	80.75
246.566	69.75
246.8	60.75
247.033	71.75
247.266	67.75
247.5	77.75
247.733	83.75
247.966	75.75
248.2	96.75
248.433	74.75
248.666	71.75
248.899	81.75
249.133	85.75
249.366	78.75
249.599	82.75
249.832	61.75
250.066	78.75
250.299	95.75
250.532	79.75
250.765	90.75
250.998	67.75
251.231	80.75
251.465	71.75
251.698	80.75
251.931	92.75
252.164	75.75
252.397	65.75
252.63	75.75
252.863	70.75
253.096	85.75
253.329	86.75
253.562	81.75
253.795	67.75
254.028	79.75
254.261	71.75
254.494	76.75
254.727	88.75
254.96	83.75
255.193	84.75
255.426	85.75
255.659	68.75
255.892	70.75
256.124	88.75
256.357	81.75
256.59	82.75
256.823	73.75
257.056	80.75
257.289	80.75
257.521	81.75
257.754	74.75
257.987	80.75
258.22	96.75
258.452	67.75
258.685	95.75
258.918	73.75
259.151	74.75
259.383	72.75
259.616	70.75
259.849	98.75
260.081	111.75
260.314	83.75
260.547	89.75
260.779	89.75
261.012	77.75
261.244	85.75
261.477	79.75
261.71	70.75
261.942	74.75
262.175	82.75
262.407	87.75
262.64	72.75
262.872	92.75
263.105	94.75
263.337	82.75
263.57	83.75
263.802	82.75
264.035	71.75
264.267	78.75
264.499	70.75
264.732	76.75
264.964	91.75
265.197	82.75
265.429	84.75
265.661	67.75
265.894	81.75
266.126	90.75
266.358	76.75
266.591	82.75
266.823	76.75
267.055	80.75
267.287	86.75
267.52	76.75
267.752	94.75
267.984	80.75
268.216	96.75
268.448	83.75
268.681	87.75
268.913	82.75
269.145	74.75
269.377	74.75
269.609	79.75
269.841	88.75
270.073	79.75
270.306	81.75
270.538	99.75
270.77	93.75
271.002	87.75
271.234	85.75
271.466	89.75
271.698	89.75
271.93	76.75
272.162	69.75
272.394	74.75
272.626	89.75
272.858	84.75
273.09	85.75
273.322	80.75
273.553	81.75
273.785	79.75
274.017	76.75
274.249	86.75
274.481	80.75
274.713	88.75
274.945	83.75
275.176	74.75
275.408	91.75
275.64	86.75
275.872	79.75
276.104	62.75
276.335	79.75
276.567	84.75
276.799	86.75
277.031	83.75
277.262	88.75
277.494	75.75
277.726	88.75
277.957	92.75
278.189	81.75
278.421	81.75
278.652	88.75
278.884	90.75
279.115	78.75
279.347	88.75
279.579	90.75
279.81	89.75
280.042	78.75
280.273	78.75
280.505	80.75
280.736	79.75
280.968	85.75
281.199	99.75
281.431	96.75
281.662	94.75
281.894	73.75
282.125	78.75
282.356	91.75
282.588	97.75
282.819	81.75
283.051	71.75
283.282	88.75
283.513	90.75
283.745	97.75
283.976	90.75
284.207	82.75
284.439	79.75
284.67	61.75
284.901	80.75
285.132	97.75
285.364	76.75
285.595	80.75
285.826	80.75
286.057	73.75
286.288	78.75
286.52	88.75
286.751	82.75
286.982	75.75
287.213	81.75
287.444	82.75
287.675	95.75
287.906	88.75
288.138	83.75
288.369	78.75
288.6	81.75
288.831	92.75
289.062	80.75
289.293	87.75
289.524	91.75
289.755	102.75
289.986	88.75
290.217	88.75
290.448	81.75
290.679	80.75
290.91	91.75
291.141	90.75
291.371	95.75
291.602	91.75
291.833	86.75
292.064	76.75
292.295	76.75
292.526	83.75
292.757	79.75
292.987	72.75
293.218	94.75
293.449	75.75
293.68	83.75
293.91	72.75
294.141	75.75
294.372	78.75
294.603	90.75
294.833	86.75
295.064	84.75
295.295	80.75
295.525	86.75
295.756	99.75
295.987	78.75
296.217	90.75
296.448	82.75
296.679	79.75
296.909	88.75
297.14	86.75
297.37	89.75
297.601	87.75
297.831	79.75
298.062	85.75
298.292	83.75
298.523	78.75
298.753	91.75
298.984	89.75
299.214	83.75
299.445	80.75
299.675	95.75
299.905	76.75
300.136	73.75
300.366	76.75
300.597	89.75
300.827	80.75
301.057	74.75
301.288	76.75
301.518	83.75
301.748	96.75
301.979	71.75
302.209	79.75
302.439	87.75
302.669	91.75
302.9	79.75
303.13	94.75
303.36	73.75
303.59	81.75
303.82	86.75
304.051	85.75
304.281	81.75
304.511	84.75
304.741	87.75
304.971	78.75
305.201	78.75
305.431	63.75
305.661	75.75
305.891	76.75
306.121	85.75
306.352	83.75
306.582	87.75
306.812	94.75
307.042	92.75
307.272	78.75
307.502	82.75
307.731	80.75
307.961	75.75
308.191	88.75
308.421	86.75
308.651	88.75
308.881	78.75
309.111	75.75
309.341	84.75
309.571	103.75
309.8	94.75
310.03	74.75
310.26	65.75
310.49	87.75
310.72	95.75
310.949	84.75
311.179	80.75
311.409	87.75
311.639	63.75
311.868	82.75
312.098	78.75
312.328	79.75
312.557	79.75
312.787	87.75
313.017	90.75
313.246	74.75
313.476	75.75
313.706	82.75
313.935	92.75
314.165	87.75
314.394	91.75
314.624	86.75
314.853	77.75
315.083	84.75
315.312	89.75
315.542	85.75
315.771	87.75
316.001	78.75
316.23	83.75
316.46	100.75
316.689	74.75
316.919	82.75
317.148	91.75
317.377	90.75
317.607	86.75
317.836	80.75
318.065	81.75
318.295	80.75
318.524	75.75
318.753	87.75
318.983	80.75
319.212	86.75
319.441	112.75
319.67	76.75
319.9	89.75
320.129	78.75
320.358	83.75
320.587	69.75
320.816	88.75
321.046	73.75
321.275	76.75
321.504	71.75
321.733	81.75
321.962	87.75
322.191	90.75
322.42	90.75
322.649	88.75
322.878	91.75
323.108	90.75
323.337	76.75
323.566	72.75
323.795	81.75
324.024	82.75
324.253	83.75
324.482	87.75
324.71	80.75
324.939	82.75
325.168	91.75
325.397	90.75
325.626	74.75
325.855	77.75
326.084	68.75
326.313	83.75
326.542	89.75
326.77	80.75
326.999	72.75
327.228	89.75
327.457	106.75
327.686	85.75
327.914	90.75
328.143	90.75
328.372	76.75
328.6	94.75
328.829	74.75
329.058	81.75
329.287	94.75
329.515	72.75
329.744	86.75
329.972	96.75
330.201	84.75
330.43	75.75
330.658	95.75
330.887	82.75
331.115	80.75
331.344	91.75
331.572	88.75
331.801	83.75
332.03	84.75
332.258	90.75
332.486	85.75
332.715	91.75
332.943	83.75
333.172	85.75
333.4	76.75
333.629	85.75
333.857	92.75
334.085	85.75
334.314	93.75
334.542	84.75
334.771	74.75
334.999	77.75
335.227	82.75
335.455	85.75
335.684	95.75
335.912	56.75
336.14	71.75
336.369	84.75
336.597	88.75
336.825	87.75
337.053	88.75
337.281	83.75
337.51	66.75
337.738	77.75
337.966	86.75
338.194	94.75
338.422	84.75
338.65	92.75
338.878	75.75
339.106	88.75
339.334	92.75
339.562	76.75
339.79	82.75
340.018	88.75
340.246	89.75
340.474	82.75
340.702	88.75
340.93	75.75
341.158	84.75
341.386	85.75
341.614	67.75
341.842	88.75
342.07	90.75
342.298	92.75
342.526	68.75
342.754	81.75
342.981	83.75
343.209	74.75
343.437	84.75
343.665	78.75
343.893	83.75
344.12	87.75
344.348	76.75
344.576	92.75
344.804	76.75
345.031	74.75
345.259	79.75
345.487	89.75
345.714	86.75
345.942	75.75
346.17	75.75
346.397	78.75
346.625	71.75
346.853	82.75
347.08	74.75
347.308	91.75
347.535	81.75
347.763	83.75
347.99	87.75
348.218	95.75
348.445	80.75
348.673	85.75
348.9	94.75
349.128	78.75
349.355	97.75
349.583	82.75
349.81	89.75
350.037	74.75
350.265	74.75
350.492	88.75
350.72	88.75
350.947	86.75
351.174	90.75
351.402	84.75
351.629	92.75
351.856	66.75
352.083	84.75
352.311	95.75
352.538	82.75
352.765	80.75
352.992	82.75
353.22	80.75
353.447	99.75
353.674	67.75
353.901	85.75
354.128	91.75
354.355	80.75
354.583	87.75
354.81	87.75
355.037	87.75
355.264	88.75
355.491	79.75
355.718	82.75
355.945	96.75
356.172	85.75
356.399	78.75
356.626	83.75
356.853	95.75
357.08	87.75
357.307	67.75
357.534	83.75
357.761	91.75
357.988	77.75
358.215	100.75
358.441	84.75
358.668	67.75
358.895	76.75
359.122	88.75
359.349	86.75
359.576	82.75
359.802	74.75
360.029	76.75
360.256	77.75
360.483	87.75
360.709	77.75
360.936	96.75
361.163	82.75
361.39	75.75
361.616	82.75
361.843	85.75
362.07	79.75
362.296	93.75
362.523	75.75
362.749	79.75
362.976	80.75
363.203	94.75
363.429	87.75
363.656	98.75
363.882	86.75
364.109	91.75
364.335	86.75
364.562	82.75
364.788	70.75
365.015	66.75
365.241	85.75
365.468	90.75
365.694	98.75
365.92	83.75
366.147	90.75
366.373	89.75
366.599	90.75
366.826	80.75
367.052	85.75
367.278	91.75
367.505	92.75
367.731	86.75
367.957	104.75
368.184	82.75
368.41	102.75
368.636	84.75
368.862	84.75
369.089	81.75
369.315	86.75
369.541	85.75
369.767	95.75
369.993	86.75
370.219	93.75
370.445	80.75
370.672	94.75
370.898	88.75
371.124	86.75
371.35	84.75
371.576	86.75
371.802	86.75
372.028	89.75
372.254	92.75
372.48	86.75
372.706	95.75
372.932	75.75
373.158	104.75
373.384	97.75
373.61	92.75
373.835	76.75
374.061	89.75
374.287	90.75
374.513	91.75
374.739	84.75
374.965	80.75
375.191	104.75
375.416	91.75
375.642	87.75
375.868	88.75
376.094	86.75
376.319	93.75
376.545	87.75
376.771	84.75
376.997	91.75
377.222	88.75
377.448	110.75
377.674	115.75
377.899	90.75
378.125	88.75
378.35	87.75
378.576	101.75
378.802	100.75
379.027	95.75
379.253	100.75
379.478	97.75
379.704	81.75
379.929	87.75
380.155	83.75
380.38	97.75
380.606	101.75
380.831	101.75
381.057	98.75
381.282	99.75
381.507	83.75
381.733	102.75
381.958	111.75
382.184	94.75
382.409	97.75
382.634	90.75
382.86	87.75
383.085	87.75
383.31	90.75
383.535	96.75
383.761	98.75
383.986	96.75
384.211	102.75
384.436	102.75
384.662	98.75
384.887	83.75
385.112	99.75
385.337	87.75
385.562	80.75
385.787	101.75
386.013	90.75
386.238	100.75
386.463	95.75
386.688	86.75
386.913	87.75
387.138	92.75
387.363	88.75
387.588	96.75
387.813	113.75
388.038	95.75
388.263	95.75
388.488	105.75
388.713	107.75
388.938	85.75
389.163	86.75
389.387	96.75
389.612	89.75
389.837	96.75
390.062	96.75
390.287	98.75
390.512	94.75
390.736	106.75
390.961	104.75
391.186	115.75
391.411	90.75
391.636	94.75
391.86	102.75
392.085	103.75
392.31	106.75
392.534	100.75
392.759	109.75
392.984	100.75
393.208	109.75
393.433	94.75
393.658	103.75
393.882	100.75
394.107	106.75
394.331	96.75
394.556	120.75
394.78	105.75
395.005	102.75
395.229	101.75
395.454	107.75
395.678	103.75
395.903	126.75
396.127	102.75
396.352	95.75
396.576	116.75
396.801	100.75
397.025	105.75
397.249	107.75
397.474	108.75
397.698	114.75
397.922	94.75
398.147	107.75
398.371	90.75
398.595	108.75
398.82	89.75
399.044	111.75
399.268	100.75
399.492	114.75
399.717	104.75
399.941	102.75
400.165	127.75
400.389	110.75
400.613	113.75
400.837	96.75
401.062	96.75
401.286	105.75
401.51	106.75
401.734	108.75
401.958	112.75
402.182	111.75
402.406	114.75
402.63	108.75
402.854	107.75
403.078	123.75
403.302	98.75
403.526	121.75
403.75	116.75
403.974	120.75
404.198	97.75
404.422	112.75
404.645	130.75
404.869	130.75
405.093	124.75
405.317	107.75
405.541	103.75
405.765	123.75
405.988	103.75
406.212	112.75
406.436	120.75
406.66	118.75
406.883	114.75
407.107	106.75
407.331	99.75
407.555	113.75
407.778	112.75
408.002	120.75
408.226	112.75
408.449	101.75
408.673	113.75
408.896	110.75
409.12	120.75
409.344	117.75
409.567	104.75
409.791	92.75
410.014	118.75
410.238	102.75
410.461	122.75
410.685	113.75
410.908	115.75
411.132	119.75
411.355	128.75
411.578	121.75
411.802	124.75
412.025	120.75
412.249	133.75
412.472	119.75
412.695	132.75
412.919	121.75
413.142	118.75
413.365	110.75
413.589	106.75
413.812	131.75
414.035	123.75
414.258	113.75
414.482	115.75
414.705	119.75
414.928	117.75
415.151	111.75
415.374	129.75
415.597	113.75
415.821	133.75
416.044	130.75
416.267	120.75
416.49	116.75
416.713	124.75
416.936	129.75
417.159	118.75
417.382	132.75
417.605	134.75
417.828	125.75
418.051	134.75
418.274	122.75
418.497	138.75
418.72	125.75
418.943	131.75
419.166	132.75
419.389	128.75
419.611	120.75
419.834	118.75
420.057	132.75
420.28	121.75
420.503	122.75
420.726	123.75
420.948	127.75
421.171	132.75
421.394	122.75
421.617	151.75
421.839	141.75
422.062	130.75
422.285	133.75
422.507	141.75
422.73	120.75
422.953	124.75
423.175	126.75
423.398	135.75
423.621	124.75
423.843	118.75
424.066	146.75
424.288	147.75
424.511	144.75
424.733	149.75
424.956	130.75
425.178	130.75
425.401	118.75
425.623	130.75
425.846	135.75
426.068	127.75
426.291	124.75
426.513	131.75
426.735	131.75
426.958	126.75
427.18	118.75
427.402	130.75
427.625	130.75
427.847	127.75
428.069	129.75
428.292	128.75
428.514	126.75
428.736	127.75
428.958	126.75
429.181	133.75
429.403	128.75
429.625	114.75
429.847	134.75
430.069	135.75
430.292	126.75
430.514	127.75
430.736	116.75
430.958	115.75
431.18	126.75
431.402	131.75
431.624	107.75
431.846	99.75
432.068	100.75
432.29	92.75
432.512	97.75
432.734	107.75
432.956	126.75
433.178	147.75
433.4	139.75
433.622	136.75
433.844	137.75
434.066	108.75
434.287	111.75
434.509	110.75
434.731	105.75
434.953	103.75
435.175	124.75
435.397	113.75
435.618	116.75
435.84	111.75
436.062	110.75
436.284	118.75
436.505	128.75
436.727	122.75
436.949	143.75
437.17	126.75
437.392	114.75
437.614	113.75
437.835	99.75
438.057	118.75
438.278	116.75
438.5	123.75
438.721	141.75
438.943	120.75
439.165	142.75
439.386	137.75
439.608	146.75
439.829	147.75
440.05	135.75
440.272	130.75
440.493	149.75
440.715	145.75
440.936	148.75
441.158	136.75
441.379	142.75
441.6	132.75
441.822	132.75
442.043	137.75
442.264	152.75
442.486	141.75
442.707	130.75
442.928	132.75
443.149	133.75
443.371	126.75
443.592	140.75
443.813	132.75
444.034	147.75
444.255	152.75
444.476	135.75
444.698	140.75
444.919	151.75
445.14	264.75
445.361	204.75
445.582	148.75
445.803	134.75
446.024	151.75
446.245	153.75
446.466	146.75
446.687	145.75
446.908	142.75
447.129	136.75
447.35	157.75
447.571	144.75
447.792	145.75
448.013	154.75
448.234	138.75
448.455	133.75
448.675	140.75
448.896	140.75
449.117	133.75
449.338	135.75
449.559	133.75
449.779	125.75
450	131.75
450.221	128.75
450.442	146.75
450.662	126.75
450.883	129.75
451.104	124.75
451.324	127.75
451.545	119.75
451.766	112.75
451.986	124.75
452.207	121.75
452.428	113.75
452.648	127.75
452.869	131.75
453.089	130.75
453.31	110.75
453.53	100.75
453.751	91.75
453.971	98.75
454.192	102.75
454.412	96.75
454.633	122.75
454.853	119.75
455.073	122.75
455.294	126.75
455.514	123.75
455.734	115.75
455.955	116.75
456.175	107.75
456.395	115.75
456.616	103.75
456.836	103.75
457.056	114.75
457.276	119.75
457.497	97.75
457.717	104.75
457.937	113.75
458.157	107.75
458.377	104.75
458.598	106.75
458.818	105.75
459.038	96.75
459.258	88.75
459.478	106.75
459.698	84.75
459.918	95.75
460.138	107.75
460.358	106.75
460.578	114.75
460.798	119.75
461.018	119.75
461.238	113.75
461.458	104.75
461.678	103.75
461.898	113.75
462.118	114.75
462.338	126.75
462.558	117.75
462.777	122.75
462.997	119.75
463.217	95.75
463.437	108.75
463.657	113.75
463.876	109.75
464.096	112.75
464.316	98.75
464.536	100.75
464.755	119.75
464.975	122.75
465.195	129.75
465.414	120.75
465.634	117.75
465.854	114.75
466.073	121.75
466.293	129.75
466.512	120.75
466.732	124.75
466.951	141.75
467.171	144.75
467.391	130.75
467.61	129.75
467.829	131.75
468.049	132.75
468.268	138.75
468.488	135.75
468.707	135.75
468.927	123.75
469.146	141.75
469.365	143.75
469.585	133.75
469.804	130.75
470.023	134.75
470.243	154.75
470.462	158.75
470.681	139.75
470.901	138.75
471.12	147.75
471.339	132.75
471.558	132.75
471.777	139.75
471.997	133.75
472.216	123.75
472.435	108.75
472.654	120.75
472.873	125.75
473.092	110.75
473.311	127.75
473.53	130.75
473.749	129.75
473.968	120.75
474.187	124.75
474.406	126.75
474.625	123.75
474.844	134.75
475.063	130.75
475.282	134.75
475.501	100.75
475.72	122.75
475.939	123.75
476.158	132.75
476.377	128.75
476.596	125.75
476.814	111.75
477.033	99.75
477.252	132.75
477.471	119.75
477.69	126.75
477.908	134.75
478.127	134.75
478.346	128.75
478.564	132.75
478.783	135.75
479.002	145.75
479.22	127.75
479.439	150.75
479.658	109.75
479.876	119.75
480.095	100.75
480.313	107.75
480.532	123.75
480.751	104.75
480.969	95.75
481.188	83.75
481.406	94.75
481.624	90.75
481.843	101.75
482.061	105.75
482.28	108.75
482.498	103.75
482.717	106.75
482.935	122.75
483.153	145.75
483.372	138.75
483.59	142.75
483.808	146.75
484.027	139.75
484.245	138.75
484.463	145.75
484.681	163.75
484.9	141.75
485.118	172.75
485.336	122.75
485.554	119.75
485.772	99.75
485.99	91.75
486.209	107.75
486.427	111.75
486.645	115.75
486.863	138.75
487.081	136.75
487.299	132.75
487.517	139.75
487.735	161.75
487.953	191.75
488.171	171.75
488.389	155.75
488.607	145.75
488.825	139.75
489.043	124.75
489.261	133.75
489.479	146.75
489.696	140.75
489.914	139.75
490.132	135.75
490.35	141.75
490.568	150.75
490.786	177.75
491.003	164.75
491.221	190.75
491.439	185.75
491.657	194.75
491.874	200.75
492.092	208.75
492.31	216.75
492.527	234.75
492.745	220.75
492.963	194.75
493.18	169.75
493.398	180.75
493.615	171.75
493.833	176.75
494.05	166.75
494.268	174.75
494.485	169.75
494.703	171.75
494.92	156.75
495.138	162.75
495.355	178.75
495.573	160.75
495.79	152.75
496.008	170.75
496.225	181.75
496.442	171.75
496.66	164.75
496.877	155.75
497.094	158.75
497.312	165.75
497.529	144.75
497.746	153.75
497.963	138.75
498.181	138.75
498.398	121.75
498.615	118.75
498.832	127.75
499.049	122.75
499.267	143.75
499.484	136.75
499.701	127.75
499.918	129.75
500.135	135.75
500.352	140.75
500.569	136.75
500.786	133.75
501.003	134.75
501.22	146.75
501.437	126.75
501.654	129.75
501.871	117.75
502.088	132.75
502.305	123.75
502.522	128.75
502.739	134.75
502.956	128.75
503.172	126.75
503.389	102.75
503.606	124.75
503.823	116.75
504.04	119.75
504.256	126.75
504.473	120.75
504.69	126.75
504.907	134.75
505.123	121.75
505.34	136.75
505.557	132.75
505.773	110.75
505.99	120.75
506.207	128.75
506.423	120.75
506.64	114.75
506.856	99.75
507.073	105.75
507.289	125.75
507.506	112.75
507.722	126.75
507.939	131.75
508.155	130.75
508.372	111.75
508.588	106.75
508.805	113.75
509.021	113.75
509.238	95.75
509.454	101.75
509.67	86.75
509.887	98.75
510.103	80.75
510.319	99.75
510.536	92.75
510.752	91.75
510.968	87.75
511.184	80.75
511.401	97.75
511.617	102.75
511.833	87.75
