Data from Location4.07152019.Energy5.Lamp.07192019.3%Agarose_HRD10591_16-19-40-926.txt Node
Date: Fri Jul 19 16:19:40 EDT 2019
User: cochatt
Spectrometer: HR+D1059
Trigger mode: 1
Integration Time (sec): 1.000000E-1
Scans to average: 1
Electric dark correction enabled: true
Nonlinearity correction enabled: false
Boxcar width: 0
XAxis mode: Wavelengths
Number of Pixels in Spectrum: 2048
>>>>>Begin Spectral Data<<<<<
223.165	-13.62
223.4	-13.62
223.635	-13.62
223.869	-27.62
224.104	-8.62
224.338	-14.62
224.573	-9.62
224.808	-16.62
225.042	7.38
225.277	3.38
225.511	-2.62
225.746	-15.62
225.98	-4.62
226.215	20.38
226.449	17.38
226.683	19.38
226.918	17.38
227.152	28.38
227.387	47.38
227.621	37.38
227.856	36.38
228.09	36.38
228.324	45.38
228.559	47.38
228.793	50.38
229.027	50.38
229.262	75.38
229.496	60.38
229.73	58.38
229.964	73.38
230.199	66.38
230.433	69.38
230.667	65.38
230.901	78.38
231.136	66.38
231.37	88.38
231.604	79.38
231.838	88.38
232.072	80.38
232.306	81.38
232.541	70.38
232.775	95.38
233.009	69.38
233.243	75.38
233.477	75.38
233.711	80.38
233.945	71.38
234.179	69.38
234.413	89.38
234.647	70.38
234.881	82.38
235.115	70.38
235.349	73.38
235.583	77.38
235.817	71.38
236.051	77.38
236.285	80.38
236.519	74.38
236.753	80.38
236.987	83.38
237.221	79.38
237.455	76.38
237.689	73.38
237.922	74.38
238.156	77.38
238.39	70.38
238.624	83.38
238.858	78.38
239.091	83.38
239.325	79.38
239.559	70.38
239.793	73.38
240.027	81.38
240.26	72.38
240.494	67.38
240.728	75.38
240.961	74.38
241.195	94.38
241.429	94.38
241.662	82.38
241.896	72.38
242.13	71.38
242.363	74.38
242.597	73.38
242.83	71.38
243.064	82.38
243.298	67.38
243.531	71.38
243.765	76.38
243.998	80.38
244.232	73.38
244.465	89.38
244.699	95.38
244.932	64.38
245.166	80.38
245.399	84.38
245.633	82.38
245.866	83.38
246.099	80.38
246.333	69.38
246.566	68.38
246.8	72.38
247.033	60.38
247.266	65.38
247.5	87.38
247.733	73.38
247.966	87.38
248.2	86.38
248.433	84.38
248.666	77.38
248.899	78.38
249.133	77.38
249.366	88.38
249.599	83.38
249.832	64.38
250.066	74.38
250.299	86.38
250.532	74.38
250.765	70.38
250.998	77.38
251.231	65.38
251.465	84.38
251.698	87.38
251.931	79.38
252.164	71.38
252.397	85.38
252.63	75.38
252.863	86.38
253.096	77.38
253.329	71.38
253.562	62.38
253.795	83.38
254.028	79.38
254.261	76.38
254.494	79.38
254.727	83.38
254.96	92.38
255.193	77.38
255.426	68.38
255.659	85.38
255.892	97.38
256.124	75.38
256.357	80.38
256.59	79.38
256.823	77.38
257.056	68.38
257.289	77.38
257.521	84.38
257.754	87.38
257.987	86.38
258.22	84.38
258.452	70.38
258.685	64.38
258.918	72.38
259.151	63.38
259.383	76.38
259.616	75.38
259.849	76.38
260.081	81.38
260.314	64.38
260.547	73.38
260.779	66.38
261.012	88.38
261.244	83.38
261.477	69.38
261.71	90.38
261.942	87.38
262.175	75.38
262.407	70.38
262.64	85.38
262.872	75.38
263.105	78.38
263.337	92.38
263.57	85.38
263.802	99.38
264.035	84.38
264.267	86.38
264.499	76.38
264.732	82.38
264.964	84.38
265.197	75.38
265.429	79.38
265.661	80.38
265.894	90.38
266.126	79.38
266.358	79.38
266.591	81.38
266.823	70.38
267.055	89.38
267.287	75.38
267.52	75.38
267.752	74.38
267.984	88.38
268.216	72.38
268.448	73.38
268.681	77.38
268.913	85.38
269.145	75.38
269.377	83.38
269.609	80.38
269.841	79.38
270.073	80.38
270.306	88.38
270.538	88.38
270.77	87.38
271.002	77.38
271.234	79.38
271.466	79.38
271.698	81.38
271.93	103.38
272.162	85.38
272.394	86.38
272.626	73.38
272.858	85.38
273.09	92.38
273.322	96.38
273.553	68.38
273.785	93.38
274.017	75.38
274.249	92.38
274.481	87.38
274.713	79.38
274.945	83.38
275.176	76.38
275.408	80.38
275.64	89.38
275.872	72.38
276.104	83.38
276.335	85.38
276.567	75.38
276.799	67.38
277.031	100.38
277.262	87.38
277.494	82.38
277.726	67.38
277.957	88.38
278.189	84.38
278.421	68.38
278.652	87.38
278.884	89.38
279.115	76.38
279.347	91.38
279.579	80.38
279.81	78.38
280.042	79.38
280.273	81.38
280.505	93.38
280.736	89.38
280.968	72.38
281.199	82.38
281.431	75.38
281.662	87.38
281.894	76.38
282.125	77.38
282.356	80.38
282.588	77.38
282.819	72.38
283.051	66.38
283.282	79.38
283.513	88.38
283.745	81.38
283.976	92.38
284.207	98.38
284.439	82.38
284.67	91.38
284.901	74.38
285.132	83.38
285.364	80.38
285.595	73.38
285.826	70.38
286.057	88.38
286.288	81.38
286.52	83.38
286.751	93.38
286.982	83.38
287.213	86.38
287.444	85.38
287.675	94.38
287.906	74.38
288.138	99.38
288.369	84.38
288.6	87.38
288.831	71.38
289.062	84.38
289.293	85.38
289.524	70.38
289.755	84.38
289.986	74.38
290.217	84.38
290.448	80.38
290.679	70.38
290.91	87.38
291.141	86.38
291.371	86.38
291.602	80.38
291.833	73.38
292.064	82.38
292.295	94.38
292.526	78.38
292.757	90.38
292.987	81.38
293.218	79.38
293.449	89.38
293.68	82.38
293.91	81.38
294.141	87.38
294.372	81.38
294.603	85.38
294.833	77.38
295.064	79.38
295.295	70.38
295.525	76.38
295.756	82.38
295.987	68.38
296.217	84.38
296.448	80.38
296.679	84.38
296.909	78.38
297.14	78.38
297.37	90.38
297.601	91.38
297.831	99.38
298.062	87.38
298.292	83.38
298.523	79.38
298.753	99.38
298.984	82.38
299.214	88.38
299.445	94.38
299.675	67.38
299.905	92.38
300.136	85.38
300.366	80.38
300.597	92.38
300.827	80.38
301.057	86.38
301.288	92.38
301.518	78.38
301.748	87.38
301.979	83.38
302.209	73.38
302.439	83.38
302.669	87.38
302.9	84.38
303.13	75.38
303.36	82.38
303.59	98.38
303.82	95.38
304.051	66.38
304.281	68.38
304.511	97.38
304.741	94.38
304.971	80.38
305.201	89.38
305.431	78.38
305.661	87.38
305.891	84.38
306.121	88.38
306.352	78.38
306.582	90.38
306.812	81.38
307.042	81.38
307.272	82.38
307.502	92.38
307.731	89.38
307.961	90.38
308.191	78.38
308.421	79.38
308.651	102.38
308.881	83.38
309.111	88.38
309.341	89.38
309.571	83.38
309.8	76.38
310.03	87.38
310.26	82.38
310.49	76.38
310.72	92.38
310.949	95.38
311.179	85.38
311.409	72.38
311.639	81.38
311.868	84.38
312.098	79.38
312.328	81.38
312.557	84.38
312.787	79.38
313.017	86.38
313.246	83.38
313.476	74.38
313.706	83.38
313.935	81.38
314.165	84.38
314.394	76.38
314.624	87.38
314.853	88.38
315.083	100.38
315.312	70.38
315.542	86.38
315.771	79.38
316.001	85.38
316.23	96.38
316.46	75.38
316.689	75.38
316.919	76.38
317.148	90.38
317.377	83.38
317.607	79.38
317.836	85.38
318.065	83.38
318.295	92.38
318.524	94.38
318.753	93.38
318.983	73.38
319.212	80.38
319.441	86.38
319.67	89.38
319.9	77.38
320.129	75.38
320.358	76.38
320.587	75.38
320.816	73.38
321.046	82.38
321.275	86.38
321.504	87.38
321.733	81.38
321.962	73.38
322.191	84.38
322.42	92.38
322.649	96.38
322.878	83.38
323.108	91.38
323.337	84.38
323.566	79.38
323.795	96.38
324.024	92.38
324.253	72.38
324.482	97.38
324.71	87.38
324.939	84.38
325.168	84.38
325.397	89.38
325.626	96.38
325.855	72.38
326.084	87.38
326.313	94.38
326.542	78.38
326.77	81.38
326.999	76.38
327.228	79.38
327.457	78.38
327.686	87.38
327.914	80.38
328.143	91.38
328.372	77.38
328.6	80.38
328.829	84.38
329.058	81.38
329.287	75.38
329.515	76.38
329.744	86.38
329.972	82.38
330.201	82.38
330.43	88.38
330.658	83.38
330.887	91.38
331.115	87.38
331.344	77.38
331.572	88.38
331.801	76.38
332.03	77.38
332.258	72.38
332.486	80.38
332.715	82.38
332.943	88.38
333.172	68.38
333.4	81.38
333.629	88.38
333.857	81.38
334.085	83.38
334.314	83.38
334.542	87.38
334.771	83.38
334.999	88.38
335.227	81.38
335.455	83.38
335.684	72.38
335.912	89.38
336.14	68.38
336.369	80.38
336.597	87.38
336.825	86.38
337.053	88.38
337.281	83.38
337.51	94.38
337.738	74.38
337.966	91.38
338.194	90.38
338.422	90.38
338.65	101.38
338.878	96.38
339.106	77.38
339.334	99.38
339.562	95.38
339.79	68.38
340.018	89.38
340.246	87.38
340.474	86.38
340.702	76.38
340.93	90.38
341.158	96.38
341.386	76.38
341.614	71.38
341.842	90.38
342.07	86.38
342.298	87.38
342.526	84.38
342.754	84.38
342.981	93.38
343.209	80.38
343.437	104.38
343.665	80.38
343.893	82.38
344.12	90.38
344.348	98.38
344.576	91.38
344.804	77.38
345.031	79.38
345.259	92.38
345.487	81.38
345.714	81.38
345.942	94.38
346.17	96.38
346.397	76.38
346.625	96.38
346.853	100.38
347.08	84.38
347.308	73.38
347.535	81.38
347.763	79.38
347.99	100.38
348.218	86.38
348.445	85.38
348.673	88.38
348.9	82.38
349.128	86.38
349.355	79.38
349.583	76.38
349.81	81.38
350.037	79.38
350.265	91.38
350.492	87.38
350.72	90.38
350.947	106.38
351.174	84.38
351.402	88.38
351.629	70.38
351.856	87.38
352.083	81.38
352.311	77.38
352.538	78.38
352.765	91.38
352.992	96.38
353.22	92.38
353.447	72.38
353.674	83.38
353.901	76.38
354.128	101.38
354.355	82.38
354.583	96.38
354.81	73.38
355.037	91.38
355.264	74.38
355.491	82.38
355.718	84.38
355.945	76.38
356.172	76.38
356.399	85.38
356.626	78.38
356.853	66.38
357.08	79.38
357.307	95.38
357.534	89.38
357.761	86.38
357.988	82.38
358.215	88.38
358.441	75.38
358.668	80.38
358.895	89.38
359.122	68.38
359.349	70.38
359.576	75.38
359.802	75.38
360.029	84.38
360.256	91.38
360.483	85.38
360.709	87.38
360.936	97.38
361.163	94.38
361.39	91.38
361.616	91.38
361.843	83.38
362.07	83.38
362.296	84.38
362.523	83.38
362.749	93.38
362.976	78.38
363.203	79.38
363.429	73.38
363.656	84.38
363.882	77.38
364.109	87.38
364.335	87.38
364.562	87.38
364.788	92.38
365.015	97.38
365.241	68.38
365.468	92.38
365.694	94.38
365.92	79.38
366.147	79.38
366.373	89.38
366.599	94.38
366.826	78.38
367.052	87.38
367.278	90.38
367.505	82.38
367.731	95.38
367.957	87.38
368.184	106.38
368.41	82.38
368.636	93.38
368.862	90.38
369.089	82.38
369.315	96.38
369.541	88.38
369.767	81.38
369.993	88.38
370.219	84.38
370.445	97.38
370.672	92.38
370.898	104.38
371.124	86.38
371.35	78.38
371.576	85.38
371.802	87.38
372.028	88.38
372.254	100.38
372.48	77.38
372.706	93.38
372.932	95.38
373.158	98.38
373.384	82.38
373.61	86.38
373.835	98.38
374.061	81.38
374.287	78.38
374.513	88.38
374.739	97.38
374.965	95.38
375.191	83.38
375.416	64.38
375.642	87.38
375.868	92.38
376.094	83.38
376.319	90.38
376.545	103.38
376.771	90.38
376.997	90.38
377.222	90.38
377.448	80.38
377.674	92.38
377.899	94.38
378.125	97.38
378.35	89.38
378.576	96.38
378.802	98.38
379.027	99.38
379.253	93.38
379.478	76.38
379.704	93.38
379.929	95.38
380.155	83.38
380.38	83.38
380.606	93.38
380.831	109.38
381.057	92.38
381.282	100.38
381.507	102.38
381.733	95.38
381.958	80.38
382.184	104.38
382.409	93.38
382.634	81.38
382.86	86.38
383.085	106.38
383.31	103.38
383.535	102.38
383.761	96.38
383.986	99.38
384.211	97.38
384.436	96.38
384.662	99.38
384.887	88.38
385.112	91.38
385.337	106.38
385.562	103.38
385.787	97.38
386.013	108.38
386.238	106.38
386.463	95.38
386.688	91.38
386.913	84.38
387.138	95.38
387.363	92.38
387.588	110.38
387.813	113.38
388.038	97.38
388.263	103.38
388.488	96.38
388.713	97.38
388.938	97.38
389.163	107.38
389.387	81.38
389.612	95.38
389.837	99.38
390.062	98.38
390.287	118.38
390.512	104.38
390.736	106.38
390.961	102.38
391.186	105.38
391.411	110.38
391.636	110.38
391.86	103.38
392.085	108.38
392.31	105.38
392.534	94.38
392.759	110.38
392.984	106.38
393.208	103.38
393.433	93.38
393.658	107.38
393.882	105.38
394.107	106.38
394.331	105.38
394.556	97.38
394.78	93.38
395.005	110.38
395.229	114.38
395.454	115.38
395.678	107.38
395.903	101.38
396.127	102.38
396.352	99.38
396.576	102.38
396.801	115.38
397.025	114.38
397.249	117.38
397.474	110.38
397.698	106.38
397.922	98.38
398.147	126.38
398.371	96.38
398.595	105.38
398.82	106.38
399.044	100.38
399.268	114.38
399.492	112.38
399.717	116.38
399.941	126.38
400.165	97.38
400.389	110.38
400.613	111.38
400.837	117.38
401.062	120.38
401.286	105.38
401.51	97.38
401.734	106.38
401.958	113.38
402.182	105.38
402.406	107.38
402.63	104.38
402.854	99.38
403.078	115.38
403.302	116.38
403.526	116.38
403.75	118.38
403.974	126.38
404.198	104.38
404.422	132.38
404.645	112.38
404.869	120.38
405.093	107.38
405.317	105.38
405.541	112.38
405.765	117.38
405.988	114.38
406.212	112.38
406.436	123.38
406.66	134.38
406.883	123.38
407.107	106.38
407.331	107.38
407.555	123.38
407.778	102.38
408.002	112.38
408.226	108.38
408.449	124.38
408.673	100.38
408.896	107.38
409.12	118.38
409.344	106.38
409.567	126.38
409.791	116.38
410.014	115.38
410.238	116.38
410.461	126.38
410.685	112.38
410.908	132.38
411.132	112.38
411.355	130.38
411.578	115.38
411.802	110.38
412.025	128.38
412.249	122.38
412.472	116.38
412.695	114.38
412.919	120.38
413.142	124.38
413.365	124.38
413.589	122.38
413.812	114.38
414.035	127.38
414.258	108.38
414.482	110.38
414.705	111.38
414.928	117.38
415.151	100.38
415.374	120.38
415.597	131.38
415.821	118.38
416.044	126.38
416.267	111.38
416.49	120.38
416.713	117.38
416.936	132.38
417.159	114.38
417.382	96.38
417.605	119.38
417.828	122.38
418.051	119.38
418.274	122.38
418.497	136.38
418.72	146.38
418.943	128.38
419.166	141.38
419.389	135.38
419.611	131.38
419.834	130.38
420.057	131.38
420.28	127.38
420.503	125.38
420.726	119.38
420.948	126.38
421.171	139.38
421.394	121.38
421.617	133.38
421.839	142.38
422.062	139.38
422.285	151.38
422.507	136.38
422.73	128.38
422.953	127.38
423.175	138.38
423.398	123.38
423.621	134.38
423.843	132.38
424.066	135.38
424.288	140.38
424.511	137.38
424.733	130.38
424.956	131.38
425.178	124.38
425.401	138.38
425.623	128.38
425.846	121.38
426.068	132.38
426.291	118.38
426.513	128.38
426.735	126.38
426.958	115.38
427.18	124.38
427.402	131.38
427.625	131.38
427.847	127.38
428.069	116.38
428.292	116.38
428.514	130.38
428.736	126.38
428.958	112.38
429.181	100.38
429.403	118.38
429.625	110.38
429.847	122.38
430.069	138.38
430.292	129.38
430.514	136.38
430.736	134.38
430.958	115.38
431.18	121.38
431.402	128.38
431.624	99.38
431.846	104.38
432.068	97.38
432.29	99.38
432.512	114.38
432.734	110.38
432.956	117.38
433.178	146.38
433.4	143.38
433.622	130.38
433.844	126.38
434.066	118.38
434.287	114.38
434.509	105.38
434.731	103.38
434.953	108.38
435.175	118.38
435.397	134.38
435.618	107.38
435.84	108.38
436.062	108.38
436.284	113.38
436.505	113.38
436.727	116.38
436.949	124.38
437.17	134.38
437.392	123.38
437.614	124.38
437.835	125.38
438.057	114.38
438.278	114.38
438.5	110.38
438.721	141.38
438.943	147.38
439.165	128.38
439.386	126.38
439.608	130.38
439.829	135.38
440.05	150.38
440.272	134.38
440.493	119.38
440.715	130.38
440.936	141.38
441.158	149.38
441.379	157.38
441.6	158.38
441.822	149.38
442.043	139.38
442.264	128.38
442.486	135.38
442.707	142.38
442.928	137.38
443.149	132.38
443.371	132.38
443.592	131.38
443.813	124.38
444.034	136.38
444.255	123.38
444.476	126.38
444.698	135.38
444.919	148.38
445.14	257.38
445.361	192.38
445.582	147.38
445.803	130.38
446.024	141.38
446.245	149.38
446.466	147.38
446.687	144.38
446.908	138.38
447.129	148.38
447.35	145.38
447.571	148.38
447.792	153.38
448.013	133.38
448.234	142.38
448.455	138.38
448.675	144.38
448.896	142.38
449.117	147.38
449.338	134.38
449.559	130.38
449.779	129.38
450	142.38
450.221	142.38
450.442	122.38
450.662	128.38
450.883	128.38
451.104	145.38
451.324	134.38
451.545	125.38
451.766	122.38
451.986	123.38
452.207	145.38
452.428	130.38
452.648	120.38
452.869	115.38
453.089	122.38
453.31	118.38
453.53	105.38
453.751	110.38
453.971	106.38
454.192	92.38
454.412	102.38
454.633	111.38
454.853	111.38
455.073	119.38
455.294	106.38
455.514	122.38
455.734	124.38
455.955	115.38
456.175	103.38
456.395	115.38
456.616	103.38
456.836	88.38
457.056	108.38
457.276	111.38
457.497	114.38
457.717	95.38
457.937	103.38
458.157	102.38
458.377	106.38
458.598	109.38
458.818	90.38
459.038	94.38
459.258	93.38
459.478	81.38
459.698	92.38
459.918	116.38
460.138	121.38
460.358	98.38
460.578	110.38
460.798	111.38
461.018	117.38
461.238	125.38
461.458	121.38
461.678	119.38
461.898	113.38
462.118	113.38
462.338	105.38
462.558	102.38
462.777	110.38
462.997	114.38
463.217	114.38
463.437	108.38
463.657	101.38
463.876	100.38
464.096	116.38
464.316	101.38
464.536	95.38
464.755	113.38
464.975	100.38
465.195	107.38
465.414	128.38
465.634	112.38
465.854	128.38
466.073	120.38
466.293	97.38
466.512	121.38
466.732	116.38
466.951	116.38
467.171	120.38
467.391	143.38
467.61	130.38
467.829	136.38
468.049	135.38
468.268	125.38
468.488	126.38
468.707	130.38
468.927	138.38
469.146	147.38
469.365	150.38
469.585	132.38
469.804	140.38
470.023	137.38
470.243	130.38
470.462	143.38
470.681	128.38
470.901	148.38
471.12	137.38
471.339	139.38
471.558	130.38
471.777	121.38
471.997	131.38
472.216	123.38
472.435	122.38
472.654	126.38
472.873	107.38
473.092	114.38
473.311	124.38
473.53	113.38
473.749	129.38
473.968	115.38
474.187	118.38
474.406	122.38
474.625	124.38
474.844	116.38
475.063	119.38
475.282	118.38
475.501	111.38
475.72	121.38
475.939	103.38
476.158	118.38
476.377	116.38
476.596	130.38
476.814	113.38
477.033	105.38
477.252	124.38
477.471	121.38
477.69	140.38
477.908	139.38
478.127	128.38
478.346	132.38
478.564	142.38
478.783	132.38
479.002	137.38
479.22	149.38
479.439	127.38
479.658	115.38
479.876	107.38
480.095	113.38
480.313	103.38
480.532	132.38
480.751	105.38
480.969	110.38
481.188	93.38
481.406	95.38
481.624	98.38
481.843	99.38
482.061	115.38
482.28	103.38
482.498	110.38
482.717	104.38
482.935	108.38
483.153	156.38
483.372	130.38
483.59	163.38
483.808	132.38
484.027	111.38
484.245	129.38
484.463	156.38
484.681	152.38
484.9	146.38
485.118	147.38
485.336	130.38
485.554	122.38
485.772	104.38
485.99	89.38
486.209	118.38
486.427	104.38
486.645	128.38
486.863	123.38
487.081	144.38
487.299	126.38
487.517	144.38
487.735	175.38
487.953	178.38
488.171	163.38
488.389	164.38
488.607	149.38
488.825	144.38
489.043	138.38
489.261	139.38
489.479	138.38
489.696	138.38
489.914	141.38
490.132	144.38
490.35	146.38
490.568	159.38
490.786	147.38
491.003	165.38
491.221	181.38
491.439	189.38
491.657	192.38
491.874	188.38
492.092	218.38
492.31	227.38
492.527	216.38
492.745	188.38
492.963	198.38
493.18	193.38
493.398	163.38
493.615	178.38
493.833	170.38
494.05	175.38
494.268	154.38
494.485	164.38
494.703	163.38
494.92	171.38
495.138	167.38
495.355	162.38
495.573	160.38
495.79	162.38
496.008	162.38
496.225	177.38
496.442	152.38
496.66	168.38
496.877	175.38
497.094	150.38
497.312	166.38
497.529	135.38
497.746	151.38
497.963	122.38
498.181	130.38
498.398	126.38
498.615	130.38
498.832	106.38
499.049	102.38
499.267	124.38
499.484	138.38
499.701	137.38
499.918	137.38
500.135	141.38
500.352	144.38
500.569	141.38
500.786	146.38
501.003	132.38
501.22	130.38
501.437	134.38
501.654	127.38
501.871	124.38
502.088	134.38
502.305	138.38
502.522	138.38
502.739	132.38
502.956	127.38
503.172	129.38
503.389	105.38
503.606	136.38
503.823	128.38
504.04	126.38
504.256	118.38
504.473	117.38
504.69	121.38
504.907	126.38
505.123	124.38
505.34	103.38
505.557	120.38
505.773	121.38
505.99	115.38
506.207	119.38
506.423	118.38
506.64	124.38
506.856	122.38
507.073	110.38
507.289	125.38
507.506	121.38
507.722	123.38
507.939	124.38
508.155	126.38
508.372	128.38
508.588	102.38
508.805	112.38
509.021	116.38
509.238	112.38
509.454	89.38
509.67	89.38
509.887	92.38
510.103	86.38
510.319	110.38
510.536	92.38
510.752	92.38
510.968	69.38
511.184	88.38
511.401	73.38
511.617	88.38
511.833	88.38
