Data from Location4.07152019.Energy5.Lamp.07192019.3%Agarose_HRD10591_16-18-43-925.txt Node
Date: Fri Jul 19 16:18:43 EDT 2019
User: cochatt
Spectrometer: HR+D1059
Trigger mode: 1
Integration Time (sec): 1.000000E-1
Scans to average: 1
Electric dark correction enabled: true
Nonlinearity correction enabled: false
Boxcar width: 0
XAxis mode: Wavelengths
Number of Pixels in Spectrum: 2048
>>>>>Begin Spectral Data<<<<<
223.165	-14.44
223.4	-14.44
223.635	-14.44
223.869	-13.44
224.104	-19.44
224.338	-21.44
224.573	3.56
224.808	-9.44
225.042	-2.44
225.277	3.56
225.511	-2.44
225.746	8.56
225.98	5.56
226.215	0.56
226.449	18.56
226.683	20.56
226.918	10.56
227.152	11.56
227.387	28.56
227.621	41.56
227.856	50.56
228.09	59.56
228.324	41.56
228.559	58.56
228.793	68.56
229.027	76.56
229.262	70.56
229.496	58.56
229.73	82.56
229.964	76.56
230.199	73.56
230.433	79.56
230.667	80.56
230.901	84.56
231.136	72.56
231.37	72.56
231.604	65.56
231.838	78.56
232.072	79.56
232.306	80.56
232.541	89.56
232.775	79.56
233.009	98.56
233.243	82.56
233.477	96.56
233.711	79.56
233.945	79.56
234.179	78.56
234.413	82.56
234.647	100.56
234.881	88.56
235.115	78.56
235.349	72.56
235.583	89.56
235.817	72.56
236.051	69.56
236.285	83.56
236.519	74.56
236.753	86.56
236.987	86.56
237.221	85.56
237.455	76.56
237.689	82.56
237.922	74.56
238.156	81.56
238.39	81.56
238.624	72.56
238.858	74.56
239.091	76.56
239.325	79.56
239.559	77.56
239.793	78.56
240.027	82.56
240.26	80.56
240.494	79.56
240.728	67.56
240.961	78.56
241.195	81.56
241.429	78.56
241.662	81.56
241.896	86.56
242.13	71.56
242.363	83.56
242.597	75.56
242.83	79.56
243.064	89.56
243.298	82.56
243.531	86.56
243.765	78.56
243.998	75.56
244.232	73.56
244.465	67.56
244.699	73.56
244.932	89.56
245.166	77.56
245.399	75.56
245.633	84.56
245.866	77.56
246.099	83.56
246.333	73.56
246.566	73.56
246.8	81.56
247.033	73.56
247.266	78.56
247.5	89.56
247.733	78.56
247.966	78.56
248.2	93.56
248.433	78.56
248.666	66.56
248.899	77.56
249.133	86.56
249.366	77.56
249.599	70.56
249.832	61.56
250.066	83.56
250.299	71.56
250.532	93.56
250.765	79.56
250.998	101.56
251.231	72.56
251.465	79.56
251.698	74.56
251.931	81.56
252.164	82.56
252.397	68.56
252.63	87.56
252.863	77.56
253.096	71.56
253.329	66.56
253.562	69.56
253.795	91.56
254.028	86.56
254.261	98.56
254.494	83.56
254.727	87.56
254.96	83.56
255.193	87.56
255.426	95.56
255.659	89.56
255.892	83.56
256.124	94.56
256.357	92.56
256.59	87.56
256.823	81.56
257.056	73.56
257.289	81.56
257.521	78.56
257.754	74.56
257.987	90.56
258.22	78.56
258.452	85.56
258.685	89.56
258.918	88.56
259.151	67.56
259.383	77.56
259.616	85.56
259.849	81.56
260.081	93.56
260.314	87.56
260.547	72.56
260.779	76.56
261.012	83.56
261.244	83.56
261.477	81.56
261.71	88.56
261.942	78.56
262.175	89.56
262.407	87.56
262.64	91.56
262.872	89.56
263.105	85.56
263.337	78.56
263.57	77.56
263.802	80.56
264.035	91.56
264.267	97.56
264.499	80.56
264.732	83.56
264.964	94.56
265.197	72.56
265.429	92.56
265.661	84.56
265.894	85.56
266.126	100.56
266.358	95.56
266.591	82.56
266.823	76.56
267.055	84.56
267.287	78.56
267.52	87.56
267.752	84.56
267.984	98.56
268.216	84.56
268.448	84.56
268.681	78.56
268.913	78.56
269.145	96.56
269.377	100.56
269.609	89.56
269.841	75.56
270.073	81.56
270.306	69.56
270.538	80.56
270.77	94.56
271.002	87.56
271.234	82.56
271.466	89.56
271.698	73.56
271.93	82.56
272.162	90.56
272.394	80.56
272.626	71.56
272.858	79.56
273.09	95.56
273.322	90.56
273.553	90.56
273.785	91.56
274.017	96.56
274.249	95.56
274.481	91.56
274.713	81.56
274.945	101.56
275.176	79.56
275.408	115.56
275.64	93.56
275.872	80.56
276.104	82.56
276.335	94.56
276.567	86.56
276.799	86.56
277.031	90.56
277.262	80.56
277.494	87.56
277.726	93.56
277.957	82.56
278.189	97.56
278.421	94.56
278.652	98.56
278.884	87.56
279.115	88.56
279.347	86.56
279.579	81.56
279.81	96.56
280.042	84.56
280.273	90.56
280.505	97.56
280.736	95.56
280.968	79.56
281.199	79.56
281.431	62.56
281.662	87.56
281.894	94.56
282.125	85.56
282.356	87.56
282.588	91.56
282.819	69.56
283.051	71.56
283.282	83.56
283.513	88.56
283.745	89.56
283.976	101.56
284.207	92.56
284.439	87.56
284.67	75.56
284.901	84.56
285.132	90.56
285.364	85.56
285.595	89.56
285.826	83.56
286.057	85.56
286.288	78.56
286.52	91.56
286.751	86.56
286.982	77.56
287.213	74.56
287.444	94.56
287.675	97.56
287.906	77.56
288.138	75.56
288.369	77.56
288.6	93.56
288.831	76.56
289.062	70.56
289.293	86.56
289.524	85.56
289.755	66.56
289.986	88.56
290.217	92.56
290.448	86.56
290.679	98.56
290.91	94.56
291.141	78.56
291.371	91.56
291.602	90.56
291.833	83.56
292.064	86.56
292.295	88.56
292.526	85.56
292.757	91.56
292.987	91.56
293.218	90.56
293.449	83.56
293.68	97.56
293.91	86.56
294.141	92.56
294.372	82.56
294.603	86.56
294.833	99.56
295.064	73.56
295.295	94.56
295.525	83.56
295.756	108.56
295.987	81.56
296.217	82.56
296.448	98.56
296.679	92.56
296.909	102.56
297.14	90.56
297.37	94.56
297.601	99.56
297.831	83.56
298.062	98.56
298.292	78.56
298.523	86.56
298.753	86.56
298.984	97.56
299.214	78.56
299.445	104.56
299.675	92.56
299.905	87.56
300.136	89.56
300.366	76.56
300.597	92.56
300.827	87.56
301.057	88.56
301.288	95.56
301.518	86.56
301.748	98.56
301.979	89.56
302.209	96.56
302.439	79.56
302.669	84.56
302.9	83.56
303.13	86.56
303.36	93.56
303.59	90.56
303.82	98.56
304.051	75.56
304.281	76.56
304.511	79.56
304.741	84.56
304.971	78.56
305.201	85.56
305.431	81.56
305.661	93.56
305.891	98.56
306.121	102.56
306.352	93.56
306.582	83.56
306.812	87.56
307.042	87.56
307.272	82.56
307.502	83.56
307.731	92.56
307.961	76.56
308.191	84.56
308.421	85.56
308.651	87.56
308.881	91.56
309.111	92.56
309.341	97.56
309.571	76.56
309.8	92.56
310.03	77.56
310.26	92.56
310.49	101.56
310.72	98.56
310.949	76.56
311.179	93.56
311.409	85.56
311.639	77.56
311.868	109.56
312.098	84.56
312.328	91.56
312.557	104.56
312.787	78.56
313.017	73.56
313.246	86.56
313.476	77.56
313.706	103.56
313.935	99.56
314.165	97.56
314.394	81.56
314.624	102.56
314.853	95.56
315.083	93.56
315.312	83.56
315.542	90.56
315.771	90.56
316.001	92.56
316.23	79.56
316.46	79.56
316.689	69.56
316.919	91.56
317.148	86.56
317.377	84.56
317.607	80.56
317.836	83.56
318.065	91.56
318.295	78.56
318.524	83.56
318.753	86.56
318.983	84.56
319.212	86.56
319.441	82.56
319.67	75.56
319.9	86.56
320.129	83.56
320.358	94.56
320.587	96.56
320.816	76.56
321.046	80.56
321.275	84.56
321.504	69.56
321.733	90.56
321.962	94.56
322.191	89.56
322.42	94.56
322.649	88.56
322.878	68.56
323.108	97.56
323.337	87.56
323.566	77.56
323.795	86.56
324.024	87.56
324.253	72.56
324.482	87.56
324.71	97.56
324.939	90.56
325.168	91.56
325.397	89.56
325.626	70.56
325.855	87.56
326.084	99.56
326.313	82.56
326.542	93.56
326.77	86.56
326.999	97.56
327.228	93.56
327.457	77.56
327.686	78.56
327.914	83.56
328.143	95.56
328.372	73.56
328.6	81.56
328.829	82.56
329.058	86.56
329.287	90.56
329.515	83.56
329.744	87.56
329.972	97.56
330.201	93.56
330.43	87.56
330.658	93.56
330.887	90.56
331.115	73.56
331.344	85.56
331.572	85.56
331.801	82.56
332.03	82.56
332.258	88.56
332.486	81.56
332.715	80.56
332.943	86.56
333.172	91.56
333.4	77.56
333.629	79.56
333.857	89.56
334.085	100.56
334.314	99.56
334.542	92.56
334.771	89.56
334.999	93.56
335.227	73.56
335.455	92.56
335.684	99.56
335.912	78.56
336.14	91.56
336.369	86.56
336.597	78.56
336.825	85.56
337.053	91.56
337.281	76.56
337.51	88.56
337.738	89.56
337.966	85.56
338.194	74.56
338.422	89.56
338.65	84.56
338.878	85.56
339.106	92.56
339.334	92.56
339.562	87.56
339.79	94.56
340.018	86.56
340.246	99.56
340.474	93.56
340.702	91.56
340.93	91.56
341.158	83.56
341.386	81.56
341.614	82.56
341.842	98.56
342.07	82.56
342.298	85.56
342.526	72.56
342.754	101.56
342.981	92.56
343.209	89.56
343.437	78.56
343.665	89.56
343.893	85.56
344.12	86.56
344.348	90.56
344.576	100.56
344.804	71.56
345.031	90.56
345.259	104.56
345.487	85.56
345.714	90.56
345.942	104.56
346.17	95.56
346.397	83.56
346.625	85.56
346.853	92.56
347.08	74.56
347.308	75.56
347.535	86.56
347.763	79.56
347.99	83.56
348.218	76.56
348.445	88.56
348.673	83.56
348.9	96.56
349.128	86.56
349.355	99.56
349.583	97.56
349.81	89.56
350.037	98.56
350.265	87.56
350.492	77.56
350.72	87.56
350.947	87.56
351.174	90.56
351.402	89.56
351.629	83.56
351.856	99.56
352.083	88.56
352.311	83.56
352.538	84.56
352.765	84.56
352.992	85.56
353.22	82.56
353.447	94.56
353.674	98.56
353.901	92.56
354.128	84.56
354.355	84.56
354.583	91.56
354.81	92.56
355.037	98.56
355.264	83.56
355.491	96.56
355.718	88.56
355.945	101.56
356.172	93.56
356.399	82.56
356.626	91.56
356.853	84.56
357.08	79.56
357.307	88.56
357.534	93.56
357.761	93.56
357.988	83.56
358.215	80.56
358.441	86.56
358.668	93.56
358.895	93.56
359.122	88.56
359.349	83.56
359.576	90.56
359.802	87.56
360.029	86.56
360.256	91.56
360.483	90.56
360.709	82.56
360.936	106.56
361.163	105.56
361.39	93.56
361.616	79.56
361.843	82.56
362.07	88.56
362.296	77.56
362.523	87.56
362.749	99.56
362.976	110.56
363.203	85.56
363.429	87.56
363.656	91.56
363.882	73.56
364.109	84.56
364.335	79.56
364.562	81.56
364.788	88.56
365.015	95.56
365.241	96.56
365.468	90.56
365.694	95.56
365.92	74.56
366.147	83.56
366.373	86.56
366.599	95.56
366.826	87.56
367.052	94.56
367.278	81.56
367.505	95.56
367.731	98.56
367.957	87.56
368.184	86.56
368.41	97.56
368.636	84.56
368.862	106.56
369.089	90.56
369.315	85.56
369.541	94.56
369.767	89.56
369.993	92.56
370.219	89.56
370.445	90.56
370.672	92.56
370.898	107.56
371.124	93.56
371.35	93.56
371.576	92.56
371.802	91.56
372.028	85.56
372.254	87.56
372.48	83.56
372.706	91.56
372.932	89.56
373.158	102.56
373.384	91.56
373.61	108.56
373.835	84.56
374.061	97.56
374.287	92.56
374.513	114.56
374.739	99.56
374.965	102.56
375.191	106.56
375.416	89.56
375.642	98.56
375.868	91.56
376.094	97.56
376.319	93.56
376.545	75.56
376.771	91.56
376.997	93.56
377.222	113.56
377.448	102.56
377.674	107.56
377.899	85.56
378.125	93.56
378.35	100.56
378.576	92.56
378.802	86.56
379.027	105.56
379.253	87.56
379.478	82.56
379.704	97.56
379.929	90.56
380.155	79.56
380.38	93.56
380.606	98.56
380.831	87.56
381.057	98.56
381.282	103.56
381.507	93.56
381.733	102.56
381.958	96.56
382.184	103.56
382.409	103.56
382.634	102.56
382.86	100.56
383.085	93.56
383.31	111.56
383.535	88.56
383.761	100.56
383.986	111.56
384.211	93.56
384.436	101.56
384.662	99.56
384.887	91.56
385.112	105.56
385.337	94.56
385.562	106.56
385.787	98.56
386.013	104.56
386.238	96.56
386.463	105.56
386.688	93.56
386.913	109.56
387.138	104.56
387.363	108.56
387.588	116.56
387.813	92.56
388.038	108.56
388.263	107.56
388.488	103.56
388.713	112.56
388.938	108.56
389.163	98.56
389.387	99.56
389.612	95.56
389.837	110.56
390.062	112.56
390.287	102.56
390.512	98.56
390.736	94.56
390.961	102.56
391.186	100.56
391.411	114.56
391.636	105.56
391.86	113.56
392.085	105.56
392.31	110.56
392.534	97.56
392.759	121.56
392.984	109.56
393.208	100.56
393.433	122.56
393.658	113.56
393.882	105.56
394.107	106.56
394.331	104.56
394.556	103.56
394.78	103.56
395.005	117.56
395.229	117.56
395.454	113.56
395.678	113.56
395.903	110.56
396.127	109.56
396.352	118.56
396.576	97.56
396.801	103.56
397.025	99.56
397.249	101.56
397.474	109.56
397.698	119.56
397.922	115.56
398.147	116.56
398.371	111.56
398.595	119.56
398.82	114.56
399.044	106.56
399.268	106.56
399.492	110.56
399.717	115.56
399.941	114.56
400.165	117.56
400.389	114.56
400.613	117.56
400.837	109.56
401.062	110.56
401.286	113.56
401.51	118.56
401.734	117.56
401.958	117.56
402.182	108.56
402.406	109.56
402.63	111.56
402.854	117.56
403.078	98.56
403.302	125.56
403.526	102.56
403.75	117.56
403.974	123.56
404.198	119.56
404.422	120.56
404.645	105.56
404.869	113.56
405.093	135.56
405.317	139.56
405.541	109.56
405.765	122.56
405.988	109.56
406.212	121.56
406.436	116.56
406.66	127.56
406.883	119.56
407.107	112.56
407.331	93.56
407.555	112.56
407.778	110.56
408.002	126.56
408.226	125.56
408.449	115.56
408.673	122.56
408.896	107.56
409.12	129.56
409.344	119.56
409.567	124.56
409.791	123.56
410.014	133.56
410.238	137.56
410.461	135.56
410.685	125.56
410.908	102.56
411.132	125.56
411.355	127.56
411.578	118.56
411.802	125.56
412.025	124.56
412.249	127.56
412.472	106.56
412.695	109.56
412.919	118.56
413.142	133.56
413.365	127.56
413.589	129.56
413.812	124.56
414.035	118.56
414.258	119.56
414.482	111.56
414.705	122.56
414.928	131.56
415.151	129.56
415.374	106.56
415.597	120.56
415.821	135.56
416.044	133.56
416.267	119.56
416.49	136.56
416.713	127.56
416.936	134.56
417.159	126.56
417.382	126.56
417.605	132.56
417.828	127.56
418.051	132.56
418.274	134.56
418.497	135.56
418.72	122.56
418.943	127.56
419.166	122.56
419.389	143.56
419.611	135.56
419.834	146.56
420.057	147.56
420.28	123.56
420.503	143.56
420.726	133.56
420.948	112.56
421.171	135.56
421.394	133.56
421.617	144.56
421.839	132.56
422.062	143.56
422.285	122.56
422.507	132.56
422.73	131.56
422.953	124.56
423.175	123.56
423.398	133.56
423.621	124.56
423.843	126.56
424.066	129.56
424.288	133.56
424.511	133.56
424.733	148.56
424.956	143.56
425.178	141.56
425.401	133.56
425.623	119.56
425.846	143.56
426.068	124.56
426.291	113.56
426.513	130.56
426.735	126.56
426.958	138.56
427.18	117.56
427.402	124.56
427.625	126.56
427.847	126.56
428.069	134.56
428.292	123.56
428.514	160.56
428.736	140.56
428.958	117.56
429.181	120.56
429.403	133.56
429.625	132.56
429.847	137.56
430.069	131.56
430.292	123.56
430.514	129.56
430.736	128.56
430.958	113.56
431.18	117.56
431.402	137.56
431.624	113.56
431.846	112.56
432.068	103.56
432.29	85.56
432.512	134.56
432.734	117.56
432.956	131.56
433.178	137.56
433.4	134.56
433.622	146.56
433.844	146.56
434.066	125.56
434.287	109.56
434.509	90.56
434.731	109.56
434.953	110.56
435.175	126.56
435.397	133.56
435.618	113.56
435.84	117.56
436.062	125.56
436.284	122.56
436.505	119.56
436.727	122.56
436.949	133.56
437.17	140.56
437.392	125.56
437.614	120.56
437.835	118.56
438.057	112.56
438.278	111.56
438.5	119.56
438.721	137.56
438.943	139.56
439.165	119.56
439.386	142.56
439.608	135.56
439.829	155.56
440.05	165.56
440.272	143.56
440.493	146.56
440.715	143.56
440.936	151.56
441.158	144.56
441.379	141.56
441.6	137.56
441.822	157.56
442.043	135.56
442.264	140.56
442.486	137.56
442.707	140.56
442.928	138.56
443.149	141.56
443.371	141.56
443.592	118.56
443.813	152.56
444.034	140.56
444.255	141.56
444.476	131.56
444.698	149.56
444.919	130.56
445.14	303.56
445.361	218.56
445.582	158.56
445.803	142.56
446.024	161.56
446.245	157.56
446.466	154.56
446.687	146.56
446.908	161.56
447.129	142.56
447.35	167.56
447.571	137.56
447.792	143.56
448.013	146.56
448.234	129.56
448.455	134.56
448.675	137.56
448.896	155.56
449.117	143.56
449.338	141.56
449.559	131.56
449.779	142.56
450	128.56
450.221	130.56
450.442	162.56
450.662	142.56
450.883	131.56
451.104	146.56
451.324	130.56
451.545	133.56
451.766	139.56
451.986	117.56
452.207	135.56
452.428	121.56
452.648	125.56
452.869	133.56
453.089	111.56
453.31	111.56
453.53	104.56
453.751	99.56
453.971	102.56
454.192	113.56
454.412	110.56
454.633	113.56
454.853	117.56
455.073	108.56
455.294	123.56
455.514	122.56
455.734	107.56
455.955	113.56
456.175	114.56
456.395	106.56
456.616	106.56
456.836	122.56
457.056	120.56
457.276	107.56
457.497	110.56
457.717	97.56
457.937	112.56
458.157	113.56
458.377	106.56
458.598	110.56
458.818	104.56
459.038	98.56
459.258	88.56
459.478	85.56
459.698	87.56
459.918	99.56
460.138	105.56
460.358	127.56
460.578	123.56
460.798	98.56
461.018	112.56
461.238	118.56
461.458	126.56
461.678	123.56
461.898	124.56
462.118	102.56
462.338	119.56
462.558	94.56
462.777	108.56
462.997	116.56
463.217	106.56
463.437	119.56
463.657	110.56
463.876	115.56
464.096	109.56
464.316	106.56
464.536	110.56
464.755	117.56
464.975	137.56
465.195	106.56
465.414	122.56
465.634	119.56
465.854	123.56
466.073	127.56
466.293	124.56
466.512	111.56
466.732	137.56
466.951	123.56
467.171	138.56
467.391	131.56
467.61	145.56
467.829	156.56
468.049	135.56
468.268	136.56
468.488	131.56
468.707	140.56
468.927	142.56
469.146	133.56
469.365	129.56
469.585	138.56
469.804	142.56
470.023	141.56
470.243	149.56
470.462	146.56
470.681	153.56
470.901	129.56
471.12	144.56
471.339	143.56
471.558	138.56
471.777	136.56
471.997	140.56
472.216	130.56
472.435	131.56
472.654	113.56
472.873	121.56
473.092	117.56
473.311	107.56
473.53	118.56
473.749	138.56
473.968	121.56
474.187	118.56
474.406	116.56
474.625	123.56
474.844	150.56
475.063	121.56
475.282	121.56
475.501	109.56
475.72	139.56
475.939	123.56
476.158	124.56
476.377	118.56
476.596	130.56
476.814	94.56
477.033	112.56
477.252	125.56
477.471	122.56
477.69	124.56
477.908	134.56
478.127	149.56
478.346	137.56
478.564	133.56
478.783	129.56
479.002	141.56
479.22	139.56
479.439	130.56
479.658	122.56
479.876	120.56
480.095	105.56
480.313	100.56
480.532	121.56
480.751	120.56
480.969	93.56
481.188	93.56
481.406	104.56
481.624	93.56
481.843	115.56
482.061	108.56
482.28	127.56
482.498	121.56
482.717	92.56
482.935	133.56
483.153	131.56
483.372	172.56
483.59	155.56
483.808	153.56
484.027	139.56
484.245	151.56
484.463	137.56
484.681	167.56
484.9	144.56
485.118	135.56
485.336	131.56
485.554	121.56
485.772	115.56
485.99	125.56
486.209	117.56
486.427	105.56
486.645	123.56
486.863	133.56
487.081	150.56
487.299	129.56
487.517	124.56
487.735	166.56
487.953	195.56
488.171	194.56
488.389	167.56
488.607	149.56
488.825	155.56
489.043	135.56
489.261	138.56
489.479	149.56
489.696	141.56
489.914	130.56
490.132	152.56
490.35	156.56
490.568	148.56
490.786	165.56
491.003	156.56
491.221	182.56
491.439	183.56
491.657	190.56
491.874	208.56
492.092	221.56
492.31	241.56
492.527	226.56
492.745	203.56
492.963	193.56
493.18	183.56
493.398	179.56
493.615	163.56
493.833	165.56
494.05	166.56
494.268	170.56
494.485	172.56
494.703	187.56
494.92	187.56
495.138	181.56
495.355	173.56
495.573	180.56
495.79	174.56
496.008	163.56
496.225	170.56
496.442	157.56
496.66	171.56
496.877	172.56
497.094	170.56
497.312	149.56
497.529	157.56
497.746	167.56
497.963	148.56
498.181	135.56
498.398	136.56
498.615	111.56
498.832	117.56
499.049	116.56
499.267	121.56
499.484	132.56
499.701	117.56
499.918	131.56
500.135	137.56
500.352	144.56
500.569	139.56
500.786	149.56
501.003	140.56
501.22	141.56
501.437	140.56
501.654	138.56
501.871	133.56
502.088	133.56
502.305	123.56
502.522	137.56
502.739	143.56
502.956	136.56
503.172	128.56
503.389	130.56
503.606	114.56
503.823	133.56
504.04	129.56
504.256	140.56
504.473	124.56
504.69	127.56
504.907	137.56
505.123	126.56
505.34	107.56
505.557	129.56
505.773	137.56
505.99	123.56
506.207	119.56
506.423	140.56
506.64	131.56
506.856	122.56
507.073	119.56
507.289	115.56
507.506	119.56
507.722	120.56
507.939	114.56
508.155	121.56
508.372	110.56
508.588	129.56
508.805	115.56
509.021	107.56
509.238	111.56
509.454	109.56
509.67	106.56
509.887	100.56
510.103	89.56
510.319	101.56
510.536	100.56
510.752	97.56
510.968	89.56
511.184	102.56
