Data from Location4.07152019.Energy5.Lamp.07192019.3%Agarose_HRD10591_16-21-07-926.txt Node
Date: Fri Jul 19 16:21:07 EDT 2019
User: cochatt
Spectrometer: HR+D1059
Trigger mode: 1
Integration Time (sec): 1.000000E-1
Scans to average: 1
Electric dark correction enabled: true
Nonlinearity correction enabled: false
Boxcar width: 0
XAxis mode: Wavelengths
Number of Pixels in Spectrum: 2048
>>>>>Begin Spectral Data<<<<<
223.165	-3.94
223.4	-3.94
223.635	-3.94
223.869	-19.94
224.104	-19.94
224.338	-27.94
224.573	-11.94
224.808	-6.94
225.042	1.06
225.277	-4.94
225.511	-1.94
225.746	14.06
225.98	2.06
226.215	0.06
226.449	10.06
226.683	18.06
226.918	31.06
227.152	21.06
227.387	19.06
227.621	25.06
227.856	42.06
228.09	39.06
228.324	54.06
228.559	53.06
228.793	69.06
229.027	50.06
229.262	64.06
229.496	55.06
229.73	64.06
229.964	81.06
230.199	79.06
230.433	65.06
230.667	76.06
230.901	73.06
231.136	80.06
231.37	66.06
231.604	74.06
231.838	74.06
232.072	81.06
232.306	91.06
232.541	79.06
232.775	82.06
233.009	86.06
233.243	80.06
233.477	81.06
233.711	64.06
233.945	73.06
234.179	68.06
234.413	63.06
234.647	78.06
234.881	73.06
235.115	73.06
235.349	77.06
235.583	87.06
235.817	82.06
236.051	83.06
236.285	68.06
236.519	94.06
236.753	76.06
236.987	88.06
237.221	88.06
237.455	73.06
237.689	79.06
237.922	73.06
238.156	69.06
238.39	69.06
238.624	67.06
238.858	62.06
239.091	71.06
239.325	60.06
239.559	59.06
239.793	76.06
240.027	77.06
240.26	67.06
240.494	86.06
240.728	80.06
240.961	60.06
241.195	64.06
241.429	70.06
241.662	67.06
241.896	81.06
242.13	84.06
242.363	68.06
242.597	60.06
242.83	66.06
243.064	77.06
243.298	82.06
243.531	81.06
243.765	66.06
243.998	73.06
244.232	74.06
244.465	68.06
244.699	83.06
244.932	72.06
245.166	68.06
245.399	69.06
245.633	80.06
245.866	73.06
246.099	80.06
246.333	78.06
246.566	67.06
246.8	80.06
247.033	74.06
247.266	65.06
247.5	80.06
247.733	73.06
247.966	66.06
248.2	74.06
248.433	64.06
248.666	70.06
248.899	70.06
249.133	78.06
249.366	62.06
249.599	85.06
249.832	70.06
250.066	77.06
250.299	80.06
250.532	74.06
250.765	87.06
250.998	87.06
251.231	75.06
251.465	72.06
251.698	75.06
251.931	75.06
252.164	72.06
252.397	58.06
252.63	82.06
252.863	64.06
253.096	81.06
253.329	81.06
253.562	74.06
253.795	72.06
254.028	83.06
254.261	84.06
254.494	81.06
254.727	86.06
254.96	94.06
255.193	72.06
255.426	89.06
255.659	82.06
255.892	80.06
256.124	86.06
256.357	77.06
256.59	68.06
256.823	83.06
257.056	74.06
257.289	73.06
257.521	63.06
257.754	77.06
257.987	80.06
258.22	90.06
258.452	74.06
258.685	87.06
258.918	78.06
259.151	76.06
259.383	78.06
259.616	80.06
259.849	83.06
260.081	71.06
260.314	79.06
260.547	70.06
260.779	82.06
261.012	82.06
261.244	64.06
261.477	88.06
261.71	79.06
261.942	81.06
262.175	69.06
262.407	64.06
262.64	76.06
262.872	71.06
263.105	66.06
263.337	72.06
263.57	74.06
263.802	71.06
264.035	67.06
264.267	62.06
264.499	74.06
264.732	88.06
264.964	82.06
265.197	78.06
265.429	87.06
265.661	80.06
265.894	72.06
266.126	88.06
266.358	83.06
266.591	88.06
266.823	79.06
267.055	78.06
267.287	89.06
267.52	79.06
267.752	79.06
267.984	73.06
268.216	76.06
268.448	69.06
268.681	66.06
268.913	82.06
269.145	83.06
269.377	86.06
269.609	83.06
269.841	68.06
270.073	70.06
270.306	80.06
270.538	87.06
270.77	74.06
271.002	68.06
271.234	59.06
271.466	81.06
271.698	90.06
271.93	86.06
272.162	74.06
272.394	75.06
272.626	75.06
272.858	76.06
273.09	81.06
273.322	79.06
273.553	88.06
273.785	81.06
274.017	73.06
274.249	86.06
274.481	83.06
274.713	74.06
274.945	74.06
275.176	68.06
275.408	81.06
275.64	82.06
275.872	66.06
276.104	88.06
276.335	61.06
276.567	81.06
276.799	85.06
277.031	88.06
277.262	90.06
277.494	87.06
277.726	83.06
277.957	84.06
278.189	85.06
278.421	83.06
278.652	77.06
278.884	80.06
279.115	84.06
279.347	77.06
279.579	85.06
279.81	71.06
280.042	77.06
280.273	74.06
280.505	71.06
280.736	81.06
280.968	85.06
281.199	78.06
281.431	93.06
281.662	90.06
281.894	87.06
282.125	77.06
282.356	90.06
282.588	86.06
282.819	80.06
283.051	94.06
283.282	68.06
283.513	80.06
283.745	72.06
283.976	73.06
284.207	78.06
284.439	90.06
284.67	80.06
284.901	90.06
285.132	74.06
285.364	87.06
285.595	78.06
285.826	83.06
286.057	72.06
286.288	71.06
286.52	81.06
286.751	77.06
286.982	60.06
287.213	90.06
287.444	78.06
287.675	76.06
287.906	81.06
288.138	80.06
288.369	84.06
288.6	76.06
288.831	84.06
289.062	81.06
289.293	95.06
289.524	83.06
289.755	81.06
289.986	82.06
290.217	92.06
290.448	86.06
290.679	70.06
290.91	74.06
291.141	77.06
291.371	69.06
291.602	89.06
291.833	78.06
292.064	85.06
292.295	86.06
292.526	80.06
292.757	82.06
292.987	66.06
293.218	88.06
293.449	76.06
293.68	81.06
293.91	76.06
294.141	72.06
294.372	61.06
294.603	80.06
294.833	96.06
295.064	75.06
295.295	84.06
295.525	82.06
295.756	86.06
295.987	90.06
296.217	91.06
296.448	80.06
296.679	87.06
296.909	87.06
297.14	94.06
297.37	70.06
297.601	76.06
297.831	87.06
298.062	78.06
298.292	94.06
298.523	70.06
298.753	70.06
298.984	81.06
299.214	82.06
299.445	93.06
299.675	65.06
299.905	80.06
300.136	80.06
300.366	69.06
300.597	89.06
300.827	84.06
301.057	81.06
301.288	86.06
301.518	75.06
301.748	89.06
301.979	69.06
302.209	85.06
302.439	91.06
302.669	98.06
302.9	83.06
303.13	87.06
303.36	86.06
303.59	85.06
303.82	86.06
304.051	82.06
304.281	69.06
304.511	78.06
304.741	79.06
304.971	85.06
305.201	73.06
305.431	96.06
305.661	78.06
305.891	84.06
306.121	87.06
306.352	69.06
306.582	89.06
306.812	96.06
307.042	77.06
307.272	78.06
307.502	87.06
307.731	89.06
307.961	80.06
308.191	76.06
308.421	87.06
308.651	89.06
308.881	92.06
309.111	72.06
309.341	84.06
309.571	72.06
309.8	93.06
310.03	81.06
310.26	79.06
310.49	66.06
310.72	75.06
310.949	88.06
311.179	70.06
311.409	91.06
311.639	84.06
311.868	93.06
312.098	75.06
312.328	74.06
312.557	89.06
312.787	84.06
313.017	85.06
313.246	80.06
313.476	82.06
313.706	83.06
313.935	89.06
314.165	79.06
314.394	74.06
314.624	79.06
314.853	76.06
315.083	80.06
315.312	89.06
315.542	88.06
315.771	79.06
316.001	78.06
316.23	77.06
316.46	75.06
316.689	85.06
316.919	75.06
317.148	90.06
317.377	89.06
317.607	85.06
317.836	87.06
318.065	75.06
318.295	87.06
318.524	68.06
318.753	70.06
318.983	87.06
319.212	80.06
319.441	82.06
319.67	86.06
319.9	73.06
320.129	82.06
320.358	88.06
320.587	86.06
320.816	76.06
321.046	88.06
321.275	87.06
321.504	80.06
321.733	87.06
321.962	78.06
322.191	92.06
322.42	88.06
322.649	83.06
322.878	77.06
323.108	87.06
323.337	74.06
323.566	86.06
323.795	73.06
324.024	84.06
324.253	82.06
324.482	87.06
324.71	85.06
324.939	89.06
325.168	81.06
325.397	69.06
325.626	88.06
325.855	76.06
326.084	83.06
326.313	75.06
326.542	78.06
326.77	65.06
326.999	79.06
327.228	82.06
327.457	85.06
327.686	86.06
327.914	79.06
328.143	84.06
328.372	77.06
328.6	85.06
328.829	85.06
329.058	96.06
329.287	63.06
329.515	80.06
329.744	75.06
329.972	83.06
330.201	84.06
330.43	90.06
330.658	89.06
330.887	81.06
331.115	86.06
331.344	92.06
331.572	89.06
331.801	79.06
332.03	65.06
332.258	95.06
332.486	86.06
332.715	84.06
332.943	80.06
333.172	84.06
333.4	82.06
333.629	82.06
333.857	90.06
334.085	87.06
334.314	96.06
334.542	68.06
334.771	81.06
334.999	61.06
335.227	92.06
335.455	85.06
335.684	87.06
335.912	83.06
336.14	71.06
336.369	86.06
336.597	71.06
336.825	68.06
337.053	79.06
337.281	79.06
337.51	79.06
337.738	85.06
337.966	82.06
338.194	72.06
338.422	83.06
338.65	86.06
338.878	82.06
339.106	80.06
339.334	80.06
339.562	82.06
339.79	78.06
340.018	69.06
340.246	84.06
340.474	78.06
340.702	79.06
340.93	74.06
341.158	72.06
341.386	81.06
341.614	73.06
341.842	72.06
342.07	82.06
342.298	88.06
342.526	85.06
342.754	87.06
342.981	81.06
343.209	78.06
343.437	81.06
343.665	73.06
343.893	78.06
344.12	84.06
344.348	93.06
344.576	88.06
344.804	83.06
345.031	72.06
345.259	84.06
345.487	73.06
345.714	87.06
345.942	73.06
346.17	92.06
346.397	85.06
346.625	88.06
346.853	73.06
347.08	76.06
347.308	73.06
347.535	79.06
347.763	74.06
347.99	82.06
348.218	88.06
348.445	79.06
348.673	84.06
348.9	73.06
349.128	74.06
349.355	79.06
349.583	81.06
349.81	70.06
350.037	72.06
350.265	66.06
350.492	87.06
350.72	68.06
350.947	85.06
351.174	93.06
351.402	90.06
351.629	90.06
351.856	88.06
352.083	73.06
352.311	89.06
352.538	81.06
352.765	82.06
352.992	82.06
353.22	69.06
353.447	82.06
353.674	82.06
353.901	81.06
354.128	80.06
354.355	84.06
354.583	81.06
354.81	70.06
355.037	82.06
355.264	85.06
355.491	74.06
355.718	78.06
355.945	75.06
356.172	86.06
356.399	85.06
356.626	89.06
356.853	82.06
357.08	85.06
357.307	71.06
357.534	78.06
357.761	86.06
357.988	81.06
358.215	76.06
358.441	64.06
358.668	63.06
358.895	83.06
359.122	94.06
359.349	89.06
359.576	83.06
359.802	72.06
360.029	79.06
360.256	80.06
360.483	80.06
360.709	85.06
360.936	84.06
361.163	86.06
361.39	73.06
361.616	95.06
361.843	73.06
362.07	79.06
362.296	81.06
362.523	86.06
362.749	96.06
362.976	79.06
363.203	97.06
363.429	72.06
363.656	76.06
363.882	67.06
364.109	83.06
364.335	76.06
364.562	78.06
364.788	84.06
365.015	88.06
365.241	97.06
365.468	88.06
365.694	80.06
365.92	72.06
366.147	79.06
366.373	78.06
366.599	90.06
366.826	89.06
367.052	87.06
367.278	95.06
367.505	78.06
367.731	87.06
367.957	95.06
368.184	71.06
368.41	80.06
368.636	98.06
368.862	86.06
369.089	76.06
369.315	79.06
369.541	87.06
369.767	88.06
369.993	89.06
370.219	88.06
370.445	92.06
370.672	79.06
370.898	89.06
371.124	92.06
371.35	105.06
371.576	77.06
371.802	84.06
372.028	70.06
372.254	89.06
372.48	80.06
372.706	90.06
372.932	86.06
373.158	86.06
373.384	78.06
373.61	85.06
373.835	86.06
374.061	93.06
374.287	106.06
374.513	98.06
374.739	83.06
374.965	62.06
375.191	96.06
375.416	93.06
375.642	93.06
375.868	87.06
376.094	91.06
376.319	84.06
376.545	101.06
376.771	94.06
376.997	95.06
377.222	96.06
377.448	102.06
377.674	73.06
377.899	87.06
378.125	88.06
378.35	97.06
378.576	90.06
378.802	96.06
379.027	90.06
379.253	91.06
379.478	84.06
379.704	77.06
379.929	88.06
380.155	85.06
380.38	88.06
380.606	79.06
380.831	95.06
381.057	94.06
381.282	99.06
381.507	95.06
381.733	92.06
381.958	94.06
382.184	98.06
382.409	88.06
382.634	88.06
382.86	90.06
383.085	93.06
383.31	108.06
383.535	85.06
383.761	77.06
383.986	95.06
384.211	93.06
384.436	86.06
384.662	91.06
384.887	86.06
385.112	88.06
385.337	94.06
385.562	85.06
385.787	93.06
386.013	106.06
386.238	97.06
386.463	98.06
386.688	90.06
386.913	100.06
387.138	87.06
387.363	95.06
387.588	100.06
387.813	98.06
388.038	104.06
388.263	98.06
388.488	95.06
388.713	92.06
388.938	104.06
389.163	102.06
389.387	86.06
389.612	105.06
389.837	111.06
390.062	91.06
390.287	96.06
390.512	86.06
390.736	96.06
390.961	105.06
391.186	108.06
391.411	112.06
391.636	100.06
391.86	86.06
392.085	101.06
392.31	97.06
392.534	98.06
392.759	102.06
392.984	92.06
393.208	95.06
393.433	90.06
393.658	98.06
393.882	92.06
394.107	102.06
394.331	96.06
394.556	102.06
394.78	110.06
395.005	96.06
395.229	94.06
395.454	101.06
395.678	95.06
395.903	104.06
396.127	94.06
396.352	106.06
396.576	102.06
396.801	104.06
397.025	99.06
397.249	107.06
397.474	94.06
397.698	108.06
397.922	109.06
398.147	111.06
398.371	91.06
398.595	104.06
398.82	105.06
399.044	106.06
399.268	93.06
399.492	96.06
399.717	101.06
399.941	115.06
400.165	111.06
400.389	110.06
400.613	118.06
400.837	94.06
401.062	92.06
401.286	100.06
401.51	116.06
401.734	113.06
401.958	105.06
402.182	106.06
402.406	103.06
402.63	110.06
402.854	104.06
403.078	100.06
403.302	112.06
403.526	103.06
403.75	104.06
403.974	101.06
404.198	122.06
404.422	103.06
404.645	111.06
404.869	110.06
405.093	115.06
405.317	96.06
405.541	119.06
405.765	105.06
405.988	106.06
406.212	108.06
406.436	105.06
406.66	105.06
406.883	108.06
407.107	126.06
407.331	124.06
407.555	99.06
407.778	113.06
408.002	110.06
408.226	121.06
408.449	117.06
408.673	117.06
408.896	111.06
409.12	113.06
409.344	111.06
409.567	112.06
409.791	131.06
410.014	97.06
410.238	120.06
410.461	105.06
410.685	122.06
410.908	110.06
411.132	115.06
411.355	112.06
411.578	131.06
411.802	99.06
412.025	114.06
412.249	122.06
412.472	115.06
412.695	121.06
412.919	105.06
413.142	99.06
413.365	106.06
413.589	116.06
413.812	108.06
414.035	114.06
414.258	118.06
414.482	128.06
414.705	103.06
414.928	119.06
415.151	120.06
415.374	119.06
415.597	116.06
415.821	120.06
416.044	123.06
416.267	128.06
416.49	122.06
416.713	131.06
416.936	130.06
417.159	116.06
417.382	104.06
417.605	118.06
417.828	118.06
418.051	140.06
418.274	132.06
418.497	138.06
418.72	122.06
418.943	120.06
419.166	125.06
419.389	132.06
419.611	144.06
419.834	144.06
420.057	116.06
420.28	122.06
420.503	121.06
420.726	124.06
420.948	126.06
421.171	128.06
421.394	119.06
421.617	129.06
421.839	136.06
422.062	125.06
422.285	123.06
422.507	126.06
422.73	117.06
422.953	127.06
423.175	119.06
423.398	123.06
423.621	118.06
423.843	132.06
424.066	134.06
424.288	128.06
424.511	142.06
424.733	158.06
424.956	122.06
425.178	139.06
425.401	143.06
425.623	127.06
425.846	128.06
426.068	136.06
426.291	127.06
426.513	122.06
426.735	132.06
426.958	125.06
427.18	111.06
427.402	117.06
427.625	114.06
427.847	124.06
428.069	124.06
428.292	125.06
428.514	113.06
428.736	144.06
428.958	131.06
429.181	108.06
429.403	125.06
429.625	131.06
429.847	130.06
430.069	120.06
430.292	120.06
430.514	125.06
430.736	124.06
430.958	120.06
431.18	119.06
431.402	120.06
431.624	111.06
431.846	119.06
432.068	95.06
432.29	97.06
432.512	104.06
432.734	112.06
432.956	119.06
433.178	134.06
433.4	135.06
433.622	144.06
433.844	122.06
434.066	110.06
434.287	104.06
434.509	88.06
434.731	85.06
434.953	103.06
435.175	121.06
435.397	115.06
435.618	106.06
435.84	110.06
436.062	105.06
436.284	121.06
436.505	136.06
436.727	129.06
436.949	120.06
437.17	117.06
437.392	107.06
437.614	111.06
437.835	102.06
438.057	109.06
438.278	106.06
438.5	110.06
438.721	119.06
438.943	122.06
439.165	135.06
439.386	141.06
439.608	121.06
439.829	124.06
440.05	140.06
440.272	142.06
440.493	128.06
440.715	136.06
440.936	139.06
441.158	128.06
441.379	139.06
441.6	142.06
441.822	142.06
442.043	138.06
442.264	141.06
442.486	129.06
442.707	139.06
442.928	130.06
443.149	130.06
443.371	139.06
443.592	128.06
443.813	138.06
444.034	128.06
444.255	120.06
444.476	129.06
444.698	134.06
444.919	126.06
445.14	254.06
445.361	199.06
445.582	142.06
445.803	135.06
446.024	127.06
446.245	136.06
446.466	157.06
446.687	136.06
446.908	144.06
447.129	138.06
447.35	148.06
447.571	146.06
447.792	148.06
448.013	140.06
448.234	130.06
448.455	126.06
448.675	130.06
448.896	136.06
449.117	132.06
449.338	137.06
449.559	134.06
449.779	139.06
450	123.06
450.221	130.06
450.442	131.06
450.662	125.06
450.883	127.06
451.104	123.06
451.324	128.06
451.545	138.06
451.766	115.06
451.986	117.06
452.207	117.06
452.428	101.06
452.648	127.06
452.869	116.06
453.089	99.06
453.31	93.06
453.53	121.06
453.751	85.06
453.971	104.06
454.192	107.06
454.412	104.06
454.633	104.06
454.853	121.06
455.073	122.06
455.294	120.06
455.514	118.06
455.734	116.06
455.955	121.06
456.175	121.06
456.395	113.06
456.616	113.06
456.836	105.06
457.056	100.06
457.276	108.06
457.497	82.06
457.717	111.06
457.937	96.06
458.157	89.06
458.377	101.06
458.598	88.06
458.818	89.06
459.038	96.06
459.258	82.06
459.478	68.06
459.698	101.06
459.918	93.06
460.138	106.06
460.358	106.06
460.578	113.06
460.798	106.06
461.018	96.06
461.238	108.06
461.458	110.06
461.678	100.06
461.898	99.06
462.118	114.06
462.338	117.06
462.558	114.06
462.777	103.06
462.997	114.06
463.217	108.06
463.437	113.06
463.657	114.06
463.876	93.06
464.096	116.06
464.316	106.06
464.536	102.06
464.755	102.06
464.975	101.06
465.195	102.06
465.414	108.06
465.634	105.06
465.854	96.06
466.073	119.06
466.293	131.06
466.512	128.06
466.732	113.06
466.951	120.06
467.171	122.06
467.391	118.06
467.61	127.06
467.829	134.06
468.049	129.06
468.268	139.06
468.488	124.06
468.707	128.06
468.927	133.06
469.146	123.06
469.365	143.06
469.585	127.06
469.804	139.06
470.023	134.06
470.243	128.06
470.462	152.06
470.681	135.06
470.901	142.06
471.12	134.06
471.339	135.06
471.558	144.06
471.777	135.06
471.997	133.06
472.216	108.06
472.435	104.06
472.654	103.06
472.873	102.06
473.092	113.06
473.311	116.06
473.53	129.06
473.749	128.06
473.968	128.06
474.187	120.06
474.406	110.06
474.625	119.06
474.844	117.06
475.063	132.06
475.282	117.06
475.501	120.06
475.72	115.06
475.939	120.06
476.158	117.06
476.377	118.06
476.596	122.06
476.814	110.06
477.033	110.06
477.252	108.06
477.471	106.06
477.69	136.06
477.908	137.06
478.127	132.06
478.346	136.06
478.564	115.06
478.783	133.06
479.002	128.06
479.22	120.06
479.439	124.06
479.658	117.06
479.876	110.06
480.095	110.06
480.313	104.06
480.532	119.06
480.751	114.06
480.969	95.06
481.188	80.06
481.406	90.06
481.624	83.06
481.843	74.06
482.061	94.06
482.28	104.06
482.498	102.06
482.717	104.06
482.935	114.06
483.153	128.06
483.372	140.06
483.59	146.06
483.808	133.06
484.027	128.06
484.245	128.06
484.463	148.06
484.681	157.06
484.9	132.06
485.118	131.06
485.336	120.06
485.554	128.06
485.772	96.06
485.99	105.06
486.209	112.06
486.427	110.06
486.645	110.06
486.863	123.06
487.081	117.06
487.299	137.06
487.517	138.06
487.735	148.06
487.953	183.06
488.171	182.06
488.389	163.06
488.607	150.06
488.825	134.06
489.043	127.06
489.261	127.06
489.479	126.06
489.696	136.06
489.914	136.06
490.132	141.06
490.35	150.06
490.568	158.06
490.786	180.06
491.003	174.06
491.221	183.06
491.439	160.06
491.657	176.06
491.874	191.06
492.092	218.06
492.31	240.06
492.527	227.06
492.745	200.06
492.963	178.06
493.18	179.06
493.398	168.06
493.615	167.06
493.833	158.06
494.05	160.06
494.268	160.06
494.485	159.06
494.703	160.06
494.92	158.06
495.138	153.06
495.355	155.06
495.573	147.06
495.79	167.06
496.008	163.06
496.225	171.06
496.442	159.06
496.66	156.06
496.877	173.06
497.094	174.06
497.312	148.06
497.529	161.06
497.746	149.06
497.963	137.06
498.181	127.06
498.398	126.06
498.615	130.06
498.832	118.06
499.049	121.06
499.267	124.06
499.484	127.06
499.701	130.06
499.918	144.06
500.135	143.06
500.352	140.06
500.569	126.06
500.786	131.06
501.003	132.06
501.22	135.06
501.437	154.06
501.654	122.06
501.871	132.06
502.088	124.06
502.305	119.06
502.522	124.06
502.739	133.06
502.956	131.06
503.172	137.06
503.389	113.06
503.606	119.06
503.823	119.06
504.04	119.06
504.256	127.06
504.473	117.06
504.69	122.06
504.907	114.06
505.123	128.06
505.34	125.06
505.557	119.06
505.773	111.06
505.99	119.06
506.207	110.06
506.423	111.06
506.64	112.06
506.856	114.06
507.073	113.06
507.289	119.06
507.506	125.06
507.722	110.06
507.939	111.06
508.155	104.06
508.372	110.06
508.588	105.06
508.805	116.06
509.021	109.06
509.238	103.06
509.454	98.06
509.67	84.06
509.887	110.06
510.103	98.06
510.319	86.06
510.536	86.06
510.752	87.06
510.968	73.06
511.184	83.06
511.401	88.06
511.617	82.06
511.833	90.06
512.049	96.06
512.265	80.06
