Data from Location4.07152019.Energy5.Lamp.07192019.3%Agarose_HRD10591_16-21-30-926.txt Node
Date: Fri Jul 19 16:21:30 EDT 2019
User: cochatt
Spectrometer: HR+D1059
Trigger mode: 1
Integration Time (sec): 1.000000E-1
Scans to average: 1
Electric dark correction enabled: true
Nonlinearity correction enabled: false
Boxcar width: 0
XAxis mode: Wavelengths
Number of Pixels in Spectrum: 2048
>>>>>Begin Spectral Data<<<<<
223.165	-27.19
223.4	-27.19
223.635	-27.19
223.869	-10.19
224.104	-14.19
224.338	-19.19
224.573	-12.19
224.808	-22.19
225.042	-4.19
225.277	-19.19
225.511	-2.19
225.746	7.81
225.98	-2.19
226.215	12.81
226.449	10.81
226.683	40.81
226.918	22.81
227.152	37.81
227.387	27.81
227.621	41.81
227.856	43.81
228.09	45.81
228.324	47.81
228.559	51.81
228.793	62.81
229.027	63.81
229.262	47.81
229.496	63.81
229.73	62.81
229.964	67.81
230.199	69.81
230.433	70.81
230.667	82.81
230.901	89.81
231.136	68.81
231.37	65.81
231.604	65.81
231.838	86.81
232.072	81.81
232.306	87.81
232.541	77.81
232.775	85.81
233.009	90.81
233.243	69.81
233.477	83.81
233.711	75.81
233.945	76.81
234.179	76.81
234.413	79.81
234.647	80.81
234.881	65.81
235.115	78.81
235.349	88.81
235.583	73.81
235.817	82.81
236.051	70.81
236.285	72.81
236.519	84.81
236.753	81.81
236.987	85.81
237.221	77.81
237.455	76.81
237.689	75.81
237.922	67.81
238.156	59.81
238.39	70.81
238.624	80.81
238.858	72.81
239.091	63.81
239.325	75.81
239.559	77.81
239.793	63.81
240.027	77.81
240.26	67.81
240.494	79.81
240.728	69.81
240.961	65.81
241.195	76.81
241.429	77.81
241.662	81.81
241.896	72.81
242.13	77.81
242.363	66.81
242.597	64.81
242.83	72.81
243.064	85.81
243.298	76.81
243.531	61.81
243.765	82.81
243.998	80.81
244.232	71.81
244.465	72.81
244.699	62.81
244.932	72.81
245.166	73.81
245.399	91.81
245.633	71.81
245.866	67.81
246.099	72.81
246.333	79.81
246.566	76.81
246.8	68.81
247.033	66.81
247.266	62.81
247.5	67.81
247.733	87.81
247.966	65.81
248.2	81.81
248.433	68.81
248.666	75.81
248.899	82.81
249.133	70.81
249.366	77.81
249.599	75.81
249.832	71.81
250.066	76.81
250.299	71.81
250.532	82.81
250.765	70.81
250.998	72.81
251.231	77.81
251.465	73.81
251.698	81.81
251.931	83.81
252.164	59.81
252.397	89.81
252.63	76.81
252.863	81.81
253.096	77.81
253.329	87.81
253.562	81.81
253.795	75.81
254.028	58.81
254.261	66.81
254.494	74.81
254.727	74.81
254.96	81.81
255.193	77.81
255.426	70.81
255.659	79.81
255.892	87.81
256.124	75.81
256.357	62.81
256.59	83.81
256.823	78.81
257.056	79.81
257.289	71.81
257.521	82.81
257.754	76.81
257.987	76.81
258.22	91.81
258.452	68.81
258.685	87.81
258.918	75.81
259.151	72.81
259.383	73.81
259.616	84.81
259.849	67.81
260.081	95.81
260.314	79.81
260.547	76.81
260.779	77.81
261.012	79.81
261.244	78.81
261.477	79.81
261.71	75.81
261.942	79.81
262.175	74.81
262.407	84.81
262.64	80.81
262.872	79.81
263.105	84.81
263.337	84.81
263.57	66.81
263.802	87.81
264.035	78.81
264.267	80.81
264.499	69.81
264.732	80.81
264.964	88.81
265.197	97.81
265.429	72.81
265.661	90.81
265.894	55.81
266.126	80.81
266.358	90.81
266.591	82.81
266.823	89.81
267.055	79.81
267.287	80.81
267.52	86.81
267.752	85.81
267.984	71.81
268.216	79.81
268.448	89.81
268.681	92.81
268.913	85.81
269.145	80.81
269.377	94.81
269.609	84.81
269.841	63.81
270.073	74.81
270.306	91.81
270.538	77.81
270.77	77.81
271.002	74.81
271.234	75.81
271.466	66.81
271.698	82.81
271.93	75.81
272.162	71.81
272.394	64.81
272.626	84.81
272.858	83.81
273.09	93.81
273.322	81.81
273.553	75.81
273.785	84.81
274.017	74.81
274.249	76.81
274.481	73.81
274.713	79.81
274.945	71.81
275.176	81.81
275.408	83.81
275.64	89.81
275.872	82.81
276.104	87.81
276.335	86.81
276.567	73.81
276.799	87.81
277.031	80.81
277.262	75.81
277.494	82.81
277.726	86.81
277.957	87.81
278.189	86.81
278.421	74.81
278.652	97.81
278.884	88.81
279.115	77.81
279.347	93.81
279.579	79.81
279.81	72.81
280.042	73.81
280.273	81.81
280.505	83.81
280.736	81.81
280.968	78.81
281.199	88.81
281.431	72.81
281.662	68.81
281.894	83.81
282.125	77.81
282.356	91.81
282.588	75.81
282.819	77.81
283.051	88.81
283.282	68.81
283.513	76.81
283.745	80.81
283.976	83.81
284.207	87.81
284.439	86.81
284.67	90.81
284.901	76.81
285.132	92.81
285.364	90.81
285.595	84.81
285.826	73.81
286.057	84.81
286.288	80.81
286.52	85.81
286.751	73.81
286.982	67.81
287.213	72.81
287.444	80.81
287.675	87.81
287.906	90.81
288.138	85.81
288.369	85.81
288.6	84.81
288.831	85.81
289.062	78.81
289.293	66.81
289.524	78.81
289.755	86.81
289.986	85.81
290.217	80.81
290.448	88.81
290.679	85.81
290.91	80.81
291.141	72.81
291.371	87.81
291.602	87.81
291.833	83.81
292.064	73.81
292.295	71.81
292.526	89.81
292.757	80.81
292.987	90.81
293.218	92.81
293.449	99.81
293.68	85.81
293.91	74.81
294.141	91.81
294.372	72.81
294.603	72.81
294.833	76.81
295.064	76.81
295.295	83.81
295.525	81.81
295.756	81.81
295.987	82.81
296.217	94.81
296.448	76.81
296.679	79.81
296.909	81.81
297.14	84.81
297.37	71.81
297.601	86.81
297.831	83.81
298.062	85.81
298.292	84.81
298.523	82.81
298.753	77.81
298.984	78.81
299.214	79.81
299.445	86.81
299.675	85.81
299.905	72.81
300.136	83.81
300.366	68.81
300.597	77.81
300.827	85.81
301.057	84.81
301.288	85.81
301.518	82.81
301.748	73.81
301.979	75.81
302.209	67.81
302.439	84.81
302.669	76.81
302.9	83.81
303.13	90.81
303.36	83.81
303.59	90.81
303.82	87.81
304.051	74.81
304.281	84.81
304.511	87.81
304.741	88.81
304.971	87.81
305.201	71.81
305.431	74.81
305.661	72.81
305.891	84.81
306.121	103.81
306.352	87.81
306.582	79.81
306.812	72.81
307.042	80.81
307.272	82.81
307.502	97.81
307.731	75.81
307.961	80.81
308.191	81.81
308.421	89.81
308.651	88.81
308.881	85.81
309.111	81.81
309.341	77.81
309.571	79.81
309.8	82.81
310.03	96.81
310.26	80.81
310.49	74.81
310.72	80.81
310.949	80.81
311.179	80.81
311.409	66.81
311.639	71.81
311.868	91.81
312.098	80.81
312.328	67.81
312.557	85.81
312.787	73.81
313.017	71.81
313.246	92.81
313.476	79.81
313.706	95.81
313.935	84.81
314.165	85.81
314.394	77.81
314.624	72.81
314.853	90.81
315.083	91.81
315.312	75.81
315.542	81.81
315.771	87.81
316.001	69.81
316.23	79.81
316.46	76.81
316.689	82.81
316.919	83.81
317.148	105.81
317.377	85.81
317.607	85.81
317.836	83.81
318.065	80.81
318.295	68.81
318.524	90.81
318.753	77.81
318.983	76.81
319.212	86.81
319.441	85.81
319.67	77.81
319.9	71.81
320.129	74.81
320.358	80.81
320.587	73.81
320.816	82.81
321.046	85.81
321.275	80.81
321.504	83.81
321.733	86.81
321.962	79.81
322.191	84.81
322.42	70.81
322.649	74.81
322.878	83.81
323.108	83.81
323.337	71.81
323.566	86.81
323.795	72.81
324.024	91.81
324.253	89.81
324.482	84.81
324.71	99.81
324.939	91.81
325.168	84.81
325.397	86.81
325.626	84.81
325.855	83.81
326.084	96.81
326.313	83.81
326.542	72.81
326.77	72.81
326.999	88.81
327.228	72.81
327.457	85.81
327.686	87.81
327.914	91.81
328.143	85.81
328.372	73.81
328.6	61.81
328.829	61.81
329.058	88.81
329.287	77.81
329.515	93.81
329.744	80.81
329.972	85.81
330.201	83.81
330.43	78.81
330.658	79.81
330.887	83.81
331.115	83.81
331.344	88.81
331.572	75.81
331.801	86.81
332.03	78.81
332.258	92.81
332.486	82.81
332.715	70.81
332.943	74.81
333.172	79.81
333.4	80.81
333.629	84.81
333.857	86.81
334.085	83.81
334.314	73.81
334.542	80.81
334.771	80.81
334.999	72.81
335.227	87.81
335.455	84.81
335.684	83.81
335.912	82.81
336.14	71.81
336.369	82.81
336.597	73.81
336.825	78.81
337.053	80.81
337.281	91.81
337.51	77.81
337.738	87.81
337.966	79.81
338.194	73.81
338.422	72.81
338.65	87.81
338.878	78.81
339.106	88.81
339.334	75.81
339.562	85.81
339.79	77.81
340.018	79.81
340.246	73.81
340.474	78.81
340.702	77.81
340.93	95.81
341.158	81.81
341.386	73.81
341.614	79.81
341.842	74.81
342.07	91.81
342.298	71.81
342.526	83.81
342.754	72.81
342.981	77.81
343.209	73.81
343.437	80.81
343.665	83.81
343.893	76.81
344.12	97.81
344.348	82.81
344.576	93.81
344.804	80.81
345.031	79.81
345.259	67.81
345.487	72.81
345.714	78.81
345.942	83.81
346.17	86.81
346.397	78.81
346.625	78.81
346.853	88.81
347.08	83.81
347.308	83.81
347.535	89.81
347.763	87.81
347.99	82.81
348.218	86.81
348.445	80.81
348.673	73.81
348.9	75.81
349.128	94.81
349.355	86.81
349.583	92.81
349.81	84.81
350.037	87.81
350.265	76.81
350.492	85.81
350.72	72.81
350.947	75.81
351.174	92.81
351.402	79.81
351.629	81.81
351.856	78.81
352.083	81.81
352.311	79.81
352.538	79.81
352.765	76.81
352.992	85.81
353.22	86.81
353.447	85.81
353.674	83.81
353.901	71.81
354.128	62.81
354.355	76.81
354.583	69.81
354.81	79.81
355.037	89.81
355.264	78.81
355.491	89.81
355.718	72.81
355.945	78.81
356.172	71.81
356.399	72.81
356.626	73.81
356.853	79.81
357.08	96.81
357.307	81.81
357.534	72.81
357.761	81.81
357.988	77.81
358.215	72.81
358.441	80.81
358.668	73.81
358.895	73.81
359.122	76.81
359.349	87.81
359.576	78.81
359.802	72.81
360.029	74.81
360.256	84.81
360.483	75.81
360.709	83.81
360.936	80.81
361.163	72.81
361.39	89.81
361.616	91.81
361.843	77.81
362.07	77.81
362.296	74.81
362.523	65.81
362.749	72.81
362.976	76.81
363.203	73.81
363.429	70.81
363.656	74.81
363.882	82.81
364.109	96.81
364.335	76.81
364.562	73.81
364.788	84.81
365.015	81.81
365.241	77.81
365.468	81.81
365.694	70.81
365.92	81.81
366.147	88.81
366.373	87.81
366.599	84.81
366.826	95.81
367.052	73.81
367.278	67.81
367.505	68.81
367.731	84.81
367.957	85.81
368.184	81.81
368.41	65.81
368.636	94.81
368.862	87.81
369.089	87.81
369.315	92.81
369.541	76.81
369.767	91.81
369.993	87.81
370.219	88.81
370.445	91.81
370.672	95.81
370.898	91.81
371.124	85.81
371.35	82.81
371.576	100.81
371.802	88.81
372.028	86.81
372.254	76.81
372.48	92.81
372.706	80.81
372.932	72.81
373.158	76.81
373.384	77.81
373.61	73.81
373.835	89.81
374.061	94.81
374.287	94.81
374.513	81.81
374.739	89.81
374.965	83.81
375.191	78.81
375.416	87.81
375.642	92.81
375.868	91.81
376.094	112.81
376.319	85.81
376.545	87.81
376.771	83.81
376.997	86.81
377.222	86.81
377.448	97.81
377.674	89.81
377.899	71.81
378.125	82.81
378.35	80.81
378.576	82.81
378.802	85.81
379.027	94.81
379.253	89.81
379.478	71.81
379.704	93.81
379.929	91.81
380.155	79.81
380.38	78.81
380.606	93.81
380.831	80.81
381.057	87.81
381.282	81.81
381.507	86.81
381.733	96.81
381.958	84.81
382.184	99.81
382.409	88.81
382.634	80.81
382.86	98.81
383.085	95.81
383.31	96.81
383.535	87.81
383.761	90.81
383.986	80.81
384.211	81.81
384.436	91.81
384.662	81.81
384.887	86.81
385.112	81.81
385.337	89.81
385.562	74.81
385.787	70.81
386.013	92.81
386.238	94.81
386.463	100.81
386.688	109.81
386.913	92.81
387.138	91.81
387.363	91.81
387.588	93.81
387.813	83.81
388.038	93.81
388.263	107.81
388.488	89.81
388.713	96.81
388.938	100.81
389.163	80.81
389.387	97.81
389.612	99.81
389.837	71.81
390.062	89.81
390.287	94.81
390.512	91.81
390.736	93.81
390.961	113.81
391.186	91.81
391.411	98.81
391.636	91.81
391.86	86.81
392.085	89.81
392.31	95.81
392.534	101.81
392.759	101.81
392.984	96.81
393.208	100.81
393.433	105.81
393.658	94.81
393.882	91.81
394.107	96.81
394.331	96.81
394.556	105.81
394.78	99.81
395.005	101.81
395.229	98.81
395.454	87.81
395.678	98.81
395.903	108.81
396.127	87.81
396.352	88.81
396.576	101.81
396.801	96.81
397.025	110.81
397.249	95.81
397.474	91.81
397.698	101.81
397.922	97.81
398.147	92.81
398.371	87.81
398.595	112.81
398.82	101.81
399.044	84.81
399.268	105.81
399.492	111.81
399.717	133.81
399.941	120.81
400.165	107.81
400.389	109.81
400.613	99.81
400.837	104.81
401.062	100.81
401.286	96.81
401.51	100.81
401.734	100.81
401.958	117.81
402.182	109.81
402.406	102.81
402.63	109.81
402.854	109.81
403.078	104.81
403.302	113.81
403.526	99.81
403.75	123.81
403.974	118.81
404.198	118.81
404.422	117.81
404.645	109.81
404.869	115.81
405.093	113.81
405.317	96.81
405.541	106.81
405.765	105.81
405.988	121.81
406.212	103.81
406.436	118.81
406.66	119.81
406.883	112.81
407.107	100.81
407.331	118.81
407.555	114.81
407.778	96.81
408.002	111.81
408.226	121.81
408.449	127.81
408.673	107.81
408.896	112.81
409.12	109.81
409.344	107.81
409.567	110.81
409.791	118.81
410.014	122.81
410.238	116.81
410.461	107.81
410.685	114.81
410.908	108.81
411.132	124.81
411.355	131.81
411.578	99.81
411.802	120.81
412.025	120.81
412.249	112.81
412.472	120.81
412.695	116.81
412.919	121.81
413.142	125.81
413.365	118.81
413.589	113.81
413.812	124.81
414.035	117.81
414.258	125.81
414.482	116.81
414.705	109.81
414.928	123.81
415.151	114.81
415.374	111.81
415.597	116.81
415.821	110.81
416.044	119.81
416.267	125.81
416.49	99.81
416.713	109.81
416.936	111.81
417.159	126.81
417.382	117.81
417.605	130.81
417.828	131.81
418.051	119.81
418.274	126.81
418.497	126.81
418.72	119.81
418.943	131.81
419.166	132.81
419.389	131.81
419.611	129.81
419.834	134.81
420.057	118.81
420.28	141.81
420.503	119.81
420.726	124.81
420.948	114.81
421.171	132.81
421.394	134.81
421.617	147.81
421.839	121.81
422.062	123.81
422.285	116.81
422.507	127.81
422.73	121.81
422.953	104.81
423.175	120.81
423.398	124.81
423.621	117.81
423.843	119.81
424.066	119.81
424.288	137.81
424.511	129.81
424.733	119.81
424.956	141.81
425.178	136.81
425.401	128.81
425.623	140.81
425.846	125.81
426.068	113.81
426.291	141.81
426.513	116.81
426.735	125.81
426.958	126.81
427.18	134.81
427.402	133.81
427.625	125.81
427.847	119.81
428.069	125.81
428.292	129.81
428.514	120.81
428.736	127.81
428.958	130.81
429.181	115.81
429.403	117.81
429.625	122.81
429.847	119.81
430.069	121.81
430.292	112.81
430.514	121.81
430.736	128.81
430.958	122.81
431.18	120.81
431.402	114.81
431.624	112.81
431.846	115.81
432.068	102.81
432.29	99.81
432.512	116.81
432.734	134.81
432.956	127.81
433.178	127.81
433.4	133.81
433.622	131.81
433.844	127.81
434.066	110.81
434.287	99.81
434.509	85.81
434.731	91.81
434.953	88.81
435.175	107.81
435.397	119.81
435.618	114.81
435.84	117.81
436.062	94.81
436.284	111.81
436.505	113.81
436.727	134.81
436.949	114.81
437.17	122.81
437.392	116.81
437.614	108.81
437.835	118.81
438.057	114.81
438.278	126.81
438.5	117.81
438.721	124.81
438.943	131.81
439.165	129.81
439.386	129.81
439.608	122.81
439.829	127.81
440.05	146.81
440.272	125.81
440.493	139.81
440.715	131.81
440.936	130.81
441.158	120.81
441.379	136.81
441.6	146.81
441.822	148.81
442.043	142.81
442.264	132.81
442.486	128.81
442.707	119.81
442.928	132.81
443.149	126.81
443.371	119.81
443.592	135.81
443.813	139.81
444.034	125.81
444.255	134.81
444.476	134.81
444.698	154.81
444.919	135.81
445.14	240.81
445.361	182.81
445.582	134.81
445.803	130.81
446.024	134.81
446.245	143.81
446.466	128.81
446.687	142.81
446.908	151.81
447.129	148.81
447.35	145.81
447.571	127.81
447.792	127.81
448.013	140.81
448.234	139.81
448.455	140.81
448.675	122.81
448.896	123.81
449.117	133.81
449.338	126.81
449.559	129.81
449.779	133.81
450	131.81
450.221	116.81
450.442	141.81
450.662	120.81
450.883	131.81
451.104	123.81
451.324	118.81
451.545	115.81
451.766	122.81
451.986	125.81
452.207	123.81
452.428	104.81
452.648	122.81
452.869	118.81
453.089	113.81
453.31	93.81
453.53	103.81
453.751	112.81
453.971	110.81
454.192	92.81
454.412	109.81
454.633	108.81
454.853	116.81
455.073	121.81
455.294	115.81
455.514	115.81
455.734	119.81
455.955	116.81
456.175	101.81
456.395	95.81
456.616	108.81
456.836	102.81
457.056	111.81
457.276	101.81
457.497	102.81
457.717	115.81
457.937	111.81
458.157	102.81
458.377	107.81
458.598	107.81
458.818	86.81
459.038	90.81
459.258	83.81
459.478	83.81
459.698	82.81
459.918	102.81
460.138	91.81
460.358	94.81
460.578	111.81
460.798	105.81
461.018	104.81
461.238	107.81
461.458	115.81
461.678	104.81
461.898	109.81
462.118	112.81
462.338	116.81
462.558	108.81
462.777	102.81
462.997	106.81
463.217	110.81
463.437	105.81
463.657	97.81
463.876	116.81
464.096	108.81
464.316	94.81
464.536	107.81
464.755	113.81
464.975	121.81
465.195	111.81
465.414	122.81
465.634	111.81
465.854	119.81
466.073	102.81
466.293	121.81
466.512	125.81
466.732	124.81
466.951	117.81
467.171	131.81
467.391	128.81
467.61	121.81
467.829	141.81
468.049	123.81
468.268	122.81
468.488	145.81
468.707	131.81
468.927	127.81
469.146	123.81
469.365	117.81
469.585	122.81
469.804	125.81
470.023	141.81
470.243	113.81
470.462	131.81
470.681	151.81
470.901	144.81
471.12	134.81
471.339	143.81
471.558	128.81
471.777	141.81
471.997	127.81
472.216	125.81
472.435	109.81
472.654	104.81
472.873	113.81
473.092	119.81
473.311	107.81
473.53	119.81
473.749	124.81
473.968	125.81
474.187	120.81
474.406	114.81
474.625	122.81
474.844	140.81
475.063	111.81
475.282	129.81
475.501	105.81
475.72	120.81
475.939	128.81
476.158	128.81
476.377	147.81
476.596	127.81
476.814	103.81
477.033	105.81
477.252	104.81
477.471	116.81
477.69	115.81
477.908	122.81
478.127	135.81
478.346	142.81
478.564	135.81
478.783	123.81
479.002	128.81
479.22	136.81
479.439	116.81
479.658	116.81
479.876	109.81
480.095	118.81
480.313	105.81
480.532	113.81
480.751	104.81
480.969	95.81
481.188	92.81
481.406	81.81
481.624	96.81
481.843	84.81
482.061	94.81
482.28	102.81
482.498	91.81
482.717	123.81
482.935	108.81
483.153	143.81
483.372	134.81
483.59	157.81
483.808	127.81
484.027	132.81
484.245	139.81
484.463	133.81
484.681	168.81
484.9	151.81
485.118	133.81
485.336	128.81
485.554	127.81
485.772	95.81
485.99	111.81
486.209	115.81
486.427	100.81
486.645	119.81
486.863	121.81
487.081	154.81
487.299	131.81
487.517	131.81
487.735	151.81
487.953	176.81
488.171	178.81
488.389	161.81
488.607	157.81
488.825	144.81
489.043	131.81
489.261	143.81
489.479	145.81
489.696	151.81
489.914	140.81
490.132	143.81
490.35	140.81
490.568	149.81
490.786	153.81
491.003	173.81
491.221	176.81
491.439	181.81
491.657	176.81
491.874	207.81
492.092	207.81
492.31	236.81
492.527	227.81
492.745	207.81
492.963	176.81
493.18	164.81
493.398	162.81
493.615	184.81
493.833	169.81
494.05	166.81
494.268	158.81
494.485	166.81
494.703	175.81
494.92	171.81
495.138	168.81
495.355	167.81
495.573	162.81
495.79	172.81
496.008	161.81
496.225	169.81
496.442	149.81
496.66	152.81
496.877	155.81
497.094	156.81
497.312	152.81
497.529	140.81
497.746	141.81
497.963	120.81
498.181	119.81
498.398	124.81
498.615	119.81
498.832	93.81
499.049	107.81
499.267	122.81
499.484	117.81
499.701	125.81
499.918	144.81
500.135	133.81
500.352	137.81
500.569	133.81
500.786	148.81
501.003	133.81
501.22	133.81
501.437	129.81
501.654	135.81
501.871	118.81
502.088	132.81
502.305	122.81
502.522	127.81
502.739	120.81
502.956	123.81
503.172	127.81
503.389	118.81
503.606	109.81
503.823	121.81
504.04	114.81
504.256	134.81
504.473	102.81
504.69	114.81
504.907	119.81
505.123	112.81
505.34	120.81
505.557	136.81
505.773	118.81
505.99	123.81
506.207	129.81
506.423	109.81
506.64	125.81
506.856	107.81
507.073	124.81
507.289	123.81
507.506	107.81
507.722	104.81
507.939	105.81
508.155	97.81
508.372	121.81
508.588	118.81
508.805	96.81
509.021	104.81
509.238	86.81
509.454	90.81
509.67	103.81
509.887	98.81
510.103	106.81
510.319	88.81
510.536	85.81
510.752	84.81
510.968	84.81
511.184	78.81
511.401	78.81
511.617	78.81
511.833	92.81
512.049	91.81
512.265	94.81
512.481	107.81
