Data from Location4.07152019.Energy5.Lamp.07192019.3%Agarose_HRD10591_16-20-45-926.txt Node
Date: Fri Jul 19 16:20:45 EDT 2019
User: cochatt
Spectrometer: HR+D1059
Trigger mode: 1
Integration Time (sec): 1.000000E-1
Scans to average: 1
Electric dark correction enabled: true
Nonlinearity correction enabled: false
Boxcar width: 0
XAxis mode: Wavelengths
Number of Pixels in Spectrum: 2048
>>>>>Begin Spectral Data<<<<<
223.165	-17.5
223.4	-17.5
223.635	-17.5
223.869	-19.5
224.104	-6.5
224.338	-22.5
224.573	-12.5
224.808	-5.5
225.042	-10.5
225.277	-12.5
225.511	-13.5
225.746	10.5
225.98	6.5
226.215	15.5
226.449	9.5
226.683	16.5
226.918	23.5
227.152	38.5
227.387	25.5
227.621	35.5
227.856	25.5
228.09	37.5
228.324	36.5
228.559	60.5
228.793	50.5
229.027	59.5
229.262	60.5
229.496	70.5
229.73	74.5
229.964	60.5
230.199	69.5
230.433	70.5
230.667	83.5
230.901	82.5
231.136	83.5
231.37	81.5
231.604	76.5
231.838	92.5
232.072	79.5
232.306	75.5
232.541	65.5
232.775	67.5
233.009	82.5
233.243	76.5
233.477	78.5
233.711	81.5
233.945	67.5
234.179	80.5
234.413	86.5
234.647	66.5
234.881	78.5
235.115	75.5
235.349	95.5
235.583	79.5
235.817	81.5
236.051	71.5
236.285	85.5
236.519	76.5
236.753	72.5
236.987	77.5
237.221	77.5
237.455	74.5
237.689	68.5
237.922	86.5
238.156	80.5
238.39	87.5
238.624	79.5
238.858	84.5
239.091	71.5
239.325	78.5
239.559	73.5
239.793	86.5
240.027	88.5
240.26	80.5
240.494	71.5
240.728	90.5
240.961	87.5
241.195	73.5
241.429	75.5
241.662	69.5
241.896	75.5
242.13	64.5
242.363	76.5
242.597	89.5
242.83	70.5
243.064	91.5
243.298	80.5
243.531	80.5
243.765	75.5
243.998	71.5
244.232	47.5
244.465	68.5
244.699	86.5
244.932	73.5
245.166	82.5
245.399	75.5
245.633	75.5
245.866	76.5
246.099	66.5
246.333	75.5
246.566	84.5
246.8	73.5
247.033	73.5
247.266	69.5
247.5	67.5
247.733	80.5
247.966	74.5
248.2	73.5
248.433	90.5
248.666	82.5
248.899	69.5
249.133	74.5
249.366	68.5
249.599	73.5
249.832	75.5
250.066	53.5
250.299	71.5
250.532	82.5
250.765	82.5
250.998	85.5
251.231	67.5
251.465	82.5
251.698	76.5
251.931	75.5
252.164	79.5
252.397	78.5
252.63	86.5
252.863	76.5
253.096	89.5
253.329	76.5
253.562	80.5
253.795	76.5
254.028	74.5
254.261	83.5
254.494	87.5
254.727	73.5
254.96	75.5
255.193	68.5
255.426	73.5
255.659	85.5
255.892	80.5
256.124	66.5
256.357	86.5
256.59	88.5
256.823	72.5
257.056	82.5
257.289	80.5
257.521	71.5
257.754	92.5
257.987	75.5
258.22	88.5
258.452	81.5
258.685	74.5
258.918	73.5
259.151	79.5
259.383	76.5
259.616	86.5
259.849	82.5
260.081	73.5
260.314	95.5
260.547	76.5
260.779	82.5
261.012	76.5
261.244	79.5
261.477	80.5
261.71	79.5
261.942	70.5
262.175	89.5
262.407	77.5
262.64	76.5
262.872	82.5
263.105	66.5
263.337	72.5
263.57	77.5
263.802	91.5
264.035	72.5
264.267	72.5
264.499	73.5
264.732	86.5
264.964	82.5
265.197	72.5
265.429	76.5
265.661	90.5
265.894	79.5
266.126	76.5
266.358	89.5
266.591	78.5
266.823	75.5
267.055	72.5
267.287	83.5
267.52	88.5
267.752	95.5
267.984	85.5
268.216	76.5
268.448	79.5
268.681	88.5
268.913	87.5
269.145	83.5
269.377	73.5
269.609	74.5
269.841	92.5
270.073	84.5
270.306	74.5
270.538	96.5
270.77	94.5
271.002	75.5
271.234	84.5
271.466	88.5
271.698	92.5
271.93	82.5
272.162	86.5
272.394	87.5
272.626	83.5
272.858	83.5
273.09	87.5
273.322	81.5
273.553	90.5
273.785	85.5
274.017	66.5
274.249	87.5
274.481	76.5
274.713	78.5
274.945	89.5
275.176	93.5
275.408	83.5
275.64	82.5
275.872	87.5
276.104	72.5
276.335	75.5
276.567	83.5
276.799	73.5
277.031	72.5
277.262	73.5
277.494	85.5
277.726	79.5
277.957	66.5
278.189	74.5
278.421	80.5
278.652	87.5
278.884	85.5
279.115	85.5
279.347	88.5
279.579	74.5
279.81	85.5
280.042	89.5
280.273	82.5
280.505	84.5
280.736	75.5
280.968	84.5
281.199	92.5
281.431	73.5
281.662	90.5
281.894	85.5
282.125	75.5
282.356	78.5
282.588	88.5
282.819	75.5
283.051	84.5
283.282	80.5
283.513	81.5
283.745	89.5
283.976	85.5
284.207	89.5
284.439	74.5
284.67	79.5
284.901	99.5
285.132	82.5
285.364	69.5
285.595	71.5
285.826	75.5
286.057	65.5
286.288	74.5
286.52	95.5
286.751	75.5
286.982	75.5
287.213	78.5
287.444	79.5
287.675	81.5
287.906	79.5
288.138	83.5
288.369	70.5
288.6	91.5
288.831	80.5
289.062	84.5
289.293	73.5
289.524	91.5
289.755	87.5
289.986	77.5
290.217	83.5
290.448	96.5
290.679	89.5
290.91	85.5
291.141	83.5
291.371	83.5
291.602	85.5
291.833	81.5
292.064	74.5
292.295	76.5
292.526	72.5
292.757	81.5
292.987	92.5
293.218	84.5
293.449	71.5
293.68	88.5
293.91	77.5
294.141	91.5
294.372	78.5
294.603	72.5
294.833	74.5
295.064	86.5
295.295	78.5
295.525	82.5
295.756	73.5
295.987	85.5
296.217	80.5
296.448	80.5
296.679	87.5
296.909	77.5
297.14	79.5
297.37	84.5
297.601	83.5
297.831	86.5
298.062	88.5
298.292	84.5
298.523	89.5
298.753	90.5
298.984	80.5
299.214	86.5
299.445	85.5
299.675	91.5
299.905	79.5
300.136	70.5
300.366	61.5
300.597	90.5
300.827	74.5
301.057	85.5
301.288	94.5
301.518	71.5
301.748	73.5
301.979	85.5
302.209	91.5
302.439	88.5
302.669	91.5
302.9	95.5
303.13	90.5
303.36	84.5
303.59	89.5
303.82	84.5
304.051	96.5
304.281	80.5
304.511	95.5
304.741	81.5
304.971	87.5
305.201	83.5
305.431	85.5
305.661	98.5
305.891	77.5
306.121	83.5
306.352	74.5
306.582	68.5
306.812	90.5
307.042	86.5
307.272	83.5
307.502	92.5
307.731	83.5
307.961	72.5
308.191	86.5
308.421	81.5
308.651	94.5
308.881	86.5
309.111	72.5
309.341	83.5
309.571	90.5
309.8	75.5
310.03	79.5
310.26	73.5
310.49	77.5
310.72	82.5
310.949	88.5
311.179	73.5
311.409	82.5
311.639	82.5
311.868	81.5
312.098	96.5
312.328	101.5
312.557	84.5
312.787	88.5
313.017	80.5
313.246	87.5
313.476	76.5
313.706	81.5
313.935	76.5
314.165	76.5
314.394	83.5
314.624	82.5
314.853	75.5
315.083	78.5
315.312	87.5
315.542	85.5
315.771	78.5
316.001	78.5
316.23	80.5
316.46	79.5
316.689	82.5
316.919	70.5
317.148	88.5
317.377	88.5
317.607	89.5
317.836	79.5
318.065	81.5
318.295	76.5
318.524	80.5
318.753	92.5
318.983	76.5
319.212	90.5
319.441	79.5
319.67	74.5
319.9	80.5
320.129	70.5
320.358	83.5
320.587	76.5
320.816	79.5
321.046	70.5
321.275	82.5
321.504	68.5
321.733	78.5
321.962	74.5
322.191	86.5
322.42	84.5
322.649	89.5
322.878	84.5
323.108	83.5
323.337	92.5
323.566	84.5
323.795	89.5
324.024	86.5
324.253	75.5
324.482	83.5
324.71	86.5
324.939	84.5
325.168	82.5
325.397	86.5
325.626	92.5
325.855	97.5
326.084	85.5
326.313	79.5
326.542	82.5
326.77	79.5
326.999	76.5
327.228	87.5
327.457	74.5
327.686	72.5
327.914	81.5
328.143	90.5
328.372	76.5
328.6	94.5
328.829	84.5
329.058	74.5
329.287	82.5
329.515	80.5
329.744	89.5
329.972	79.5
330.201	82.5
330.43	91.5
330.658	72.5
330.887	90.5
331.115	91.5
331.344	79.5
331.572	77.5
331.801	80.5
332.03	81.5
332.258	84.5
332.486	81.5
332.715	86.5
332.943	94.5
333.172	82.5
333.4	76.5
333.629	94.5
333.857	84.5
334.085	80.5
334.314	82.5
334.542	80.5
334.771	79.5
334.999	89.5
335.227	73.5
335.455	87.5
335.684	84.5
335.912	82.5
336.14	84.5
336.369	90.5
336.597	85.5
336.825	89.5
337.053	80.5
337.281	73.5
337.51	70.5
337.738	94.5
337.966	78.5
338.194	73.5
338.422	85.5
338.65	70.5
338.878	84.5
339.106	76.5
339.334	90.5
339.562	98.5
339.79	76.5
340.018	74.5
340.246	76.5
340.474	72.5
340.702	87.5
340.93	87.5
341.158	74.5
341.386	81.5
341.614	74.5
341.842	85.5
342.07	76.5
342.298	81.5
342.526	75.5
342.754	82.5
342.981	81.5
343.209	75.5
343.437	81.5
343.665	82.5
343.893	99.5
344.12	80.5
344.348	80.5
344.576	74.5
344.804	82.5
345.031	88.5
345.259	81.5
345.487	82.5
345.714	74.5
345.942	76.5
346.17	82.5
346.397	82.5
346.625	105.5
346.853	86.5
347.08	85.5
347.308	79.5
347.535	72.5
347.763	75.5
347.99	87.5
348.218	81.5
348.445	82.5
348.673	72.5
348.9	74.5
349.128	86.5
349.355	87.5
349.583	95.5
349.81	76.5
350.037	76.5
350.265	96.5
350.492	79.5
350.72	83.5
350.947	78.5
351.174	82.5
351.402	79.5
351.629	76.5
351.856	82.5
352.083	79.5
352.311	97.5
352.538	76.5
352.765	80.5
352.992	76.5
353.22	96.5
353.447	97.5
353.674	76.5
353.901	78.5
354.128	85.5
354.355	75.5
354.583	90.5
354.81	74.5
355.037	78.5
355.264	82.5
355.491	81.5
355.718	78.5
355.945	86.5
356.172	84.5
356.399	87.5
356.626	76.5
356.853	91.5
357.08	86.5
357.307	98.5
357.534	84.5
357.761	81.5
357.988	83.5
358.215	74.5
358.441	91.5
358.668	81.5
358.895	76.5
359.122	74.5
359.349	95.5
359.576	87.5
359.802	87.5
360.029	85.5
360.256	83.5
360.483	90.5
360.709	79.5
360.936	71.5
361.163	72.5
361.39	70.5
361.616	76.5
361.843	85.5
362.07	95.5
362.296	79.5
362.523	83.5
362.749	66.5
362.976	84.5
363.203	94.5
363.429	89.5
363.656	78.5
363.882	93.5
364.109	80.5
364.335	83.5
364.562	83.5
364.788	80.5
365.015	89.5
365.241	88.5
365.468	87.5
365.694	72.5
365.92	93.5
366.147	72.5
366.373	90.5
366.599	75.5
366.826	81.5
367.052	84.5
367.278	89.5
367.505	96.5
367.731	92.5
367.957	77.5
368.184	84.5
368.41	87.5
368.636	81.5
368.862	87.5
369.089	87.5
369.315	70.5
369.541	88.5
369.767	85.5
369.993	86.5
370.219	78.5
370.445	76.5
370.672	82.5
370.898	91.5
371.124	88.5
371.35	88.5
371.576	66.5
371.802	86.5
372.028	86.5
372.254	83.5
372.48	75.5
372.706	77.5
372.932	85.5
373.158	92.5
373.384	94.5
373.61	98.5
373.835	84.5
374.061	87.5
374.287	93.5
374.513	88.5
374.739	98.5
374.965	80.5
375.191	89.5
375.416	96.5
375.642	99.5
375.868	93.5
376.094	93.5
376.319	89.5
376.545	96.5
376.771	85.5
376.997	94.5
377.222	90.5
377.448	104.5
377.674	86.5
377.899	86.5
378.125	87.5
378.35	91.5
378.576	92.5
378.802	86.5
379.027	87.5
379.253	89.5
379.478	81.5
379.704	103.5
379.929	89.5
380.155	80.5
380.38	93.5
380.606	86.5
380.831	82.5
381.057	104.5
381.282	101.5
381.507	98.5
381.733	92.5
381.958	110.5
382.184	93.5
382.409	93.5
382.634	93.5
382.86	72.5
383.085	90.5
383.31	94.5
383.535	101.5
383.761	99.5
383.986	107.5
384.211	90.5
384.436	102.5
384.662	93.5
384.887	87.5
385.112	87.5
385.337	79.5
385.562	104.5
385.787	84.5
386.013	114.5
386.238	92.5
386.463	103.5
386.688	82.5
386.913	84.5
387.138	101.5
387.363	95.5
387.588	103.5
387.813	102.5
388.038	98.5
388.263	90.5
388.488	100.5
388.713	91.5
388.938	97.5
389.163	96.5
389.387	95.5
389.612	103.5
389.837	105.5
390.062	89.5
390.287	115.5
390.512	98.5
390.736	101.5
390.961	98.5
391.186	93.5
391.411	102.5
391.636	102.5
391.86	92.5
392.085	100.5
392.31	99.5
392.534	99.5
392.759	102.5
392.984	114.5
393.208	113.5
393.433	104.5
393.658	110.5
393.882	99.5
394.107	100.5
394.331	119.5
394.556	102.5
394.78	110.5
395.005	106.5
395.229	100.5
395.454	97.5
395.678	101.5
395.903	95.5
396.127	88.5
396.352	86.5
396.576	92.5
396.801	120.5
397.025	120.5
397.249	101.5
397.474	99.5
397.698	96.5
397.922	109.5
398.147	111.5
398.371	104.5
398.595	104.5
398.82	114.5
399.044	108.5
399.268	113.5
399.492	90.5
399.717	114.5
399.941	112.5
400.165	118.5
400.389	108.5
400.613	119.5
400.837	92.5
401.062	112.5
401.286	105.5
401.51	98.5
401.734	95.5
401.958	107.5
402.182	119.5
402.406	119.5
402.63	99.5
402.854	103.5
403.078	102.5
403.302	99.5
403.526	106.5
403.75	115.5
403.974	113.5
404.198	111.5
404.422	99.5
404.645	102.5
404.869	117.5
405.093	118.5
405.317	110.5
405.541	104.5
405.765	109.5
405.988	120.5
406.212	115.5
406.436	125.5
406.66	119.5
406.883	118.5
407.107	121.5
407.331	112.5
407.555	119.5
407.778	123.5
408.002	112.5
408.226	107.5
408.449	126.5
408.673	110.5
408.896	103.5
409.12	90.5
409.344	123.5
409.567	112.5
409.791	126.5
410.014	118.5
410.238	123.5
410.461	138.5
410.685	123.5
410.908	111.5
411.132	113.5
411.355	105.5
411.578	113.5
411.802	124.5
412.025	114.5
412.249	116.5
412.472	119.5
412.695	119.5
412.919	105.5
413.142	126.5
413.365	129.5
413.589	126.5
413.812	117.5
414.035	122.5
414.258	117.5
414.482	113.5
414.705	132.5
414.928	120.5
415.151	130.5
415.374	119.5
415.597	124.5
415.821	128.5
416.044	120.5
416.267	121.5
416.49	114.5
416.713	128.5
416.936	116.5
417.159	123.5
417.382	119.5
417.605	123.5
417.828	128.5
418.051	106.5
418.274	130.5
418.497	126.5
418.72	140.5
418.943	121.5
419.166	129.5
419.389	142.5
419.611	124.5
419.834	129.5
420.057	129.5
420.28	125.5
420.503	119.5
420.726	132.5
420.948	138.5
421.171	122.5
421.394	144.5
421.617	137.5
421.839	137.5
422.062	143.5
422.285	130.5
422.507	123.5
422.73	116.5
422.953	128.5
423.175	124.5
423.398	122.5
423.621	123.5
423.843	129.5
424.066	129.5
424.288	125.5
424.511	135.5
424.733	121.5
424.956	134.5
425.178	123.5
425.401	129.5
425.623	120.5
425.846	140.5
426.068	119.5
426.291	130.5
426.513	130.5
426.735	122.5
426.958	127.5
427.18	120.5
427.402	119.5
427.625	136.5
427.847	126.5
428.069	128.5
428.292	121.5
428.514	130.5
428.736	118.5
428.958	127.5
429.181	115.5
429.403	125.5
429.625	120.5
429.847	120.5
430.069	124.5
430.292	124.5
430.514	121.5
430.736	132.5
430.958	122.5
431.18	114.5
431.402	122.5
431.624	120.5
431.846	111.5
432.068	108.5
432.29	97.5
432.512	102.5
432.734	128.5
432.956	130.5
433.178	134.5
433.4	136.5
433.622	114.5
433.844	126.5
434.066	118.5
434.287	108.5
434.509	94.5
434.731	93.5
434.953	100.5
435.175	126.5
435.397	130.5
435.618	118.5
435.84	105.5
436.062	108.5
436.284	112.5
436.505	124.5
436.727	122.5
436.949	122.5
437.17	129.5
437.392	122.5
437.614	130.5
437.835	103.5
438.057	106.5
438.278	125.5
438.5	115.5
438.721	107.5
438.943	130.5
439.165	135.5
439.386	137.5
439.608	152.5
439.829	127.5
440.05	138.5
440.272	131.5
440.493	145.5
440.715	135.5
440.936	151.5
441.158	138.5
441.379	133.5
441.6	145.5
441.822	138.5
442.043	134.5
442.264	134.5
442.486	126.5
442.707	138.5
442.928	131.5
443.149	131.5
443.371	140.5
443.592	132.5
443.813	147.5
444.034	140.5
444.255	136.5
444.476	125.5
444.698	141.5
444.919	132.5
445.14	274.5
445.361	209.5
445.582	145.5
445.803	141.5
446.024	136.5
446.245	128.5
446.466	149.5
446.687	157.5
446.908	149.5
447.129	138.5
447.35	137.5
447.571	148.5
447.792	145.5
448.013	151.5
448.234	124.5
448.455	130.5
448.675	138.5
448.896	138.5
449.117	131.5
449.338	134.5
449.559	124.5
449.779	130.5
450	143.5
450.221	144.5
450.442	129.5
450.662	126.5
450.883	121.5
451.104	136.5
451.324	126.5
451.545	123.5
451.766	110.5
451.986	117.5
452.207	107.5
452.428	119.5
452.648	128.5
452.869	117.5
453.089	113.5
453.31	108.5
453.53	109.5
453.751	106.5
453.971	99.5
454.192	114.5
454.412	110.5
454.633	113.5
454.853	124.5
455.073	113.5
455.294	133.5
455.514	132.5
455.734	107.5
455.955	116.5
456.175	104.5
456.395	106.5
456.616	99.5
456.836	123.5
457.056	108.5
457.276	91.5
457.497	106.5
457.717	102.5
457.937	102.5
458.157	114.5
458.377	113.5
458.598	79.5
458.818	85.5
459.038	95.5
459.258	95.5
459.478	97.5
459.698	83.5
459.918	102.5
460.138	100.5
460.358	109.5
460.578	120.5
460.798	109.5
461.018	103.5
461.238	107.5
461.458	117.5
461.678	121.5
461.898	111.5
462.118	128.5
462.338	103.5
462.558	107.5
462.777	110.5
462.997	106.5
463.217	100.5
463.437	105.5
463.657	104.5
463.876	99.5
464.096	105.5
464.316	99.5
464.536	101.5
464.755	115.5
464.975	122.5
465.195	117.5
465.414	106.5
465.634	106.5
465.854	124.5
466.073	123.5
466.293	111.5
466.512	113.5
466.732	126.5
466.951	122.5
467.171	119.5
467.391	132.5
467.61	136.5
467.829	113.5
468.049	122.5
468.268	121.5
468.488	121.5
468.707	117.5
468.927	130.5
469.146	146.5
469.365	160.5
469.585	113.5
469.804	140.5
470.023	136.5
470.243	140.5
470.462	140.5
470.681	136.5
470.901	137.5
471.12	128.5
471.339	141.5
471.558	124.5
471.777	114.5
471.997	135.5
472.216	120.5
472.435	107.5
472.654	98.5
472.873	98.5
473.092	124.5
473.311	113.5
473.53	124.5
473.749	131.5
473.968	130.5
474.187	123.5
474.406	129.5
474.625	124.5
474.844	126.5
475.063	120.5
475.282	121.5
475.501	121.5
475.72	118.5
475.939	130.5
476.158	129.5
476.377	138.5
476.596	119.5
476.814	107.5
477.033	100.5
477.252	111.5
477.471	125.5
477.69	147.5
477.908	125.5
478.127	132.5
478.346	116.5
478.564	140.5
478.783	137.5
479.002	129.5
479.22	118.5
479.439	124.5
479.658	122.5
479.876	112.5
480.095	100.5
480.313	99.5
480.532	115.5
480.751	98.5
480.969	97.5
481.188	92.5
481.406	97.5
481.624	94.5
481.843	93.5
482.061	77.5
482.28	121.5
482.498	122.5
482.717	114.5
482.935	127.5
483.153	147.5
483.372	144.5
483.59	140.5
483.808	142.5
484.027	139.5
484.245	143.5
484.463	160.5
484.681	174.5
484.9	148.5
485.118	125.5
485.336	123.5
485.554	89.5
485.772	110.5
485.99	114.5
486.209	102.5
486.427	113.5
486.645	120.5
486.863	133.5
487.081	131.5
487.299	147.5
487.517	140.5
487.735	161.5
487.953	174.5
488.171	193.5
488.389	163.5
488.607	159.5
488.825	141.5
489.043	127.5
489.261	145.5
489.479	132.5
489.696	140.5
489.914	144.5
490.132	138.5
490.35	147.5
490.568	160.5
490.786	165.5
491.003	169.5
491.221	178.5
491.439	192.5
491.657	176.5
491.874	210.5
492.092	207.5
492.31	219.5
492.527	222.5
492.745	197.5
492.963	178.5
493.18	179.5
493.398	176.5
493.615	176.5
493.833	182.5
494.05	171.5
494.268	169.5
494.485	170.5
494.703	151.5
494.92	164.5
495.138	170.5
495.355	168.5
495.573	156.5
495.79	175.5
496.008	164.5
496.225	163.5
496.442	171.5
496.66	149.5
496.877	140.5
497.094	158.5
497.312	155.5
497.529	158.5
497.746	152.5
497.963	119.5
498.181	143.5
498.398	110.5
498.615	118.5
498.832	114.5
499.049	115.5
499.267	131.5
499.484	122.5
499.701	113.5
499.918	139.5
500.135	136.5
500.352	126.5
500.569	130.5
500.786	138.5
501.003	139.5
501.22	146.5
501.437	125.5
501.654	130.5
501.871	132.5
502.088	124.5
502.305	136.5
502.522	119.5
502.739	110.5
502.956	129.5
503.172	130.5
503.389	100.5
503.606	127.5
503.823	120.5
504.04	124.5
504.256	108.5
504.473	102.5
504.69	107.5
504.907	124.5
505.123	127.5
505.34	120.5
505.557	112.5
505.773	118.5
505.99	120.5
506.207	123.5
506.423	110.5
506.64	122.5
506.856	118.5
507.073	118.5
507.289	122.5
507.506	123.5
507.722	110.5
507.939	112.5
508.155	126.5
508.372	107.5
508.588	116.5
508.805	117.5
509.021	98.5
509.238	101.5
509.454	97.5
509.67	93.5
509.887	106.5
510.103	101.5
510.319	86.5
510.536	83.5
510.752	90.5
510.968	89.5
511.184	69.5
511.401	74.5
511.617	86.5
511.833	90.5
512.049	85.5
512.265	92.5
512.481	91.5
512.698	99.5
512.914	106.5
513.13	114.5
513.346	91.5
513.562	91.5
513.778	91.5
513.994	80.5
514.21	77.5
514.426	87.5
514.642	86.5
514.858	94.5
515.074	99.5
515.29	98.5
515.506	98.5
515.721	98.5
515.937	74.5
516.153	86.5
516.369	96.5
516.585	91.5
516.801	87.5
517.016	88.5
517.232	102.5
517.448	98.5
517.664	83.5
517.879	73.5
518.095	97.5
518.311	104.5
518.527	97.5
518.742	92.5
518.958	101.5
519.173	112.5
519.389	114.5
519.605	122.5
519.82	100.5
520.036	106.5
520.251	92.5
520.467	117.5
520.682	90.5
520.898	83.5
521.113	79.5
521.329	80.5
521.544	84.5
521.76	100.5
521.975	96.5
522.19	104.5
522.406	93.5
522.621	98.5
522.836	109.5
523.052	99.5
523.267	105.5
523.482	104.5
523.698	100.5
523.913	115.5
524.128	125.5
524.343	120.5
524.559	122.5
524.774	106.5
524.989	108.5
525.204	104.5
525.419	115.5
525.634	101.5
525.849	112.5
526.064	98.5
526.28	97.5
526.495	102.5
526.71	83.5
526.925	87.5
527.14	93.5
527.355	89.5
527.57	77.5
527.785	73.5
527.999	100.5
528.214	105.5
528.429	106.5
528.644	128.5
528.859	127.5
529.074	141.5
529.289	168.5
529.503	155.5
529.718	134.5
529.933	130.5
530.148	112.5
530.363	101.5
530.577	81.5
530.792	78.5
531.007	82.5
531.221	98.5
531.436	95.5
