Data from Location4.07152019.Energy5.Lamp.07192019.3%Agarose_HRD10591_16-21-10-926.txt Node
Date: Fri Jul 19 16:21:10 EDT 2019
User: cochatt
Spectrometer: HR+D1059
Trigger mode: 1
Integration Time (sec): 1.000000E-1
Scans to average: 1
Electric dark correction enabled: true
Nonlinearity correction enabled: false
Boxcar width: 0
XAxis mode: Wavelengths
Number of Pixels in Spectrum: 2048
>>>>>Begin Spectral Data<<<<<
223.165	-14.44
223.4	-14.44
223.635	-14.44
223.869	-6.44
224.104	-23.44
224.338	-18.44
224.573	-11.44
224.808	-11.44
225.042	2.56
225.277	-3.44
225.511	-4.44
225.746	-6.44
225.98	-1.44
226.215	8.56
226.449	18.56
226.683	26.56
226.918	26.56
227.152	18.56
227.387	36.56
227.621	37.56
227.856	50.56
228.09	54.56
228.324	40.56
228.559	55.56
228.793	61.56
229.027	72.56
229.262	68.56
229.496	61.56
229.73	66.56
229.964	69.56
230.199	66.56
230.433	74.56
230.667	82.56
230.901	76.56
231.136	78.56
231.37	84.56
231.604	63.56
231.838	75.56
232.072	84.56
232.306	82.56
232.541	71.56
232.775	78.56
233.009	82.56
233.243	86.56
233.477	72.56
233.711	72.56
233.945	67.56
234.179	75.56
234.413	76.56
234.647	81.56
234.881	83.56
235.115	78.56
235.349	71.56
235.583	78.56
235.817	73.56
236.051	73.56
236.285	99.56
236.519	69.56
236.753	75.56
236.987	76.56
237.221	78.56
237.455	80.56
237.689	81.56
237.922	85.56
238.156	86.56
238.39	69.56
238.624	70.56
238.858	75.56
239.091	87.56
239.325	84.56
239.559	77.56
239.793	53.56
240.027	75.56
240.26	76.56
240.494	73.56
240.728	67.56
240.961	81.56
241.195	83.56
241.429	75.56
241.662	67.56
241.896	77.56
242.13	70.56
242.363	73.56
242.597	78.56
242.83	57.56
243.064	74.56
243.298	78.56
243.531	76.56
243.765	74.56
243.998	72.56
244.232	78.56
244.465	73.56
244.699	73.56
244.932	84.56
245.166	88.56
245.399	95.56
245.633	85.56
245.866	72.56
246.099	87.56
246.333	75.56
246.566	73.56
246.8	67.56
247.033	77.56
247.266	86.56
247.5	79.56
247.733	70.56
247.966	69.56
248.2	78.56
248.433	84.56
248.666	76.56
248.899	85.56
249.133	86.56
249.366	87.56
249.599	72.56
249.832	77.56
250.066	79.56
250.299	86.56
250.532	92.56
250.765	82.56
250.998	81.56
251.231	85.56
251.465	84.56
251.698	79.56
251.931	69.56
252.164	76.56
252.397	80.56
252.63	67.56
252.863	76.56
253.096	61.56
253.329	82.56
253.562	76.56
253.795	78.56
254.028	86.56
254.261	68.56
254.494	69.56
254.727	79.56
254.96	75.56
255.193	95.56
255.426	75.56
255.659	69.56
255.892	76.56
256.124	82.56
256.357	80.56
256.59	75.56
256.823	72.56
257.056	65.56
257.289	66.56
257.521	69.56
257.754	81.56
257.987	75.56
258.22	82.56
258.452	85.56
258.685	80.56
258.918	80.56
259.151	76.56
259.383	70.56
259.616	89.56
259.849	81.56
260.081	78.56
260.314	75.56
260.547	80.56
260.779	69.56
261.012	84.56
261.244	91.56
261.477	75.56
261.71	80.56
261.942	72.56
262.175	88.56
262.407	74.56
262.64	71.56
262.872	92.56
263.105	72.56
263.337	84.56
263.57	90.56
263.802	93.56
264.035	80.56
264.267	83.56
264.499	87.56
264.732	83.56
264.964	80.56
265.197	82.56
265.429	86.56
265.661	78.56
265.894	77.56
266.126	76.56
266.358	76.56
266.591	83.56
266.823	82.56
267.055	82.56
267.287	77.56
267.52	93.56
267.752	95.56
267.984	74.56
268.216	79.56
268.448	98.56
268.681	73.56
268.913	75.56
269.145	72.56
269.377	82.56
269.609	84.56
269.841	85.56
270.073	84.56
270.306	85.56
270.538	76.56
270.77	86.56
271.002	97.56
271.234	81.56
271.466	77.56
271.698	100.56
271.93	90.56
272.162	82.56
272.394	90.56
272.626	96.56
272.858	83.56
273.09	78.56
273.322	85.56
273.553	88.56
273.785	90.56
274.017	91.56
274.249	85.56
274.481	84.56
274.713	78.56
274.945	70.56
275.176	70.56
275.408	92.56
275.64	69.56
275.872	89.56
276.104	76.56
276.335	88.56
276.567	70.56
276.799	87.56
277.031	85.56
277.262	79.56
277.494	88.56
277.726	96.56
277.957	94.56
278.189	87.56
278.421	76.56
278.652	72.56
278.884	96.56
279.115	94.56
279.347	83.56
279.579	91.56
279.81	88.56
280.042	90.56
280.273	95.56
280.505	90.56
280.736	93.56
280.968	98.56
281.199	87.56
281.431	91.56
281.662	82.56
281.894	88.56
282.125	84.56
282.356	95.56
282.588	86.56
282.819	73.56
283.051	75.56
283.282	88.56
283.513	85.56
283.745	99.56
283.976	77.56
284.207	85.56
284.439	72.56
284.67	77.56
284.901	84.56
285.132	93.56
285.364	72.56
285.595	93.56
285.826	82.56
286.057	88.56
286.288	88.56
286.52	84.56
286.751	79.56
286.982	88.56
287.213	84.56
287.444	89.56
287.675	91.56
287.906	95.56
288.138	86.56
288.369	89.56
288.6	82.56
288.831	83.56
289.062	83.56
289.293	84.56
289.524	83.56
289.755	82.56
289.986	82.56
290.217	88.56
290.448	97.56
290.679	91.56
290.91	77.56
291.141	83.56
291.371	73.56
291.602	83.56
291.833	79.56
292.064	82.56
292.295	83.56
292.526	83.56
292.757	91.56
292.987	85.56
293.218	82.56
293.449	68.56
293.68	81.56
293.91	79.56
294.141	86.56
294.372	96.56
294.603	91.56
294.833	80.56
295.064	66.56
295.295	75.56
295.525	85.56
295.756	99.56
295.987	84.56
296.217	80.56
296.448	83.56
296.679	99.56
296.909	84.56
297.14	82.56
297.37	97.56
297.601	94.56
297.831	80.56
298.062	71.56
298.292	71.56
298.523	95.56
298.753	77.56
298.984	93.56
299.214	84.56
299.445	91.56
299.675	88.56
299.905	83.56
300.136	90.56
300.366	88.56
300.597	78.56
300.827	97.56
301.057	94.56
301.288	93.56
301.518	80.56
301.748	92.56
301.979	84.56
302.209	75.56
302.439	82.56
302.669	83.56
302.9	81.56
303.13	85.56
303.36	75.56
303.59	72.56
303.82	93.56
304.051	85.56
304.281	92.56
304.511	90.56
304.741	87.56
304.971	90.56
305.201	90.56
305.431	99.56
305.661	99.56
305.891	85.56
306.121	81.56
306.352	82.56
306.582	76.56
306.812	87.56
307.042	83.56
307.272	87.56
307.502	91.56
307.731	86.56
307.961	91.56
308.191	88.56
308.421	82.56
308.651	92.56
308.881	87.56
309.111	91.56
309.341	84.56
309.571	89.56
309.8	89.56
310.03	78.56
310.26	85.56
310.49	77.56
310.72	84.56
310.949	92.56
311.179	85.56
311.409	99.56
311.639	84.56
311.868	88.56
312.098	103.56
312.328	88.56
312.557	96.56
312.787	92.56
313.017	68.56
313.246	63.56
313.476	86.56
313.706	89.56
313.935	73.56
314.165	81.56
314.394	90.56
314.624	100.56
314.853	83.56
315.083	88.56
315.312	87.56
315.542	88.56
315.771	84.56
316.001	75.56
316.23	85.56
316.46	72.56
316.689	80.56
316.919	92.56
317.148	82.56
317.377	92.56
317.607	77.56
317.836	76.56
318.065	69.56
318.295	84.56
318.524	65.56
318.753	82.56
318.983	71.56
319.212	75.56
319.441	72.56
319.67	91.56
319.9	85.56
320.129	101.56
320.358	87.56
320.587	79.56
320.816	75.56
321.046	81.56
321.275	97.56
321.504	92.56
321.733	73.56
321.962	95.56
322.191	85.56
322.42	96.56
322.649	98.56
322.878	90.56
323.108	77.56
323.337	98.56
323.566	90.56
323.795	89.56
324.024	95.56
324.253	95.56
324.482	91.56
324.71	89.56
324.939	95.56
325.168	96.56
325.397	79.56
325.626	83.56
325.855	80.56
326.084	75.56
326.313	85.56
326.542	87.56
326.77	83.56
326.999	85.56
327.228	77.56
327.457	77.56
327.686	91.56
327.914	93.56
328.143	83.56
328.372	85.56
328.6	95.56
328.829	87.56
329.058	75.56
329.287	70.56
329.515	92.56
329.744	84.56
329.972	86.56
330.201	88.56
330.43	82.56
330.658	84.56
330.887	72.56
331.115	84.56
331.344	91.56
331.572	101.56
331.801	88.56
332.03	91.56
332.258	84.56
332.486	83.56
332.715	77.56
332.943	93.56
333.172	91.56
333.4	70.56
333.629	83.56
333.857	74.56
334.085	88.56
334.314	73.56
334.542	80.56
334.771	65.56
334.999	88.56
335.227	81.56
335.455	93.56
335.684	89.56
335.912	78.56
336.14	95.56
336.369	76.56
336.597	86.56
336.825	89.56
337.053	92.56
337.281	81.56
337.51	100.56
337.738	77.56
337.966	78.56
338.194	88.56
338.422	96.56
338.65	91.56
338.878	80.56
339.106	93.56
339.334	73.56
339.562	76.56
339.79	83.56
340.018	71.56
340.246	89.56
340.474	90.56
340.702	85.56
340.93	73.56
341.158	80.56
341.386	79.56
341.614	84.56
341.842	92.56
342.07	85.56
342.298	91.56
342.526	94.56
342.754	90.56
342.981	83.56
343.209	87.56
343.437	85.56
343.665	89.56
343.893	88.56
344.12	83.56
344.348	84.56
344.576	86.56
344.804	96.56
345.031	88.56
345.259	99.56
345.487	79.56
345.714	91.56
345.942	93.56
346.17	78.56
346.397	89.56
346.625	87.56
346.853	93.56
347.08	83.56
347.308	94.56
347.535	95.56
347.763	80.56
347.99	89.56
348.218	96.56
348.445	75.56
348.673	81.56
348.9	89.56
349.128	95.56
349.355	82.56
349.583	71.56
349.81	92.56
350.037	76.56
350.265	82.56
350.492	90.56
350.72	82.56
350.947	94.56
351.174	80.56
351.402	73.56
351.629	84.56
351.856	83.56
352.083	80.56
352.311	99.56
352.538	81.56
352.765	84.56
352.992	94.56
353.22	77.56
353.447	95.56
353.674	95.56
353.901	83.56
354.128	80.56
354.355	72.56
354.583	79.56
354.81	89.56
355.037	88.56
355.264	95.56
355.491	80.56
355.718	101.56
355.945	83.56
356.172	78.56
356.399	86.56
356.626	70.56
356.853	72.56
357.08	83.56
357.307	85.56
357.534	82.56
357.761	74.56
357.988	84.56
358.215	96.56
358.441	91.56
358.668	98.56
358.895	86.56
359.122	80.56
359.349	93.56
359.576	90.56
359.802	95.56
360.029	87.56
360.256	89.56
360.483	87.56
360.709	85.56
360.936	103.56
361.163	81.56
361.39	87.56
361.616	88.56
361.843	93.56
362.07	76.56
362.296	90.56
362.523	85.56
362.749	97.56
362.976	80.56
363.203	93.56
363.429	87.56
363.656	73.56
363.882	93.56
364.109	90.56
364.335	77.56
364.562	75.56
364.788	86.56
365.015	87.56
365.241	87.56
365.468	76.56
365.694	83.56
365.92	96.56
366.147	102.56
366.373	89.56
366.599	82.56
366.826	83.56
367.052	107.56
367.278	81.56
367.505	98.56
367.731	88.56
367.957	98.56
368.184	98.56
368.41	99.56
368.636	90.56
368.862	79.56
369.089	85.56
369.315	90.56
369.541	93.56
369.767	102.56
369.993	80.56
370.219	92.56
370.445	82.56
370.672	92.56
370.898	76.56
371.124	85.56
371.35	98.56
371.576	88.56
371.802	91.56
372.028	85.56
372.254	84.56
372.48	87.56
372.706	85.56
372.932	88.56
373.158	87.56
373.384	89.56
373.61	93.56
373.835	88.56
374.061	80.56
374.287	90.56
374.513	104.56
374.739	88.56
374.965	94.56
375.191	85.56
375.416	90.56
375.642	97.56
375.868	88.56
376.094	100.56
376.319	92.56
376.545	97.56
376.771	77.56
376.997	96.56
377.222	87.56
377.448	95.56
377.674	92.56
377.899	81.56
378.125	102.56
378.35	93.56
378.576	83.56
378.802	93.56
379.027	84.56
379.253	92.56
379.478	99.56
379.704	89.56
379.929	83.56
380.155	104.56
380.38	76.56
380.606	86.56
380.831	85.56
381.057	95.56
381.282	85.56
381.507	103.56
381.733	91.56
381.958	113.56
382.184	95.56
382.409	98.56
382.634	107.56
382.86	90.56
383.085	107.56
383.31	98.56
383.535	100.56
383.761	88.56
383.986	97.56
384.211	105.56
384.436	93.56
384.662	99.56
384.887	96.56
385.112	102.56
385.337	91.56
385.562	90.56
385.787	74.56
386.013	103.56
386.238	104.56
386.463	95.56
386.688	95.56
386.913	93.56
387.138	104.56
387.363	100.56
387.588	102.56
387.813	96.56
388.038	89.56
388.263	107.56
388.488	99.56
388.713	105.56
388.938	102.56
389.163	90.56
389.387	106.56
389.612	105.56
389.837	100.56
390.062	105.56
390.287	84.56
390.512	99.56
390.736	106.56
390.961	88.56
391.186	92.56
391.411	109.56
391.636	95.56
391.86	84.56
392.085	93.56
392.31	102.56
392.534	98.56
392.759	111.56
392.984	99.56
393.208	113.56
393.433	92.56
393.658	111.56
393.882	100.56
394.107	122.56
394.331	96.56
394.556	114.56
394.78	103.56
395.005	116.56
395.229	105.56
395.454	95.56
395.678	91.56
395.903	98.56
396.127	113.56
396.352	124.56
396.576	100.56
396.801	116.56
397.025	112.56
397.249	91.56
397.474	123.56
397.698	112.56
397.922	107.56
398.147	106.56
398.371	110.56
398.595	111.56
398.82	121.56
399.044	106.56
399.268	103.56
399.492	117.56
399.717	107.56
399.941	107.56
400.165	108.56
400.389	129.56
400.613	101.56
400.837	118.56
401.062	102.56
401.286	100.56
401.51	124.56
401.734	108.56
401.958	111.56
402.182	102.56
402.406	111.56
402.63	91.56
402.854	115.56
403.078	106.56
403.302	107.56
403.526	104.56
403.75	116.56
403.974	116.56
404.198	124.56
404.422	117.56
404.645	100.56
404.869	117.56
405.093	111.56
405.317	117.56
405.541	120.56
405.765	117.56
405.988	113.56
406.212	108.56
406.436	113.56
406.66	102.56
406.883	111.56
407.107	113.56
407.331	99.56
407.555	115.56
407.778	108.56
408.002	120.56
408.226	113.56
408.449	116.56
408.673	119.56
408.896	121.56
409.12	131.56
409.344	119.56
409.567	122.56
409.791	118.56
410.014	108.56
410.238	120.56
410.461	114.56
410.685	109.56
410.908	121.56
411.132	106.56
411.355	123.56
411.578	125.56
411.802	116.56
412.025	121.56
412.249	106.56
412.472	115.56
412.695	113.56
412.919	104.56
413.142	112.56
413.365	115.56
413.589	125.56
413.812	119.56
414.035	119.56
414.258	124.56
414.482	126.56
414.705	122.56
414.928	117.56
415.151	122.56
415.374	114.56
415.597	122.56
415.821	115.56
416.044	126.56
416.267	118.56
416.49	119.56
416.713	126.56
416.936	127.56
417.159	123.56
417.382	128.56
417.605	129.56
417.828	123.56
418.051	126.56
418.274	119.56
418.497	118.56
418.72	125.56
418.943	139.56
419.166	127.56
419.389	144.56
419.611	112.56
419.834	123.56
420.057	129.56
420.28	136.56
420.503	119.56
420.726	125.56
420.948	123.56
421.171	114.56
421.394	149.56
421.617	132.56
421.839	134.56
422.062	141.56
422.285	137.56
422.507	118.56
422.73	131.56
422.953	115.56
423.175	112.56
423.398	127.56
423.621	116.56
423.843	127.56
424.066	126.56
424.288	164.56
424.511	147.56
424.733	135.56
424.956	132.56
425.178	131.56
425.401	133.56
425.623	139.56
425.846	120.56
426.068	125.56
426.291	124.56
426.513	116.56
426.735	125.56
426.958	122.56
427.18	126.56
427.402	119.56
427.625	130.56
427.847	132.56
428.069	122.56
428.292	129.56
428.514	124.56
428.736	135.56
428.958	127.56
429.181	120.56
429.403	129.56
429.625	130.56
429.847	120.56
430.069	118.56
430.292	127.56
430.514	123.56
430.736	123.56
430.958	115.56
431.18	127.56
431.402	131.56
431.624	112.56
431.846	125.56
432.068	99.56
432.29	117.56
432.512	111.56
432.734	115.56
432.956	112.56
433.178	132.56
433.4	127.56
433.622	122.56
433.844	114.56
434.066	129.56
434.287	98.56
434.509	101.56
434.731	94.56
434.953	104.56
435.175	134.56
435.397	128.56
435.618	117.56
435.84	106.56
436.062	104.56
436.284	116.56
436.505	128.56
436.727	134.56
436.949	116.56
437.17	122.56
437.392	120.56
437.614	116.56
437.835	120.56
438.057	103.56
438.278	110.56
438.5	129.56
438.721	138.56
438.943	140.56
439.165	132.56
439.386	142.56
439.608	139.56
439.829	138.56
440.05	145.56
440.272	150.56
440.493	134.56
440.715	130.56
440.936	134.56
441.158	134.56
441.379	130.56
441.6	153.56
441.822	140.56
442.043	140.56
442.264	134.56
442.486	136.56
442.707	145.56
442.928	136.56
443.149	132.56
443.371	133.56
443.592	147.56
443.813	124.56
444.034	137.56
444.255	128.56
444.476	140.56
444.698	147.56
444.919	143.56
445.14	271.56
445.361	214.56
445.582	163.56
445.803	136.56
446.024	136.56
446.245	144.56
446.466	151.56
446.687	154.56
446.908	159.56
447.129	152.56
447.35	149.56
447.571	141.56
447.792	138.56
448.013	142.56
448.234	139.56
448.455	141.56
448.675	148.56
448.896	149.56
449.117	140.56
449.338	137.56
449.559	134.56
449.779	132.56
450	136.56
450.221	141.56
450.442	138.56
450.662	145.56
450.883	124.56
451.104	138.56
451.324	125.56
451.545	127.56
451.766	124.56
451.986	120.56
452.207	133.56
452.428	119.56
452.648	125.56
452.869	120.56
453.089	116.56
453.31	115.56
453.53	109.56
453.751	103.56
453.971	94.56
454.192	105.56
454.412	113.56
454.633	117.56
454.853	108.56
455.073	118.56
455.294	124.56
455.514	118.56
455.734	124.56
455.955	116.56
456.175	122.56
456.395	105.56
456.616	100.56
456.836	108.56
457.056	116.56
457.276	108.56
457.497	104.56
457.717	121.56
457.937	114.56
458.157	104.56
458.377	104.56
458.598	86.56
458.818	90.56
459.038	72.56
459.258	85.56
459.478	79.56
459.698	82.56
459.918	93.56
460.138	120.56
460.358	123.56
460.578	111.56
460.798	120.56
461.018	111.56
461.238	121.56
461.458	114.56
461.678	102.56
461.898	121.56
462.118	121.56
462.338	104.56
462.558	116.56
462.777	125.56
462.997	90.56
463.217	113.56
463.437	114.56
463.657	109.56
463.876	115.56
464.096	98.56
464.316	110.56
464.536	94.56
464.755	105.56
464.975	112.56
465.195	111.56
465.414	102.56
465.634	111.56
465.854	113.56
466.073	117.56
466.293	118.56
466.512	117.56
466.732	121.56
466.951	130.56
467.171	139.56
467.391	118.56
467.61	128.56
467.829	139.56
468.049	121.56
468.268	128.56
468.488	139.56
468.707	127.56
468.927	140.56
469.146	133.56
469.365	144.56
469.585	123.56
469.804	148.56
470.023	129.56
470.243	131.56
470.462	125.56
470.681	130.56
470.901	147.56
471.12	132.56
471.339	131.56
471.558	125.56
471.777	149.56
471.997	129.56
472.216	124.56
472.435	130.56
472.654	107.56
472.873	106.56
473.092	111.56
473.311	125.56
473.53	116.56
473.749	113.56
473.968	135.56
474.187	133.56
474.406	112.56
474.625	123.56
474.844	138.56
475.063	121.56
475.282	132.56
475.501	121.56
475.72	133.56
475.939	131.56
476.158	124.56
476.377	130.56
476.596	111.56
476.814	118.56
477.033	96.56
477.252	108.56
477.471	136.56
477.69	145.56
477.908	141.56
478.127	135.56
478.346	124.56
478.564	135.56
478.783	137.56
479.002	138.56
479.22	136.56
479.439	143.56
479.658	142.56
479.876	114.56
480.095	122.56
480.313	121.56
480.532	126.56
480.751	113.56
480.969	104.56
481.188	95.56
481.406	91.56
481.624	84.56
481.843	88.56
482.061	86.56
482.28	120.56
482.498	117.56
482.717	105.56
482.935	117.56
483.153	137.56
483.372	157.56
483.59	148.56
483.808	139.56
484.027	137.56
484.245	135.56
484.463	135.56
484.681	155.56
484.9	128.56
485.118	134.56
485.336	109.56
485.554	98.56
485.772	104.56
485.99	97.56
486.209	114.56
486.427	113.56
486.645	111.56
486.863	133.56
487.081	125.56
487.299	136.56
487.517	133.56
487.735	179.56
487.953	180.56
488.171	185.56
488.389	175.56
488.607	161.56
488.825	139.56
489.043	141.56
489.261	133.56
489.479	152.56
489.696	147.56
489.914	132.56
490.132	139.56
490.35	148.56
490.568	162.56
490.786	156.56
491.003	172.56
491.221	147.56
491.439	183.56
491.657	177.56
491.874	208.56
492.092	226.56
492.31	241.56
492.527	217.56
492.745	210.56
492.963	170.56
493.18	176.56
493.398	160.56
493.615	167.56
493.833	177.56
494.05	169.56
494.268	174.56
494.485	175.56
494.703	158.56
494.92	164.56
495.138	167.56
495.355	166.56
495.573	161.56
495.79	163.56
496.008	175.56
496.225	158.56
496.442	175.56
496.66	165.56
496.877	163.56
497.094	169.56
497.312	156.56
497.529	147.56
497.746	148.56
497.963	140.56
498.181	131.56
498.398	125.56
498.615	116.56
498.832	104.56
499.049	129.56
499.267	111.56
499.484	124.56
499.701	137.56
499.918	129.56
500.135	132.56
500.352	146.56
500.569	138.56
500.786	141.56
501.003	149.56
501.22	153.56
501.437	128.56
501.654	135.56
501.871	116.56
502.088	125.56
502.305	142.56
502.522	133.56
502.739	137.56
502.956	125.56
503.172	141.56
503.389	108.56
503.606	121.56
503.823	120.56
504.04	124.56
504.256	112.56
504.473	122.56
504.69	125.56
504.907	125.56
505.123	109.56
505.34	115.56
505.557	118.56
505.773	115.56
505.99	109.56
506.207	119.56
506.423	116.56
506.64	116.56
506.856	113.56
507.073	125.56
507.289	116.56
507.506	127.56
507.722	118.56
507.939	105.56
508.155	112.56
508.372	117.56
508.588	129.56
508.805	117.56
509.021	115.56
509.238	111.56
509.454	87.56
509.67	91.56
509.887	91.56
510.103	101.56
510.319	95.56
510.536	80.56
510.752	99.56
510.968	87.56
511.184	80.56
511.401	83.56
511.617	98.56
511.833	101.56
