Data from Location4.07152019.Energy5.Lamp.07192019.3%Agarose_HRD10591_16-20-01-925.txt Node
Date: Fri Jul 19 16:20:01 EDT 2019
User: cochatt
Spectrometer: HR+D1059
Trigger mode: 1
Integration Time (sec): 1.000000E-1
Scans to average: 1
Electric dark correction enabled: true
Nonlinearity correction enabled: false
Boxcar width: 0
XAxis mode: Wavelengths
Number of Pixels in Spectrum: 2048
>>>>>Begin Spectral Data<<<<<
223.165	-26.69
223.4	-26.69
223.635	-26.69
223.869	-16.69
224.104	-23.69
224.338	-11.69
224.573	0.31
224.808	-14.69
225.042	-10.69
225.277	-14.69
225.511	-6.69
225.746	-0.69
225.98	18.31
226.215	26.31
226.449	12.31
226.683	24.31
226.918	17.31
227.152	27.31
227.387	32.31
227.621	24.31
227.856	43.31
228.09	36.31
228.324	54.31
228.559	67.31
228.793	57.31
229.027	63.31
229.262	63.31
229.496	66.31
229.73	74.31
229.964	81.31
230.199	70.31
230.433	77.31
230.667	88.31
230.901	80.31
231.136	81.31
231.37	86.31
231.604	77.31
231.838	91.31
232.072	72.31
232.306	82.31
232.541	85.31
232.775	87.31
233.009	87.31
233.243	87.31
233.477	84.31
233.711	80.31
233.945	92.31
234.179	75.31
234.413	103.31
234.647	89.31
234.881	67.31
235.115	75.31
235.349	78.31
235.583	58.31
235.817	66.31
236.051	87.31
236.285	82.31
236.519	95.31
236.753	77.31
236.987	85.31
237.221	80.31
237.455	88.31
237.689	78.31
237.922	74.31
238.156	72.31
238.39	83.31
238.624	70.31
238.858	70.31
239.091	79.31
239.325	74.31
239.559	79.31
239.793	82.31
240.027	81.31
240.26	76.31
240.494	73.31
240.728	88.31
240.961	74.31
241.195	68.31
241.429	81.31
241.662	71.31
241.896	81.31
242.13	85.31
242.363	92.31
242.597	97.31
242.83	77.31
243.064	75.31
243.298	70.31
243.531	86.31
243.765	72.31
243.998	64.31
244.232	74.31
244.465	92.31
244.699	90.31
244.932	82.31
245.166	76.31
245.399	76.31
245.633	84.31
245.866	84.31
246.099	75.31
246.333	80.31
246.566	76.31
246.8	71.31
247.033	81.31
247.266	81.31
247.5	62.31
247.733	82.31
247.966	85.31
248.2	80.31
248.433	74.31
248.666	75.31
248.899	69.31
249.133	71.31
249.366	68.31
249.599	80.31
249.832	73.31
250.066	76.31
250.299	79.31
250.532	82.31
250.765	83.31
250.998	87.31
251.231	83.31
251.465	78.31
251.698	78.31
251.931	76.31
252.164	94.31
252.397	92.31
252.63	89.31
252.863	68.31
253.096	85.31
253.329	75.31
253.562	70.31
253.795	86.31
254.028	82.31
254.261	90.31
254.494	69.31
254.727	86.31
254.96	75.31
255.193	81.31
255.426	89.31
255.659	82.31
255.892	79.31
256.124	82.31
256.357	77.31
256.59	86.31
256.823	69.31
257.056	68.31
257.289	83.31
257.521	76.31
257.754	72.31
257.987	72.31
258.22	70.31
258.452	83.31
258.685	80.31
258.918	79.31
259.151	93.31
259.383	84.31
259.616	71.31
259.849	81.31
260.081	78.31
260.314	85.31
260.547	88.31
260.779	79.31
261.012	84.31
261.244	74.31
261.477	84.31
261.71	77.31
261.942	84.31
262.175	76.31
262.407	78.31
262.64	61.31
262.872	63.31
263.105	80.31
263.337	81.31
263.57	90.31
263.802	85.31
264.035	78.31
264.267	76.31
264.499	88.31
264.732	83.31
264.964	79.31
265.197	81.31
265.429	69.31
265.661	84.31
265.894	67.31
266.126	93.31
266.358	82.31
266.591	80.31
266.823	74.31
267.055	80.31
267.287	89.31
267.52	74.31
267.752	90.31
267.984	88.31
268.216	74.31
268.448	92.31
268.681	76.31
268.913	93.31
269.145	82.31
269.377	88.31
269.609	79.31
269.841	91.31
270.073	85.31
270.306	92.31
270.538	69.31
270.77	79.31
271.002	70.31
271.234	83.31
271.466	90.31
271.698	93.31
271.93	96.31
272.162	74.31
272.394	90.31
272.626	88.31
272.858	78.31
273.09	87.31
273.322	87.31
273.553	84.31
273.785	74.31
274.017	80.31
274.249	85.31
274.481	80.31
274.713	83.31
274.945	96.31
275.176	86.31
275.408	85.31
275.64	80.31
275.872	83.31
276.104	95.31
276.335	86.31
276.567	84.31
276.799	88.31
277.031	89.31
277.262	93.31
277.494	81.31
277.726	97.31
277.957	82.31
278.189	84.31
278.421	83.31
278.652	77.31
278.884	94.31
279.115	90.31
279.347	89.31
279.579	82.31
279.81	81.31
280.042	76.31
280.273	69.31
280.505	85.31
280.736	85.31
280.968	75.31
281.199	91.31
281.431	92.31
281.662	93.31
281.894	96.31
282.125	80.31
282.356	86.31
282.588	86.31
282.819	80.31
283.051	84.31
283.282	83.31
283.513	83.31
283.745	80.31
283.976	98.31
284.207	88.31
284.439	94.31
284.67	84.31
284.901	81.31
285.132	95.31
285.364	65.31
285.595	77.31
285.826	89.31
286.057	74.31
286.288	68.31
286.52	76.31
286.751	86.31
286.982	73.31
287.213	71.31
287.444	80.31
287.675	74.31
287.906	88.31
288.138	91.31
288.369	84.31
288.6	85.31
288.831	84.31
289.062	84.31
289.293	85.31
289.524	89.31
289.755	85.31
289.986	80.31
290.217	91.31
290.448	68.31
290.679	94.31
290.91	88.31
291.141	89.31
291.371	89.31
291.602	79.31
291.833	71.31
292.064	89.31
292.295	84.31
292.526	80.31
292.757	81.31
292.987	82.31
293.218	91.31
293.449	82.31
293.68	88.31
293.91	85.31
294.141	90.31
294.372	93.31
294.603	81.31
294.833	95.31
295.064	83.31
295.295	75.31
295.525	73.31
295.756	90.31
295.987	76.31
296.217	91.31
296.448	84.31
296.679	77.31
296.909	98.31
297.14	93.31
297.37	95.31
297.601	83.31
297.831	94.31
298.062	95.31
298.292	94.31
298.523	86.31
298.753	93.31
298.984	83.31
299.214	84.31
299.445	68.31
299.675	81.31
299.905	93.31
300.136	75.31
300.366	84.31
300.597	77.31
300.827	74.31
301.057	68.31
301.288	84.31
301.518	92.31
301.748	90.31
301.979	91.31
302.209	91.31
302.439	69.31
302.669	78.31
302.9	71.31
303.13	80.31
303.36	96.31
303.59	87.31
303.82	98.31
304.051	98.31
304.281	94.31
304.511	94.31
304.741	84.31
304.971	80.31
305.201	92.31
305.431	84.31
305.661	88.31
305.891	90.31
306.121	94.31
306.352	79.31
306.582	94.31
306.812	98.31
307.042	98.31
307.272	81.31
307.502	80.31
307.731	82.31
307.961	79.31
308.191	84.31
308.421	84.31
308.651	74.31
308.881	84.31
309.111	84.31
309.341	89.31
309.571	80.31
309.8	88.31
310.03	79.31
310.26	88.31
310.49	86.31
310.72	80.31
310.949	87.31
311.179	89.31
311.409	71.31
311.639	80.31
311.868	94.31
312.098	79.31
312.328	85.31
312.557	76.31
312.787	76.31
313.017	87.31
313.246	75.31
313.476	100.31
313.706	104.31
313.935	75.31
314.165	81.31
314.394	86.31
314.624	82.31
314.853	79.31
315.083	87.31
315.312	85.31
315.542	79.31
315.771	92.31
316.001	86.31
316.23	85.31
316.46	79.31
316.689	70.31
316.919	76.31
317.148	86.31
317.377	87.31
317.607	95.31
317.836	80.31
318.065	89.31
318.295	78.31
318.524	83.31
318.753	80.31
318.983	82.31
319.212	91.31
319.441	74.31
319.67	76.31
319.9	74.31
320.129	91.31
320.358	95.31
320.587	81.31
320.816	70.31
321.046	83.31
321.275	96.31
321.504	80.31
321.733	79.31
321.962	64.31
322.191	88.31
322.42	85.31
322.649	79.31
322.878	87.31
323.108	87.31
323.337	81.31
323.566	84.31
323.795	82.31
324.024	93.31
324.253	80.31
324.482	84.31
324.71	78.31
324.939	89.31
325.168	82.31
325.397	87.31
325.626	81.31
325.855	76.31
326.084	87.31
326.313	84.31
326.542	66.31
326.77	89.31
326.999	82.31
327.228	82.31
327.457	83.31
327.686	80.31
327.914	78.31
328.143	85.31
328.372	82.31
328.6	87.31
328.829	80.31
329.058	73.31
329.287	78.31
329.515	89.31
329.744	79.31
329.972	80.31
330.201	78.31
330.43	70.31
330.658	85.31
330.887	76.31
331.115	95.31
331.344	92.31
331.572	71.31
331.801	89.31
332.03	98.31
332.258	77.31
332.486	69.31
332.715	84.31
332.943	90.31
333.172	88.31
333.4	73.31
333.629	79.31
333.857	89.31
334.085	99.31
334.314	83.31
334.542	79.31
334.771	84.31
334.999	92.31
335.227	86.31
335.455	81.31
335.684	87.31
335.912	86.31
336.14	82.31
336.369	96.31
336.597	91.31
336.825	95.31
337.053	88.31
337.281	95.31
337.51	87.31
337.738	84.31
337.966	103.31
338.194	81.31
338.422	90.31
338.65	86.31
338.878	83.31
339.106	83.31
339.334	79.31
339.562	87.31
339.79	82.31
340.018	90.31
340.246	88.31
340.474	93.31
340.702	95.31
340.93	96.31
341.158	65.31
341.386	95.31
341.614	79.31
341.842	75.31
342.07	81.31
342.298	79.31
342.526	96.31
342.754	89.31
342.981	90.31
343.209	92.31
343.437	102.31
343.665	83.31
343.893	76.31
344.12	80.31
344.348	75.31
344.576	77.31
344.804	89.31
345.031	94.31
345.259	77.31
345.487	90.31
345.714	81.31
345.942	78.31
346.17	83.31
346.397	89.31
346.625	84.31
346.853	66.31
347.08	72.31
347.308	88.31
347.535	90.31
347.763	96.31
347.99	88.31
348.218	73.31
348.445	77.31
348.673	83.31
348.9	86.31
349.128	93.31
349.355	74.31
349.583	83.31
349.81	84.31
350.037	89.31
350.265	83.31
350.492	75.31
350.72	90.31
350.947	72.31
351.174	86.31
351.402	78.31
351.629	92.31
351.856	82.31
352.083	99.31
352.311	96.31
352.538	92.31
352.765	71.31
352.992	73.31
353.22	81.31
353.447	82.31
353.674	78.31
353.901	82.31
354.128	94.31
354.355	68.31
354.583	80.31
354.81	75.31
355.037	82.31
355.264	77.31
355.491	84.31
355.718	85.31
355.945	83.31
356.172	79.31
356.399	100.31
356.626	72.31
356.853	80.31
357.08	80.31
357.307	85.31
357.534	71.31
357.761	77.31
357.988	94.31
358.215	89.31
358.441	82.31
358.668	81.31
358.895	91.31
359.122	91.31
359.349	74.31
359.576	89.31
359.802	83.31
360.029	70.31
360.256	91.31
360.483	100.31
360.709	104.31
360.936	98.31
361.163	87.31
361.39	75.31
361.616	82.31
361.843	89.31
362.07	90.31
362.296	87.31
362.523	86.31
362.749	87.31
362.976	70.31
363.203	94.31
363.429	83.31
363.656	88.31
363.882	76.31
364.109	80.31
364.335	79.31
364.562	85.31
364.788	94.31
365.015	91.31
365.241	81.31
365.468	84.31
365.694	78.31
365.92	75.31
366.147	80.31
366.373	83.31
366.599	83.31
366.826	78.31
367.052	92.31
367.278	99.31
367.505	86.31
367.731	93.31
367.957	97.31
368.184	91.31
368.41	101.31
368.636	92.31
368.862	91.31
369.089	92.31
369.315	99.31
369.541	102.31
369.767	89.31
369.993	86.31
370.219	86.31
370.445	82.31
370.672	89.31
370.898	104.31
371.124	97.31
371.35	97.31
371.576	95.31
371.802	98.31
372.028	92.31
372.254	90.31
372.48	92.31
372.706	100.31
372.932	94.31
373.158	100.31
373.384	112.31
373.61	87.31
373.835	96.31
374.061	96.31
374.287	87.31
374.513	77.31
374.739	86.31
374.965	83.31
375.191	90.31
375.416	82.31
375.642	93.31
375.868	87.31
376.094	85.31
376.319	89.31
376.545	96.31
376.771	86.31
376.997	88.31
377.222	96.31
377.448	91.31
377.674	92.31
377.899	82.31
378.125	96.31
378.35	94.31
378.576	101.31
378.802	88.31
379.027	84.31
379.253	85.31
379.478	87.31
379.704	86.31
379.929	95.31
380.155	87.31
380.38	96.31
380.606	92.31
380.831	95.31
381.057	112.31
381.282	104.31
381.507	98.31
381.733	82.31
381.958	92.31
382.184	104.31
382.409	94.31
382.634	91.31
382.86	95.31
383.085	88.31
383.31	83.31
383.535	97.31
383.761	101.31
383.986	95.31
384.211	91.31
384.436	106.31
384.662	88.31
384.887	90.31
385.112	94.31
385.337	89.31
385.562	103.31
385.787	94.31
386.013	99.31
386.238	100.31
386.463	109.31
386.688	106.31
386.913	97.31
387.138	92.31
387.363	100.31
387.588	101.31
387.813	103.31
388.038	104.31
388.263	108.31
388.488	102.31
388.713	99.31
388.938	106.31
389.163	110.31
389.387	107.31
389.612	112.31
389.837	106.31
390.062	98.31
390.287	89.31
390.512	104.31
390.736	90.31
390.961	103.31
391.186	103.31
391.411	101.31
391.636	111.31
391.86	101.31
392.085	119.31
392.31	98.31
392.534	92.31
392.759	110.31
392.984	106.31
393.208	94.31
393.433	103.31
393.658	110.31
393.882	95.31
394.107	105.31
394.331	104.31
394.556	107.31
394.78	114.31
395.005	107.31
395.229	96.31
395.454	108.31
395.678	106.31
395.903	107.31
396.127	103.31
396.352	102.31
396.576	99.31
396.801	118.31
397.025	114.31
397.249	116.31
397.474	115.31
397.698	109.31
397.922	120.31
398.147	102.31
398.371	118.31
398.595	121.31
398.82	108.31
399.044	115.31
399.268	106.31
399.492	116.31
399.717	105.31
399.941	107.31
400.165	109.31
400.389	106.31
400.613	118.31
400.837	120.31
401.062	96.31
401.286	107.31
401.51	106.31
401.734	114.31
401.958	105.31
402.182	107.31
402.406	122.31
402.63	104.31
402.854	118.31
403.078	110.31
403.302	101.31
403.526	119.31
403.75	101.31
403.974	115.31
404.198	93.31
404.422	129.31
404.645	116.31
404.869	110.31
405.093	99.31
405.317	122.31
405.541	116.31
405.765	100.31
405.988	105.31
406.212	114.31
406.436	112.31
406.66	115.31
406.883	118.31
407.107	118.31
407.331	123.31
407.555	103.31
407.778	110.31
408.002	116.31
408.226	114.31
408.449	107.31
408.673	133.31
408.896	126.31
409.12	106.31
409.344	120.31
409.567	118.31
409.791	118.31
410.014	116.31
410.238	118.31
410.461	97.31
410.685	100.31
410.908	118.31
411.132	130.31
411.355	134.31
411.578	122.31
411.802	118.31
412.025	119.31
412.249	125.31
412.472	130.31
412.695	130.31
412.919	103.31
413.142	116.31
413.365	126.31
413.589	124.31
413.812	113.31
414.035	131.31
414.258	110.31
414.482	118.31
414.705	119.31
414.928	122.31
415.151	119.31
415.374	111.31
415.597	110.31
415.821	130.31
416.044	123.31
416.267	124.31
416.49	126.31
416.713	127.31
416.936	119.31
417.159	116.31
417.382	123.31
417.605	122.31
417.828	127.31
418.051	113.31
418.274	122.31
418.497	130.31
418.72	119.31
418.943	135.31
419.166	140.31
419.389	120.31
419.611	143.31
419.834	142.31
420.057	135.31
420.28	130.31
420.503	120.31
420.726	139.31
420.948	151.31
421.171	130.31
421.394	127.31
421.617	139.31
421.839	150.31
422.062	132.31
422.285	120.31
422.507	124.31
422.73	127.31
422.953	120.31
423.175	122.31
423.398	125.31
423.621	120.31
423.843	123.31
424.066	144.31
424.288	130.31
424.511	132.31
424.733	162.31
424.956	124.31
425.178	137.31
425.401	130.31
425.623	132.31
425.846	144.31
426.068	138.31
426.291	132.31
426.513	115.31
426.735	138.31
426.958	116.31
427.18	117.31
427.402	137.31
427.625	124.31
427.847	136.31
428.069	122.31
428.292	106.31
428.514	120.31
428.736	128.31
428.958	124.31
429.181	122.31
429.403	124.31
429.625	124.31
429.847	125.31
430.069	124.31
430.292	118.31
430.514	126.31
430.736	135.31
430.958	122.31
431.18	120.31
431.402	133.31
431.624	126.31
431.846	110.31
432.068	90.31
432.29	102.31
432.512	104.31
432.734	119.31
432.956	135.31
433.178	142.31
433.4	147.31
433.622	123.31
433.844	134.31
434.066	122.31
434.287	111.31
434.509	114.31
434.731	106.31
434.953	106.31
435.175	116.31
435.397	115.31
435.618	119.31
435.84	111.31
436.062	108.31
436.284	136.31
436.505	141.31
436.727	120.31
436.949	138.31
437.17	123.31
437.392	121.31
437.614	126.31
437.835	114.31
438.057	100.31
438.278	118.31
438.5	121.31
438.721	122.31
438.943	132.31
439.165	134.31
439.386	145.31
439.608	144.31
439.829	137.31
440.05	138.31
440.272	130.31
440.493	150.31
440.715	147.31
440.936	144.31
441.158	142.31
441.379	152.31
441.6	144.31
441.822	136.31
442.043	141.31
442.264	131.31
442.486	138.31
442.707	131.31
442.928	130.31
443.149	130.31
443.371	127.31
443.592	148.31
443.813	116.31
444.034	130.31
444.255	134.31
444.476	121.31
444.698	133.31
444.919	145.31
445.14	279.31
445.361	206.31
445.582	146.31
445.803	133.31
446.024	135.31
446.245	158.31
446.466	144.31
446.687	149.31
446.908	138.31
447.129	156.31
447.35	169.31
447.571	161.31
447.792	147.31
448.013	135.31
448.234	138.31
448.455	140.31
448.675	140.31
448.896	152.31
449.117	128.31
449.338	128.31
449.559	129.31
449.779	131.31
450	123.31
450.221	124.31
450.442	126.31
450.662	129.31
450.883	134.31
451.104	139.31
451.324	142.31
451.545	122.31
451.766	136.31
451.986	139.31
452.207	122.31
452.428	116.31
452.648	110.31
452.869	118.31
453.089	121.31
453.31	114.31
453.53	102.31
453.751	112.31
453.971	102.31
454.192	105.31
454.412	108.31
454.633	123.31
454.853	126.31
455.073	107.31
455.294	120.31
455.514	119.31
455.734	145.31
455.955	115.31
456.175	104.31
456.395	108.31
456.616	120.31
456.836	114.31
457.056	130.31
457.276	118.31
457.497	115.31
457.717	108.31
457.937	96.31
458.157	103.31
458.377	106.31
458.598	105.31
458.818	100.31
459.038	92.31
459.258	94.31
459.478	90.31
459.698	94.31
459.918	110.31
460.138	106.31
460.358	126.31
460.578	125.31
460.798	118.31
461.018	114.31
461.238	101.31
461.458	114.31
461.678	115.31
461.898	115.31
462.118	125.31
462.338	124.31
462.558	107.31
462.777	110.31
462.997	112.31
463.217	110.31
463.437	101.31
463.657	102.31
463.876	104.31
464.096	120.31
464.316	108.31
464.536	115.31
464.755	104.31
464.975	112.31
465.195	120.31
465.414	111.31
465.634	116.31
465.854	113.31
466.073	122.31
466.293	143.31
466.512	130.31
466.732	126.31
466.951	126.31
467.171	120.31
467.391	132.31
467.61	116.31
467.829	131.31
468.049	123.31
468.268	128.31
468.488	128.31
468.707	126.31
468.927	131.31
469.146	131.31
469.365	121.31
469.585	146.31
469.804	139.31
470.023	144.31
470.243	139.31
470.462	147.31
470.681	140.31
470.901	152.31
471.12	157.31
471.339	152.31
471.558	137.31
471.777	153.31
471.997	130.31
472.216	136.31
472.435	120.31
472.654	117.31
472.873	115.31
473.092	106.31
473.311	130.31
473.53	136.31
473.749	132.31
473.968	111.31
474.187	126.31
474.406	124.31
474.625	120.31
474.844	125.31
475.063	118.31
475.282	114.31
475.501	118.31
475.72	122.31
475.939	123.31
476.158	120.31
476.377	137.31
476.596	122.31
476.814	111.31
477.033	110.31
477.252	115.31
477.471	128.31
477.69	155.31
477.908	145.31
478.127	138.31
478.346	138.31
478.564	124.31
478.783	128.31
479.002	137.31
479.22	154.31
479.439	145.31
479.658	126.31
479.876	119.31
480.095	121.31
480.313	125.31
480.532	123.31
480.751	117.31
480.969	100.31
481.188	103.31
481.406	100.31
481.624	105.31
481.843	90.31
482.061	112.31
482.28	122.31
482.498	122.31
482.717	98.31
482.935	120.31
483.153	142.31
483.372	144.31
483.59	152.31
483.808	145.31
484.027	135.31
484.245	129.31
484.463	138.31
484.681	153.31
484.9	163.31
485.118	144.31
485.336	125.31
485.554	107.31
485.772	107.31
485.99	98.31
486.209	113.31
486.427	115.31
486.645	124.31
486.863	113.31
487.081	126.31
487.299	121.31
487.517	123.31
487.735	153.31
487.953	190.31
488.171	193.31
488.389	185.31
488.607	159.31
488.825	158.31
489.043	130.31
489.261	135.31
489.479	136.31
489.696	132.31
489.914	136.31
490.132	139.31
490.35	144.31
490.568	148.31
490.786	153.31
491.003	166.31
491.221	181.31
491.439	190.31
491.657	186.31
491.874	206.31
492.092	212.31
492.31	239.31
492.527	214.31
492.745	208.31
492.963	197.31
493.18	181.31
493.398	191.31
493.615	174.31
493.833	194.31
494.05	178.31
494.268	158.31
494.485	162.31
494.703	168.31
494.92	181.31
495.138	168.31
495.355	174.31
495.573	170.31
495.79	180.31
496.008	167.31
496.225	166.31
496.442	151.31
496.66	154.31
496.877	159.31
497.094	168.31
497.312	154.31
497.529	150.31
497.746	161.31
497.963	119.31
498.181	136.31
498.398	124.31
498.615	114.31
498.832	120.31
499.049	115.31
499.267	127.31
499.484	128.31
499.701	122.31
499.918	146.31
500.135	142.31
500.352	131.31
500.569	150.31
500.786	134.31
501.003	136.31
501.22	133.31
501.437	135.31
501.654	124.31
501.871	134.31
502.088	138.31
502.305	128.31
502.522	127.31
502.739	124.31
502.956	123.31
503.172	129.31
503.389	112.31
503.606	115.31
503.823	115.31
504.04	139.31
504.256	138.31
504.473	124.31
504.69	120.31
504.907	127.31
505.123	122.31
505.34	121.31
505.557	136.31
505.773	128.31
505.99	123.31
506.207	115.31
506.423	115.31
506.64	115.31
506.856	132.31
507.073	126.31
507.289	110.31
507.506	130.31
507.722	115.31
507.939	115.31
508.155	123.31
508.372	110.31
508.588	111.31
508.805	116.31
509.021	114.31
509.238	107.31
509.454	89.31
509.67	110.31
509.887	104.31
510.103	83.31
510.319	107.31
510.536	94.31
510.752	96.31
510.968	105.31
511.184	93.31
511.401	77.31
