Data from Location4.07152019.Energy5.Lamp.07192019.3%Agarose_HRD10591_16-19-28-925.txt Node
Date: Fri Jul 19 16:19:28 EDT 2019
User: cochatt
Spectrometer: HR+D1059
Trigger mode: 1
Integration Time (sec): 1.000000E-1
Scans to average: 1
Electric dark correction enabled: true
Nonlinearity correction enabled: false
Boxcar width: 0
XAxis mode: Wavelengths
Number of Pixels in Spectrum: 2048
>>>>>Begin Spectral Data<<<<<
223.165	3.94
223.4	3.94
223.635	3.94
223.869	5.94
224.104	-25.06
224.338	-18.06
224.573	-13.06
224.808	-21.06
225.042	-4.06
225.277	-3.06
225.511	-19.06
225.746	11.94
225.98	3.94
226.215	3.94
226.449	8.94
226.683	9.94
226.918	20.94
227.152	33.94
227.387	38.94
227.621	31.94
227.856	40.94
228.09	36.94
228.324	45.94
228.559	43.94
228.793	59.94
229.027	63.94
229.262	60.94
229.496	54.94
229.73	62.94
229.964	62.94
230.199	72.94
230.433	69.94
230.667	75.94
230.901	73.94
231.136	68.94
231.37	78.94
231.604	63.94
231.838	67.94
232.072	88.94
232.306	79.94
232.541	80.94
232.775	83.94
233.009	82.94
233.243	94.94
233.477	90.94
233.711	83.94
233.945	83.94
234.179	83.94
234.413	74.94
234.647	69.94
234.881	71.94
235.115	77.94
235.349	74.94
235.583	71.94
235.817	86.94
236.051	90.94
236.285	93.94
236.519	63.94
236.753	76.94
236.987	80.94
237.221	66.94
237.455	76.94
237.689	92.94
237.922	74.94
238.156	72.94
238.39	87.94
238.624	77.94
238.858	87.94
239.091	76.94
239.325	83.94
239.559	85.94
239.793	76.94
240.027	80.94
240.26	88.94
240.494	77.94
240.728	67.94
240.961	60.94
241.195	83.94
241.429	85.94
241.662	82.94
241.896	68.94
242.13	74.94
242.363	70.94
242.597	74.94
242.83	80.94
243.064	75.94
243.298	74.94
243.531	71.94
243.765	72.94
243.998	74.94
244.232	82.94
244.465	67.94
244.699	79.94
244.932	70.94
245.166	73.94
245.399	82.94
245.633	91.94
245.866	76.94
246.099	81.94
246.333	68.94
246.566	80.94
246.8	74.94
247.033	67.94
247.266	71.94
247.5	67.94
247.733	75.94
247.966	89.94
248.2	81.94
248.433	76.94
248.666	81.94
248.899	78.94
249.133	77.94
249.366	87.94
249.599	87.94
249.832	82.94
250.066	90.94
250.299	75.94
250.532	71.94
250.765	61.94
250.998	78.94
251.231	75.94
251.465	79.94
251.698	96.94
251.931	77.94
252.164	91.94
252.397	79.94
252.63	67.94
252.863	71.94
253.096	77.94
253.329	76.94
253.562	80.94
253.795	73.94
254.028	86.94
254.261	69.94
254.494	82.94
254.727	95.94
254.96	88.94
255.193	73.94
255.426	87.94
255.659	96.94
255.892	79.94
256.124	85.94
256.357	88.94
256.59	87.94
256.823	80.94
257.056	86.94
257.289	72.94
257.521	82.94
257.754	77.94
257.987	83.94
258.22	86.94
258.452	74.94
258.685	91.94
258.918	74.94
259.151	82.94
259.383	71.94
259.616	82.94
259.849	72.94
260.081	77.94
260.314	80.94
260.547	80.94
260.779	89.94
261.012	69.94
261.244	80.94
261.477	93.94
261.71	79.94
261.942	77.94
262.175	83.94
262.407	83.94
262.64	83.94
262.872	89.94
263.105	90.94
263.337	77.94
263.57	75.94
263.802	82.94
264.035	85.94
264.267	73.94
264.499	76.94
264.732	96.94
264.964	79.94
265.197	87.94
265.429	82.94
265.661	73.94
265.894	81.94
266.126	76.94
266.358	84.94
266.591	82.94
266.823	78.94
267.055	87.94
267.287	77.94
267.52	92.94
267.752	89.94
267.984	91.94
268.216	86.94
268.448	92.94
268.681	77.94
268.913	85.94
269.145	87.94
269.377	77.94
269.609	88.94
269.841	93.94
270.073	72.94
270.306	81.94
270.538	80.94
270.77	93.94
271.002	83.94
271.234	87.94
271.466	74.94
271.698	94.94
271.93	83.94
272.162	96.94
272.394	95.94
272.626	74.94
272.858	70.94
273.09	81.94
273.322	81.94
273.553	84.94
273.785	85.94
274.017	85.94
274.249	79.94
274.481	77.94
274.713	77.94
274.945	90.94
275.176	76.94
275.408	82.94
275.64	80.94
275.872	64.94
276.104	70.94
276.335	96.94
276.567	79.94
276.799	81.94
277.031	81.94
277.262	80.94
277.494	79.94
277.726	83.94
277.957	85.94
278.189	91.94
278.421	73.94
278.652	71.94
278.884	92.94
279.115	89.94
279.347	92.94
279.579	89.94
279.81	79.94
280.042	66.94
280.273	88.94
280.505	75.94
280.736	95.94
280.968	84.94
281.199	77.94
281.431	92.94
281.662	80.94
281.894	73.94
282.125	92.94
282.356	107.94
282.588	82.94
282.819	86.94
283.051	88.94
283.282	74.94
283.513	101.94
283.745	79.94
283.976	84.94
284.207	79.94
284.439	86.94
284.67	87.94
284.901	88.94
285.132	80.94
285.364	77.94
285.595	83.94
285.826	77.94
286.057	86.94
286.288	92.94
286.52	100.94
286.751	78.94
286.982	85.94
287.213	74.94
287.444	89.94
287.675	81.94
287.906	93.94
288.138	88.94
288.369	92.94
288.6	76.94
288.831	84.94
289.062	94.94
289.293	82.94
289.524	86.94
289.755	85.94
289.986	95.94
290.217	80.94
290.448	75.94
290.679	81.94
290.91	83.94
291.141	64.94
291.371	95.94
291.602	89.94
291.833	85.94
292.064	85.94
292.295	79.94
292.526	83.94
292.757	82.94
292.987	81.94
293.218	77.94
293.449	68.94
293.68	72.94
293.91	77.94
294.141	86.94
294.372	75.94
294.603	84.94
294.833	90.94
295.064	90.94
295.295	76.94
295.525	83.94
295.756	98.94
295.987	85.94
296.217	82.94
296.448	83.94
296.679	81.94
296.909	79.94
297.14	86.94
297.37	80.94
297.601	84.94
297.831	80.94
298.062	98.94
298.292	88.94
298.523	82.94
298.753	92.94
298.984	88.94
299.214	85.94
299.445	84.94
299.675	79.94
299.905	91.94
300.136	78.94
300.366	74.94
300.597	73.94
300.827	87.94
301.057	92.94
301.288	85.94
301.518	88.94
301.748	85.94
301.979	94.94
302.209	91.94
302.439	84.94
302.669	95.94
302.9	82.94
303.13	81.94
303.36	84.94
303.59	76.94
303.82	68.94
304.051	86.94
304.281	90.94
304.511	81.94
304.741	81.94
304.971	86.94
305.201	80.94
305.431	82.94
305.661	85.94
305.891	84.94
306.121	81.94
306.352	88.94
306.582	92.94
306.812	88.94
307.042	94.94
307.272	86.94
307.502	83.94
307.731	96.94
307.961	92.94
308.191	85.94
308.421	101.94
308.651	89.94
308.881	93.94
309.111	72.94
309.341	81.94
309.571	88.94
309.8	88.94
310.03	95.94
310.26	76.94
310.49	92.94
310.72	79.94
310.949	84.94
311.179	103.94
311.409	81.94
311.639	89.94
311.868	98.94
312.098	83.94
312.328	84.94
312.557	88.94
312.787	81.94
313.017	82.94
313.246	87.94
313.476	82.94
313.706	87.94
313.935	90.94
314.165	76.94
314.394	89.94
314.624	97.94
314.853	89.94
315.083	92.94
315.312	85.94
315.542	91.94
315.771	74.94
316.001	83.94
316.23	86.94
316.46	81.94
316.689	90.94
316.919	86.94
317.148	84.94
317.377	90.94
317.607	75.94
317.836	96.94
318.065	76.94
318.295	79.94
318.524	77.94
318.753	74.94
318.983	82.94
319.212	94.94
319.441	98.94
319.67	89.94
319.9	83.94
320.129	69.94
320.358	94.94
320.587	87.94
320.816	77.94
321.046	79.94
321.275	89.94
321.504	81.94
321.733	85.94
321.962	77.94
322.191	80.94
322.42	69.94
322.649	100.94
322.878	83.94
323.108	92.94
323.337	86.94
323.566	69.94
323.795	93.94
324.024	84.94
324.253	85.94
324.482	86.94
324.71	90.94
324.939	81.94
325.168	85.94
325.397	71.94
325.626	81.94
325.855	82.94
326.084	90.94
326.313	91.94
326.542	80.94
326.77	72.94
326.999	87.94
327.228	82.94
327.457	83.94
327.686	88.94
327.914	81.94
328.143	92.94
328.372	81.94
328.6	87.94
328.829	74.94
329.058	81.94
329.287	79.94
329.515	84.94
329.744	86.94
329.972	75.94
330.201	95.94
330.43	77.94
330.658	80.94
330.887	93.94
331.115	96.94
331.344	88.94
331.572	83.94
331.801	89.94
332.03	88.94
332.258	89.94
332.486	89.94
332.715	82.94
332.943	101.94
333.172	83.94
333.4	85.94
333.629	106.94
333.857	95.94
334.085	82.94
334.314	85.94
334.542	85.94
334.771	82.94
334.999	81.94
335.227	85.94
335.455	90.94
335.684	82.94
335.912	93.94
336.14	74.94
336.369	83.94
336.597	88.94
336.825	96.94
337.053	73.94
337.281	75.94
337.51	87.94
337.738	86.94
337.966	73.94
338.194	78.94
338.422	83.94
338.65	95.94
338.878	89.94
339.106	86.94
339.334	84.94
339.562	80.94
339.79	92.94
340.018	79.94
340.246	92.94
340.474	87.94
340.702	69.94
340.93	81.94
341.158	87.94
341.386	89.94
341.614	89.94
341.842	83.94
342.07	83.94
342.298	85.94
342.526	70.94
342.754	87.94
342.981	81.94
343.209	85.94
343.437	110.94
343.665	91.94
343.893	84.94
344.12	92.94
344.348	76.94
344.576	84.94
344.804	91.94
345.031	88.94
345.259	85.94
345.487	101.94
345.714	90.94
345.942	89.94
346.17	84.94
346.397	83.94
346.625	85.94
346.853	86.94
347.08	87.94
347.308	76.94
347.535	97.94
347.763	78.94
347.99	92.94
348.218	106.94
348.445	91.94
348.673	85.94
348.9	80.94
349.128	88.94
349.355	84.94
349.583	92.94
349.81	96.94
350.037	92.94
350.265	82.94
350.492	90.94
350.72	95.94
350.947	78.94
351.174	98.94
351.402	85.94
351.629	91.94
351.856	78.94
352.083	75.94
352.311	79.94
352.538	87.94
352.765	87.94
352.992	73.94
353.22	79.94
353.447	67.94
353.674	88.94
353.901	70.94
354.128	82.94
354.355	76.94
354.583	83.94
354.81	77.94
355.037	90.94
355.264	85.94
355.491	78.94
355.718	82.94
355.945	92.94
356.172	82.94
356.399	92.94
356.626	76.94
356.853	76.94
357.08	93.94
357.307	83.94
357.534	80.94
357.761	91.94
357.988	85.94
358.215	91.94
358.441	83.94
358.668	95.94
358.895	95.94
359.122	70.94
359.349	98.94
359.576	93.94
359.802	79.94
360.029	89.94
360.256	97.94
360.483	89.94
360.709	69.94
360.936	73.94
361.163	77.94
361.39	96.94
361.616	85.94
361.843	87.94
362.07	79.94
362.296	82.94
362.523	85.94
362.749	85.94
362.976	85.94
363.203	77.94
363.429	87.94
363.656	87.94
363.882	75.94
364.109	88.94
364.335	80.94
364.562	81.94
364.788	80.94
365.015	80.94
365.241	82.94
365.468	86.94
365.694	99.94
365.92	97.94
366.147	75.94
366.373	80.94
366.599	83.94
366.826	81.94
367.052	85.94
367.278	86.94
367.505	96.94
367.731	102.94
367.957	95.94
368.184	92.94
368.41	92.94
368.636	87.94
368.862	89.94
369.089	85.94
369.315	85.94
369.541	80.94
369.767	98.94
369.993	87.94
370.219	87.94
370.445	97.94
370.672	96.94
370.898	83.94
371.124	89.94
371.35	90.94
371.576	90.94
371.802	88.94
372.028	87.94
372.254	86.94
372.48	90.94
372.706	88.94
372.932	103.94
373.158	84.94
373.384	99.94
373.61	91.94
373.835	89.94
374.061	108.94
374.287	95.94
374.513	106.94
374.739	95.94
374.965	96.94
375.191	92.94
375.416	90.94
375.642	83.94
375.868	93.94
376.094	82.94
376.319	78.94
376.545	90.94
376.771	86.94
376.997	85.94
377.222	83.94
377.448	91.94
377.674	89.94
377.899	85.94
378.125	87.94
378.35	88.94
378.576	89.94
378.802	91.94
379.027	106.94
379.253	104.94
379.478	93.94
379.704	80.94
379.929	92.94
380.155	83.94
380.38	85.94
380.606	79.94
380.831	106.94
381.057	107.94
381.282	93.94
381.507	99.94
381.733	100.94
381.958	102.94
382.184	96.94
382.409	87.94
382.634	96.94
382.86	98.94
383.085	96.94
383.31	96.94
383.535	86.94
383.761	96.94
383.986	85.94
384.211	87.94
384.436	100.94
384.662	84.94
384.887	99.94
385.112	85.94
385.337	99.94
385.562	87.94
385.787	89.94
386.013	103.94
386.238	92.94
386.463	92.94
386.688	97.94
386.913	103.94
387.138	100.94
387.363	99.94
387.588	105.94
387.813	99.94
388.038	100.94
388.263	99.94
388.488	90.94
388.713	107.94
388.938	89.94
389.163	104.94
389.387	118.94
389.612	90.94
389.837	97.94
390.062	119.94
390.287	113.94
390.512	95.94
390.736	91.94
390.961	96.94
391.186	113.94
391.411	96.94
391.636	119.94
391.86	100.94
392.085	96.94
392.31	104.94
392.534	123.94
392.759	114.94
392.984	105.94
393.208	92.94
393.433	101.94
393.658	91.94
393.882	99.94
394.107	89.94
394.331	105.94
394.556	106.94
394.78	96.94
395.005	100.94
395.229	105.94
395.454	119.94
395.678	99.94
395.903	104.94
396.127	103.94
396.352	93.94
396.576	96.94
396.801	91.94
397.025	102.94
397.249	112.94
397.474	110.94
397.698	116.94
397.922	110.94
398.147	124.94
398.371	113.94
398.595	113.94
398.82	100.94
399.044	98.94
399.268	101.94
399.492	114.94
399.717	114.94
399.941	104.94
400.165	107.94
400.389	103.94
400.613	116.94
400.837	104.94
401.062	99.94
401.286	117.94
401.51	107.94
401.734	93.94
401.958	112.94
402.182	103.94
402.406	106.94
402.63	109.94
402.854	100.94
403.078	113.94
403.302	107.94
403.526	121.94
403.75	118.94
403.974	101.94
404.198	105.94
404.422	105.94
404.645	114.94
404.869	133.94
405.093	121.94
405.317	110.94
405.541	116.94
405.765	124.94
405.988	109.94
406.212	121.94
406.436	115.94
406.66	126.94
406.883	121.94
407.107	103.94
407.331	127.94
407.555	115.94
407.778	117.94
408.002	118.94
408.226	114.94
408.449	115.94
408.673	116.94
408.896	121.94
409.12	120.94
409.344	122.94
409.567	119.94
409.791	118.94
410.014	124.94
410.238	123.94
410.461	115.94
410.685	120.94
410.908	121.94
411.132	127.94
411.355	132.94
411.578	113.94
411.802	115.94
412.025	130.94
412.249	106.94
412.472	128.94
412.695	128.94
412.919	105.94
413.142	122.94
413.365	118.94
413.589	122.94
413.812	118.94
414.035	126.94
414.258	122.94
414.482	112.94
414.705	118.94
414.928	113.94
415.151	124.94
415.374	117.94
415.597	104.94
415.821	120.94
416.044	106.94
416.267	123.94
416.49	121.94
416.713	123.94
416.936	123.94
417.159	117.94
417.382	106.94
417.605	117.94
417.828	119.94
418.051	138.94
418.274	120.94
418.497	135.94
418.72	131.94
418.943	145.94
419.166	128.94
419.389	133.94
419.611	116.94
419.834	131.94
420.057	114.94
420.28	124.94
420.503	119.94
420.726	112.94
420.948	129.94
421.171	134.94
421.394	147.94
421.617	125.94
421.839	135.94
422.062	145.94
422.285	127.94
422.507	125.94
422.73	133.94
422.953	131.94
423.175	123.94
423.398	127.94
423.621	144.94
423.843	137.94
424.066	142.94
424.288	135.94
424.511	138.94
424.733	144.94
424.956	123.94
425.178	124.94
425.401	120.94
425.623	139.94
425.846	136.94
426.068	122.94
426.291	130.94
426.513	123.94
426.735	122.94
426.958	122.94
427.18	111.94
427.402	123.94
427.625	129.94
427.847	123.94
428.069	138.94
428.292	100.94
428.514	112.94
428.736	123.94
428.958	132.94
429.181	129.94
429.403	128.94
429.625	122.94
429.847	115.94
430.069	124.94
430.292	148.94
430.514	137.94
430.736	124.94
430.958	127.94
431.18	135.94
431.402	119.94
431.624	107.94
431.846	100.94
432.068	88.94
432.29	93.94
432.512	115.94
432.734	123.94
432.956	130.94
433.178	129.94
433.4	134.94
433.622	137.94
433.844	139.94
434.066	122.94
434.287	98.94
434.509	99.94
434.731	97.94
434.953	108.94
435.175	102.94
435.397	122.94
435.618	119.94
435.84	107.94
436.062	108.94
436.284	119.94
436.505	138.94
436.727	132.94
436.949	127.94
437.17	120.94
437.392	124.94
437.614	123.94
437.835	116.94
438.057	99.94
438.278	129.94
438.5	147.94
438.721	128.94
438.943	142.94
439.165	132.94
439.386	138.94
439.608	131.94
439.829	135.94
440.05	136.94
440.272	130.94
440.493	136.94
440.715	134.94
440.936	146.94
441.158	146.94
441.379	131.94
441.6	156.94
441.822	133.94
442.043	145.94
442.264	136.94
442.486	136.94
442.707	118.94
442.928	136.94
443.149	127.94
443.371	131.94
443.592	132.94
443.813	142.94
444.034	124.94
444.255	136.94
444.476	121.94
444.698	132.94
444.919	134.94
445.14	282.94
445.361	215.94
445.582	151.94
445.803	113.94
446.024	152.94
446.245	152.94
446.466	163.94
446.687	133.94
446.908	146.94
447.129	153.94
447.35	151.94
447.571	139.94
447.792	144.94
448.013	140.94
448.234	140.94
448.455	136.94
448.675	149.94
448.896	141.94
449.117	133.94
449.338	136.94
449.559	135.94
449.779	129.94
450	140.94
450.221	129.94
450.442	128.94
450.662	133.94
450.883	128.94
451.104	133.94
451.324	126.94
451.545	125.94
451.766	127.94
451.986	118.94
452.207	135.94
452.428	124.94
452.648	130.94
452.869	131.94
453.089	117.94
453.31	108.94
453.53	113.94
453.751	95.94
453.971	104.94
454.192	89.94
454.412	102.94
454.633	116.94
454.853	103.94
455.073	115.94
455.294	125.94
455.514	119.94
455.734	116.94
455.955	116.94
456.175	116.94
456.395	105.94
456.616	106.94
456.836	101.94
457.056	91.94
457.276	106.94
457.497	100.94
457.717	112.94
457.937	109.94
458.157	100.94
458.377	105.94
458.598	95.94
458.818	91.94
459.038	79.94
459.258	97.94
459.478	101.94
459.698	103.94
459.918	100.94
460.138	103.94
460.358	117.94
460.578	121.94
460.798	117.94
461.018	105.94
461.238	103.94
461.458	121.94
461.678	113.94
461.898	116.94
462.118	121.94
462.338	121.94
462.558	117.94
462.777	120.94
462.997	113.94
463.217	98.94
463.437	97.94
463.657	111.94
463.876	113.94
464.096	115.94
464.316	106.94
464.536	99.94
464.755	112.94
464.975	114.94
465.195	121.94
465.414	118.94
465.634	127.94
465.854	125.94
466.073	118.94
466.293	125.94
466.512	113.94
466.732	131.94
466.951	145.94
467.171	133.94
467.391	130.94
467.61	141.94
467.829	137.94
468.049	139.94
468.268	115.94
468.488	131.94
468.707	144.94
468.927	133.94
469.146	107.94
469.365	142.94
469.585	147.94
469.804	127.94
470.023	135.94
470.243	147.94
470.462	147.94
470.681	155.94
470.901	141.94
471.12	121.94
471.339	141.94
471.558	146.94
471.777	152.94
471.997	126.94
472.216	114.94
472.435	116.94
472.654	100.94
472.873	108.94
473.092	118.94
473.311	127.94
473.53	119.94
473.749	118.94
473.968	118.94
474.187	132.94
474.406	116.94
474.625	117.94
474.844	130.94
475.063	127.94
475.282	123.94
475.501	121.94
475.72	116.94
475.939	115.94
476.158	121.94
476.377	123.94
476.596	113.94
476.814	119.94
477.033	113.94
477.252	108.94
477.471	130.94
477.69	132.94
477.908	133.94
478.127	132.94
478.346	137.94
478.564	129.94
478.783	133.94
479.002	140.94
479.22	129.94
479.439	142.94
479.658	122.94
479.876	104.94
480.095	113.94
480.313	113.94
480.532	115.94
480.751	108.94
480.969	115.94
481.188	81.94
481.406	101.94
481.624	96.94
481.843	93.94
482.061	104.94
482.28	115.94
482.498	114.94
482.717	91.94
482.935	119.94
483.153	138.94
483.372	158.94
483.59	161.94
483.808	151.94
484.027	127.94
484.245	134.94
484.463	157.94
484.681	147.94
484.9	137.94
485.118	123.94
485.336	124.94
485.554	98.94
485.772	84.94
485.99	105.94
486.209	95.94
486.427	118.94
486.645	116.94
486.863	127.94
487.081	137.94
487.299	137.94
487.517	131.94
487.735	163.94
487.953	188.94
488.171	175.94
488.389	166.94
488.607	167.94
488.825	131.94
489.043	127.94
489.261	144.94
489.479	142.94
489.696	139.94
489.914	130.94
490.132	139.94
490.35	143.94
490.568	157.94
490.786	159.94
491.003	159.94
491.221	184.94
491.439	179.94
491.657	175.94
491.874	203.94
492.092	222.94
492.31	213.94
492.527	220.94
492.745	187.94
492.963	172.94
493.18	179.94
493.398	193.94
493.615	172.94
493.833	171.94
494.05	160.94
494.268	166.94
494.485	174.94
494.703	175.94
494.92	183.94
495.138	186.94
495.355	162.94
495.573	156.94
495.79	160.94
496.008	141.94
496.225	159.94
496.442	146.94
496.66	163.94
496.877	153.94
497.094	163.94
497.312	143.94
497.529	151.94
497.746	149.94
497.963	145.94
498.181	133.94
498.398	126.94
498.615	124.94
498.832	120.94
499.049	125.94
499.267	140.94
499.484	125.94
499.701	141.94
499.918	130.94
500.135	139.94
500.352	139.94
500.569	155.94
500.786	139.94
501.003	135.94
501.22	119.94
501.437	141.94
501.654	136.94
501.871	132.94
502.088	127.94
502.305	129.94
502.522	122.94
502.739	113.94
502.956	118.94
503.172	134.94
503.389	112.94
503.606	129.94
503.823	113.94
504.04	115.94
504.256	128.94
504.473	116.94
504.69	120.94
504.907	127.94
505.123	115.94
505.34	124.94
505.557	119.94
505.773	130.94
505.99	129.94
506.207	119.94
506.423	120.94
506.64	122.94
506.856	105.94
507.073	115.94
507.289	118.94
507.506	117.94
507.722	101.94
507.939	124.94
508.155	133.94
508.372	106.94
508.588	101.94
508.805	118.94
509.021	101.94
509.238	105.94
509.454	123.94
509.67	108.94
509.887	87.94
510.103	91.94
510.319	105.94
510.536	84.94
510.752	83.94
510.968	69.94
511.184	83.94
511.401	78.94
511.617	77.94
511.833	85.94
