Data from Location4.07152019.Energy5.Lamp.07192019.3%Agarose_HRD10591_16-20-24-925.txt Node
Date: Fri Jul 19 16:20:24 EDT 2019
User: cochatt
Spectrometer: HR+D1059
Trigger mode: 1
Integration Time (sec): 1.000000E-1
Scans to average: 1
Electric dark correction enabled: true
Nonlinearity correction enabled: false
Boxcar width: 0
XAxis mode: Wavelengths
Number of Pixels in Spectrum: 2048
>>>>>Begin Spectral Data<<<<<
223.165	-19.56
223.4	-19.56
223.635	-19.56
223.869	-20.56
224.104	-17.56
224.338	-14.56
224.573	-4.56
224.808	2.44
225.042	4.44
225.277	-33.56
225.511	7.44
225.746	-0.56
225.98	2.44
226.215	22.44
226.449	13.44
226.683	22.44
226.918	14.44
227.152	21.44
227.387	39.44
227.621	45.44
227.856	51.44
228.09	52.44
228.324	49.44
228.559	42.44
228.793	59.44
229.027	58.44
229.262	68.44
229.496	62.44
229.73	54.44
229.964	77.44
230.199	79.44
230.433	78.44
230.667	70.44
230.901	74.44
231.136	92.44
231.37	78.44
231.604	86.44
231.838	73.44
232.072	69.44
232.306	78.44
232.541	64.44
232.775	85.44
233.009	90.44
233.243	68.44
233.477	78.44
233.711	87.44
233.945	91.44
234.179	76.44
234.413	93.44
234.647	83.44
234.881	83.44
235.115	87.44
235.349	93.44
235.583	82.44
235.817	90.44
236.051	82.44
236.285	86.44
236.519	95.44
236.753	74.44
236.987	80.44
237.221	78.44
237.455	63.44
237.689	83.44
237.922	75.44
238.156	87.44
238.39	69.44
238.624	69.44
238.858	91.44
239.091	74.44
239.325	65.44
239.559	73.44
239.793	71.44
240.027	70.44
240.26	76.44
240.494	86.44
240.728	66.44
240.961	68.44
241.195	89.44
241.429	70.44
241.662	70.44
241.896	84.44
242.13	80.44
242.363	77.44
242.597	79.44
242.83	71.44
243.064	84.44
243.298	80.44
243.531	73.44
243.765	73.44
243.998	69.44
244.232	90.44
244.465	78.44
244.699	87.44
244.932	65.44
245.166	83.44
245.399	83.44
245.633	81.44
245.866	75.44
246.099	73.44
246.333	86.44
246.566	73.44
246.8	78.44
247.033	89.44
247.266	74.44
247.5	86.44
247.733	80.44
247.966	72.44
248.2	106.44
248.433	83.44
248.666	73.44
248.899	87.44
249.133	84.44
249.366	91.44
249.599	81.44
249.832	90.44
250.066	84.44
250.299	82.44
250.532	73.44
250.765	59.44
250.998	83.44
251.231	83.44
251.465	72.44
251.698	81.44
251.931	82.44
252.164	72.44
252.397	83.44
252.63	78.44
252.863	85.44
253.096	73.44
253.329	87.44
253.562	77.44
253.795	76.44
254.028	66.44
254.261	74.44
254.494	76.44
254.727	75.44
254.96	87.44
255.193	85.44
255.426	71.44
255.659	87.44
255.892	86.44
256.124	83.44
256.357	88.44
256.59	70.44
256.823	81.44
257.056	85.44
257.289	72.44
257.521	69.44
257.754	72.44
257.987	75.44
258.22	86.44
258.452	77.44
258.685	82.44
258.918	74.44
259.151	95.44
259.383	72.44
259.616	77.44
259.849	76.44
260.081	91.44
260.314	83.44
260.547	82.44
260.779	89.44
261.012	95.44
261.244	93.44
261.477	93.44
261.71	84.44
261.942	79.44
262.175	82.44
262.407	77.44
262.64	82.44
262.872	87.44
263.105	83.44
263.337	72.44
263.57	75.44
263.802	75.44
264.035	84.44
264.267	88.44
264.499	80.44
264.732	93.44
264.964	86.44
265.197	99.44
265.429	86.44
265.661	90.44
265.894	89.44
266.126	79.44
266.358	79.44
266.591	74.44
266.823	83.44
267.055	89.44
267.287	71.44
267.52	91.44
267.752	86.44
267.984	81.44
268.216	73.44
268.448	89.44
268.681	80.44
268.913	78.44
269.145	79.44
269.377	94.44
269.609	84.44
269.841	100.44
270.073	93.44
270.306	64.44
270.538	82.44
270.77	83.44
271.002	90.44
271.234	81.44
271.466	79.44
271.698	87.44
271.93	87.44
272.162	89.44
272.394	88.44
272.626	87.44
272.858	86.44
273.09	80.44
273.322	85.44
273.553	85.44
273.785	77.44
274.017	99.44
274.249	78.44
274.481	87.44
274.713	84.44
274.945	86.44
275.176	85.44
275.408	81.44
275.64	91.44
275.872	93.44
276.104	69.44
276.335	85.44
276.567	91.44
276.799	82.44
277.031	77.44
277.262	89.44
277.494	97.44
277.726	88.44
277.957	89.44
278.189	86.44
278.421	77.44
278.652	82.44
278.884	77.44
279.115	70.44
279.347	85.44
279.579	91.44
279.81	87.44
280.042	75.44
280.273	80.44
280.505	83.44
280.736	95.44
280.968	79.44
281.199	86.44
281.431	61.44
281.662	80.44
281.894	98.44
282.125	85.44
282.356	77.44
282.588	74.44
282.819	81.44
283.051	88.44
283.282	86.44
283.513	88.44
283.745	73.44
283.976	90.44
284.207	88.44
284.439	100.44
284.67	89.44
284.901	88.44
285.132	82.44
285.364	78.44
285.595	83.44
285.826	70.44
286.057	89.44
286.288	86.44
286.52	89.44
286.751	76.44
286.982	69.44
287.213	89.44
287.444	77.44
287.675	90.44
287.906	87.44
288.138	74.44
288.369	83.44
288.6	95.44
288.831	89.44
289.062	92.44
289.293	80.44
289.524	74.44
289.755	77.44
289.986	77.44
290.217	75.44
290.448	77.44
290.679	87.44
290.91	87.44
291.141	68.44
291.371	87.44
291.602	81.44
291.833	90.44
292.064	89.44
292.295	87.44
292.526	79.44
292.757	79.44
292.987	91.44
293.218	69.44
293.449	85.44
293.68	94.44
293.91	78.44
294.141	65.44
294.372	99.44
294.603	71.44
294.833	97.44
295.064	82.44
295.295	86.44
295.525	87.44
295.756	85.44
295.987	84.44
296.217	85.44
296.448	85.44
296.679	81.44
296.909	96.44
297.14	98.44
297.37	79.44
297.601	82.44
297.831	97.44
298.062	98.44
298.292	95.44
298.523	88.44
298.753	76.44
298.984	74.44
299.214	78.44
299.445	76.44
299.675	92.44
299.905	86.44
300.136	86.44
300.366	90.44
300.597	87.44
300.827	85.44
301.057	77.44
301.288	78.44
301.518	84.44
301.748	75.44
301.979	79.44
302.209	78.44
302.439	92.44
302.669	82.44
302.9	75.44
303.13	90.44
303.36	88.44
303.59	96.44
303.82	86.44
304.051	81.44
304.281	77.44
304.511	80.44
304.741	93.44
304.971	78.44
305.201	95.44
305.431	92.44
305.661	79.44
305.891	99.44
306.121	80.44
306.352	71.44
306.582	77.44
306.812	91.44
307.042	86.44
307.272	87.44
307.502	83.44
307.731	77.44
307.961	89.44
308.191	82.44
308.421	74.44
308.651	86.44
308.881	89.44
309.111	92.44
309.341	82.44
309.571	91.44
309.8	87.44
310.03	92.44
310.26	89.44
310.49	96.44
310.72	84.44
310.949	91.44
311.179	76.44
311.409	88.44
311.639	91.44
311.868	77.44
312.098	85.44
312.328	85.44
312.557	83.44
312.787	95.44
313.017	91.44
313.246	81.44
313.476	76.44
313.706	92.44
313.935	95.44
314.165	82.44
314.394	80.44
314.624	77.44
314.853	86.44
315.083	75.44
315.312	90.44
315.542	81.44
315.771	83.44
316.001	78.44
316.23	78.44
316.46	79.44
316.689	84.44
316.919	85.44
317.148	78.44
317.377	83.44
317.607	101.44
317.836	96.44
318.065	89.44
318.295	78.44
318.524	83.44
318.753	95.44
318.983	100.44
319.212	85.44
319.441	72.44
319.67	83.44
319.9	82.44
320.129	88.44
320.358	80.44
320.587	65.44
320.816	95.44
321.046	93.44
321.275	88.44
321.504	87.44
321.733	90.44
321.962	88.44
322.191	91.44
322.42	94.44
322.649	85.44
322.878	86.44
323.108	85.44
323.337	60.44
323.566	90.44
323.795	90.44
324.024	84.44
324.253	83.44
324.482	79.44
324.71	93.44
324.939	76.44
325.168	87.44
325.397	85.44
325.626	92.44
325.855	83.44
326.084	88.44
326.313	87.44
326.542	85.44
326.77	85.44
326.999	85.44
327.228	67.44
327.457	77.44
327.686	81.44
327.914	60.44
328.143	93.44
328.372	67.44
328.6	93.44
328.829	83.44
329.058	77.44
329.287	74.44
329.515	81.44
329.744	90.44
329.972	83.44
330.201	99.44
330.43	83.44
330.658	90.44
330.887	85.44
331.115	90.44
331.344	87.44
331.572	89.44
331.801	86.44
332.03	77.44
332.258	93.44
332.486	79.44
332.715	67.44
332.943	76.44
333.172	75.44
333.4	87.44
333.629	84.44
333.857	78.44
334.085	90.44
334.314	94.44
334.542	82.44
334.771	78.44
334.999	79.44
335.227	78.44
335.455	92.44
335.684	77.44
335.912	94.44
336.14	70.44
336.369	85.44
336.597	71.44
336.825	90.44
337.053	106.44
337.281	91.44
337.51	88.44
337.738	96.44
337.966	87.44
338.194	82.44
338.422	83.44
338.65	87.44
338.878	96.44
339.106	102.44
339.334	88.44
339.562	89.44
339.79	89.44
340.018	93.44
340.246	97.44
340.474	88.44
340.702	83.44
340.93	87.44
341.158	89.44
341.386	87.44
341.614	75.44
341.842	91.44
342.07	79.44
342.298	86.44
342.526	91.44
342.754	89.44
342.981	96.44
343.209	76.44
343.437	105.44
343.665	87.44
343.893	97.44
344.12	89.44
344.348	76.44
344.576	76.44
344.804	86.44
345.031	76.44
345.259	90.44
345.487	80.44
345.714	91.44
345.942	75.44
346.17	85.44
346.397	88.44
346.625	78.44
346.853	81.44
347.08	92.44
347.308	90.44
347.535	85.44
347.763	82.44
347.99	88.44
348.218	76.44
348.445	76.44
348.673	72.44
348.9	85.44
349.128	84.44
349.355	84.44
349.583	101.44
349.81	78.44
350.037	73.44
350.265	85.44
350.492	73.44
350.72	79.44
350.947	96.44
351.174	82.44
351.402	69.44
351.629	75.44
351.856	76.44
352.083	90.44
352.311	73.44
352.538	83.44
352.765	88.44
352.992	88.44
353.22	90.44
353.447	101.44
353.674	83.44
353.901	77.44
354.128	89.44
354.355	93.44
354.583	82.44
354.81	90.44
355.037	83.44
355.264	79.44
355.491	88.44
355.718	101.44
355.945	81.44
356.172	84.44
356.399	82.44
356.626	72.44
356.853	81.44
357.08	80.44
357.307	76.44
357.534	70.44
357.761	75.44
357.988	96.44
358.215	82.44
358.441	83.44
358.668	95.44
358.895	80.44
359.122	90.44
359.349	87.44
359.576	71.44
359.802	82.44
360.029	92.44
360.256	96.44
360.483	94.44
360.709	87.44
360.936	90.44
361.163	84.44
361.39	82.44
361.616	85.44
361.843	79.44
362.07	87.44
362.296	88.44
362.523	79.44
362.749	81.44
362.976	88.44
363.203	95.44
363.429	93.44
363.656	75.44
363.882	79.44
364.109	95.44
364.335	91.44
364.562	85.44
364.788	90.44
365.015	96.44
365.241	93.44
365.468	89.44
365.694	79.44
365.92	93.44
366.147	87.44
366.373	85.44
366.599	94.44
366.826	83.44
367.052	86.44
367.278	91.44
367.505	82.44
367.731	86.44
367.957	66.44
368.184	89.44
368.41	86.44
368.636	89.44
368.862	92.44
369.089	86.44
369.315	90.44
369.541	100.44
369.767	103.44
369.993	89.44
370.219	91.44
370.445	95.44
370.672	94.44
370.898	94.44
371.124	95.44
371.35	69.44
371.576	85.44
371.802	83.44
372.028	97.44
372.254	85.44
372.48	93.44
372.706	85.44
372.932	99.44
373.158	85.44
373.384	114.44
373.61	107.44
373.835	93.44
374.061	99.44
374.287	90.44
374.513	90.44
374.739	92.44
374.965	86.44
375.191	97.44
375.416	105.44
375.642	92.44
375.868	85.44
376.094	87.44
376.319	93.44
376.545	106.44
376.771	91.44
376.997	75.44
377.222	79.44
377.448	102.44
377.674	85.44
377.899	95.44
378.125	94.44
378.35	96.44
378.576	100.44
378.802	89.44
379.027	95.44
379.253	96.44
379.478	102.44
379.704	92.44
379.929	85.44
380.155	84.44
380.38	91.44
380.606	102.44
380.831	102.44
381.057	100.44
381.282	104.44
381.507	85.44
381.733	91.44
381.958	101.44
382.184	89.44
382.409	89.44
382.634	83.44
382.86	81.44
383.085	89.44
383.31	92.44
383.535	113.44
383.761	100.44
383.986	102.44
384.211	84.44
384.436	94.44
384.662	102.44
384.887	86.44
385.112	93.44
385.337	97.44
385.562	96.44
385.787	116.44
386.013	107.44
386.238	94.44
386.463	104.44
386.688	107.44
386.913	110.44
387.138	102.44
387.363	102.44
387.588	100.44
387.813	93.44
388.038	101.44
388.263	108.44
388.488	94.44
388.713	107.44
388.938	101.44
389.163	102.44
389.387	91.44
389.612	99.44
389.837	95.44
390.062	98.44
390.287	90.44
390.512	116.44
390.736	96.44
390.961	99.44
391.186	102.44
391.411	89.44
391.636	105.44
391.86	104.44
392.085	111.44
392.31	110.44
392.534	113.44
392.759	93.44
392.984	99.44
393.208	85.44
393.433	115.44
393.658	85.44
393.882	83.44
394.107	111.44
394.331	109.44
394.556	108.44
394.78	122.44
395.005	106.44
395.229	104.44
395.454	96.44
395.678	99.44
395.903	95.44
396.127	109.44
396.352	115.44
396.576	98.44
396.801	89.44
397.025	97.44
397.249	119.44
397.474	108.44
397.698	115.44
397.922	112.44
398.147	118.44
398.371	106.44
398.595	110.44
398.82	98.44
399.044	109.44
399.268	106.44
399.492	104.44
399.717	106.44
399.941	108.44
400.165	115.44
400.389	93.44
400.613	108.44
400.837	106.44
401.062	106.44
401.286	105.44
401.51	115.44
401.734	113.44
401.958	103.44
402.182	109.44
402.406	103.44
402.63	96.44
402.854	110.44
403.078	111.44
403.302	119.44
403.526	118.44
403.75	107.44
403.974	115.44
404.198	125.44
404.422	119.44
404.645	105.44
404.869	120.44
405.093	111.44
405.317	113.44
405.541	119.44
405.765	121.44
405.988	121.44
406.212	125.44
406.436	101.44
406.66	120.44
406.883	126.44
407.107	102.44
407.331	116.44
407.555	113.44
407.778	113.44
408.002	110.44
408.226	111.44
408.449	111.44
408.673	115.44
408.896	111.44
409.12	116.44
409.344	126.44
409.567	120.44
409.791	121.44
410.014	124.44
410.238	123.44
410.461	126.44
410.685	110.44
410.908	120.44
411.132	121.44
411.355	126.44
411.578	125.44
411.802	120.44
412.025	107.44
412.249	121.44
412.472	120.44
412.695	115.44
412.919	125.44
413.142	121.44
413.365	107.44
413.589	120.44
413.812	105.44
414.035	129.44
414.258	106.44
414.482	119.44
414.705	123.44
414.928	122.44
415.151	127.44
415.374	111.44
415.597	111.44
415.821	109.44
416.044	110.44
416.267	125.44
416.49	126.44
416.713	122.44
416.936	117.44
417.159	122.44
417.382	116.44
417.605	117.44
417.828	123.44
418.051	140.44
418.274	129.44
418.497	106.44
418.72	119.44
418.943	140.44
419.166	139.44
419.389	141.44
419.611	118.44
419.834	144.44
420.057	131.44
420.28	122.44
420.503	125.44
420.726	136.44
420.948	116.44
421.171	133.44
421.394	130.44
421.617	127.44
421.839	141.44
422.062	135.44
422.285	128.44
422.507	127.44
422.73	127.44
422.953	121.44
423.175	115.44
423.398	125.44
423.621	130.44
423.843	120.44
424.066	141.44
424.288	137.44
424.511	142.44
424.733	129.44
424.956	131.44
425.178	147.44
425.401	131.44
425.623	136.44
425.846	129.44
426.068	117.44
426.291	140.44
426.513	129.44
426.735	115.44
426.958	127.44
427.18	129.44
427.402	139.44
427.625	120.44
427.847	110.44
428.069	115.44
428.292	134.44
428.514	130.44
428.736	133.44
428.958	122.44
429.181	129.44
429.403	133.44
429.625	132.44
429.847	143.44
430.069	125.44
430.292	133.44
430.514	127.44
430.736	110.44
430.958	123.44
431.18	110.44
431.402	122.44
431.624	113.44
431.846	111.44
432.068	99.44
432.29	99.44
432.512	110.44
432.734	127.44
432.956	118.44
433.178	134.44
433.4	135.44
433.622	139.44
433.844	132.44
434.066	121.44
434.287	113.44
434.509	106.44
434.731	85.44
434.953	103.44
435.175	106.44
435.397	128.44
435.618	117.44
435.84	114.44
436.062	110.44
436.284	122.44
436.505	123.44
436.727	126.44
436.949	126.44
437.17	124.44
437.392	120.44
437.614	116.44
437.835	114.44
438.057	130.44
438.278	111.44
438.5	122.44
438.721	143.44
438.943	122.44
439.165	134.44
439.386	149.44
439.608	150.44
439.829	140.44
440.05	151.44
440.272	143.44
440.493	141.44
440.715	148.44
440.936	137.44
441.158	136.44
441.379	125.44
441.6	153.44
441.822	139.44
442.043	144.44
442.264	133.44
442.486	140.44
442.707	137.44
442.928	135.44
443.149	132.44
443.371	137.44
443.592	126.44
443.813	122.44
444.034	141.44
444.255	134.44
444.476	131.44
444.698	138.44
444.919	147.44
445.14	276.44
445.361	201.44
445.582	143.44
445.803	131.44
446.024	160.44
446.245	150.44
446.466	151.44
446.687	163.44
446.908	157.44
447.129	175.44
447.35	159.44
447.571	147.44
447.792	150.44
448.013	143.44
448.234	141.44
448.455	139.44
448.675	140.44
448.896	148.44
449.117	128.44
449.338	140.44
449.559	139.44
449.779	145.44
450	134.44
450.221	129.44
450.442	133.44
450.662	136.44
450.883	130.44
451.104	131.44
451.324	118.44
451.545	135.44
451.766	114.44
451.986	121.44
452.207	122.44
452.428	131.44
452.648	129.44
452.869	110.44
453.089	118.44
453.31	110.44
453.53	115.44
453.751	105.44
453.971	101.44
454.192	105.44
454.412	105.44
454.633	119.44
454.853	111.44
455.073	116.44
455.294	114.44
455.514	119.44
455.734	118.44
455.955	125.44
456.175	126.44
456.395	123.44
456.616	105.44
456.836	121.44
457.056	103.44
457.276	99.44
457.497	104.44
457.717	94.44
457.937	108.44
458.157	112.44
458.377	108.44
458.598	100.44
458.818	92.44
459.038	98.44
459.258	93.44
459.478	80.44
459.698	89.44
459.918	98.44
460.138	113.44
460.358	121.44
460.578	117.44
460.798	103.44
461.018	107.44
461.238	123.44
461.458	104.44
461.678	119.44
461.898	114.44
462.118	115.44
462.338	119.44
462.558	118.44
462.777	116.44
462.997	107.44
463.217	99.44
463.437	124.44
463.657	117.44
463.876	102.44
464.096	88.44
464.316	108.44
464.536	118.44
464.755	107.44
464.975	115.44
465.195	113.44
465.414	123.44
465.634	105.44
465.854	104.44
466.073	117.44
466.293	128.44
466.512	121.44
466.732	117.44
466.951	131.44
467.171	144.44
467.391	163.44
467.61	140.44
467.829	125.44
468.049	122.44
468.268	131.44
468.488	138.44
468.707	141.44
468.927	128.44
469.146	127.44
469.365	141.44
469.585	121.44
469.804	136.44
470.023	135.44
470.243	149.44
470.462	131.44
470.681	137.44
470.901	134.44
471.12	142.44
471.339	142.44
471.558	135.44
471.777	133.44
471.997	142.44
472.216	129.44
472.435	127.44
472.654	113.44
472.873	108.44
473.092	104.44
473.311	121.44
473.53	129.44
473.749	132.44
473.968	117.44
474.187	118.44
474.406	113.44
474.625	118.44
474.844	140.44
475.063	125.44
475.282	129.44
475.501	127.44
475.72	120.44
475.939	126.44
476.158	133.44
476.377	131.44
476.596	120.44
476.814	109.44
477.033	113.44
477.252	108.44
477.471	111.44
477.69	138.44
477.908	132.44
478.127	141.44
478.346	140.44
478.564	139.44
478.783	131.44
479.002	124.44
479.22	134.44
479.439	137.44
479.658	126.44
479.876	110.44
480.095	101.44
480.313	125.44
480.532	110.44
480.751	115.44
480.969	89.44
481.188	83.44
481.406	99.44
481.624	82.44
481.843	74.44
482.061	106.44
482.28	124.44
482.498	113.44
482.717	114.44
482.935	123.44
483.153	131.44
483.372	147.44
483.59	136.44
483.808	141.44
484.027	126.44
484.245	123.44
484.463	144.44
484.681	151.44
484.9	144.44
485.118	143.44
485.336	133.44
485.554	92.44
485.772	102.44
485.99	97.44
486.209	99.44
486.427	99.44
486.645	138.44
486.863	153.44
487.081	133.44
487.299	132.44
487.517	130.44
487.735	174.44
487.953	165.44
488.171	173.44
488.389	171.44
488.607	163.44
488.825	127.44
489.043	131.44
489.261	123.44
489.479	139.44
489.696	149.44
489.914	147.44
490.132	146.44
490.35	133.44
490.568	157.44
490.786	155.44
491.003	173.44
491.221	161.44
491.439	184.44
491.657	178.44
491.874	195.44
492.092	209.44
492.31	239.44
492.527	221.44
492.745	193.44
492.963	185.44
493.18	191.44
493.398	198.44
493.615	173.44
493.833	157.44
494.05	170.44
494.268	161.44
494.485	150.44
494.703	164.44
494.92	152.44
495.138	157.44
495.355	163.44
495.573	165.44
495.79	168.44
496.008	185.44
496.225	166.44
496.442	157.44
496.66	170.44
496.877	160.44
497.094	166.44
497.312	153.44
497.529	173.44
497.746	137.44
497.963	130.44
498.181	111.44
498.398	126.44
498.615	134.44
498.832	113.44
499.049	119.44
499.267	131.44
499.484	131.44
499.701	134.44
499.918	129.44
500.135	135.44
500.352	140.44
500.569	147.44
500.786	149.44
501.003	121.44
501.22	132.44
501.437	144.44
501.654	145.44
501.871	128.44
502.088	122.44
502.305	128.44
502.522	129.44
502.739	134.44
502.956	133.44
503.172	129.44
503.389	107.44
503.606	111.44
503.823	124.44
504.04	125.44
504.256	113.44
504.473	117.44
504.69	119.44
504.907	124.44
505.123	125.44
505.34	134.44
505.557	120.44
505.773	120.44
505.99	119.44
506.207	113.44
506.423	109.44
506.64	123.44
506.856	121.44
507.073	130.44
507.289	118.44
507.506	120.44
507.722	124.44
507.939	117.44
508.155	123.44
508.372	117.44
508.588	115.44
508.805	121.44
509.021	118.44
509.238	113.44
509.454	115.44
509.67	99.44
509.887	91.44
510.103	114.44
510.319	89.44
510.536	87.44
510.752	99.44
510.968	98.44
511.184	88.44
511.401	90.44
511.617	87.44
