Data from Location4.07152019.Energy5.Lamp.07192019.3%Agarose_HRD10591_16-18-27-925.txt Node
Date: Fri Jul 19 16:18:27 EDT 2019
User: cochatt
Spectrometer: HR+D1059
Trigger mode: 1
Integration Time (sec): 1.000000E-1
Scans to average: 1
Electric dark correction enabled: true
Nonlinearity correction enabled: false
Boxcar width: 0
XAxis mode: Wavelengths
Number of Pixels in Spectrum: 2048
>>>>>Begin Spectral Data<<<<<
223.165	-11.12
223.4	-11.12
223.635	-11.12
223.869	-15.12
224.104	-34.12
224.338	-19.12
224.573	-17.12
224.808	-15.12
225.042	2.88
225.277	-9.12
225.511	1.88
225.746	10.88
225.98	-4.12
226.215	19.88
226.449	2.88
226.683	19.88
226.918	34.88
227.152	31.88
227.387	48.88
227.621	33.88
227.856	27.88
228.09	47.88
228.324	43.88
228.559	54.88
228.793	62.88
229.027	61.88
229.262	68.88
229.496	67.88
229.73	73.88
229.964	65.88
230.199	85.88
230.433	76.88
230.667	82.88
230.901	90.88
231.136	91.88
231.37	80.88
231.604	79.88
231.838	84.88
232.072	83.88
232.306	77.88
232.541	73.88
232.775	85.88
233.009	81.88
233.243	78.88
233.477	72.88
233.711	91.88
233.945	74.88
234.179	95.88
234.413	76.88
234.647	88.88
234.881	82.88
235.115	82.88
235.349	70.88
235.583	74.88
235.817	73.88
236.051	87.88
236.285	88.88
236.519	82.88
236.753	89.88
236.987	81.88
237.221	82.88
237.455	99.88
237.689	84.88
237.922	80.88
238.156	80.88
238.39	79.88
238.624	92.88
238.858	87.88
239.091	75.88
239.325	91.88
239.559	75.88
239.793	78.88
240.027	76.88
240.26	77.88
240.494	67.88
240.728	78.88
240.961	82.88
241.195	78.88
241.429	73.88
241.662	70.88
241.896	79.88
242.13	78.88
242.363	66.88
242.597	67.88
242.83	80.88
243.064	64.88
243.298	70.88
243.531	77.88
243.765	88.88
243.998	82.88
244.232	82.88
244.465	87.88
244.699	74.88
244.932	68.88
245.166	87.88
245.399	86.88
245.633	80.88
245.866	72.88
246.099	86.88
246.333	86.88
246.566	85.88
246.8	82.88
247.033	84.88
247.266	82.88
247.5	90.88
247.733	80.88
247.966	90.88
248.2	80.88
248.433	77.88
248.666	91.88
248.899	82.88
249.133	77.88
249.366	90.88
249.599	84.88
249.832	77.88
250.066	90.88
250.299	81.88
250.532	73.88
250.765	80.88
250.998	98.88
251.231	74.88
251.465	93.88
251.698	78.88
251.931	64.88
252.164	86.88
252.397	78.88
252.63	84.88
252.863	83.88
253.096	79.88
253.329	91.88
253.562	84.88
253.795	87.88
254.028	72.88
254.261	76.88
254.494	71.88
254.727	91.88
254.96	81.88
255.193	77.88
255.426	85.88
255.659	76.88
255.892	86.88
256.124	77.88
256.357	81.88
256.59	70.88
256.823	69.88
257.056	91.88
257.289	89.88
257.521	78.88
257.754	83.88
257.987	84.88
258.22	86.88
258.452	93.88
258.685	86.88
258.918	79.88
259.151	83.88
259.383	81.88
259.616	101.88
259.849	80.88
260.081	86.88
260.314	104.88
260.547	92.88
260.779	68.88
261.012	79.88
261.244	86.88
261.477	96.88
261.71	76.88
261.942	81.88
262.175	76.88
262.407	77.88
262.64	73.88
262.872	74.88
263.105	70.88
263.337	88.88
263.57	82.88
263.802	79.88
264.035	75.88
264.267	77.88
264.499	83.88
264.732	86.88
264.964	95.88
265.197	89.88
265.429	78.88
265.661	82.88
265.894	81.88
266.126	76.88
266.358	87.88
266.591	87.88
266.823	80.88
267.055	73.88
267.287	82.88
267.52	81.88
267.752	94.88
267.984	69.88
268.216	74.88
268.448	85.88
268.681	102.88
268.913	92.88
269.145	80.88
269.377	89.88
269.609	97.88
269.841	92.88
270.073	87.88
270.306	82.88
270.538	89.88
270.77	84.88
271.002	85.88
271.234	94.88
271.466	96.88
271.698	87.88
271.93	80.88
272.162	81.88
272.394	77.88
272.626	67.88
272.858	75.88
273.09	92.88
273.322	89.88
273.553	90.88
273.785	100.88
274.017	84.88
274.249	89.88
274.481	88.88
274.713	74.88
274.945	94.88
275.176	96.88
275.408	82.88
275.64	89.88
275.872	80.88
276.104	81.88
276.335	95.88
276.567	78.88
276.799	84.88
277.031	89.88
277.262	83.88
277.494	93.88
277.726	97.88
277.957	76.88
278.189	70.88
278.421	73.88
278.652	79.88
278.884	84.88
279.115	86.88
279.347	83.88
279.579	88.88
279.81	84.88
280.042	79.88
280.273	82.88
280.505	82.88
280.736	93.88
280.968	80.88
281.199	86.88
281.431	82.88
281.662	84.88
281.894	86.88
282.125	102.88
282.356	85.88
282.588	75.88
282.819	71.88
283.051	87.88
283.282	81.88
283.513	81.88
283.745	83.88
283.976	71.88
284.207	91.88
284.439	91.88
284.67	85.88
284.901	106.88
285.132	77.88
285.364	82.88
285.595	96.88
285.826	88.88
286.057	81.88
286.288	89.88
286.52	88.88
286.751	81.88
286.982	98.88
287.213	91.88
287.444	89.88
287.675	94.88
287.906	100.88
288.138	98.88
288.369	97.88
288.6	76.88
288.831	90.88
289.062	102.88
289.293	82.88
289.524	92.88
289.755	81.88
289.986	90.88
290.217	96.88
290.448	85.88
290.679	86.88
290.91	86.88
291.141	87.88
291.371	85.88
291.602	84.88
291.833	82.88
292.064	79.88
292.295	76.88
292.526	90.88
292.757	83.88
292.987	92.88
293.218	75.88
293.449	97.88
293.68	88.88
293.91	79.88
294.141	85.88
294.372	94.88
294.603	90.88
294.833	82.88
295.064	88.88
295.295	88.88
295.525	91.88
295.756	91.88
295.987	84.88
296.217	80.88
296.448	77.88
296.679	85.88
296.909	100.88
297.14	104.88
297.37	101.88
297.601	97.88
297.831	86.88
298.062	65.88
298.292	78.88
298.523	79.88
298.753	85.88
298.984	77.88
299.214	85.88
299.445	86.88
299.675	81.88
299.905	88.88
300.136	85.88
300.366	78.88
300.597	69.88
300.827	82.88
301.057	91.88
301.288	93.88
301.518	80.88
301.748	84.88
301.979	88.88
302.209	72.88
302.439	74.88
302.669	87.88
302.9	89.88
303.13	96.88
303.36	82.88
303.59	86.88
303.82	88.88
304.051	93.88
304.281	87.88
304.511	96.88
304.741	105.88
304.971	76.88
305.201	92.88
305.431	80.88
305.661	92.88
305.891	75.88
306.121	92.88
306.352	87.88
306.582	88.88
306.812	85.88
307.042	92.88
307.272	85.88
307.502	87.88
307.731	85.88
307.961	97.88
308.191	106.88
308.421	101.88
308.651	86.88
308.881	86.88
309.111	81.88
309.341	81.88
309.571	88.88
309.8	76.88
310.03	80.88
310.26	86.88
310.49	91.88
310.72	86.88
310.949	84.88
311.179	95.88
311.409	86.88
311.639	74.88
311.868	86.88
312.098	90.88
312.328	88.88
312.557	98.88
312.787	97.88
313.017	72.88
313.246	94.88
313.476	84.88
313.706	78.88
313.935	79.88
314.165	90.88
314.394	85.88
314.624	98.88
314.853	91.88
315.083	106.88
315.312	75.88
315.542	80.88
315.771	81.88
316.001	94.88
316.23	85.88
316.46	88.88
316.689	89.88
316.919	83.88
317.148	85.88
317.377	101.88
317.607	80.88
317.836	81.88
318.065	95.88
318.295	74.88
318.524	96.88
318.753	83.88
318.983	95.88
319.212	92.88
319.441	86.88
319.67	88.88
319.9	85.88
320.129	86.88
320.358	82.88
320.587	91.88
320.816	84.88
321.046	102.88
321.275	81.88
321.504	77.88
321.733	91.88
321.962	87.88
322.191	87.88
322.42	82.88
322.649	103.88
322.878	106.88
323.108	95.88
323.337	90.88
323.566	97.88
323.795	95.88
324.024	83.88
324.253	88.88
324.482	79.88
324.71	82.88
324.939	77.88
325.168	101.88
325.397	84.88
325.626	83.88
325.855	98.88
326.084	93.88
326.313	91.88
326.542	89.88
326.77	92.88
326.999	88.88
327.228	92.88
327.457	98.88
327.686	107.88
327.914	94.88
328.143	91.88
328.372	91.88
328.6	86.88
328.829	75.88
329.058	88.88
329.287	106.88
329.515	89.88
329.744	77.88
329.972	92.88
330.201	97.88
330.43	104.88
330.658	89.88
330.887	92.88
331.115	95.88
331.344	98.88
331.572	110.88
331.801	89.88
332.03	88.88
332.258	70.88
332.486	76.88
332.715	82.88
332.943	88.88
333.172	89.88
333.4	98.88
333.629	84.88
333.857	93.88
334.085	82.88
334.314	85.88
334.542	90.88
334.771	91.88
334.999	86.88
335.227	73.88
335.455	96.88
335.684	81.88
335.912	87.88
336.14	72.88
336.369	90.88
336.597	98.88
336.825	92.88
337.053	73.88
337.281	101.88
337.51	98.88
337.738	94.88
337.966	92.88
338.194	85.88
338.422	97.88
338.65	83.88
338.878	78.88
339.106	95.88
339.334	100.88
339.562	86.88
339.79	99.88
340.018	86.88
340.246	97.88
340.474	91.88
340.702	79.88
340.93	86.88
341.158	88.88
341.386	90.88
341.614	98.88
341.842	94.88
342.07	93.88
342.298	93.88
342.526	92.88
342.754	94.88
342.981	81.88
343.209	79.88
343.437	88.88
343.665	87.88
343.893	94.88
344.12	94.88
344.348	81.88
344.576	89.88
344.804	82.88
345.031	79.88
345.259	96.88
345.487	97.88
345.714	88.88
345.942	88.88
346.17	99.88
346.397	89.88
346.625	85.88
346.853	88.88
347.08	93.88
347.308	79.88
347.535	81.88
347.763	88.88
347.99	88.88
348.218	91.88
348.445	92.88
348.673	89.88
348.9	92.88
349.128	101.88
349.355	104.88
349.583	87.88
349.81	86.88
350.037	81.88
350.265	78.88
350.492	90.88
350.72	85.88
350.947	94.88
351.174	81.88
351.402	80.88
351.629	94.88
351.856	92.88
352.083	80.88
352.311	83.88
352.538	92.88
352.765	88.88
352.992	93.88
353.22	87.88
353.447	93.88
353.674	84.88
353.901	91.88
354.128	105.88
354.355	79.88
354.583	92.88
354.81	79.88
355.037	77.88
355.264	74.88
355.491	84.88
355.718	87.88
355.945	105.88
356.172	87.88
356.399	91.88
356.626	73.88
356.853	88.88
357.08	91.88
357.307	95.88
357.534	94.88
357.761	83.88
357.988	94.88
358.215	98.88
358.441	82.88
358.668	92.88
358.895	80.88
359.122	81.88
359.349	81.88
359.576	77.88
359.802	85.88
360.029	90.88
360.256	85.88
360.483	101.88
360.709	88.88
360.936	83.88
361.163	81.88
361.39	93.88
361.616	88.88
361.843	88.88
362.07	80.88
362.296	88.88
362.523	77.88
362.749	84.88
362.976	96.88
363.203	104.88
363.429	88.88
363.656	80.88
363.882	90.88
364.109	85.88
364.335	80.88
364.562	82.88
364.788	86.88
365.015	94.88
365.241	94.88
365.468	75.88
365.694	70.88
365.92	81.88
366.147	89.88
366.373	96.88
366.599	95.88
366.826	91.88
367.052	99.88
367.278	89.88
367.505	86.88
367.731	94.88
367.957	88.88
368.184	94.88
368.41	96.88
368.636	100.88
368.862	87.88
369.089	92.88
369.315	93.88
369.541	87.88
369.767	101.88
369.993	95.88
370.219	92.88
370.445	88.88
370.672	89.88
370.898	101.88
371.124	104.88
371.35	94.88
371.576	100.88
371.802	79.88
372.028	86.88
372.254	97.88
372.48	95.88
372.706	89.88
372.932	91.88
373.158	95.88
373.384	89.88
373.61	99.88
373.835	89.88
374.061	89.88
374.287	88.88
374.513	76.88
374.739	100.88
374.965	110.88
375.191	90.88
375.416	86.88
375.642	89.88
375.868	95.88
376.094	104.88
376.319	106.88
376.545	109.88
376.771	106.88
376.997	100.88
377.222	96.88
377.448	100.88
377.674	102.88
377.899	109.88
378.125	102.88
378.35	98.88
378.576	94.88
378.802	93.88
379.027	102.88
379.253	94.88
379.478	98.88
379.704	98.88
379.929	100.88
380.155	101.88
380.38	106.88
380.606	103.88
380.831	94.88
381.057	101.88
381.282	87.88
381.507	88.88
381.733	89.88
381.958	104.88
382.184	105.88
382.409	98.88
382.634	107.88
382.86	97.88
383.085	105.88
383.31	108.88
383.535	100.88
383.761	101.88
383.986	97.88
384.211	92.88
384.436	96.88
384.662	108.88
384.887	90.88
385.112	99.88
385.337	97.88
385.562	96.88
385.787	110.88
386.013	97.88
386.238	89.88
386.463	94.88
386.688	98.88
386.913	103.88
387.138	114.88
387.363	101.88
387.588	93.88
387.813	109.88
388.038	96.88
388.263	110.88
388.488	111.88
388.713	101.88
388.938	118.88
389.163	107.88
389.387	105.88
389.612	89.88
389.837	112.88
390.062	94.88
390.287	101.88
390.512	89.88
390.736	95.88
390.961	107.88
391.186	97.88
391.411	94.88
391.636	108.88
391.86	108.88
392.085	95.88
392.31	106.88
392.534	102.88
392.759	107.88
392.984	91.88
393.208	110.88
393.433	97.88
393.658	105.88
393.882	119.88
394.107	114.88
394.331	116.88
394.556	124.88
394.78	112.88
395.005	96.88
395.229	107.88
395.454	102.88
395.678	104.88
395.903	102.88
396.127	111.88
396.352	96.88
396.576	106.88
396.801	106.88
397.025	110.88
397.249	112.88
397.474	109.88
397.698	107.88
397.922	113.88
398.147	111.88
398.371	111.88
398.595	97.88
398.82	110.88
399.044	112.88
399.268	124.88
399.492	119.88
399.717	121.88
399.941	121.88
400.165	124.88
400.389	106.88
400.613	106.88
400.837	112.88
401.062	118.88
401.286	118.88
401.51	109.88
401.734	88.88
401.958	111.88
402.182	120.88
402.406	107.88
402.63	116.88
402.854	116.88
403.078	125.88
403.302	107.88
403.526	115.88
403.75	118.88
403.974	122.88
404.198	122.88
404.422	121.88
404.645	105.88
404.869	120.88
405.093	124.88
405.317	115.88
405.541	113.88
405.765	116.88
405.988	124.88
406.212	123.88
406.436	121.88
406.66	116.88
406.883	112.88
407.107	126.88
407.331	142.88
407.555	125.88
407.778	123.88
408.002	112.88
408.226	102.88
408.449	123.88
408.673	120.88
408.896	120.88
409.12	123.88
409.344	129.88
409.567	118.88
409.791	124.88
410.014	127.88
410.238	124.88
410.461	127.88
410.685	104.88
410.908	128.88
411.132	116.88
411.355	113.88
411.578	126.88
411.802	121.88
412.025	127.88
412.249	122.88
412.472	123.88
412.695	129.88
412.919	118.88
413.142	124.88
413.365	119.88
413.589	123.88
413.812	129.88
414.035	120.88
414.258	113.88
414.482	107.88
414.705	129.88
414.928	126.88
415.151	127.88
415.374	128.88
415.597	112.88
415.821	132.88
416.044	124.88
416.267	137.88
416.49	136.88
416.713	110.88
416.936	132.88
417.159	126.88
417.382	124.88
417.605	112.88
417.828	144.88
418.051	136.88
418.274	127.88
418.497	130.88
418.72	135.88
418.943	145.88
419.166	153.88
419.389	136.88
419.611	131.88
419.834	127.88
420.057	142.88
420.28	144.88
420.503	141.88
420.726	138.88
420.948	136.88
421.171	138.88
421.394	132.88
421.617	140.88
421.839	160.88
422.062	136.88
422.285	140.88
422.507	129.88
422.73	139.88
422.953	128.88
423.175	121.88
423.398	118.88
423.621	134.88
423.843	144.88
424.066	138.88
424.288	156.88
424.511	145.88
424.733	136.88
424.956	152.88
425.178	152.88
425.401	141.88
425.623	151.88
425.846	141.88
426.068	119.88
426.291	138.88
426.513	114.88
426.735	143.88
426.958	134.88
427.18	146.88
427.402	139.88
427.625	131.88
427.847	112.88
428.069	132.88
428.292	136.88
428.514	137.88
428.736	131.88
428.958	132.88
429.181	119.88
429.403	130.88
429.625	134.88
429.847	133.88
430.069	143.88
430.292	138.88
430.514	132.88
430.736	130.88
430.958	126.88
431.18	122.88
431.402	129.88
431.624	116.88
431.846	106.88
432.068	102.88
432.29	99.88
432.512	118.88
432.734	137.88
432.956	134.88
433.178	138.88
433.4	152.88
433.622	140.88
433.844	136.88
434.066	141.88
434.287	110.88
434.509	97.88
434.731	92.88
434.953	113.88
435.175	124.88
435.397	118.88
435.618	136.88
435.84	120.88
436.062	119.88
436.284	121.88
436.505	112.88
436.727	131.88
436.949	129.88
437.17	133.88
437.392	131.88
437.614	132.88
437.835	107.88
438.057	112.88
438.278	116.88
438.5	118.88
438.721	127.88
438.943	137.88
439.165	136.88
439.386	136.88
439.608	151.88
439.829	154.88
440.05	142.88
440.272	145.88
440.493	153.88
440.715	142.88
440.936	146.88
441.158	153.88
441.379	149.88
441.6	148.88
441.822	140.88
442.043	129.88
442.264	143.88
442.486	138.88
442.707	138.88
442.928	138.88
443.149	134.88
443.371	144.88
443.592	139.88
443.813	140.88
444.034	143.88
444.255	135.88
444.476	134.88
444.698	165.88
444.919	152.88
445.14	280.88
445.361	221.88
445.582	158.88
445.803	152.88
446.024	139.88
446.245	136.88
446.466	143.88
446.687	157.88
446.908	158.88
447.129	151.88
447.35	144.88
447.571	143.88
447.792	133.88
448.013	137.88
448.234	142.88
448.455	137.88
448.675	135.88
448.896	123.88
449.117	152.88
449.338	139.88
449.559	122.88
449.779	130.88
450	134.88
450.221	131.88
450.442	138.88
450.662	137.88
450.883	126.88
451.104	134.88
451.324	125.88
451.545	135.88
451.766	128.88
451.986	135.88
452.207	134.88
452.428	112.88
452.648	112.88
452.869	120.88
453.089	116.88
453.31	111.88
453.53	119.88
453.751	114.88
453.971	102.88
454.192	93.88
454.412	117.88
454.633	127.88
454.853	118.88
455.073	108.88
455.294	124.88
455.514	153.88
455.734	119.88
455.955	125.88
456.175	129.88
456.395	116.88
456.616	129.88
456.836	111.88
457.056	114.88
457.276	96.88
457.497	112.88
457.717	108.88
457.937	114.88
458.157	120.88
458.377	113.88
458.598	109.88
458.818	103.88
459.038	92.88
459.258	94.88
459.478	86.88
459.698	94.88
459.918	109.88
460.138	98.88
460.358	111.88
460.578	125.88
460.798	118.88
461.018	135.88
461.238	131.88
461.458	119.88
461.678	117.88
461.898	113.88
462.118	118.88
462.338	114.88
462.558	101.88
462.777	107.88
462.997	113.88
463.217	104.88
463.437	116.88
463.657	118.88
463.876	103.88
464.096	107.88
464.316	110.88
464.536	118.88
464.755	136.88
464.975	122.88
465.195	112.88
465.414	124.88
465.634	129.88
465.854	124.88
466.073	140.88
466.293	132.88
466.512	142.88
466.732	117.88
466.951	143.88
467.171	144.88
467.391	137.88
467.61	138.88
467.829	132.88
468.049	118.88
468.268	147.88
468.488	136.88
468.707	136.88
468.927	136.88
469.146	142.88
469.365	150.88
469.585	136.88
469.804	143.88
470.023	134.88
470.243	144.88
470.462	143.88
470.681	147.88
470.901	128.88
471.12	126.88
471.339	152.88
471.558	140.88
471.777	132.88
471.997	144.88
472.216	149.88
472.435	124.88
472.654	106.88
472.873	118.88
473.092	119.88
473.311	120.88
473.53	130.88
473.749	132.88
473.968	133.88
474.187	128.88
474.406	121.88
474.625	126.88
474.844	136.88
475.063	122.88
475.282	137.88
475.501	129.88
475.72	128.88
475.939	130.88
476.158	121.88
476.377	138.88
476.596	121.88
476.814	119.88
477.033	114.88
477.252	112.88
477.471	132.88
477.69	130.88
477.908	136.88
478.127	145.88
478.346	133.88
478.564	129.88
478.783	132.88
479.002	143.88
479.22	141.88
479.439	155.88
479.658	127.88
479.876	121.88
480.095	111.88
480.313	116.88
480.532	122.88
480.751	121.88
480.969	108.88
481.188	86.88
481.406	97.88
481.624	86.88
481.843	94.88
482.061	105.88
482.28	118.88
482.498	105.88
482.717	123.88
482.935	127.88
483.153	150.88
483.372	156.88
483.59	149.88
483.808	140.88
484.027	120.88
484.245	121.88
484.463	157.88
484.681	156.88
484.9	154.88
485.118	145.88
485.336	127.88
485.554	124.88
485.772	113.88
485.99	98.88
486.209	112.88
486.427	124.88
486.645	109.88
486.863	126.88
487.081	140.88
487.299	159.88
487.517	146.88
487.735	180.88
487.953	178.88
488.171	181.88
488.389	172.88
488.607	166.88
488.825	139.88
489.043	139.88
489.261	141.88
489.479	144.88
489.696	144.88
489.914	146.88
490.132	165.88
490.35	151.88
490.568	170.88
490.786	173.88
491.003	168.88
491.221	170.88
491.439	189.88
491.657	184.88
491.874	196.88
492.092	215.88
492.31	260.88
492.527	226.88
492.745	212.88
492.963	181.88
493.18	193.88
493.398	162.88
493.615	174.88
493.833	171.88
494.05	170.88
494.268	164.88
494.485	162.88
494.703	160.88
494.92	160.88
495.138	178.88
495.355	174.88
495.573	154.88
495.79	160.88
496.008	169.88
496.225	173.88
496.442	160.88
496.66	156.88
496.877	173.88
497.094	169.88
497.312	155.88
497.529	165.88
497.746	154.88
497.963	140.88
498.181	134.88
498.398	136.88
498.615	113.88
498.832	113.88
499.049	125.88
499.267	126.88
499.484	129.88
499.701	132.88
499.918	134.88
500.135	127.88
500.352	130.88
500.569	153.88
500.786	157.88
501.003	161.88
501.22	148.88
501.437	141.88
501.654	129.88
501.871	132.88
502.088	147.88
502.305	136.88
502.522	127.88
502.739	135.88
502.956	134.88
503.172	132.88
503.389	142.88
503.606	130.88
503.823	117.88
504.04	131.88
504.256	139.88
504.473	126.88
504.69	134.88
504.907	145.88
505.123	125.88
505.34	130.88
505.557	127.88
505.773	122.88
505.99	124.88
506.207	126.88
506.423	121.88
506.64	113.88
506.856	116.88
507.073	123.88
507.289	125.88
507.506	129.88
507.722	110.88
507.939	112.88
508.155	128.88
508.372	134.88
508.588	129.88
508.805	99.88
509.021	129.88
509.238	113.88
509.454	111.88
509.67	104.88
509.887	124.88
510.103	108.88
510.319	95.88
510.536	103.88
510.752	94.88
510.968	103.88
