Data from Location4.07152019.Energy5.Lamp.07192019.3%Agarose_HRD10591_16-21-19-926.txt Node
Date: Fri Jul 19 16:21:19 EDT 2019
User: cochatt
Spectrometer: HR+D1059
Trigger mode: 1
Integration Time (sec): 1.000000E-1
Scans to average: 1
Electric dark correction enabled: true
Nonlinearity correction enabled: false
Boxcar width: 0
XAxis mode: Wavelengths
Number of Pixels in Spectrum: 2048
>>>>>Begin Spectral Data<<<<<
223.165	-11.56
223.4	-11.56
223.635	-11.56
223.869	-17.56
224.104	-19.56
224.338	-15.56
224.573	-16.56
224.808	-18.56
225.042	-0.56
225.277	1.44
225.511	-4.56
225.746	4.44
225.98	7.44
226.215	15.44
226.449	19.44
226.683	17.44
226.918	10.44
227.152	28.44
227.387	28.44
227.621	33.44
227.856	56.44
228.09	46.44
228.324	59.44
228.559	51.44
228.793	56.44
229.027	58.44
229.262	60.44
229.496	59.44
229.73	75.44
229.964	67.44
230.199	83.44
230.433	78.44
230.667	69.44
230.901	65.44
231.136	87.44
231.37	80.44
231.604	77.44
231.838	65.44
232.072	81.44
232.306	87.44
232.541	87.44
232.775	89.44
233.009	73.44
233.243	87.44
233.477	105.44
233.711	78.44
233.945	71.44
234.179	86.44
234.413	81.44
234.647	79.44
234.881	87.44
235.115	73.44
235.349	70.44
235.583	80.44
235.817	69.44
236.051	76.44
236.285	76.44
236.519	78.44
236.753	66.44
236.987	68.44
237.221	58.44
237.455	76.44
237.689	82.44
237.922	80.44
238.156	68.44
238.39	76.44
238.624	71.44
238.858	73.44
239.091	71.44
239.325	71.44
239.559	72.44
239.793	63.44
240.027	71.44
240.26	69.44
240.494	76.44
240.728	70.44
240.961	83.44
241.195	82.44
241.429	64.44
241.662	83.44
241.896	71.44
242.13	75.44
242.363	76.44
242.597	77.44
242.83	71.44
243.064	87.44
243.298	87.44
243.531	84.44
243.765	70.44
243.998	70.44
244.232	90.44
244.465	85.44
244.699	81.44
244.932	73.44
245.166	85.44
245.399	79.44
245.633	84.44
245.866	76.44
246.099	93.44
246.333	84.44
246.566	70.44
246.8	71.44
247.033	80.44
247.266	81.44
247.5	81.44
247.733	77.44
247.966	68.44
248.2	83.44
248.433	89.44
248.666	63.44
248.899	81.44
249.133	91.44
249.366	76.44
249.599	70.44
249.832	90.44
250.066	77.44
250.299	72.44
250.532	72.44
250.765	80.44
250.998	87.44
251.231	69.44
251.465	77.44
251.698	75.44
251.931	68.44
252.164	61.44
252.397	84.44
252.63	71.44
252.863	87.44
253.096	74.44
253.329	68.44
253.562	77.44
253.795	91.44
254.028	83.44
254.261	93.44
254.494	90.44
254.727	83.44
254.96	75.44
255.193	80.44
255.426	59.44
255.659	74.44
255.892	75.44
256.124	74.44
256.357	76.44
256.59	77.44
256.823	73.44
257.056	79.44
257.289	84.44
257.521	79.44
257.754	84.44
257.987	67.44
258.22	75.44
258.452	85.44
258.685	78.44
258.918	72.44
259.151	89.44
259.383	80.44
259.616	81.44
259.849	100.44
260.081	80.44
260.314	88.44
260.547	80.44
260.779	69.44
261.012	83.44
261.244	80.44
261.477	81.44
261.71	93.44
261.942	91.44
262.175	78.44
262.407	80.44
262.64	89.44
262.872	86.44
263.105	73.44
263.337	86.44
263.57	76.44
263.802	87.44
264.035	85.44
264.267	70.44
264.499	77.44
264.732	88.44
264.964	74.44
265.197	81.44
265.429	77.44
265.661	82.44
265.894	83.44
266.126	92.44
266.358	82.44
266.591	82.44
266.823	77.44
267.055	85.44
267.287	80.44
267.52	83.44
267.752	89.44
267.984	84.44
268.216	78.44
268.448	76.44
268.681	97.44
268.913	92.44
269.145	91.44
269.377	70.44
269.609	81.44
269.841	67.44
270.073	87.44
270.306	74.44
270.538	84.44
270.77	72.44
271.002	78.44
271.234	77.44
271.466	79.44
271.698	94.44
271.93	85.44
272.162	73.44
272.394	86.44
272.626	89.44
272.858	90.44
273.09	97.44
273.322	84.44
273.553	93.44
273.785	88.44
274.017	79.44
274.249	82.44
274.481	87.44
274.713	84.44
274.945	83.44
275.176	80.44
275.408	77.44
275.64	84.44
275.872	79.44
276.104	83.44
276.335	68.44
276.567	77.44
276.799	81.44
277.031	83.44
277.262	75.44
277.494	81.44
277.726	87.44
277.957	80.44
278.189	86.44
278.421	86.44
278.652	83.44
278.884	72.44
279.115	80.44
279.347	88.44
279.579	74.44
279.81	83.44
280.042	83.44
280.273	84.44
280.505	86.44
280.736	81.44
280.968	79.44
281.199	84.44
281.431	89.44
281.662	85.44
281.894	85.44
282.125	90.44
282.356	80.44
282.588	76.44
282.819	81.44
283.051	72.44
283.282	94.44
283.513	84.44
283.745	91.44
283.976	70.44
284.207	101.44
284.439	87.44
284.67	82.44
284.901	86.44
285.132	79.44
285.364	77.44
285.595	91.44
285.826	70.44
286.057	93.44
286.288	89.44
286.52	72.44
286.751	82.44
286.982	87.44
287.213	90.44
287.444	82.44
287.675	83.44
287.906	58.44
288.138	84.44
288.369	85.44
288.6	84.44
288.831	88.44
289.062	85.44
289.293	80.44
289.524	92.44
289.755	81.44
289.986	89.44
290.217	86.44
290.448	74.44
290.679	81.44
290.91	89.44
291.141	98.44
291.371	91.44
291.602	92.44
291.833	69.44
292.064	84.44
292.295	91.44
292.526	74.44
292.757	83.44
292.987	85.44
293.218	89.44
293.449	80.44
293.68	98.44
293.91	86.44
294.141	96.44
294.372	82.44
294.603	85.44
294.833	94.44
295.064	84.44
295.295	95.44
295.525	83.44
295.756	79.44
295.987	82.44
296.217	80.44
296.448	91.44
296.679	74.44
296.909	78.44
297.14	85.44
297.37	73.44
297.601	73.44
297.831	92.44
298.062	84.44
298.292	74.44
298.523	87.44
298.753	91.44
298.984	92.44
299.214	78.44
299.445	92.44
299.675	74.44
299.905	97.44
300.136	91.44
300.366	89.44
300.597	100.44
300.827	74.44
301.057	81.44
301.288	95.44
301.518	83.44
301.748	83.44
301.979	83.44
302.209	81.44
302.439	88.44
302.669	86.44
302.9	87.44
303.13	81.44
303.36	86.44
303.59	80.44
303.82	77.44
304.051	87.44
304.281	85.44
304.511	77.44
304.741	87.44
304.971	77.44
305.201	76.44
305.431	87.44
305.661	75.44
305.891	93.44
306.121	77.44
306.352	82.44
306.582	85.44
306.812	88.44
307.042	103.44
307.272	94.44
307.502	84.44
307.731	91.44
307.961	87.44
308.191	83.44
308.421	77.44
308.651	81.44
308.881	96.44
309.111	81.44
309.341	91.44
309.571	85.44
309.8	81.44
310.03	95.44
310.26	75.44
310.49	77.44
310.72	84.44
310.949	88.44
311.179	86.44
311.409	83.44
311.639	92.44
311.868	83.44
312.098	87.44
312.328	85.44
312.557	88.44
312.787	75.44
313.017	76.44
313.246	94.44
313.476	76.44
313.706	84.44
313.935	83.44
314.165	76.44
314.394	76.44
314.624	87.44
314.853	76.44
315.083	84.44
315.312	106.44
315.542	88.44
315.771	78.44
316.001	78.44
316.23	79.44
316.46	76.44
316.689	84.44
316.919	81.44
317.148	88.44
317.377	86.44
317.607	75.44
317.836	86.44
318.065	89.44
318.295	100.44
318.524	98.44
318.753	82.44
318.983	81.44
319.212	93.44
319.441	82.44
319.67	87.44
319.9	82.44
320.129	71.44
320.358	73.44
320.587	78.44
320.816	83.44
321.046	72.44
321.275	82.44
321.504	84.44
321.733	81.44
321.962	95.44
322.191	97.44
322.42	67.44
322.649	90.44
322.878	95.44
323.108	93.44
323.337	87.44
323.566	85.44
323.795	95.44
324.024	93.44
324.253	84.44
324.482	85.44
324.71	81.44
324.939	69.44
325.168	78.44
325.397	81.44
325.626	86.44
325.855	89.44
326.084	86.44
326.313	77.44
326.542	85.44
326.77	74.44
326.999	75.44
327.228	84.44
327.457	92.44
327.686	96.44
327.914	97.44
328.143	98.44
328.372	98.44
328.6	75.44
328.829	74.44
329.058	84.44
329.287	92.44
329.515	88.44
329.744	79.44
329.972	88.44
330.201	86.44
330.43	85.44
330.658	71.44
330.887	90.44
331.115	88.44
331.344	70.44
331.572	85.44
331.801	100.44
332.03	71.44
332.258	86.44
332.486	87.44
332.715	80.44
332.943	97.44
333.172	93.44
333.4	86.44
333.629	82.44
333.857	84.44
334.085	96.44
334.314	97.44
334.542	85.44
334.771	87.44
334.999	81.44
335.227	77.44
335.455	81.44
335.684	101.44
335.912	81.44
336.14	91.44
336.369	90.44
336.597	73.44
336.825	85.44
337.053	81.44
337.281	97.44
337.51	83.44
337.738	89.44
337.966	80.44
338.194	75.44
338.422	95.44
338.65	85.44
338.878	101.44
339.106	88.44
339.334	77.44
339.562	78.44
339.79	87.44
340.018	97.44
340.246	76.44
340.474	77.44
340.702	71.44
340.93	73.44
341.158	91.44
341.386	74.44
341.614	89.44
341.842	79.44
342.07	80.44
342.298	94.44
342.526	77.44
342.754	90.44
342.981	90.44
343.209	96.44
343.437	93.44
343.665	78.44
343.893	85.44
344.12	86.44
344.348	79.44
344.576	73.44
344.804	98.44
345.031	65.44
345.259	100.44
345.487	86.44
345.714	76.44
345.942	89.44
346.17	90.44
346.397	85.44
346.625	93.44
346.853	78.44
347.08	89.44
347.308	76.44
347.535	80.44
347.763	81.44
347.99	89.44
348.218	92.44
348.445	82.44
348.673	86.44
348.9	82.44
349.128	84.44
349.355	73.44
349.583	83.44
349.81	81.44
350.037	87.44
350.265	80.44
350.492	93.44
350.72	95.44
350.947	81.44
351.174	88.44
351.402	79.44
351.629	77.44
351.856	87.44
352.083	91.44
352.311	88.44
352.538	83.44
352.765	76.44
352.992	74.44
353.22	93.44
353.447	101.44
353.674	67.44
353.901	84.44
354.128	77.44
354.355	83.44
354.583	82.44
354.81	79.44
355.037	81.44
355.264	75.44
355.491	95.44
355.718	72.44
355.945	85.44
356.172	86.44
356.399	86.44
356.626	72.44
356.853	89.44
357.08	85.44
357.307	74.44
357.534	75.44
357.761	84.44
357.988	84.44
358.215	92.44
358.441	79.44
358.668	100.44
358.895	89.44
359.122	96.44
359.349	75.44
359.576	81.44
359.802	95.44
360.029	97.44
360.256	71.44
360.483	83.44
360.709	76.44
360.936	82.44
361.163	85.44
361.39	91.44
361.616	84.44
361.843	82.44
362.07	91.44
362.296	91.44
362.523	88.44
362.749	77.44
362.976	75.44
363.203	83.44
363.429	68.44
363.656	89.44
363.882	76.44
364.109	74.44
364.335	83.44
364.562	73.44
364.788	91.44
365.015	76.44
365.241	87.44
365.468	91.44
365.694	75.44
365.92	85.44
366.147	80.44
366.373	86.44
366.599	81.44
366.826	85.44
367.052	94.44
367.278	79.44
367.505	75.44
367.731	80.44
367.957	75.44
368.184	99.44
368.41	89.44
368.636	91.44
368.862	86.44
369.089	97.44
369.315	81.44
369.541	82.44
369.767	101.44
369.993	81.44
370.219	83.44
370.445	100.44
370.672	80.44
370.898	99.44
371.124	92.44
371.35	87.44
371.576	97.44
371.802	79.44
372.028	85.44
372.254	96.44
372.48	87.44
372.706	77.44
372.932	76.44
373.158	100.44
373.384	88.44
373.61	97.44
373.835	79.44
374.061	103.44
374.287	86.44
374.513	98.44
374.739	100.44
374.965	85.44
375.191	76.44
375.416	99.44
375.642	98.44
375.868	104.44
376.094	98.44
376.319	93.44
376.545	79.44
376.771	106.44
376.997	101.44
377.222	99.44
377.448	80.44
377.674	92.44
377.899	90.44
378.125	99.44
378.35	80.44
378.576	103.44
378.802	84.44
379.027	91.44
379.253	91.44
379.478	96.44
379.704	84.44
379.929	87.44
380.155	97.44
380.38	95.44
380.606	103.44
380.831	114.44
381.057	92.44
381.282	85.44
381.507	83.44
381.733	98.44
381.958	97.44
382.184	99.44
382.409	91.44
382.634	95.44
382.86	90.44
383.085	112.44
383.31	96.44
383.535	88.44
383.761	103.44
383.986	101.44
384.211	100.44
384.436	87.44
384.662	102.44
384.887	96.44
385.112	90.44
385.337	100.44
385.562	89.44
385.787	92.44
386.013	90.44
386.238	91.44
386.463	98.44
386.688	88.44
386.913	100.44
387.138	112.44
387.363	85.44
387.588	107.44
387.813	111.44
388.038	96.44
388.263	99.44
388.488	85.44
388.713	96.44
388.938	96.44
389.163	92.44
389.387	105.44
389.612	89.44
389.837	91.44
390.062	100.44
390.287	96.44
390.512	111.44
390.736	107.44
390.961	102.44
391.186	101.44
391.411	103.44
391.636	97.44
391.86	114.44
392.085	97.44
392.31	101.44
392.534	105.44
392.759	103.44
392.984	99.44
393.208	93.44
393.433	113.44
393.658	99.44
393.882	107.44
394.107	91.44
394.331	103.44
394.556	88.44
394.78	100.44
395.005	101.44
395.229	113.44
395.454	99.44
395.678	100.44
395.903	91.44
396.127	114.44
396.352	98.44
396.576	128.44
396.801	103.44
397.025	100.44
397.249	105.44
397.474	123.44
397.698	106.44
397.922	117.44
398.147	117.44
398.371	116.44
398.595	101.44
398.82	106.44
399.044	98.44
399.268	111.44
399.492	113.44
399.717	124.44
399.941	120.44
400.165	105.44
400.389	118.44
400.613	123.44
400.837	114.44
401.062	114.44
401.286	121.44
401.51	117.44
401.734	100.44
401.958	118.44
402.182	113.44
402.406	109.44
402.63	124.44
402.854	102.44
403.078	95.44
403.302	99.44
403.526	122.44
403.75	113.44
403.974	116.44
404.198	114.44
404.422	112.44
404.645	107.44
404.869	117.44
405.093	124.44
405.317	120.44
405.541	122.44
405.765	110.44
405.988	107.44
406.212	105.44
406.436	99.44
406.66	135.44
406.883	121.44
407.107	122.44
407.331	116.44
407.555	127.44
407.778	106.44
408.002	113.44
408.226	123.44
408.449	96.44
408.673	109.44
408.896	129.44
409.12	115.44
409.344	113.44
409.567	117.44
409.791	111.44
410.014	113.44
410.238	120.44
410.461	123.44
410.685	120.44
410.908	110.44
411.132	121.44
411.355	123.44
411.578	112.44
411.802	118.44
412.025	116.44
412.249	101.44
412.472	122.44
412.695	99.44
412.919	103.44
413.142	115.44
413.365	111.44
413.589	102.44
413.812	125.44
414.035	131.44
414.258	111.44
414.482	117.44
414.705	115.44
414.928	120.44
415.151	130.44
415.374	130.44
415.597	124.44
415.821	119.44
416.044	132.44
416.267	117.44
416.49	124.44
416.713	127.44
416.936	134.44
417.159	120.44
417.382	117.44
417.605	136.44
417.828	131.44
418.051	119.44
418.274	130.44
418.497	130.44
418.72	117.44
418.943	122.44
419.166	138.44
419.389	139.44
419.611	127.44
419.834	133.44
420.057	128.44
420.28	132.44
420.503	140.44
420.726	131.44
420.948	131.44
421.171	116.44
421.394	130.44
421.617	131.44
421.839	129.44
422.062	129.44
422.285	131.44
422.507	131.44
422.73	128.44
422.953	126.44
423.175	129.44
423.398	116.44
423.621	132.44
423.843	131.44
424.066	137.44
424.288	146.44
424.511	140.44
424.733	154.44
424.956	124.44
425.178	118.44
425.401	126.44
425.623	130.44
425.846	128.44
426.068	121.44
426.291	112.44
426.513	130.44
426.735	131.44
426.958	124.44
427.18	133.44
427.402	131.44
427.625	122.44
427.847	132.44
428.069	127.44
428.292	129.44
428.514	129.44
428.736	121.44
428.958	120.44
429.181	138.44
429.403	124.44
429.625	125.44
429.847	127.44
430.069	133.44
430.292	127.44
430.514	124.44
430.736	131.44
430.958	121.44
431.18	127.44
431.402	128.44
431.624	125.44
431.846	116.44
432.068	94.44
432.29	109.44
432.512	117.44
432.734	133.44
432.956	130.44
433.178	134.44
433.4	133.44
433.622	139.44
433.844	120.44
434.066	122.44
434.287	109.44
434.509	106.44
434.731	93.44
434.953	126.44
435.175	123.44
435.397	115.44
435.618	124.44
435.84	113.44
436.062	92.44
436.284	123.44
436.505	117.44
436.727	124.44
436.949	128.44
437.17	139.44
437.392	120.44
437.614	134.44
437.835	113.44
438.057	109.44
438.278	124.44
438.5	118.44
438.721	121.44
438.943	144.44
439.165	135.44
439.386	147.44
439.608	132.44
439.829	125.44
440.05	152.44
440.272	151.44
440.493	130.44
440.715	138.44
440.936	149.44
441.158	129.44
441.379	149.44
441.6	142.44
441.822	144.44
442.043	135.44
442.264	131.44
442.486	124.44
442.707	124.44
442.928	139.44
443.149	130.44
443.371	146.44
443.592	128.44
443.813	125.44
444.034	136.44
444.255	133.44
444.476	157.44
444.698	128.44
444.919	143.44
445.14	280.44
445.361	203.44
445.582	148.44
445.803	143.44
446.024	150.44
446.245	147.44
446.466	140.44
446.687	164.44
446.908	160.44
447.129	152.44
447.35	161.44
447.571	141.44
447.792	150.44
448.013	157.44
448.234	139.44
448.455	144.44
448.675	117.44
448.896	135.44
449.117	129.44
449.338	124.44
449.559	145.44
449.779	132.44
450	144.44
450.221	128.44
450.442	138.44
450.662	127.44
450.883	129.44
451.104	122.44
451.324	133.44
451.545	123.44
451.766	131.44
451.986	107.44
452.207	118.44
452.428	113.44
452.648	124.44
452.869	131.44
453.089	118.44
453.31	108.44
453.53	97.44
453.751	111.44
453.971	102.44
454.192	105.44
454.412	86.44
454.633	123.44
454.853	121.44
455.073	115.44
455.294	121.44
455.514	124.44
455.734	116.44
455.955	134.44
456.175	124.44
456.395	124.44
456.616	105.44
456.836	127.44
457.056	116.44
457.276	107.44
457.497	106.44
457.717	92.44
457.937	98.44
458.157	103.44
458.377	108.44
458.598	96.44
458.818	89.44
459.038	93.44
459.258	90.44
459.478	85.44
459.698	99.44
459.918	107.44
460.138	95.44
460.358	125.44
460.578	118.44
460.798	106.44
461.018	116.44
461.238	122.44
461.458	116.44
461.678	123.44
461.898	109.44
462.118	119.44
462.338	107.44
462.558	125.44
462.777	83.44
462.997	104.44
463.217	95.44
463.437	118.44
463.657	115.44
463.876	107.44
464.096	110.44
464.316	126.44
464.536	111.44
464.755	111.44
464.975	127.44
465.195	118.44
465.414	112.44
465.634	128.44
465.854	136.44
466.073	120.44
466.293	124.44
466.512	112.44
466.732	128.44
466.951	134.44
467.171	127.44
467.391	134.44
467.61	121.44
467.829	123.44
468.049	125.44
468.268	126.44
468.488	139.44
468.707	131.44
468.927	138.44
469.146	120.44
469.365	131.44
469.585	129.44
469.804	122.44
470.023	136.44
470.243	147.44
470.462	143.44
470.681	139.44
470.901	145.44
471.12	142.44
471.339	150.44
471.558	132.44
471.777	125.44
471.997	137.44
472.216	127.44
472.435	117.44
472.654	114.44
472.873	116.44
473.092	130.44
473.311	121.44
473.53	131.44
473.749	140.44
473.968	118.44
474.187	123.44
474.406	112.44
474.625	130.44
474.844	123.44
475.063	139.44
475.282	123.44
475.501	127.44
475.72	133.44
475.939	140.44
476.158	127.44
476.377	128.44
476.596	114.44
476.814	116.44
477.033	123.44
477.252	93.44
477.471	114.44
477.69	118.44
477.908	148.44
478.127	141.44
478.346	132.44
478.564	131.44
478.783	130.44
479.002	133.44
479.22	139.44
479.439	132.44
479.658	121.44
479.876	123.44
480.095	106.44
480.313	118.44
480.532	131.44
480.751	95.44
480.969	98.44
481.188	89.44
481.406	95.44
481.624	86.44
481.843	95.44
482.061	103.44
482.28	112.44
482.498	100.44
482.717	108.44
482.935	108.44
483.153	143.44
483.372	138.44
483.59	141.44
483.808	133.44
484.027	123.44
484.245	127.44
484.463	151.44
484.681	151.44
484.9	146.44
485.118	145.44
485.336	131.44
485.554	115.44
485.772	98.44
485.99	107.44
486.209	117.44
486.427	113.44
486.645	109.44
486.863	131.44
487.081	143.44
487.299	141.44
487.517	145.44
487.735	164.44
487.953	190.44
488.171	184.44
488.389	175.44
488.607	166.44
488.825	137.44
489.043	117.44
489.261	132.44
489.479	138.44
489.696	152.44
489.914	157.44
490.132	139.44
490.35	147.44
490.568	158.44
490.786	152.44
491.003	178.44
491.221	179.44
491.439	162.44
491.657	195.44
491.874	203.44
492.092	208.44
492.31	240.44
492.527	226.44
492.745	205.44
492.963	187.44
493.18	178.44
493.398	177.44
493.615	172.44
493.833	157.44
494.05	160.44
494.268	170.44
494.485	175.44
494.703	169.44
494.92	163.44
495.138	167.44
495.355	163.44
495.573	176.44
495.79	159.44
496.008	169.44
496.225	169.44
496.442	154.44
496.66	162.44
496.877	169.44
497.094	171.44
497.312	147.44
497.529	152.44
497.746	135.44
497.963	143.44
498.181	148.44
498.398	131.44
498.615	108.44
498.832	103.44
499.049	102.44
499.267	127.44
499.484	119.44
499.701	121.44
499.918	144.44
500.135	135.44
500.352	140.44
500.569	155.44
500.786	145.44
501.003	147.44
501.22	145.44
501.437	139.44
501.654	127.44
501.871	137.44
502.088	150.44
502.305	129.44
502.522	121.44
502.739	132.44
502.956	124.44
503.172	124.44
503.389	135.44
503.606	111.44
503.823	111.44
504.04	122.44
504.256	114.44
504.473	117.44
504.69	113.44
504.907	118.44
505.123	108.44
505.34	122.44
505.557	121.44
505.773	106.44
505.99	113.44
506.207	136.44
506.423	119.44
506.64	122.44
506.856	124.44
507.073	124.44
507.289	97.44
507.506	119.44
507.722	115.44
507.939	119.44
508.155	108.44
508.372	112.44
508.588	113.44
508.805	119.44
509.021	100.44
509.238	115.44
509.454	89.44
509.67	107.44
509.887	96.44
510.103	103.44
510.319	102.44
510.536	102.44
510.752	96.44
510.968	87.44
511.184	92.44
511.401	89.44
511.617	92.44
511.833	91.44
