Data from Location4.07152019.Energy5.Lamp.07192019.3%Agarose_HRD10591_16-18-26-926.txt Node
Date: Fri Jul 19 16:18:26 EDT 2019
User: cochatt
Spectrometer: HR+D1059
Trigger mode: 1
Integration Time (sec): 1.000000E-1
Scans to average: 1
Electric dark correction enabled: true
Nonlinearity correction enabled: false
Boxcar width: 0
XAxis mode: Wavelengths
Number of Pixels in Spectrum: 2048
>>>>>Begin Spectral Data<<<<<
223.165	-11.38
223.4	-11.38
223.635	-11.38
223.869	-1.38
224.104	-9.38
224.338	-10.38
224.573	-22.38
224.808	-10.38
225.042	-14.38
225.277	-7.38
225.511	-0.38
225.746	-3.38
225.98	3.62
226.215	7.62
226.449	8.62
226.683	27.62
226.918	21.62
227.152	21.62
227.387	29.62
227.621	41.62
227.856	51.62
228.09	55.62
228.324	41.62
228.559	49.62
228.793	55.62
229.027	57.62
229.262	49.62
229.496	58.62
229.73	55.62
229.964	67.62
230.199	74.62
230.433	71.62
230.667	88.62
230.901	81.62
231.136	76.62
231.37	71.62
231.604	78.62
231.838	89.62
232.072	72.62
232.306	91.62
232.541	88.62
232.775	75.62
233.009	75.62
233.243	86.62
233.477	84.62
233.711	93.62
233.945	87.62
234.179	83.62
234.413	76.62
234.647	88.62
234.881	88.62
235.115	87.62
235.349	92.62
235.583	88.62
235.817	77.62
236.051	77.62
236.285	73.62
236.519	84.62
236.753	76.62
236.987	87.62
237.221	86.62
237.455	73.62
237.689	74.62
237.922	76.62
238.156	80.62
238.39	77.62
238.624	91.62
238.858	90.62
239.091	81.62
239.325	64.62
239.559	80.62
239.793	84.62
240.027	87.62
240.26	68.62
240.494	80.62
240.728	71.62
240.961	65.62
241.195	74.62
241.429	78.62
241.662	71.62
241.896	85.62
242.13	70.62
242.363	80.62
242.597	73.62
242.83	74.62
243.064	79.62
243.298	85.62
243.531	84.62
243.765	83.62
243.998	71.62
244.232	88.62
244.465	85.62
244.699	77.62
244.932	90.62
245.166	81.62
245.399	84.62
245.633	92.62
245.866	88.62
246.099	78.62
246.333	95.62
246.566	62.62
246.8	80.62
247.033	74.62
247.266	63.62
247.5	84.62
247.733	71.62
247.966	74.62
248.2	89.62
248.433	67.62
248.666	69.62
248.899	72.62
249.133	62.62
249.366	84.62
249.599	77.62
249.832	79.62
250.066	91.62
250.299	77.62
250.532	71.62
250.765	81.62
250.998	95.62
251.231	75.62
251.465	85.62
251.698	77.62
251.931	60.62
252.164	84.62
252.397	85.62
252.63	74.62
252.863	82.62
253.096	74.62
253.329	83.62
253.562	83.62
253.795	78.62
254.028	71.62
254.261	83.62
254.494	77.62
254.727	104.62
254.96	86.62
255.193	84.62
255.426	72.62
255.659	80.62
255.892	68.62
256.124	88.62
256.357	75.62
256.59	89.62
256.823	86.62
257.056	91.62
257.289	88.62
257.521	89.62
257.754	79.62
257.987	96.62
258.22	81.62
258.452	77.62
258.685	81.62
258.918	90.62
259.151	87.62
259.383	92.62
259.616	89.62
259.849	88.62
260.081	88.62
260.314	85.62
260.547	79.62
260.779	67.62
261.012	70.62
261.244	64.62
261.477	80.62
261.71	77.62
261.942	71.62
262.175	74.62
262.407	81.62
262.64	71.62
262.872	85.62
263.105	87.62
263.337	82.62
263.57	75.62
263.802	76.62
264.035	90.62
264.267	85.62
264.499	73.62
264.732	75.62
264.964	74.62
265.197	91.62
265.429	81.62
265.661	75.62
265.894	80.62
266.126	80.62
266.358	75.62
266.591	89.62
266.823	91.62
267.055	77.62
267.287	73.62
267.52	92.62
267.752	95.62
267.984	90.62
268.216	81.62
268.448	79.62
268.681	67.62
268.913	77.62
269.145	80.62
269.377	80.62
269.609	84.62
269.841	88.62
270.073	84.62
270.306	90.62
270.538	89.62
270.77	76.62
271.002	90.62
271.234	94.62
271.466	91.62
271.698	70.62
271.93	76.62
272.162	79.62
272.394	83.62
272.626	88.62
272.858	82.62
273.09	81.62
273.322	85.62
273.553	90.62
273.785	82.62
274.017	88.62
274.249	78.62
274.481	83.62
274.713	82.62
274.945	85.62
275.176	82.62
275.408	84.62
275.64	87.62
275.872	86.62
276.104	72.62
276.335	82.62
276.567	91.62
276.799	81.62
277.031	89.62
277.262	81.62
277.494	87.62
277.726	98.62
277.957	92.62
278.189	84.62
278.421	76.62
278.652	71.62
278.884	78.62
279.115	81.62
279.347	80.62
279.579	80.62
279.81	80.62
280.042	91.62
280.273	81.62
280.505	72.62
280.736	75.62
280.968	78.62
281.199	90.62
281.431	90.62
281.662	90.62
281.894	88.62
282.125	87.62
282.356	87.62
282.588	96.62
282.819	95.62
283.051	86.62
283.282	71.62
283.513	97.62
283.745	98.62
283.976	83.62
284.207	79.62
284.439	80.62
284.67	75.62
284.901	86.62
285.132	75.62
285.364	80.62
285.595	91.62
285.826	87.62
286.057	93.62
286.288	96.62
286.52	78.62
286.751	86.62
286.982	79.62
287.213	79.62
287.444	77.62
287.675	71.62
287.906	83.62
288.138	76.62
288.369	90.62
288.6	86.62
288.831	76.62
289.062	82.62
289.293	92.62
289.524	77.62
289.755	81.62
289.986	62.62
290.217	81.62
290.448	78.62
290.679	80.62
290.91	89.62
291.141	80.62
291.371	84.62
291.602	94.62
291.833	73.62
292.064	91.62
292.295	88.62
292.526	82.62
292.757	84.62
292.987	82.62
293.218	83.62
293.449	95.62
293.68	80.62
293.91	78.62
294.141	88.62
294.372	83.62
294.603	91.62
294.833	83.62
295.064	84.62
295.295	80.62
295.525	88.62
295.756	77.62
295.987	77.62
296.217	92.62
296.448	104.62
296.679	84.62
296.909	86.62
297.14	81.62
297.37	91.62
297.601	82.62
297.831	77.62
298.062	81.62
298.292	96.62
298.523	81.62
298.753	85.62
298.984	90.62
299.214	97.62
299.445	90.62
299.675	75.62
299.905	83.62
300.136	82.62
300.366	83.62
300.597	84.62
300.827	85.62
301.057	81.62
301.288	95.62
301.518	64.62
301.748	93.62
301.979	74.62
302.209	93.62
302.439	80.62
302.669	81.62
302.9	76.62
303.13	88.62
303.36	83.62
303.59	68.62
303.82	76.62
304.051	84.62
304.281	82.62
304.511	83.62
304.741	77.62
304.971	96.62
305.201	89.62
305.431	94.62
305.661	94.62
305.891	77.62
306.121	65.62
306.352	80.62
306.582	74.62
306.812	85.62
307.042	95.62
307.272	74.62
307.502	87.62
307.731	83.62
307.961	76.62
308.191	74.62
308.421	78.62
308.651	86.62
308.881	75.62
309.111	93.62
309.341	75.62
309.571	90.62
309.8	97.62
310.03	81.62
310.26	87.62
310.49	86.62
310.72	96.62
310.949	85.62
311.179	82.62
311.409	83.62
311.639	85.62
311.868	100.62
312.098	83.62
312.328	83.62
312.557	71.62
312.787	85.62
313.017	74.62
313.246	89.62
313.476	84.62
313.706	83.62
313.935	80.62
314.165	85.62
314.394	86.62
314.624	73.62
314.853	75.62
315.083	83.62
315.312	92.62
315.542	77.62
315.771	79.62
316.001	88.62
316.23	93.62
316.46	80.62
316.689	84.62
316.919	97.62
317.148	94.62
317.377	94.62
317.607	83.62
317.836	91.62
318.065	91.62
318.295	84.62
318.524	83.62
318.753	83.62
318.983	92.62
319.212	89.62
319.441	80.62
319.67	95.62
319.9	81.62
320.129	80.62
320.358	88.62
320.587	88.62
320.816	74.62
321.046	84.62
321.275	81.62
321.504	88.62
321.733	77.62
321.962	71.62
322.191	90.62
322.42	87.62
322.649	80.62
322.878	84.62
323.108	88.62
323.337	85.62
323.566	92.62
323.795	90.62
324.024	86.62
324.253	77.62
324.482	89.62
324.71	90.62
324.939	79.62
325.168	88.62
325.397	89.62
325.626	82.62
325.855	77.62
326.084	98.62
326.313	89.62
326.542	91.62
326.77	85.62
326.999	78.62
327.228	90.62
327.457	82.62
327.686	93.62
327.914	92.62
328.143	82.62
328.372	83.62
328.6	93.62
328.829	73.62
329.058	78.62
329.287	79.62
329.515	82.62
329.744	79.62
329.972	95.62
330.201	79.62
330.43	90.62
330.658	85.62
330.887	75.62
331.115	79.62
331.344	89.62
331.572	97.62
331.801	81.62
332.03	91.62
332.258	88.62
332.486	79.62
332.715	71.62
332.943	79.62
333.172	76.62
333.4	84.62
333.629	92.62
333.857	81.62
334.085	75.62
334.314	83.62
334.542	82.62
334.771	77.62
334.999	88.62
335.227	95.62
335.455	75.62
335.684	88.62
335.912	97.62
336.14	98.62
336.369	90.62
336.597	71.62
336.825	78.62
337.053	82.62
337.281	96.62
337.51	79.62
337.738	92.62
337.966	73.62
338.194	91.62
338.422	90.62
338.65	96.62
338.878	76.62
339.106	87.62
339.334	92.62
339.562	77.62
339.79	74.62
340.018	80.62
340.246	76.62
340.474	80.62
340.702	85.62
340.93	93.62
341.158	87.62
341.386	71.62
341.614	83.62
341.842	86.62
342.07	69.62
342.298	100.62
342.526	100.62
342.754	76.62
342.981	76.62
343.209	91.62
343.437	82.62
343.665	87.62
343.893	88.62
344.12	84.62
344.348	67.62
344.576	83.62
344.804	79.62
345.031	95.62
345.259	83.62
345.487	86.62
345.714	92.62
345.942	96.62
346.17	85.62
346.397	77.62
346.625	75.62
346.853	82.62
347.08	89.62
347.308	81.62
347.535	94.62
347.763	85.62
347.99	96.62
348.218	92.62
348.445	95.62
348.673	85.62
348.9	86.62
349.128	95.62
349.355	75.62
349.583	87.62
349.81	84.62
350.037	84.62
350.265	80.62
350.492	88.62
350.72	90.62
350.947	88.62
351.174	99.62
351.402	76.62
351.629	74.62
351.856	76.62
352.083	64.62
352.311	81.62
352.538	78.62
352.765	90.62
352.992	77.62
353.22	88.62
353.447	93.62
353.674	77.62
353.901	82.62
354.128	91.62
354.355	92.62
354.583	87.62
354.81	86.62
355.037	87.62
355.264	81.62
355.491	77.62
355.718	77.62
355.945	75.62
356.172	73.62
356.399	79.62
356.626	82.62
356.853	72.62
357.08	78.62
357.307	83.62
357.534	85.62
357.761	84.62
357.988	87.62
358.215	84.62
358.441	71.62
358.668	97.62
358.895	83.62
359.122	74.62
359.349	89.62
359.576	100.62
359.802	76.62
360.029	82.62
360.256	69.62
360.483	82.62
360.709	84.62
360.936	90.62
361.163	74.62
361.39	82.62
361.616	91.62
361.843	96.62
362.07	77.62
362.296	92.62
362.523	98.62
362.749	94.62
362.976	77.62
363.203	84.62
363.429	64.62
363.656	73.62
363.882	76.62
364.109	88.62
364.335	84.62
364.562	92.62
364.788	95.62
365.015	82.62
365.241	86.62
365.468	101.62
365.694	91.62
365.92	89.62
366.147	74.62
366.373	95.62
366.599	88.62
366.826	69.62
367.052	90.62
367.278	87.62
367.505	81.62
367.731	100.62
367.957	86.62
368.184	83.62
368.41	95.62
368.636	81.62
368.862	85.62
369.089	90.62
369.315	86.62
369.541	102.62
369.767	86.62
369.993	99.62
370.219	91.62
370.445	98.62
370.672	91.62
370.898	80.62
371.124	91.62
371.35	92.62
371.576	86.62
371.802	89.62
372.028	84.62
372.254	97.62
372.48	93.62
372.706	82.62
372.932	94.62
373.158	88.62
373.384	90.62
373.61	98.62
373.835	91.62
374.061	97.62
374.287	81.62
374.513	90.62
374.739	93.62
374.965	87.62
375.191	81.62
375.416	94.62
375.642	89.62
375.868	90.62
376.094	84.62
376.319	94.62
376.545	95.62
376.771	85.62
376.997	100.62
377.222	101.62
377.448	91.62
377.674	91.62
377.899	82.62
378.125	79.62
378.35	101.62
378.576	90.62
378.802	100.62
379.027	104.62
379.253	93.62
379.478	92.62
379.704	84.62
379.929	87.62
380.155	87.62
380.38	100.62
380.606	93.62
380.831	81.62
381.057	91.62
381.282	88.62
381.507	104.62
381.733	98.62
381.958	88.62
382.184	97.62
382.409	93.62
382.634	100.62
382.86	105.62
383.085	85.62
383.31	114.62
383.535	94.62
383.761	93.62
383.986	86.62
384.211	96.62
384.436	98.62
384.662	90.62
384.887	82.62
385.112	84.62
385.337	94.62
385.562	97.62
385.787	102.62
386.013	106.62
386.238	99.62
386.463	85.62
386.688	116.62
386.913	78.62
387.138	101.62
387.363	105.62
387.588	101.62
387.813	94.62
388.038	97.62
388.263	96.62
388.488	87.62
388.713	105.62
388.938	77.62
389.163	99.62
389.387	101.62
389.612	101.62
389.837	103.62
390.062	109.62
390.287	100.62
390.512	107.62
390.736	91.62
390.961	95.62
391.186	102.62
391.411	88.62
391.636	107.62
391.86	109.62
392.085	114.62
392.31	111.62
392.534	114.62
392.759	108.62
392.984	100.62
393.208	108.62
393.433	107.62
393.658	113.62
393.882	108.62
394.107	100.62
394.331	102.62
394.556	99.62
394.78	92.62
395.005	119.62
395.229	121.62
395.454	102.62
395.678	97.62
395.903	105.62
396.127	102.62
396.352	108.62
396.576	101.62
396.801	107.62
397.025	106.62
397.249	107.62
397.474	116.62
397.698	111.62
397.922	101.62
398.147	113.62
398.371	117.62
398.595	116.62
398.82	112.62
399.044	102.62
399.268	97.62
399.492	112.62
399.717	118.62
399.941	111.62
400.165	101.62
400.389	104.62
400.613	121.62
400.837	111.62
401.062	125.62
401.286	106.62
401.51	117.62
401.734	113.62
401.958	104.62
402.182	123.62
402.406	100.62
402.63	115.62
402.854	113.62
403.078	112.62
403.302	119.62
403.526	100.62
403.75	109.62
403.974	108.62
404.198	110.62
404.422	113.62
404.645	123.62
404.869	111.62
405.093	111.62
405.317	119.62
405.541	117.62
405.765	119.62
405.988	122.62
406.212	112.62
406.436	121.62
406.66	117.62
406.883	113.62
407.107	119.62
407.331	125.62
407.555	109.62
407.778	129.62
408.002	124.62
408.226	114.62
408.449	113.62
408.673	100.62
408.896	114.62
409.12	124.62
409.344	114.62
409.567	112.62
409.791	124.62
410.014	122.62
410.238	124.62
410.461	128.62
410.685	119.62
410.908	116.62
411.132	107.62
411.355	103.62
411.578	122.62
411.802	120.62
412.025	112.62
412.249	121.62
412.472	116.62
412.695	123.62
412.919	104.62
413.142	129.62
413.365	120.62
413.589	118.62
413.812	100.62
414.035	121.62
414.258	106.62
414.482	117.62
414.705	134.62
414.928	128.62
415.151	111.62
415.374	130.62
415.597	136.62
415.821	116.62
416.044	135.62
416.267	124.62
416.49	123.62
416.713	118.62
416.936	123.62
417.159	117.62
417.382	125.62
417.605	120.62
417.828	127.62
418.051	123.62
418.274	129.62
418.497	132.62
418.72	131.62
418.943	137.62
419.166	123.62
419.389	135.62
419.611	134.62
419.834	127.62
420.057	149.62
420.28	123.62
420.503	136.62
420.726	122.62
420.948	145.62
421.171	135.62
421.394	129.62
421.617	140.62
421.839	127.62
422.062	139.62
422.285	122.62
422.507	131.62
422.73	130.62
422.953	124.62
423.175	131.62
423.398	131.62
423.621	127.62
423.843	135.62
424.066	138.62
424.288	148.62
424.511	137.62
424.733	151.62
424.956	144.62
425.178	127.62
425.401	123.62
425.623	141.62
425.846	136.62
426.068	135.62
426.291	129.62
426.513	125.62
426.735	109.62
426.958	136.62
427.18	138.62
427.402	139.62
427.625	126.62
427.847	133.62
428.069	120.62
428.292	127.62
428.514	141.62
428.736	122.62
428.958	122.62
429.181	116.62
429.403	131.62
429.625	125.62
429.847	130.62
430.069	112.62
430.292	134.62
430.514	123.62
430.736	127.62
430.958	127.62
431.18	128.62
431.402	127.62
431.624	114.62
431.846	98.62
432.068	99.62
432.29	88.62
432.512	102.62
432.734	129.62
432.956	109.62
433.178	137.62
433.4	138.62
433.622	132.62
433.844	140.62
434.066	124.62
434.287	112.62
434.509	96.62
434.731	107.62
434.953	118.62
435.175	113.62
435.397	134.62
435.618	96.62
435.84	101.62
436.062	105.62
436.284	121.62
436.505	116.62
436.727	116.62
436.949	116.62
437.17	112.62
437.392	111.62
437.614	117.62
437.835	101.62
438.057	113.62
438.278	116.62
438.5	126.62
438.721	138.62
438.943	134.62
439.165	134.62
439.386	129.62
439.608	133.62
439.829	128.62
440.05	132.62
440.272	162.62
440.493	133.62
440.715	137.62
440.936	125.62
441.158	147.62
441.379	136.62
441.6	146.62
441.822	155.62
442.043	137.62
442.264	127.62
442.486	130.62
442.707	145.62
442.928	129.62
443.149	133.62
443.371	137.62
443.592	132.62
443.813	131.62
444.034	143.62
444.255	130.62
444.476	135.62
444.698	121.62
444.919	138.62
445.14	283.62
445.361	213.62
445.582	149.62
445.803	129.62
446.024	138.62
446.245	171.62
446.466	156.62
446.687	159.62
446.908	169.62
447.129	151.62
447.35	142.62
447.571	157.62
447.792	136.62
448.013	141.62
448.234	130.62
448.455	139.62
448.675	138.62
448.896	141.62
449.117	142.62
449.338	125.62
449.559	139.62
449.779	136.62
450	118.62
450.221	130.62
450.442	135.62
450.662	134.62
450.883	135.62
451.104	121.62
451.324	124.62
451.545	128.62
451.766	118.62
451.986	127.62
452.207	107.62
452.428	132.62
452.648	125.62
452.869	125.62
453.089	101.62
453.31	112.62
453.53	115.62
453.751	109.62
453.971	104.62
454.192	106.62
454.412	103.62
454.633	102.62
454.853	124.62
455.073	122.62
455.294	103.62
455.514	121.62
455.734	115.62
455.955	118.62
456.175	114.62
456.395	107.62
456.616	107.62
456.836	108.62
457.056	102.62
457.276	113.62
457.497	92.62
457.717	105.62
457.937	114.62
458.157	105.62
458.377	103.62
458.598	89.62
458.818	96.62
459.038	79.62
459.258	98.62
459.478	93.62
459.698	81.62
459.918	87.62
460.138	106.62
460.358	123.62
460.578	125.62
460.798	127.62
461.018	112.62
461.238	120.62
461.458	121.62
461.678	109.62
461.898	113.62
462.118	118.62
462.338	99.62
462.558	105.62
462.777	122.62
462.997	109.62
463.217	109.62
463.437	114.62
463.657	99.62
463.876	125.62
464.096	113.62
464.316	113.62
464.536	109.62
464.755	119.62
464.975	108.62
465.195	123.62
465.414	119.62
465.634	108.62
465.854	113.62
466.073	108.62
466.293	132.62
466.512	123.62
466.732	127.62
466.951	145.62
467.171	133.62
467.391	123.62
467.61	135.62
467.829	124.62
468.049	130.62
468.268	137.62
468.488	131.62
468.707	135.62
468.927	157.62
469.146	128.62
469.365	137.62
469.585	136.62
469.804	138.62
470.023	138.62
470.243	154.62
470.462	155.62
470.681	141.62
470.901	127.62
471.12	147.62
471.339	137.62
471.558	139.62
471.777	138.62
471.997	122.62
472.216	129.62
472.435	136.62
472.654	119.62
472.873	107.62
473.092	131.62
473.311	115.62
473.53	131.62
473.749	129.62
473.968	134.62
474.187	117.62
474.406	117.62
474.625	123.62
474.844	135.62
475.063	134.62
475.282	125.62
475.501	117.62
475.72	124.62
475.939	120.62
476.158	120.62
476.377	119.62
476.596	116.62
476.814	113.62
477.033	105.62
477.252	121.62
477.471	117.62
477.69	124.62
477.908	145.62
478.127	149.62
478.346	132.62
478.564	125.62
478.783	129.62
479.002	125.62
479.22	141.62
479.439	128.62
479.658	113.62
479.876	114.62
480.095	123.62
480.313	117.62
480.532	129.62
480.751	109.62
480.969	85.62
481.188	103.62
481.406	107.62
481.624	95.62
481.843	114.62
482.061	93.62
482.28	111.62
482.498	101.62
482.717	117.62
482.935	131.62
483.153	135.62
483.372	149.62
483.59	144.62
483.808	136.62
484.027	131.62
484.245	135.62
484.463	141.62
484.681	157.62
484.9	168.62
485.118	142.62
485.336	126.62
485.554	126.62
485.772	106.62
485.99	103.62
486.209	117.62
486.427	115.62
486.645	116.62
486.863	129.62
487.081	150.62
487.299	124.62
487.517	136.62
487.735	155.62
487.953	197.62
488.171	183.62
488.389	181.62
488.607	151.62
488.825	139.62
489.043	135.62
489.261	135.62
489.479	133.62
489.696	130.62
489.914	141.62
490.132	147.62
490.35	159.62
490.568	161.62
490.786	167.62
491.003	173.62
491.221	171.62
491.439	175.62
491.657	194.62
491.874	203.62
492.092	225.62
492.31	227.62
492.527	209.62
492.745	205.62
492.963	183.62
493.18	193.62
493.398	191.62
493.615	170.62
493.833	165.62
494.05	169.62
494.268	156.62
494.485	156.62
494.703	179.62
494.92	165.62
495.138	187.62
495.355	173.62
495.573	165.62
495.79	160.62
496.008	179.62
496.225	171.62
496.442	161.62
496.66	169.62
496.877	167.62
497.094	175.62
497.312	163.62
497.529	156.62
497.746	142.62
497.963	132.62
498.181	141.62
498.398	125.62
498.615	127.62
498.832	117.62
499.049	120.62
499.267	123.62
499.484	124.62
499.701	132.62
499.918	135.62
500.135	134.62
500.352	150.62
500.569	144.62
500.786	133.62
501.003	150.62
501.22	138.62
501.437	133.62
501.654	138.62
501.871	132.62
502.088	130.62
502.305	129.62
502.522	127.62
502.739	132.62
502.956	117.62
503.172	134.62
503.389	123.62
503.606	123.62
503.823	112.62
504.04	117.62
504.256	112.62
504.473	123.62
504.69	133.62
504.907	124.62
505.123	127.62
505.34	119.62
505.557	117.62
505.773	123.62
505.99	103.62
506.207	127.62
506.423	122.62
506.64	121.62
506.856	108.62
507.073	113.62
507.289	110.62
507.506	122.62
507.722	120.62
507.939	120.62
508.155	109.62
508.372	109.62
508.588	115.62
508.805	120.62
509.021	120.62
509.238	118.62
509.454	105.62
509.67	103.62
509.887	81.62
510.103	80.62
510.319	87.62
510.536	103.62
510.752	94.62
510.968	75.62
511.184	87.62
511.401	95.62
511.617	93.62
