Data from Location4.07152019.Energy5.Lamp.07192019.3%Agarose_HRD10591_16-19-30-925.txt Node
Date: Fri Jul 19 16:19:30 EDT 2019
User: cochatt
Spectrometer: HR+D1059
Trigger mode: 1
Integration Time (sec): 1.000000E-1
Scans to average: 1
Electric dark correction enabled: true
Nonlinearity correction enabled: false
Boxcar width: 0
XAxis mode: Wavelengths
Number of Pixels in Spectrum: 2048
>>>>>Begin Spectral Data<<<<<
223.165	-12.44
223.4	-12.44
223.635	-12.44
223.869	-15.44
224.104	-6.44
224.338	-23.44
224.573	-11.44
224.808	-13.44
225.042	1.56
225.277	-2.44
225.511	-18.44
225.746	5.56
225.98	10.56
226.215	4.56
226.449	5.56
226.683	20.56
226.918	22.56
227.152	32.56
227.387	46.56
227.621	48.56
227.856	37.56
228.09	47.56
228.324	42.56
228.559	60.56
228.793	65.56
229.027	64.56
229.262	56.56
229.496	70.56
229.73	78.56
229.964	67.56
230.199	90.56
230.433	74.56
230.667	63.56
230.901	76.56
231.136	73.56
231.37	93.56
231.604	82.56
231.838	90.56
232.072	80.56
232.306	80.56
232.541	87.56
232.775	85.56
233.009	83.56
233.243	78.56
233.477	77.56
233.711	86.56
233.945	78.56
234.179	95.56
234.413	93.56
234.647	86.56
234.881	93.56
235.115	73.56
235.349	95.56
235.583	75.56
235.817	81.56
236.051	73.56
236.285	95.56
236.519	87.56
236.753	82.56
236.987	77.56
237.221	73.56
237.455	78.56
237.689	79.56
237.922	83.56
238.156	82.56
238.39	86.56
238.624	80.56
238.858	87.56
239.091	72.56
239.325	74.56
239.559	74.56
239.793	77.56
240.027	67.56
240.26	83.56
240.494	76.56
240.728	89.56
240.961	76.56
241.195	78.56
241.429	79.56
241.662	70.56
241.896	80.56
242.13	75.56
242.363	67.56
242.597	79.56
242.83	79.56
243.064	83.56
243.298	73.56
243.531	71.56
243.765	80.56
243.998	76.56
244.232	91.56
244.465	74.56
244.699	80.56
244.932	86.56
245.166	73.56
245.399	81.56
245.633	88.56
245.866	80.56
246.099	87.56
246.333	58.56
246.566	80.56
246.8	80.56
247.033	75.56
247.266	91.56
247.5	92.56
247.733	91.56
247.966	99.56
248.2	83.56
248.433	78.56
248.666	79.56
248.899	81.56
249.133	85.56
249.366	73.56
249.599	95.56
249.832	81.56
250.066	95.56
250.299	83.56
250.532	87.56
250.765	85.56
250.998	70.56
251.231	78.56
251.465	80.56
251.698	94.56
251.931	93.56
252.164	87.56
252.397	84.56
252.63	77.56
252.863	85.56
253.096	68.56
253.329	79.56
253.562	77.56
253.795	68.56
254.028	76.56
254.261	77.56
254.494	79.56
254.727	80.56
254.96	76.56
255.193	79.56
255.426	92.56
255.659	78.56
255.892	84.56
256.124	78.56
256.357	95.56
256.59	88.56
256.823	87.56
257.056	80.56
257.289	78.56
257.521	85.56
257.754	85.56
257.987	81.56
258.22	99.56
258.452	92.56
258.685	81.56
258.918	90.56
259.151	81.56
259.383	87.56
259.616	81.56
259.849	98.56
260.081	77.56
260.314	86.56
260.547	79.56
260.779	70.56
261.012	91.56
261.244	85.56
261.477	96.56
261.71	85.56
261.942	88.56
262.175	82.56
262.407	81.56
262.64	86.56
262.872	78.56
263.105	67.56
263.337	81.56
263.57	87.56
263.802	81.56
264.035	74.56
264.267	84.56
264.499	83.56
264.732	83.56
264.964	81.56
265.197	80.56
265.429	89.56
265.661	89.56
265.894	87.56
266.126	86.56
266.358	77.56
266.591	83.56
266.823	86.56
267.055	80.56
267.287	86.56
267.52	91.56
267.752	89.56
267.984	80.56
268.216	108.56
268.448	87.56
268.681	86.56
268.913	83.56
269.145	101.56
269.377	98.56
269.609	81.56
269.841	78.56
270.073	79.56
270.306	86.56
270.538	96.56
270.77	90.56
271.002	100.56
271.234	87.56
271.466	92.56
271.698	79.56
271.93	82.56
272.162	86.56
272.394	86.56
272.626	91.56
272.858	82.56
273.09	93.56
273.322	101.56
273.553	86.56
273.785	84.56
274.017	98.56
274.249	83.56
274.481	85.56
274.713	83.56
274.945	91.56
275.176	81.56
275.408	83.56
275.64	84.56
275.872	82.56
276.104	86.56
276.335	92.56
276.567	83.56
276.799	97.56
277.031	75.56
277.262	86.56
277.494	101.56
277.726	94.56
277.957	84.56
278.189	79.56
278.421	83.56
278.652	90.56
278.884	85.56
279.115	84.56
279.347	78.56
279.579	94.56
279.81	84.56
280.042	79.56
280.273	79.56
280.505	87.56
280.736	85.56
280.968	75.56
281.199	84.56
281.431	85.56
281.662	92.56
281.894	92.56
282.125	92.56
282.356	106.56
282.588	94.56
282.819	79.56
283.051	73.56
283.282	82.56
283.513	93.56
283.745	98.56
283.976	105.56
284.207	85.56
284.439	101.56
284.67	90.56
284.901	88.56
285.132	98.56
285.364	84.56
285.595	92.56
285.826	86.56
286.057	102.56
286.288	88.56
286.52	90.56
286.751	76.56
286.982	83.56
287.213	84.56
287.444	94.56
287.675	86.56
287.906	95.56
288.138	88.56
288.369	80.56
288.6	87.56
288.831	71.56
289.062	87.56
289.293	91.56
289.524	95.56
289.755	93.56
289.986	87.56
290.217	76.56
290.448	89.56
290.679	97.56
290.91	79.56
291.141	91.56
291.371	93.56
291.602	93.56
291.833	90.56
292.064	85.56
292.295	76.56
292.526	93.56
292.757	81.56
292.987	85.56
293.218	97.56
293.449	76.56
293.68	79.56
293.91	87.56
294.141	73.56
294.372	90.56
294.603	92.56
294.833	87.56
295.064	89.56
295.295	86.56
295.525	85.56
295.756	86.56
295.987	90.56
296.217	95.56
296.448	83.56
296.679	96.56
296.909	86.56
297.14	84.56
297.37	98.56
297.601	88.56
297.831	105.56
298.062	87.56
298.292	96.56
298.523	95.56
298.753	99.56
298.984	95.56
299.214	79.56
299.445	83.56
299.675	84.56
299.905	84.56
300.136	85.56
300.366	81.56
300.597	82.56
300.827	94.56
301.057	83.56
301.288	74.56
301.518	82.56
301.748	96.56
301.979	90.56
302.209	99.56
302.439	75.56
302.669	76.56
302.9	88.56
303.13	90.56
303.36	89.56
303.59	100.56
303.82	101.56
304.051	106.56
304.281	73.56
304.511	92.56
304.741	100.56
304.971	94.56
305.201	84.56
305.431	101.56
305.661	83.56
305.891	73.56
306.121	94.56
306.352	103.56
306.582	93.56
306.812	94.56
307.042	83.56
307.272	94.56
307.502	94.56
307.731	92.56
307.961	90.56
308.191	77.56
308.421	76.56
308.651	85.56
308.881	74.56
309.111	91.56
309.341	87.56
309.571	86.56
309.8	101.56
310.03	89.56
310.26	97.56
310.49	81.56
310.72	92.56
310.949	85.56
311.179	100.56
311.409	81.56
311.639	83.56
311.868	94.56
312.098	86.56
312.328	94.56
312.557	92.56
312.787	90.56
313.017	72.56
313.246	91.56
313.476	89.56
313.706	81.56
313.935	77.56
314.165	99.56
314.394	85.56
314.624	80.56
314.853	80.56
315.083	79.56
315.312	90.56
315.542	93.56
315.771	87.56
316.001	99.56
316.23	77.56
316.46	80.56
316.689	98.56
316.919	83.56
317.148	90.56
317.377	84.56
317.607	88.56
317.836	92.56
318.065	88.56
318.295	94.56
318.524	76.56
318.753	74.56
318.983	85.56
319.212	97.56
319.441	95.56
319.67	100.56
319.9	89.56
320.129	78.56
320.358	81.56
320.587	84.56
320.816	91.56
321.046	96.56
321.275	88.56
321.504	93.56
321.733	96.56
321.962	101.56
322.191	100.56
322.42	87.56
322.649	89.56
322.878	89.56
323.108	89.56
323.337	92.56
323.566	94.56
323.795	99.56
324.024	80.56
324.253	92.56
324.482	89.56
324.71	80.56
324.939	91.56
325.168	89.56
325.397	81.56
325.626	100.56
325.855	87.56
326.084	99.56
326.313	98.56
326.542	83.56
326.77	86.56
326.999	97.56
327.228	94.56
327.457	86.56
327.686	91.56
327.914	81.56
328.143	93.56
328.372	95.56
328.6	87.56
328.829	90.56
329.058	85.56
329.287	78.56
329.515	78.56
329.744	91.56
329.972	94.56
330.201	91.56
330.43	85.56
330.658	87.56
330.887	92.56
331.115	105.56
331.344	103.56
331.572	82.56
331.801	91.56
332.03	86.56
332.258	83.56
332.486	81.56
332.715	78.56
332.943	88.56
333.172	90.56
333.4	101.56
333.629	95.56
333.857	92.56
334.085	84.56
334.314	93.56
334.542	101.56
334.771	90.56
334.999	95.56
335.227	82.56
335.455	86.56
335.684	93.56
335.912	70.56
336.14	94.56
336.369	98.56
336.597	100.56
336.825	90.56
337.053	88.56
337.281	85.56
337.51	98.56
337.738	89.56
337.966	85.56
338.194	84.56
338.422	84.56
338.65	94.56
338.878	91.56
339.106	105.56
339.334	90.56
339.562	90.56
339.79	107.56
340.018	89.56
340.246	86.56
340.474	101.56
340.702	99.56
340.93	78.56
341.158	96.56
341.386	99.56
341.614	88.56
341.842	103.56
342.07	99.56
342.298	93.56
342.526	93.56
342.754	87.56
342.981	90.56
343.209	89.56
343.437	101.56
343.665	98.56
343.893	85.56
344.12	101.56
344.348	93.56
344.576	76.56
344.804	91.56
345.031	85.56
345.259	90.56
345.487	90.56
345.714	76.56
345.942	85.56
346.17	72.56
346.397	89.56
346.625	86.56
346.853	88.56
347.08	81.56
347.308	104.56
347.535	76.56
347.763	86.56
347.99	78.56
348.218	86.56
348.445	102.56
348.673	84.56
348.9	82.56
349.128	76.56
349.355	79.56
349.583	86.56
349.81	83.56
350.037	78.56
350.265	86.56
350.492	90.56
350.72	70.56
350.947	83.56
351.174	94.56
351.402	88.56
351.629	87.56
351.856	87.56
352.083	90.56
352.311	89.56
352.538	89.56
352.765	85.56
352.992	83.56
353.22	81.56
353.447	85.56
353.674	95.56
353.901	82.56
354.128	76.56
354.355	94.56
354.583	82.56
354.81	99.56
355.037	81.56
355.264	96.56
355.491	85.56
355.718	86.56
355.945	95.56
356.172	84.56
356.399	93.56
356.626	84.56
356.853	90.56
357.08	82.56
357.307	100.56
357.534	102.56
357.761	79.56
357.988	85.56
358.215	100.56
358.441	85.56
358.668	80.56
358.895	89.56
359.122	86.56
359.349	96.56
359.576	83.56
359.802	85.56
360.029	79.56
360.256	88.56
360.483	90.56
360.709	85.56
360.936	97.56
361.163	83.56
361.39	95.56
361.616	91.56
361.843	98.56
362.07	90.56
362.296	87.56
362.523	78.56
362.749	95.56
362.976	99.56
363.203	90.56
363.429	80.56
363.656	89.56
363.882	93.56
364.109	103.56
364.335	89.56
364.562	87.56
364.788	86.56
365.015	80.56
365.241	78.56
365.468	92.56
365.694	87.56
365.92	73.56
366.147	90.56
366.373	91.56
366.599	90.56
366.826	93.56
367.052	89.56
367.278	80.56
367.505	79.56
367.731	74.56
367.957	82.56
368.184	91.56
368.41	96.56
368.636	90.56
368.862	86.56
369.089	99.56
369.315	87.56
369.541	93.56
369.767	82.56
369.993	88.56
370.219	87.56
370.445	85.56
370.672	98.56
370.898	101.56
371.124	78.56
371.35	85.56
371.576	101.56
371.802	87.56
372.028	88.56
372.254	84.56
372.48	79.56
372.706	85.56
372.932	99.56
373.158	84.56
373.384	83.56
373.61	98.56
373.835	92.56
374.061	88.56
374.287	96.56
374.513	104.56
374.739	88.56
374.965	89.56
375.191	106.56
375.416	101.56
375.642	95.56
375.868	99.56
376.094	95.56
376.319	80.56
376.545	96.56
376.771	85.56
376.997	95.56
377.222	100.56
377.448	100.56
377.674	97.56
377.899	85.56
378.125	91.56
378.35	88.56
378.576	94.56
378.802	91.56
379.027	87.56
379.253	87.56
379.478	98.56
379.704	94.56
379.929	106.56
380.155	88.56
380.38	117.56
380.606	97.56
380.831	108.56
381.057	89.56
381.282	88.56
381.507	83.56
381.733	98.56
381.958	100.56
382.184	89.56
382.409	99.56
382.634	114.56
382.86	103.56
383.085	102.56
383.31	102.56
383.535	95.56
383.761	99.56
383.986	106.56
384.211	95.56
384.436	102.56
384.662	95.56
384.887	91.56
385.112	92.56
385.337	95.56
385.562	92.56
385.787	93.56
386.013	104.56
386.238	99.56
386.463	106.56
386.688	94.56
386.913	85.56
387.138	85.56
387.363	106.56
387.588	113.56
387.813	99.56
388.038	117.56
388.263	99.56
388.488	94.56
388.713	98.56
388.938	98.56
389.163	102.56
389.387	103.56
389.612	102.56
389.837	100.56
390.062	127.56
390.287	110.56
390.512	83.56
390.736	88.56
390.961	103.56
391.186	111.56
391.411	100.56
391.636	114.56
391.86	104.56
392.085	106.56
392.31	108.56
392.534	105.56
392.759	113.56
392.984	117.56
393.208	103.56
393.433	86.56
393.658	104.56
393.882	94.56
394.107	112.56
394.331	88.56
394.556	94.56
394.78	101.56
395.005	116.56
395.229	109.56
395.454	114.56
395.678	109.56
395.903	104.56
396.127	111.56
396.352	111.56
396.576	109.56
396.801	114.56
397.025	122.56
397.249	118.56
397.474	114.56
397.698	118.56
397.922	111.56
398.147	94.56
398.371	99.56
398.595	117.56
398.82	114.56
399.044	99.56
399.268	106.56
399.492	106.56
399.717	117.56
399.941	104.56
400.165	102.56
400.389	105.56
400.613	115.56
400.837	118.56
401.062	100.56
401.286	114.56
401.51	111.56
401.734	105.56
401.958	112.56
402.182	100.56
402.406	116.56
402.63	106.56
402.854	123.56
403.078	100.56
403.302	114.56
403.526	132.56
403.75	126.56
403.974	116.56
404.198	119.56
404.422	111.56
404.645	122.56
404.869	118.56
405.093	123.56
405.317	125.56
405.541	115.56
405.765	110.56
405.988	125.56
406.212	122.56
406.436	124.56
406.66	113.56
406.883	116.56
407.107	119.56
407.331	119.56
407.555	127.56
407.778	114.56
408.002	120.56
408.226	124.56
408.449	113.56
408.673	111.56
408.896	95.56
409.12	116.56
409.344	114.56
409.567	119.56
409.791	120.56
410.014	131.56
410.238	135.56
410.461	133.56
410.685	115.56
410.908	132.56
411.132	127.56
411.355	115.56
411.578	123.56
411.802	121.56
412.025	120.56
412.249	115.56
412.472	120.56
412.695	115.56
412.919	105.56
413.142	128.56
413.365	128.56
413.589	112.56
413.812	114.56
414.035	106.56
414.258	136.56
414.482	106.56
414.705	127.56
414.928	115.56
415.151	121.56
415.374	124.56
415.597	116.56
415.821	122.56
416.044	136.56
416.267	131.56
416.49	114.56
416.713	131.56
416.936	128.56
417.159	116.56
417.382	127.56
417.605	124.56
417.828	133.56
418.051	134.56
418.274	130.56
418.497	130.56
418.72	133.56
418.943	148.56
419.166	144.56
419.389	134.56
419.611	136.56
419.834	121.56
420.057	142.56
420.28	130.56
420.503	143.56
420.726	133.56
420.948	134.56
421.171	127.56
421.394	135.56
421.617	129.56
421.839	138.56
422.062	131.56
422.285	155.56
422.507	124.56
422.73	112.56
422.953	132.56
423.175	118.56
423.398	128.56
423.621	126.56
423.843	119.56
424.066	145.56
424.288	147.56
424.511	139.56
424.733	148.56
424.956	138.56
425.178	142.56
425.401	137.56
425.623	131.56
425.846	149.56
426.068	140.56
426.291	124.56
426.513	131.56
426.735	126.56
426.958	128.56
427.18	138.56
427.402	124.56
427.625	128.56
427.847	125.56
428.069	126.56
428.292	134.56
428.514	115.56
428.736	116.56
428.958	131.56
429.181	125.56
429.403	132.56
429.625	118.56
429.847	130.56
430.069	122.56
430.292	120.56
430.514	123.56
430.736	126.56
430.958	132.56
431.18	128.56
431.402	144.56
431.624	143.56
431.846	117.56
432.068	95.56
432.29	104.56
432.512	115.56
432.734	115.56
432.956	129.56
433.178	130.56
433.4	130.56
433.622	137.56
433.844	129.56
434.066	113.56
434.287	101.56
434.509	98.56
434.731	96.56
434.953	110.56
435.175	111.56
435.397	133.56
435.618	121.56
435.84	112.56
436.062	120.56
436.284	101.56
436.505	131.56
436.727	131.56
436.949	130.56
437.17	123.56
437.392	127.56
437.614	126.56
437.835	113.56
438.057	114.56
438.278	122.56
438.5	123.56
438.721	129.56
438.943	126.56
439.165	142.56
439.386	147.56
439.608	150.56
439.829	152.56
440.05	150.56
440.272	145.56
440.493	144.56
440.715	132.56
440.936	157.56
441.158	152.56
441.379	147.56
441.6	148.56
441.822	158.56
442.043	151.56
442.264	138.56
442.486	136.56
442.707	134.56
442.928	142.56
443.149	139.56
443.371	141.56
443.592	153.56
443.813	134.56
444.034	130.56
444.255	150.56
444.476	139.56
444.698	131.56
444.919	143.56
445.14	278.56
445.361	184.56
445.582	150.56
445.803	156.56
446.024	158.56
446.245	136.56
446.466	148.56
446.687	158.56
446.908	166.56
447.129	152.56
447.35	149.56
447.571	140.56
447.792	150.56
448.013	142.56
448.234	126.56
448.455	140.56
448.675	139.56
448.896	137.56
449.117	126.56
449.338	140.56
449.559	138.56
449.779	129.56
450	136.56
450.221	148.56
450.442	138.56
450.662	130.56
450.883	130.56
451.104	130.56
451.324	135.56
451.545	137.56
451.766	127.56
451.986	138.56
452.207	132.56
452.428	122.56
452.648	122.56
452.869	106.56
453.089	130.56
453.31	121.56
453.53	121.56
453.751	117.56
453.971	115.56
454.192	125.56
454.412	111.56
454.633	105.56
454.853	112.56
455.073	117.56
455.294	116.56
455.514	116.56
455.734	114.56
455.955	117.56
456.175	117.56
456.395	107.56
456.616	122.56
456.836	115.56
457.056	121.56
457.276	107.56
457.497	103.56
457.717	115.56
457.937	116.56
458.157	105.56
458.377	101.56
458.598	105.56
458.818	96.56
459.038	95.56
459.258	82.56
459.478	90.56
459.698	97.56
459.918	95.56
460.138	116.56
460.358	123.56
460.578	113.56
460.798	115.56
461.018	112.56
461.238	114.56
461.458	118.56
461.678	120.56
461.898	110.56
462.118	121.56
462.338	111.56
462.558	115.56
462.777	130.56
462.997	109.56
463.217	124.56
463.437	99.56
463.657	111.56
463.876	99.56
464.096	109.56
464.316	110.56
464.536	107.56
464.755	127.56
464.975	110.56
465.195	119.56
465.414	125.56
465.634	112.56
465.854	107.56
466.073	126.56
466.293	129.56
466.512	126.56
466.732	126.56
466.951	132.56
467.171	144.56
467.391	107.56
467.61	129.56
467.829	134.56
468.049	139.56
468.268	150.56
468.488	130.56
468.707	122.56
468.927	142.56
469.146	142.56
469.365	141.56
469.585	148.56
469.804	150.56
470.023	134.56
470.243	149.56
470.462	144.56
470.681	130.56
470.901	130.56
471.12	138.56
471.339	135.56
471.558	142.56
471.777	138.56
471.997	134.56
472.216	136.56
472.435	120.56
472.654	114.56
472.873	128.56
473.092	116.56
473.311	124.56
473.53	131.56
473.749	132.56
473.968	133.56
474.187	129.56
474.406	127.56
474.625	127.56
474.844	125.56
475.063	120.56
475.282	137.56
475.501	118.56
475.72	122.56
475.939	121.56
476.158	127.56
476.377	130.56
476.596	128.56
476.814	111.56
477.033	103.56
477.252	119.56
477.471	118.56
477.69	126.56
477.908	141.56
478.127	136.56
478.346	156.56
478.564	151.56
478.783	131.56
479.002	152.56
479.22	122.56
479.439	136.56
479.658	131.56
479.876	117.56
480.095	110.56
480.313	124.56
480.532	132.56
480.751	121.56
480.969	108.56
481.188	87.56
481.406	85.56
481.624	89.56
481.843	103.56
482.061	99.56
482.28	101.56
482.498	120.56
482.717	130.56
482.935	127.56
483.153	140.56
483.372	145.56
483.59	148.56
483.808	146.56
484.027	134.56
484.245	149.56
484.463	165.56
484.681	145.56
484.9	158.56
485.118	140.56
485.336	124.56
485.554	114.56
485.772	118.56
485.99	124.56
486.209	114.56
486.427	114.56
486.645	117.56
486.863	135.56
487.081	146.56
487.299	122.56
487.517	136.56
487.735	163.56
487.953	186.56
488.171	172.56
488.389	180.56
488.607	160.56
488.825	145.56
489.043	128.56
489.261	131.56
489.479	141.56
489.696	134.56
489.914	133.56
490.132	141.56
490.35	166.56
490.568	142.56
490.786	157.56
491.003	176.56
491.221	168.56
491.439	169.56
491.657	191.56
491.874	193.56
492.092	223.56
492.31	236.56
492.527	226.56
492.745	216.56
492.963	203.56
493.18	182.56
493.398	192.56
493.615	179.56
493.833	174.56
494.05	167.56
494.268	164.56
494.485	187.56
494.703	165.56
494.92	168.56
495.138	164.56
495.355	192.56
495.573	169.56
495.79	154.56
496.008	181.56
496.225	168.56
496.442	169.56
496.66	169.56
496.877	160.56
497.094	150.56
497.312	154.56
497.529	174.56
497.746	143.56
497.963	142.56
498.181	123.56
498.398	131.56
498.615	120.56
498.832	104.56
499.049	127.56
499.267	128.56
499.484	125.56
499.701	139.56
499.918	132.56
500.135	133.56
500.352	139.56
500.569	148.56
500.786	144.56
501.003	123.56
501.22	139.56
501.437	138.56
501.654	137.56
501.871	131.56
502.088	140.56
502.305	123.56
502.522	123.56
502.739	122.56
502.956	123.56
503.172	130.56
503.389	134.56
503.606	123.56
503.823	120.56
504.04	124.56
504.256	118.56
504.473	114.56
504.69	114.56
504.907	139.56
505.123	111.56
505.34	126.56
505.557	116.56
505.773	115.56
505.99	109.56
506.207	126.56
506.423	120.56
506.64	126.56
506.856	130.56
507.073	120.56
507.289	124.56
507.506	124.56
507.722	109.56
507.939	105.56
508.155	115.56
508.372	121.56
508.588	121.56
508.805	112.56
509.021	111.56
509.238	122.56
509.454	120.56
509.67	96.56
509.887	89.56
510.103	106.56
510.319	93.56
510.536	92.56
510.752	90.56
510.968	82.56
511.184	103.56
