Data from Location4.07152019.Energy5.Lamp.07192019.3%Agarose_HRD10591_16-19-51-925.txt Node
Date: Fri Jul 19 16:19:51 EDT 2019
User: cochatt
Spectrometer: HR+D1059
Trigger mode: 1
Integration Time (sec): 1.000000E-1
Scans to average: 1
Electric dark correction enabled: true
Nonlinearity correction enabled: false
Boxcar width: 0
XAxis mode: Wavelengths
Number of Pixels in Spectrum: 2048
>>>>>Begin Spectral Data<<<<<
223.165	-16.62
223.4	-16.62
223.635	-16.62
223.869	-21.62
224.104	-20.62
224.338	2.38
224.573	-23.62
224.808	-22.62
225.042	-13.62
225.277	-8.62
225.511	-9.62
225.746	11.38
225.98	6.38
226.215	0.38
226.449	30.38
226.683	21.38
226.918	33.38
227.152	31.38
227.387	35.38
227.621	35.38
227.856	32.38
228.09	40.38
228.324	53.38
228.559	56.38
228.793	59.38
229.027	59.38
229.262	71.38
229.496	65.38
229.73	76.38
229.964	76.38
230.199	79.38
230.433	62.38
230.667	66.38
230.901	67.38
231.136	64.38
231.37	84.38
231.604	78.38
231.838	79.38
232.072	81.38
232.306	84.38
232.541	83.38
232.775	99.38
233.009	84.38
233.243	75.38
233.477	82.38
233.711	74.38
233.945	87.38
234.179	94.38
234.413	72.38
234.647	75.38
234.881	90.38
235.115	80.38
235.349	75.38
235.583	74.38
235.817	66.38
236.051	81.38
236.285	76.38
236.519	79.38
236.753	84.38
236.987	86.38
237.221	78.38
237.455	69.38
237.689	76.38
237.922	80.38
238.156	75.38
238.39	71.38
238.624	90.38
238.858	64.38
239.091	75.38
239.325	80.38
239.559	72.38
239.793	88.38
240.027	85.38
240.26	84.38
240.494	77.38
240.728	71.38
240.961	65.38
241.195	86.38
241.429	82.38
241.662	80.38
241.896	64.38
242.13	78.38
242.363	87.38
242.597	74.38
242.83	69.38
243.064	72.38
243.298	83.38
243.531	72.38
243.765	67.38
243.998	84.38
244.232	70.38
244.465	81.38
244.699	83.38
244.932	83.38
245.166	71.38
245.399	82.38
245.633	68.38
245.866	74.38
246.099	75.38
246.333	71.38
246.566	75.38
246.8	87.38
247.033	78.38
247.266	58.38
247.5	77.38
247.733	71.38
247.966	70.38
248.2	85.38
248.433	73.38
248.666	72.38
248.899	90.38
249.133	66.38
249.366	85.38
249.599	91.38
249.832	73.38
250.066	86.38
250.299	76.38
250.532	73.38
250.765	76.38
250.998	74.38
251.231	78.38
251.465	90.38
251.698	79.38
251.931	74.38
252.164	67.38
252.397	69.38
252.63	67.38
252.863	85.38
253.096	70.38
253.329	81.38
253.562	80.38
253.795	77.38
254.028	83.38
254.261	86.38
254.494	74.38
254.727	82.38
254.96	72.38
255.193	84.38
255.426	78.38
255.659	70.38
255.892	90.38
256.124	73.38
256.357	88.38
256.59	82.38
256.823	80.38
257.056	80.38
257.289	69.38
257.521	84.38
257.754	78.38
257.987	83.38
258.22	71.38
258.452	78.38
258.685	89.38
258.918	92.38
259.151	76.38
259.383	78.38
259.616	86.38
259.849	78.38
260.081	76.38
260.314	70.38
260.547	87.38
260.779	80.38
261.012	89.38
261.244	89.38
261.477	85.38
261.71	67.38
261.942	91.38
262.175	88.38
262.407	90.38
262.64	70.38
262.872	80.38
263.105	71.38
263.337	83.38
263.57	74.38
263.802	82.38
264.035	74.38
264.267	80.38
264.499	65.38
264.732	72.38
264.964	87.38
265.197	88.38
265.429	87.38
265.661	79.38
265.894	91.38
266.126	84.38
266.358	80.38
266.591	88.38
266.823	87.38
267.055	82.38
267.287	72.38
267.52	75.38
267.752	80.38
267.984	69.38
268.216	65.38
268.448	82.38
268.681	80.38
268.913	82.38
269.145	80.38
269.377	77.38
269.609	91.38
269.841	87.38
270.073	67.38
270.306	84.38
270.538	80.38
270.77	79.38
271.002	81.38
271.234	71.38
271.466	93.38
271.698	72.38
271.93	90.38
272.162	87.38
272.394	88.38
272.626	88.38
272.858	92.38
273.09	87.38
273.322	74.38
273.553	87.38
273.785	77.38
274.017	75.38
274.249	76.38
274.481	86.38
274.713	83.38
274.945	79.38
275.176	84.38
275.408	90.38
275.64	94.38
275.872	87.38
276.104	92.38
276.335	93.38
276.567	76.38
276.799	76.38
277.031	81.38
277.262	81.38
277.494	87.38
277.726	69.38
277.957	83.38
278.189	87.38
278.421	97.38
278.652	88.38
278.884	86.38
279.115	80.38
279.347	79.38
279.579	81.38
279.81	86.38
280.042	62.38
280.273	60.38
280.505	75.38
280.736	80.38
280.968	85.38
281.199	86.38
281.431	98.38
281.662	80.38
281.894	88.38
282.125	80.38
282.356	75.38
282.588	79.38
282.819	78.38
283.051	80.38
283.282	79.38
283.513	96.38
283.745	72.38
283.976	85.38
284.207	81.38
284.439	85.38
284.67	82.38
284.901	94.38
285.132	98.38
285.364	78.38
285.595	86.38
285.826	84.38
286.057	89.38
286.288	74.38
286.52	80.38
286.751	87.38
286.982	87.38
287.213	73.38
287.444	82.38
287.675	90.38
287.906	83.38
288.138	90.38
288.369	70.38
288.6	61.38
288.831	98.38
289.062	82.38
289.293	92.38
289.524	87.38
289.755	82.38
289.986	93.38
290.217	88.38
290.448	85.38
290.679	87.38
290.91	74.38
291.141	77.38
291.371	84.38
291.602	101.38
291.833	87.38
292.064	87.38
292.295	88.38
292.526	79.38
292.757	91.38
292.987	87.38
293.218	83.38
293.449	77.38
293.68	77.38
293.91	91.38
294.141	68.38
294.372	75.38
294.603	92.38
294.833	97.38
295.064	82.38
295.295	81.38
295.525	91.38
295.756	85.38
295.987	79.38
296.217	76.38
296.448	87.38
296.679	95.38
296.909	89.38
297.14	97.38
297.37	96.38
297.601	92.38
297.831	91.38
298.062	90.38
298.292	89.38
298.523	82.38
298.753	91.38
298.984	90.38
299.214	97.38
299.445	80.38
299.675	93.38
299.905	82.38
300.136	81.38
300.366	76.38
300.597	95.38
300.827	92.38
301.057	80.38
301.288	95.38
301.518	81.38
301.748	93.38
301.979	89.38
302.209	88.38
302.439	89.38
302.669	92.38
302.9	83.38
303.13	86.38
303.36	94.38
303.59	74.38
303.82	90.38
304.051	72.38
304.281	77.38
304.511	81.38
304.741	77.38
304.971	69.38
305.201	82.38
305.431	91.38
305.661	82.38
305.891	90.38
306.121	82.38
306.352	85.38
306.582	92.38
306.812	98.38
307.042	69.38
307.272	74.38
307.502	66.38
307.731	81.38
307.961	82.38
308.191	73.38
308.421	84.38
308.651	93.38
308.881	101.38
309.111	87.38
309.341	89.38
309.571	72.38
309.8	86.38
310.03	76.38
310.26	90.38
310.49	90.38
310.72	75.38
310.949	86.38
311.179	99.38
311.409	78.38
311.639	76.38
311.868	87.38
312.098	88.38
312.328	91.38
312.557	87.38
312.787	67.38
313.017	86.38
313.246	82.38
313.476	83.38
313.706	82.38
313.935	79.38
314.165	85.38
314.394	69.38
314.624	76.38
314.853	86.38
315.083	93.38
315.312	91.38
315.542	83.38
315.771	88.38
316.001	71.38
316.23	98.38
316.46	85.38
316.689	90.38
316.919	69.38
317.148	90.38
317.377	89.38
317.607	91.38
317.836	86.38
318.065	92.38
318.295	63.38
318.524	84.38
318.753	91.38
318.983	89.38
319.212	72.38
319.441	82.38
319.67	82.38
319.9	75.38
320.129	96.38
320.358	87.38
320.587	78.38
320.816	81.38
321.046	82.38
321.275	79.38
321.504	87.38
321.733	80.38
321.962	82.38
322.191	69.38
322.42	94.38
322.649	82.38
322.878	86.38
323.108	95.38
323.337	73.38
323.566	88.38
323.795	88.38
324.024	94.38
324.253	86.38
324.482	79.38
324.71	81.38
324.939	87.38
325.168	70.38
325.397	81.38
325.626	90.38
325.855	81.38
326.084	85.38
326.313	89.38
326.542	81.38
326.77	83.38
326.999	96.38
327.228	86.38
327.457	76.38
327.686	89.38
327.914	87.38
328.143	84.38
328.372	79.38
328.6	77.38
328.829	89.38
329.058	82.38
329.287	79.38
329.515	86.38
329.744	88.38
329.972	69.38
330.201	75.38
330.43	81.38
330.658	98.38
330.887	74.38
331.115	88.38
331.344	82.38
331.572	93.38
331.801	94.38
332.03	90.38
332.258	90.38
332.486	82.38
332.715	84.38
332.943	100.38
333.172	73.38
333.4	94.38
333.629	81.38
333.857	89.38
334.085	88.38
334.314	90.38
334.542	82.38
334.771	88.38
334.999	70.38
335.227	81.38
335.455	88.38
335.684	88.38
335.912	81.38
336.14	77.38
336.369	92.38
336.597	58.38
336.825	73.38
337.053	97.38
337.281	70.38
337.51	96.38
337.738	78.38
337.966	70.38
338.194	80.38
338.422	82.38
338.65	78.38
338.878	86.38
339.106	98.38
339.334	90.38
339.562	86.38
339.79	81.38
340.018	85.38
340.246	90.38
340.474	77.38
340.702	70.38
340.93	77.38
341.158	80.38
341.386	70.38
341.614	86.38
341.842	84.38
342.07	81.38
342.298	84.38
342.526	95.38
342.754	84.38
342.981	103.38
343.209	89.38
343.437	76.38
343.665	84.38
343.893	85.38
344.12	96.38
344.348	77.38
344.576	83.38
344.804	69.38
345.031	76.38
345.259	92.38
345.487	91.38
345.714	80.38
345.942	90.38
346.17	84.38
346.397	95.38
346.625	84.38
346.853	88.38
347.08	84.38
347.308	84.38
347.535	80.38
347.763	84.38
347.99	79.38
348.218	82.38
348.445	91.38
348.673	87.38
348.9	94.38
349.128	91.38
349.355	85.38
349.583	84.38
349.81	83.38
350.037	79.38
350.265	78.38
350.492	89.38
350.72	71.38
350.947	75.38
351.174	81.38
351.402	85.38
351.629	89.38
351.856	97.38
352.083	84.38
352.311	94.38
352.538	86.38
352.765	83.38
352.992	87.38
353.22	81.38
353.447	91.38
353.674	70.38
353.901	88.38
354.128	82.38
354.355	91.38
354.583	83.38
354.81	62.38
355.037	86.38
355.264	84.38
355.491	68.38
355.718	97.38
355.945	92.38
356.172	91.38
356.399	86.38
356.626	75.38
356.853	105.38
357.08	93.38
357.307	84.38
357.534	73.38
357.761	84.38
357.988	82.38
358.215	83.38
358.441	100.38
358.668	84.38
358.895	83.38
359.122	89.38
359.349	76.38
359.576	77.38
359.802	80.38
360.029	89.38
360.256	90.38
360.483	74.38
360.709	81.38
360.936	92.38
361.163	90.38
361.39	79.38
361.616	87.38
361.843	82.38
362.07	89.38
362.296	75.38
362.523	93.38
362.749	92.38
362.976	84.38
363.203	87.38
363.429	75.38
363.656	75.38
363.882	77.38
364.109	91.38
364.335	78.38
364.562	82.38
364.788	80.38
365.015	95.38
365.241	66.38
365.468	84.38
365.694	80.38
365.92	89.38
366.147	90.38
366.373	90.38
366.599	85.38
366.826	84.38
367.052	98.38
367.278	97.38
367.505	90.38
367.731	82.38
367.957	92.38
368.184	87.38
368.41	78.38
368.636	87.38
368.862	84.38
369.089	87.38
369.315	68.38
369.541	90.38
369.767	91.38
369.993	103.38
370.219	89.38
370.445	93.38
370.672	92.38
370.898	87.38
371.124	96.38
371.35	94.38
371.576	79.38
371.802	87.38
372.028	84.38
372.254	97.38
372.48	87.38
372.706	95.38
372.932	83.38
373.158	85.38
373.384	80.38
373.61	79.38
373.835	104.38
374.061	106.38
374.287	79.38
374.513	86.38
374.739	84.38
374.965	86.38
375.191	102.38
375.416	82.38
375.642	82.38
375.868	100.38
376.094	94.38
376.319	92.38
376.545	86.38
376.771	90.38
376.997	86.38
377.222	88.38
377.448	102.38
377.674	101.38
377.899	92.38
378.125	91.38
378.35	98.38
378.576	99.38
378.802	87.38
379.027	95.38
379.253	93.38
379.478	93.38
379.704	76.38
379.929	97.38
380.155	84.38
380.38	99.38
380.606	98.38
380.831	87.38
381.057	100.38
381.282	92.38
381.507	95.38
381.733	89.38
381.958	96.38
382.184	91.38
382.409	95.38
382.634	108.38
382.86	101.38
383.085	102.38
383.31	100.38
383.535	118.38
383.761	100.38
383.986	106.38
384.211	100.38
384.436	98.38
384.662	103.38
384.887	109.38
385.112	86.38
385.337	90.38
385.562	99.38
385.787	101.38
386.013	90.38
386.238	104.38
386.463	92.38
386.688	100.38
386.913	101.38
387.138	92.38
387.363	96.38
387.588	107.38
387.813	100.38
388.038	82.38
388.263	90.38
388.488	78.38
388.713	82.38
388.938	100.38
389.163	94.38
389.387	94.38
389.612	117.38
389.837	115.38
390.062	114.38
390.287	87.38
390.512	96.38
390.736	106.38
390.961	105.38
391.186	95.38
391.411	100.38
391.636	111.38
391.86	102.38
392.085	103.38
392.31	97.38
392.534	118.38
392.759	104.38
392.984	101.38
393.208	95.38
393.433	112.38
393.658	106.38
393.882	107.38
394.107	102.38
394.331	101.38
394.556	100.38
394.78	103.38
395.005	103.38
395.229	108.38
395.454	111.38
395.678	94.38
395.903	100.38
396.127	97.38
396.352	107.38
396.576	106.38
396.801	91.38
397.025	104.38
397.249	110.38
397.474	110.38
397.698	97.38
397.922	111.38
398.147	102.38
398.371	114.38
398.595	104.38
398.82	117.38
399.044	93.38
399.268	96.38
399.492	117.38
399.717	114.38
399.941	118.38
400.165	116.38
400.389	126.38
400.613	113.38
400.837	105.38
401.062	100.38
401.286	111.38
401.51	103.38
401.734	97.38
401.958	98.38
402.182	111.38
402.406	105.38
402.63	108.38
402.854	116.38
403.078	123.38
403.302	125.38
403.526	102.38
403.75	105.38
403.974	113.38
404.198	97.38
404.422	117.38
404.645	122.38
404.869	115.38
405.093	104.38
405.317	110.38
405.541	134.38
405.765	99.38
405.988	120.38
406.212	110.38
406.436	112.38
406.66	117.38
406.883	118.38
407.107	113.38
407.331	105.38
407.555	112.38
407.778	107.38
408.002	113.38
408.226	111.38
408.449	123.38
408.673	120.38
408.896	116.38
409.12	127.38
409.344	118.38
409.567	101.38
409.791	128.38
410.014	119.38
410.238	117.38
410.461	124.38
410.685	119.38
410.908	120.38
411.132	122.38
411.355	115.38
411.578	111.38
411.802	132.38
412.025	102.38
412.249	112.38
412.472	122.38
412.695	124.38
412.919	113.38
413.142	100.38
413.365	109.38
413.589	117.38
413.812	109.38
414.035	117.38
414.258	111.38
414.482	116.38
414.705	113.38
414.928	101.38
415.151	105.38
415.374	128.38
415.597	134.38
415.821	120.38
416.044	114.38
416.267	119.38
416.49	125.38
416.713	114.38
416.936	106.38
417.159	113.38
417.382	116.38
417.605	126.38
417.828	131.38
418.051	126.38
418.274	130.38
418.497	134.38
418.72	141.38
418.943	130.38
419.166	132.38
419.389	123.38
419.611	130.38
419.834	121.38
420.057	125.38
420.28	128.38
420.503	126.38
420.726	120.38
420.948	124.38
421.171	122.38
421.394	130.38
421.617	126.38
421.839	133.38
422.062	130.38
422.285	126.38
422.507	130.38
422.73	128.38
422.953	124.38
423.175	116.38
423.398	114.38
423.621	140.38
423.843	130.38
424.066	140.38
424.288	120.38
424.511	153.38
424.733	126.38
424.956	137.38
425.178	142.38
425.401	114.38
425.623	124.38
425.846	121.38
426.068	130.38
426.291	115.38
426.513	127.38
426.735	124.38
426.958	126.38
427.18	125.38
427.402	136.38
427.625	130.38
427.847	121.38
428.069	134.38
428.292	122.38
428.514	107.38
428.736	115.38
428.958	131.38
429.181	122.38
429.403	130.38
429.625	121.38
429.847	132.38
430.069	126.38
430.292	122.38
430.514	119.38
430.736	134.38
430.958	134.38
431.18	125.38
431.402	130.38
431.624	128.38
431.846	114.38
432.068	104.38
432.29	110.38
432.512	102.38
432.734	107.38
432.956	127.38
433.178	137.38
433.4	136.38
433.622	117.38
433.844	130.38
434.066	132.38
434.287	108.38
434.509	88.38
434.731	109.38
434.953	111.38
435.175	115.38
435.397	126.38
435.618	119.38
435.84	92.38
436.062	113.38
436.284	130.38
436.505	115.38
436.727	134.38
436.949	132.38
437.17	111.38
437.392	134.38
437.614	118.38
437.835	111.38
438.057	124.38
438.278	120.38
438.5	98.38
438.721	144.38
438.943	140.38
439.165	128.38
439.386	130.38
439.608	136.38
439.829	140.38
440.05	150.38
440.272	140.38
440.493	143.38
440.715	140.38
440.936	153.38
441.158	148.38
441.379	150.38
441.6	145.38
441.822	144.38
442.043	128.38
442.264	131.38
442.486	129.38
442.707	122.38
442.928	122.38
443.149	149.38
443.371	127.38
443.592	135.38
443.813	121.38
444.034	139.38
444.255	140.38
444.476	127.38
444.698	134.38
444.919	126.38
445.14	274.38
445.361	203.38
445.582	154.38
445.803	160.38
446.024	149.38
446.245	145.38
446.466	148.38
446.687	150.38
446.908	140.38
447.129	153.38
447.35	136.38
447.571	139.38
447.792	139.38
448.013	151.38
448.234	124.38
448.455	137.38
448.675	129.38
448.896	129.38
449.117	125.38
449.338	139.38
449.559	129.38
449.779	138.38
450	128.38
450.221	133.38
450.442	138.38
450.662	122.38
450.883	132.38
451.104	134.38
451.324	134.38
451.545	123.38
451.766	124.38
451.986	113.38
452.207	121.38
452.428	114.38
452.648	113.38
452.869	126.38
453.089	107.38
453.31	107.38
453.53	112.38
453.751	107.38
453.971	108.38
454.192	97.38
454.412	103.38
454.633	117.38
454.853	122.38
455.073	132.38
455.294	126.38
455.514	129.38
455.734	106.38
455.955	112.38
456.175	120.38
456.395	104.38
456.616	114.38
456.836	108.38
457.056	114.38
457.276	94.38
457.497	91.38
457.717	98.38
457.937	93.38
458.157	88.38
458.377	106.38
458.598	96.38
458.818	87.38
459.038	102.38
459.258	79.38
459.478	81.38
459.698	98.38
459.918	95.38
460.138	104.38
460.358	116.38
460.578	118.38
460.798	114.38
461.018	106.38
461.238	110.38
461.458	112.38
461.678	117.38
461.898	120.38
462.118	119.38
462.338	97.38
462.558	118.38
462.777	98.38
462.997	100.38
463.217	94.38
463.437	110.38
463.657	110.38
463.876	112.38
464.096	99.38
464.316	98.38
464.536	113.38
464.755	106.38
464.975	100.38
465.195	122.38
465.414	118.38
465.634	114.38
465.854	119.38
466.073	116.38
466.293	123.38
466.512	119.38
466.732	112.38
466.951	140.38
467.171	146.38
467.391	139.38
467.61	124.38
467.829	123.38
468.049	150.38
468.268	123.38
468.488	137.38
468.707	124.38
468.927	134.38
469.146	132.38
469.365	144.38
469.585	133.38
469.804	127.38
470.023	138.38
470.243	140.38
470.462	129.38
470.681	145.38
470.901	137.38
471.12	139.38
471.339	123.38
471.558	139.38
471.777	124.38
471.997	138.38
472.216	114.38
472.435	108.38
472.654	103.38
472.873	112.38
473.092	109.38
473.311	121.38
473.53	123.38
473.749	127.38
473.968	126.38
474.187	118.38
474.406	118.38
474.625	125.38
474.844	138.38
475.063	135.38
475.282	119.38
475.501	131.38
475.72	129.38
475.939	123.38
476.158	125.38
476.377	105.38
476.596	107.38
476.814	110.38
477.033	101.38
477.252	107.38
477.471	119.38
477.69	128.38
477.908	135.38
478.127	127.38
478.346	127.38
478.564	121.38
478.783	132.38
479.002	135.38
479.22	141.38
479.439	134.38
479.658	129.38
479.876	118.38
480.095	103.38
480.313	124.38
480.532	118.38
480.751	106.38
480.969	102.38
481.188	106.38
481.406	96.38
481.624	95.38
481.843	88.38
482.061	105.38
482.28	110.38
482.498	118.38
482.717	105.38
482.935	121.38
483.153	129.38
483.372	151.38
483.59	137.38
483.808	150.38
484.027	131.38
484.245	122.38
484.463	135.38
484.681	161.38
484.9	166.38
485.118	128.38
485.336	122.38
485.554	108.38
485.772	103.38
485.99	111.38
486.209	88.38
486.427	117.38
486.645	122.38
486.863	141.38
487.081	119.38
487.299	130.38
487.517	140.38
487.735	151.38
487.953	183.38
488.171	171.38
488.389	163.38
488.607	158.38
488.825	146.38
489.043	126.38
489.261	120.38
489.479	116.38
489.696	138.38
489.914	148.38
490.132	124.38
490.35	137.38
490.568	137.38
490.786	167.38
491.003	177.38
491.221	183.38
491.439	167.38
491.657	184.38
491.874	204.38
492.092	216.38
492.31	229.38
492.527	216.38
492.745	194.38
492.963	188.38
493.18	186.38
493.398	175.38
493.615	177.38
493.833	170.38
494.05	178.38
494.268	171.38
494.485	164.38
494.703	185.38
494.92	166.38
495.138	156.38
495.355	150.38
495.573	147.38
495.79	150.38
496.008	159.38
496.225	170.38
496.442	164.38
496.66	165.38
496.877	161.38
497.094	152.38
497.312	145.38
497.529	156.38
497.746	153.38
497.963	144.38
498.181	123.38
498.398	131.38
498.615	116.38
498.832	116.38
499.049	127.38
499.267	113.38
499.484	125.38
499.701	124.38
499.918	126.38
500.135	135.38
500.352	131.38
500.569	151.38
500.786	144.38
501.003	137.38
501.22	142.38
501.437	139.38
501.654	128.38
501.871	108.38
502.088	129.38
502.305	134.38
502.522	123.38
502.739	132.38
502.956	129.38
503.172	121.38
503.389	119.38
503.606	122.38
503.823	133.38
504.04	112.38
504.256	116.38
504.473	102.38
504.69	110.38
504.907	119.38
505.123	125.38
505.34	110.38
505.557	131.38
505.773	126.38
505.99	105.38
506.207	101.38
506.423	126.38
506.64	106.38
506.856	116.38
507.073	116.38
507.289	116.38
507.506	106.38
507.722	110.38
507.939	114.38
508.155	118.38
508.372	113.38
508.588	98.38
508.805	115.38
509.021	117.38
509.238	116.38
509.454	102.38
509.67	114.38
509.887	98.38
510.103	97.38
510.319	84.38
510.536	90.38
510.752	78.38
510.968	70.38
511.184	88.38
511.401	80.38
511.617	86.38
511.833	89.38
