Data from Location4.07152019.Energy5.Lamp.07192019.3%Agarose_HRD10591_16-18-32-926.txt Node
Date: Fri Jul 19 16:18:32 EDT 2019
User: cochatt
Spectrometer: HR+D1059
Trigger mode: 1
Integration Time (sec): 1.000000E-1
Scans to average: 1
Electric dark correction enabled: true
Nonlinearity correction enabled: false
Boxcar width: 0
XAxis mode: Wavelengths
Number of Pixels in Spectrum: 2048
>>>>>Begin Spectral Data<<<<<
223.165	-16.88
223.4	-16.88
223.635	-16.88
223.869	-25.88
224.104	-6.88
224.338	-15.88
224.573	-15.88
224.808	-29.88
225.042	-3.88
225.277	-2.88
225.511	-1.88
225.746	8.12
225.98	1.12
226.215	6.12
226.449	19.12
226.683	20.12
226.918	21.12
227.152	44.12
227.387	45.12
227.621	48.12
227.856	36.12
228.09	56.12
228.324	46.12
228.559	60.12
228.793	59.12
229.027	61.12
229.262	61.12
229.496	58.12
229.73	69.12
229.964	79.12
230.199	71.12
230.433	73.12
230.667	84.12
230.901	90.12
231.136	69.12
231.37	88.12
231.604	90.12
231.838	85.12
232.072	81.12
232.306	76.12
232.541	80.12
232.775	72.12
233.009	71.12
233.243	79.12
233.477	73.12
233.711	78.12
233.945	85.12
234.179	92.12
234.413	97.12
234.647	93.12
234.881	91.12
235.115	74.12
235.349	74.12
235.583	89.12
235.817	80.12
236.051	72.12
236.285	83.12
236.519	73.12
236.753	78.12
236.987	80.12
237.221	72.12
237.455	78.12
237.689	71.12
237.922	74.12
238.156	87.12
238.39	83.12
238.624	81.12
238.858	82.12
239.091	74.12
239.325	72.12
239.559	77.12
239.793	93.12
240.027	59.12
240.26	73.12
240.494	70.12
240.728	87.12
240.961	79.12
241.195	82.12
241.429	69.12
241.662	68.12
241.896	70.12
242.13	73.12
242.363	73.12
242.597	72.12
242.83	85.12
243.064	79.12
243.298	86.12
243.531	84.12
243.765	84.12
243.998	72.12
244.232	66.12
244.465	61.12
244.699	72.12
244.932	69.12
245.166	67.12
245.399	87.12
245.633	84.12
245.866	91.12
246.099	82.12
246.333	72.12
246.566	65.12
246.8	91.12
247.033	83.12
247.266	80.12
247.5	72.12
247.733	92.12
247.966	82.12
248.2	89.12
248.433	79.12
248.666	83.12
248.899	88.12
249.133	89.12
249.366	69.12
249.599	75.12
249.832	77.12
250.066	82.12
250.299	86.12
250.532	83.12
250.765	79.12
250.998	77.12
251.231	85.12
251.465	87.12
251.698	79.12
251.931	94.12
252.164	85.12
252.397	95.12
252.63	84.12
252.863	68.12
253.096	90.12
253.329	78.12
253.562	83.12
253.795	86.12
254.028	85.12
254.261	85.12
254.494	81.12
254.727	89.12
254.96	81.12
255.193	86.12
255.426	82.12
255.659	91.12
255.892	91.12
256.124	74.12
256.357	105.12
256.59	77.12
256.823	79.12
257.056	97.12
257.289	88.12
257.521	88.12
257.754	84.12
257.987	72.12
258.22	75.12
258.452	90.12
258.685	83.12
258.918	83.12
259.151	69.12
259.383	86.12
259.616	84.12
259.849	81.12
260.081	62.12
260.314	83.12
260.547	85.12
260.779	84.12
261.012	84.12
261.244	90.12
261.477	89.12
261.71	78.12
261.942	87.12
262.175	64.12
262.407	83.12
262.64	86.12
262.872	91.12
263.105	74.12
263.337	89.12
263.57	86.12
263.802	77.12
264.035	78.12
264.267	85.12
264.499	78.12
264.732	97.12
264.964	87.12
265.197	78.12
265.429	68.12
265.661	80.12
265.894	87.12
266.126	84.12
266.358	86.12
266.591	83.12
266.823	88.12
267.055	92.12
267.287	92.12
267.52	73.12
267.752	85.12
267.984	88.12
268.216	73.12
268.448	83.12
268.681	83.12
268.913	85.12
269.145	76.12
269.377	71.12
269.609	78.12
269.841	60.12
270.073	84.12
270.306	78.12
270.538	83.12
270.77	84.12
271.002	67.12
271.234	91.12
271.466	88.12
271.698	76.12
271.93	72.12
272.162	91.12
272.394	88.12
272.626	85.12
272.858	93.12
273.09	82.12
273.322	87.12
273.553	71.12
273.785	73.12
274.017	70.12
274.249	84.12
274.481	84.12
274.713	82.12
274.945	83.12
275.176	84.12
275.408	69.12
275.64	76.12
275.872	77.12
276.104	80.12
276.335	76.12
276.567	72.12
276.799	90.12
277.031	97.12
277.262	86.12
277.494	75.12
277.726	85.12
277.957	69.12
278.189	86.12
278.421	92.12
278.652	77.12
278.884	75.12
279.115	75.12
279.347	101.12
279.579	89.12
279.81	82.12
280.042	81.12
280.273	84.12
280.505	82.12
280.736	84.12
280.968	72.12
281.199	84.12
281.431	85.12
281.662	79.12
281.894	84.12
282.125	83.12
282.356	86.12
282.588	83.12
282.819	84.12
283.051	76.12
283.282	78.12
283.513	80.12
283.745	83.12
283.976	87.12
284.207	85.12
284.439	88.12
284.67	93.12
284.901	85.12
285.132	86.12
285.364	88.12
285.595	83.12
285.826	92.12
286.057	91.12
286.288	80.12
286.52	84.12
286.751	65.12
286.982	83.12
287.213	80.12
287.444	78.12
287.675	88.12
287.906	73.12
288.138	82.12
288.369	94.12
288.6	79.12
288.831	76.12
289.062	98.12
289.293	76.12
289.524	96.12
289.755	81.12
289.986	69.12
290.217	89.12
290.448	92.12
290.679	93.12
290.91	78.12
291.141	80.12
291.371	93.12
291.602	85.12
291.833	86.12
292.064	96.12
292.295	88.12
292.526	81.12
292.757	91.12
292.987	88.12
293.218	81.12
293.449	77.12
293.68	84.12
293.91	85.12
294.141	73.12
294.372	72.12
294.603	77.12
294.833	88.12
295.064	73.12
295.295	81.12
295.525	79.12
295.756	79.12
295.987	85.12
296.217	87.12
296.448	86.12
296.679	80.12
296.909	78.12
297.14	81.12
297.37	96.12
297.601	94.12
297.831	87.12
298.062	83.12
298.292	77.12
298.523	78.12
298.753	89.12
298.984	92.12
299.214	71.12
299.445	88.12
299.675	95.12
299.905	100.12
300.136	94.12
300.366	77.12
300.597	74.12
300.827	90.12
301.057	88.12
301.288	83.12
301.518	86.12
301.748	82.12
301.979	87.12
302.209	91.12
302.439	88.12
302.669	84.12
302.9	84.12
303.13	82.12
303.36	85.12
303.59	86.12
303.82	84.12
304.051	82.12
304.281	81.12
304.511	72.12
304.741	92.12
304.971	86.12
305.201	85.12
305.431	88.12
305.661	74.12
305.891	60.12
306.121	89.12
306.352	98.12
306.582	81.12
306.812	89.12
307.042	78.12
307.272	88.12
307.502	87.12
307.731	83.12
307.961	89.12
308.191	92.12
308.421	84.12
308.651	84.12
308.881	86.12
309.111	79.12
309.341	77.12
309.571	93.12
309.8	92.12
310.03	85.12
310.26	93.12
310.49	104.12
310.72	74.12
310.949	86.12
311.179	88.12
311.409	77.12
311.639	85.12
311.868	88.12
312.098	86.12
312.328	95.12
312.557	87.12
312.787	78.12
313.017	85.12
313.246	72.12
313.476	76.12
313.706	78.12
313.935	77.12
314.165	86.12
314.394	85.12
314.624	88.12
314.853	94.12
315.083	76.12
315.312	84.12
315.542	78.12
315.771	93.12
316.001	77.12
316.23	93.12
316.46	81.12
316.689	87.12
316.919	82.12
317.148	77.12
317.377	85.12
317.607	90.12
317.836	94.12
318.065	86.12
318.295	73.12
318.524	76.12
318.753	84.12
318.983	78.12
319.212	73.12
319.441	85.12
319.67	88.12
319.9	79.12
320.129	86.12
320.358	93.12
320.587	92.12
320.816	93.12
321.046	96.12
321.275	78.12
321.504	77.12
321.733	78.12
321.962	84.12
322.191	94.12
322.42	71.12
322.649	94.12
322.878	67.12
323.108	88.12
323.337	97.12
323.566	85.12
323.795	90.12
324.024	91.12
324.253	77.12
324.482	76.12
324.71	86.12
324.939	90.12
325.168	85.12
325.397	77.12
325.626	82.12
325.855	79.12
326.084	75.12
326.313	68.12
326.542	78.12
326.77	87.12
326.999	89.12
327.228	77.12
327.457	91.12
327.686	82.12
327.914	86.12
328.143	92.12
328.372	83.12
328.6	82.12
328.829	86.12
329.058	86.12
329.287	85.12
329.515	84.12
329.744	96.12
329.972	89.12
330.201	86.12
330.43	84.12
330.658	93.12
330.887	99.12
331.115	77.12
331.344	100.12
331.572	76.12
331.801	81.12
332.03	83.12
332.258	84.12
332.486	73.12
332.715	86.12
332.943	84.12
333.172	85.12
333.4	79.12
333.629	91.12
333.857	91.12
334.085	74.12
334.314	73.12
334.542	80.12
334.771	84.12
334.999	79.12
335.227	71.12
335.455	85.12
335.684	80.12
335.912	87.12
336.14	87.12
336.369	88.12
336.597	85.12
336.825	94.12
337.053	89.12
337.281	92.12
337.51	73.12
337.738	97.12
337.966	96.12
338.194	94.12
338.422	98.12
338.65	91.12
338.878	77.12
339.106	96.12
339.334	85.12
339.562	87.12
339.79	73.12
340.018	79.12
340.246	87.12
340.474	92.12
340.702	81.12
340.93	91.12
341.158	94.12
341.386	92.12
341.614	82.12
341.842	89.12
342.07	57.12
342.298	82.12
342.526	79.12
342.754	90.12
342.981	89.12
343.209	93.12
343.437	92.12
343.665	83.12
343.893	93.12
344.12	89.12
344.348	76.12
344.576	75.12
344.804	90.12
345.031	76.12
345.259	83.12
345.487	87.12
345.714	72.12
345.942	83.12
346.17	82.12
346.397	95.12
346.625	88.12
346.853	83.12
347.08	84.12
347.308	92.12
347.535	90.12
347.763	74.12
347.99	83.12
348.218	88.12
348.445	76.12
348.673	80.12
348.9	81.12
349.128	75.12
349.355	100.12
349.583	78.12
349.81	89.12
350.037	85.12
350.265	83.12
350.492	82.12
350.72	75.12
350.947	81.12
351.174	86.12
351.402	87.12
351.629	70.12
351.856	89.12
352.083	85.12
352.311	103.12
352.538	61.12
352.765	90.12
352.992	100.12
353.22	76.12
353.447	92.12
353.674	93.12
353.901	84.12
354.128	72.12
354.355	79.12
354.583	88.12
354.81	87.12
355.037	88.12
355.264	82.12
355.491	67.12
355.718	82.12
355.945	88.12
356.172	94.12
356.399	62.12
356.626	83.12
356.853	66.12
357.08	89.12
357.307	97.12
357.534	74.12
357.761	93.12
357.988	84.12
358.215	90.12
358.441	82.12
358.668	77.12
358.895	82.12
359.122	89.12
359.349	73.12
359.576	83.12
359.802	78.12
360.029	86.12
360.256	89.12
360.483	75.12
360.709	87.12
360.936	83.12
361.163	80.12
361.39	90.12
361.616	86.12
361.843	83.12
362.07	73.12
362.296	94.12
362.523	65.12
362.749	77.12
362.976	85.12
363.203	103.12
363.429	93.12
363.656	90.12
363.882	90.12
364.109	93.12
364.335	63.12
364.562	90.12
364.788	84.12
365.015	77.12
365.241	71.12
365.468	86.12
365.694	76.12
365.92	94.12
366.147	87.12
366.373	98.12
366.599	84.12
366.826	71.12
367.052	65.12
367.278	97.12
367.505	96.12
367.731	79.12
367.957	91.12
368.184	92.12
368.41	81.12
368.636	97.12
368.862	99.12
369.089	97.12
369.315	94.12
369.541	83.12
369.767	104.12
369.993	85.12
370.219	87.12
370.445	76.12
370.672	91.12
370.898	88.12
371.124	87.12
371.35	76.12
371.576	94.12
371.802	94.12
372.028	113.12
372.254	92.12
372.48	99.12
372.706	98.12
372.932	101.12
373.158	98.12
373.384	87.12
373.61	86.12
373.835	96.12
374.061	96.12
374.287	95.12
374.513	88.12
374.739	83.12
374.965	90.12
375.191	90.12
375.416	90.12
375.642	101.12
375.868	86.12
376.094	89.12
376.319	97.12
376.545	95.12
376.771	100.12
376.997	84.12
377.222	94.12
377.448	97.12
377.674	111.12
377.899	98.12
378.125	88.12
378.35	93.12
378.576	81.12
378.802	121.12
379.027	101.12
379.253	95.12
379.478	95.12
379.704	87.12
379.929	81.12
380.155	92.12
380.38	88.12
380.606	106.12
380.831	108.12
381.057	109.12
381.282	100.12
381.507	92.12
381.733	97.12
381.958	112.12
382.184	98.12
382.409	82.12
382.634	115.12
382.86	99.12
383.085	107.12
383.31	102.12
383.535	100.12
383.761	90.12
383.986	91.12
384.211	102.12
384.436	92.12
384.662	107.12
384.887	92.12
385.112	99.12
385.337	100.12
385.562	84.12
385.787	94.12
386.013	90.12
386.238	96.12
386.463	96.12
386.688	98.12
386.913	104.12
387.138	98.12
387.363	81.12
387.588	85.12
387.813	92.12
388.038	105.12
388.263	99.12
388.488	106.12
388.713	85.12
388.938	97.12
389.163	113.12
389.387	96.12
389.612	103.12
389.837	112.12
390.062	94.12
390.287	94.12
390.512	101.12
390.736	100.12
390.961	118.12
391.186	117.12
391.411	84.12
391.636	113.12
391.86	114.12
392.085	120.12
392.31	103.12
392.534	112.12
392.759	110.12
392.984	94.12
393.208	93.12
393.433	114.12
393.658	105.12
393.882	105.12
394.107	115.12
394.331	106.12
394.556	108.12
394.78	114.12
395.005	117.12
395.229	97.12
395.454	86.12
395.678	115.12
395.903	102.12
396.127	114.12
396.352	116.12
396.576	104.12
396.801	105.12
397.025	104.12
397.249	103.12
397.474	94.12
397.698	120.12
397.922	121.12
398.147	121.12
398.371	93.12
398.595	103.12
398.82	114.12
399.044	121.12
399.268	99.12
399.492	103.12
399.717	115.12
399.941	120.12
400.165	113.12
400.389	124.12
400.613	108.12
400.837	116.12
401.062	112.12
401.286	104.12
401.51	124.12
401.734	113.12
401.958	96.12
402.182	118.12
402.406	105.12
402.63	108.12
402.854	119.12
403.078	107.12
403.302	112.12
403.526	107.12
403.75	122.12
403.974	112.12
404.198	115.12
404.422	114.12
404.645	119.12
404.869	117.12
405.093	122.12
405.317	113.12
405.541	98.12
405.765	116.12
405.988	118.12
406.212	129.12
406.436	120.12
406.66	116.12
406.883	112.12
407.107	130.12
407.331	125.12
407.555	129.12
407.778	112.12
408.002	113.12
408.226	122.12
408.449	122.12
408.673	115.12
408.896	107.12
409.12	117.12
409.344	114.12
409.567	118.12
409.791	131.12
410.014	121.12
410.238	118.12
410.461	123.12
410.685	122.12
410.908	134.12
411.132	123.12
411.355	112.12
411.578	126.12
411.802	112.12
412.025	119.12
412.249	110.12
412.472	116.12
412.695	108.12
412.919	122.12
413.142	140.12
413.365	122.12
413.589	118.12
413.812	110.12
414.035	132.12
414.258	120.12
414.482	123.12
414.705	123.12
414.928	119.12
415.151	123.12
415.374	133.12
415.597	134.12
415.821	123.12
416.044	112.12
416.267	134.12
416.49	130.12
416.713	130.12
416.936	120.12
417.159	125.12
417.382	128.12
417.605	130.12
417.828	124.12
418.051	137.12
418.274	127.12
418.497	130.12
418.72	134.12
418.943	124.12
419.166	131.12
419.389	145.12
419.611	147.12
419.834	122.12
420.057	137.12
420.28	140.12
420.503	138.12
420.726	146.12
420.948	126.12
421.171	140.12
421.394	134.12
421.617	153.12
421.839	141.12
422.062	150.12
422.285	136.12
422.507	136.12
422.73	132.12
422.953	138.12
423.175	128.12
423.398	113.12
423.621	113.12
423.843	137.12
424.066	139.12
424.288	131.12
424.511	139.12
424.733	127.12
424.956	150.12
425.178	141.12
425.401	128.12
425.623	129.12
425.846	126.12
426.068	130.12
426.291	138.12
426.513	137.12
426.735	122.12
426.958	125.12
427.18	126.12
427.402	119.12
427.625	125.12
427.847	130.12
428.069	130.12
428.292	122.12
428.514	110.12
428.736	122.12
428.958	127.12
429.181	134.12
429.403	127.12
429.625	116.12
429.847	138.12
430.069	148.12
430.292	137.12
430.514	128.12
430.736	131.12
430.958	129.12
431.18	100.12
431.402	127.12
431.624	132.12
431.846	110.12
432.068	106.12
432.29	102.12
432.512	112.12
432.734	122.12
432.956	136.12
433.178	137.12
433.4	139.12
433.622	135.12
433.844	134.12
434.066	118.12
434.287	125.12
434.509	99.12
434.731	119.12
434.953	117.12
435.175	126.12
435.397	120.12
435.618	129.12
435.84	109.12
436.062	107.12
436.284	124.12
436.505	124.12
436.727	125.12
436.949	124.12
437.17	130.12
437.392	125.12
437.614	122.12
437.835	123.12
438.057	113.12
438.278	107.12
438.5	128.12
438.721	126.12
438.943	130.12
439.165	140.12
439.386	139.12
439.608	145.12
439.829	148.12
440.05	146.12
440.272	145.12
440.493	140.12
440.715	146.12
440.936	152.12
441.158	132.12
441.379	155.12
441.6	140.12
441.822	142.12
442.043	143.12
442.264	141.12
442.486	132.12
442.707	148.12
442.928	121.12
443.149	139.12
443.371	138.12
443.592	145.12
443.813	137.12
444.034	125.12
444.255	148.12
444.476	131.12
444.698	163.12
444.919	147.12
445.14	291.12
445.361	204.12
445.582	156.12
445.803	160.12
446.024	144.12
446.245	148.12
446.466	152.12
446.687	152.12
446.908	159.12
447.129	170.12
447.35	155.12
447.571	150.12
447.792	159.12
448.013	140.12
448.234	135.12
448.455	121.12
448.675	150.12
448.896	136.12
449.117	132.12
449.338	131.12
449.559	137.12
449.779	160.12
450	147.12
450.221	128.12
450.442	144.12
450.662	137.12
450.883	137.12
451.104	133.12
451.324	123.12
451.545	132.12
451.766	138.12
451.986	116.12
452.207	132.12
452.428	134.12
452.648	127.12
452.869	133.12
453.089	107.12
453.31	115.12
453.53	96.12
453.751	92.12
453.971	108.12
454.192	105.12
454.412	98.12
454.633	119.12
454.853	112.12
455.073	125.12
455.294	125.12
455.514	132.12
455.734	115.12
455.955	101.12
456.175	116.12
456.395	106.12
456.616	104.12
456.836	104.12
457.056	110.12
457.276	115.12
457.497	121.12
457.717	107.12
457.937	118.12
458.157	120.12
458.377	107.12
458.598	98.12
458.818	94.12
459.038	103.12
459.258	93.12
459.478	81.12
459.698	94.12
459.918	90.12
460.138	94.12
460.358	116.12
460.578	128.12
460.798	110.12
461.018	127.12
461.238	99.12
461.458	104.12
461.678	99.12
461.898	109.12
462.118	114.12
462.338	112.12
462.558	108.12
462.777	118.12
462.997	112.12
463.217	107.12
463.437	120.12
463.657	98.12
463.876	107.12
464.096	106.12
464.316	107.12
464.536	112.12
464.755	114.12
464.975	128.12
465.195	123.12
465.414	116.12
465.634	123.12
465.854	102.12
466.073	130.12
466.293	126.12
466.512	138.12
466.732	125.12
466.951	127.12
467.171	139.12
467.391	132.12
467.61	126.12
467.829	145.12
468.049	126.12
468.268	125.12
468.488	128.12
468.707	128.12
468.927	136.12
469.146	138.12
469.365	133.12
469.585	155.12
469.804	132.12
470.023	133.12
470.243	128.12
470.462	153.12
470.681	136.12
470.901	143.12
471.12	133.12
471.339	150.12
471.558	135.12
471.777	152.12
471.997	142.12
472.216	113.12
472.435	122.12
472.654	120.12
472.873	120.12
473.092	130.12
473.311	117.12
473.53	130.12
473.749	115.12
473.968	146.12
474.187	108.12
474.406	124.12
474.625	126.12
474.844	122.12
475.063	140.12
475.282	123.12
475.501	113.12
475.72	118.12
475.939	139.12
476.158	141.12
476.377	133.12
476.596	124.12
476.814	111.12
477.033	110.12
477.252	116.12
477.471	122.12
477.69	124.12
477.908	137.12
478.127	137.12
478.346	150.12
478.564	142.12
478.783	131.12
479.002	127.12
479.22	143.12
479.439	129.12
479.658	124.12
479.876	109.12
480.095	116.12
480.313	116.12
480.532	109.12
480.751	119.12
480.969	85.12
481.188	112.12
481.406	94.12
481.624	76.12
481.843	92.12
482.061	101.12
482.28	116.12
482.498	118.12
482.717	108.12
482.935	136.12
483.153	122.12
483.372	159.12
483.59	150.12
483.808	141.12
484.027	122.12
484.245	139.12
484.463	135.12
484.681	150.12
484.9	148.12
485.118	146.12
485.336	140.12
485.554	120.12
485.772	115.12
485.99	109.12
486.209	108.12
486.427	124.12
486.645	128.12
486.863	141.12
487.081	124.12
487.299	129.12
487.517	132.12
487.735	170.12
487.953	176.12
488.171	173.12
488.389	182.12
488.607	168.12
488.825	136.12
489.043	128.12
489.261	131.12
489.479	142.12
489.696	132.12
489.914	152.12
490.132	148.12
490.35	148.12
490.568	161.12
490.786	151.12
491.003	176.12
491.221	179.12
491.439	177.12
491.657	194.12
491.874	200.12
492.092	231.12
492.31	248.12
492.527	236.12
492.745	194.12
492.963	199.12
493.18	179.12
493.398	184.12
493.615	183.12
493.833	172.12
494.05	179.12
494.268	172.12
494.485	178.12
494.703	172.12
494.92	163.12
495.138	184.12
495.355	173.12
495.573	169.12
495.79	166.12
496.008	173.12
496.225	140.12
496.442	168.12
496.66	161.12
496.877	165.12
497.094	183.12
497.312	167.12
497.529	165.12
497.746	160.12
497.963	136.12
498.181	129.12
498.398	127.12
498.615	117.12
498.832	128.12
499.049	113.12
499.267	122.12
499.484	141.12
499.701	130.12
499.918	144.12
500.135	139.12
500.352	151.12
500.569	126.12
500.786	126.12
501.003	144.12
501.22	140.12
501.437	130.12
501.654	136.12
501.871	129.12
502.088	145.12
502.305	137.12
502.522	139.12
502.739	145.12
502.956	124.12
503.172	134.12
503.389	143.12
503.606	115.12
503.823	120.12
504.04	122.12
504.256	101.12
504.473	138.12
504.69	110.12
504.907	105.12
505.123	127.12
505.34	120.12
505.557	124.12
505.773	117.12
505.99	129.12
506.207	113.12
506.423	130.12
506.64	118.12
506.856	109.12
507.073	108.12
507.289	120.12
507.506	116.12
507.722	110.12
507.939	118.12
508.155	128.12
508.372	138.12
508.588	132.12
508.805	108.12
509.021	106.12
509.238	108.12
509.454	110.12
509.67	84.12
509.887	103.12
510.103	85.12
510.319	101.12
510.536	95.12
510.752	76.12
510.968	85.12
511.184	86.12
511.401	86.12
511.617	90.12
