Data from Location4.07152019.Energy5.Lamp.07192019.3%Agarose_HRD10591_16-19-10-925.txt Node
Date: Fri Jul 19 16:19:10 EDT 2019
User: cochatt
Spectrometer: HR+D1059
Trigger mode: 1
Integration Time (sec): 1.000000E-1
Scans to average: 1
Electric dark correction enabled: true
Nonlinearity correction enabled: false
Boxcar width: 0
XAxis mode: Wavelengths
Number of Pixels in Spectrum: 2048
>>>>>Begin Spectral Data<<<<<
223.165	-29.88
223.4	-29.88
223.635	-29.88
223.869	-22.88
224.104	-8.88
224.338	-19.88
224.573	-8.88
224.808	-17.88
225.042	-18.88
225.277	6.12
225.511	0.12
225.746	1.12
225.98	5.12
226.215	12.12
226.449	6.12
226.683	32.12
226.918	38.12
227.152	26.12
227.387	39.12
227.621	36.12
227.856	30.12
228.09	32.12
228.324	27.12
228.559	55.12
228.793	64.12
229.027	66.12
229.262	55.12
229.496	73.12
229.73	45.12
229.964	56.12
230.199	74.12
230.433	67.12
230.667	58.12
230.901	74.12
231.136	91.12
231.37	73.12
231.604	74.12
231.838	78.12
232.072	75.12
232.306	79.12
232.541	84.12
232.775	75.12
233.009	79.12
233.243	70.12
233.477	74.12
233.711	84.12
233.945	70.12
234.179	77.12
234.413	75.12
234.647	78.12
234.881	85.12
235.115	80.12
235.349	75.12
235.583	89.12
235.817	86.12
236.051	82.12
236.285	74.12
236.519	78.12
236.753	72.12
236.987	88.12
237.221	79.12
237.455	77.12
237.689	82.12
237.922	71.12
238.156	68.12
238.39	65.12
238.624	81.12
238.858	73.12
239.091	95.12
239.325	78.12
239.559	78.12
239.793	78.12
240.027	74.12
240.26	72.12
240.494	78.12
240.728	84.12
240.961	72.12
241.195	78.12
241.429	64.12
241.662	72.12
241.896	73.12
242.13	71.12
242.363	72.12
242.597	79.12
242.83	86.12
243.064	85.12
243.298	77.12
243.531	76.12
243.765	81.12
243.998	92.12
244.232	90.12
244.465	82.12
244.699	66.12
244.932	68.12
245.166	81.12
245.399	79.12
245.633	86.12
245.866	87.12
246.099	93.12
246.333	84.12
246.566	74.12
246.8	78.12
247.033	77.12
247.266	88.12
247.5	76.12
247.733	79.12
247.966	81.12
248.2	69.12
248.433	70.12
248.666	83.12
248.899	68.12
249.133	84.12
249.366	67.12
249.599	91.12
249.832	77.12
250.066	77.12
250.299	87.12
250.532	87.12
250.765	78.12
250.998	77.12
251.231	76.12
251.465	75.12
251.698	60.12
251.931	84.12
252.164	92.12
252.397	69.12
252.63	88.12
252.863	76.12
253.096	78.12
253.329	68.12
253.562	85.12
253.795	75.12
254.028	81.12
254.261	73.12
254.494	81.12
254.727	81.12
254.96	80.12
255.193	66.12
255.426	76.12
255.659	79.12
255.892	80.12
256.124	68.12
256.357	80.12
256.59	81.12
256.823	72.12
257.056	80.12
257.289	88.12
257.521	90.12
257.754	70.12
257.987	90.12
258.22	77.12
258.452	83.12
258.685	88.12
258.918	73.12
259.151	68.12
259.383	75.12
259.616	88.12
259.849	71.12
260.081	79.12
260.314	84.12
260.547	78.12
260.779	75.12
261.012	75.12
261.244	88.12
261.477	76.12
261.71	76.12
261.942	84.12
262.175	82.12
262.407	80.12
262.64	79.12
262.872	84.12
263.105	84.12
263.337	84.12
263.57	87.12
263.802	78.12
264.035	74.12
264.267	83.12
264.499	80.12
264.732	80.12
264.964	79.12
265.197	87.12
265.429	82.12
265.661	81.12
265.894	80.12
266.126	75.12
266.358	85.12
266.591	90.12
266.823	71.12
267.055	84.12
267.287	78.12
267.52	70.12
267.752	85.12
267.984	76.12
268.216	93.12
268.448	83.12
268.681	92.12
268.913	76.12
269.145	82.12
269.377	85.12
269.609	75.12
269.841	94.12
270.073	74.12
270.306	72.12
270.538	90.12
270.77	76.12
271.002	83.12
271.234	66.12
271.466	74.12
271.698	82.12
271.93	79.12
272.162	70.12
272.394	75.12
272.626	73.12
272.858	87.12
273.09	78.12
273.322	92.12
273.553	85.12
273.785	82.12
274.017	87.12
274.249	89.12
274.481	81.12
274.713	67.12
274.945	92.12
275.176	78.12
275.408	71.12
275.64	80.12
275.872	74.12
276.104	84.12
276.335	98.12
276.567	82.12
276.799	78.12
277.031	81.12
277.262	84.12
277.494	85.12
277.726	93.12
277.957	77.12
278.189	79.12
278.421	73.12
278.652	86.12
278.884	89.12
279.115	93.12
279.347	65.12
279.579	87.12
279.81	79.12
280.042	92.12
280.273	78.12
280.505	77.12
280.736	75.12
280.968	89.12
281.199	84.12
281.431	80.12
281.662	91.12
281.894	76.12
282.125	76.12
282.356	93.12
282.588	78.12
282.819	72.12
283.051	83.12
283.282	86.12
283.513	86.12
283.745	73.12
283.976	72.12
284.207	86.12
284.439	83.12
284.67	87.12
284.901	91.12
285.132	73.12
285.364	90.12
285.595	85.12
285.826	89.12
286.057	82.12
286.288	72.12
286.52	82.12
286.751	88.12
286.982	78.12
287.213	78.12
287.444	88.12
287.675	82.12
287.906	101.12
288.138	68.12
288.369	86.12
288.6	88.12
288.831	90.12
289.062	77.12
289.293	93.12
289.524	83.12
289.755	87.12
289.986	94.12
290.217	90.12
290.448	91.12
290.679	80.12
290.91	84.12
291.141	80.12
291.371	85.12
291.602	98.12
291.833	89.12
292.064	85.12
292.295	78.12
292.526	79.12
292.757	78.12
292.987	78.12
293.218	78.12
293.449	88.12
293.68	96.12
293.91	77.12
294.141	88.12
294.372	72.12
294.603	86.12
294.833	88.12
295.064	93.12
295.295	80.12
295.525	85.12
295.756	100.12
295.987	88.12
296.217	83.12
296.448	77.12
296.679	75.12
296.909	73.12
297.14	85.12
297.37	83.12
297.601	96.12
297.831	89.12
298.062	84.12
298.292	87.12
298.523	68.12
298.753	93.12
298.984	104.12
299.214	74.12
299.445	74.12
299.675	89.12
299.905	86.12
300.136	85.12
300.366	87.12
300.597	79.12
300.827	74.12
301.057	100.12
301.288	99.12
301.518	92.12
301.748	93.12
301.979	84.12
302.209	97.12
302.439	74.12
302.669	86.12
302.9	89.12
303.13	86.12
303.36	88.12
303.59	86.12
303.82	89.12
304.051	82.12
304.281	82.12
304.511	77.12
304.741	85.12
304.971	74.12
305.201	86.12
305.431	89.12
305.661	94.12
305.891	77.12
306.121	83.12
306.352	87.12
306.582	80.12
306.812	83.12
307.042	93.12
307.272	74.12
307.502	85.12
307.731	90.12
307.961	85.12
308.191	71.12
308.421	74.12
308.651	92.12
308.881	80.12
309.111	73.12
309.341	80.12
309.571	83.12
309.8	83.12
310.03	89.12
310.26	85.12
310.49	83.12
310.72	82.12
310.949	73.12
311.179	75.12
311.409	96.12
311.639	87.12
311.868	81.12
312.098	88.12
312.328	85.12
312.557	77.12
312.787	92.12
313.017	79.12
313.246	94.12
313.476	79.12
313.706	87.12
313.935	78.12
314.165	80.12
314.394	88.12
314.624	72.12
314.853	85.12
315.083	76.12
315.312	77.12
315.542	88.12
315.771	77.12
316.001	93.12
316.23	78.12
316.46	81.12
316.689	84.12
316.919	84.12
317.148	91.12
317.377	85.12
317.607	86.12
317.836	78.12
318.065	88.12
318.295	83.12
318.524	71.12
318.753	78.12
318.983	90.12
319.212	76.12
319.441	79.12
319.67	84.12
319.9	83.12
320.129	81.12
320.358	76.12
320.587	69.12
320.816	93.12
321.046	88.12
321.275	77.12
321.504	84.12
321.733	77.12
321.962	93.12
322.191	77.12
322.42	77.12
322.649	92.12
322.878	86.12
323.108	92.12
323.337	86.12
323.566	77.12
323.795	79.12
324.024	89.12
324.253	88.12
324.482	82.12
324.71	80.12
324.939	79.12
325.168	82.12
325.397	78.12
325.626	91.12
325.855	89.12
326.084	78.12
326.313	74.12
326.542	96.12
326.77	73.12
326.999	68.12
327.228	69.12
327.457	91.12
327.686	83.12
327.914	77.12
328.143	84.12
328.372	83.12
328.6	90.12
328.829	93.12
329.058	72.12
329.287	93.12
329.515	84.12
329.744	103.12
329.972	77.12
330.201	90.12
330.43	72.12
330.658	86.12
330.887	84.12
331.115	85.12
331.344	89.12
331.572	74.12
331.801	81.12
332.03	76.12
332.258	66.12
332.486	89.12
332.715	98.12
332.943	93.12
333.172	100.12
333.4	93.12
333.629	77.12
333.857	105.12
334.085	91.12
334.314	87.12
334.542	94.12
334.771	88.12
334.999	88.12
335.227	77.12
335.455	94.12
335.684	93.12
335.912	85.12
336.14	68.12
336.369	93.12
336.597	76.12
336.825	86.12
337.053	95.12
337.281	98.12
337.51	90.12
337.738	89.12
337.966	81.12
338.194	90.12
338.422	89.12
338.65	80.12
338.878	91.12
339.106	77.12
339.334	81.12
339.562	91.12
339.79	86.12
340.018	75.12
340.246	75.12
340.474	78.12
340.702	85.12
340.93	73.12
341.158	80.12
341.386	84.12
341.614	72.12
341.842	74.12
342.07	82.12
342.298	84.12
342.526	78.12
342.754	85.12
342.981	92.12
343.209	77.12
343.437	84.12
343.665	90.12
343.893	73.12
344.12	84.12
344.348	101.12
344.576	75.12
344.804	83.12
345.031	86.12
345.259	72.12
345.487	79.12
345.714	86.12
345.942	89.12
346.17	89.12
346.397	81.12
346.625	84.12
346.853	83.12
347.08	87.12
347.308	90.12
347.535	91.12
347.763	92.12
347.99	79.12
348.218	83.12
348.445	94.12
348.673	74.12
348.9	92.12
349.128	87.12
349.355	85.12
349.583	79.12
349.81	87.12
350.037	82.12
350.265	91.12
350.492	90.12
350.72	82.12
350.947	89.12
351.174	88.12
351.402	86.12
351.629	79.12
351.856	69.12
352.083	85.12
352.311	77.12
352.538	83.12
352.765	104.12
352.992	87.12
353.22	82.12
353.447	83.12
353.674	86.12
353.901	83.12
354.128	92.12
354.355	77.12
354.583	78.12
354.81	83.12
355.037	97.12
355.264	94.12
355.491	92.12
355.718	84.12
355.945	77.12
356.172	91.12
356.399	77.12
356.626	78.12
356.853	100.12
357.08	88.12
357.307	81.12
357.534	87.12
357.761	93.12
357.988	76.12
358.215	91.12
358.441	66.12
358.668	87.12
358.895	84.12
359.122	88.12
359.349	74.12
359.576	70.12
359.802	87.12
360.029	80.12
360.256	82.12
360.483	87.12
360.709	80.12
360.936	80.12
361.163	84.12
361.39	89.12
361.616	89.12
361.843	81.12
362.07	84.12
362.296	67.12
362.523	90.12
362.749	80.12
362.976	80.12
363.203	98.12
363.429	88.12
363.656	78.12
363.882	76.12
364.109	85.12
364.335	100.12
364.562	94.12
364.788	89.12
365.015	82.12
365.241	79.12
365.468	91.12
365.694	89.12
365.92	94.12
366.147	81.12
366.373	87.12
366.599	78.12
366.826	86.12
367.052	97.12
367.278	94.12
367.505	98.12
367.731	73.12
367.957	84.12
368.184	84.12
368.41	87.12
368.636	80.12
368.862	89.12
369.089	92.12
369.315	74.12
369.541	93.12
369.767	94.12
369.993	89.12
370.219	92.12
370.445	98.12
370.672	99.12
370.898	106.12
371.124	92.12
371.35	84.12
371.576	97.12
371.802	86.12
372.028	93.12
372.254	73.12
372.48	91.12
372.706	77.12
372.932	89.12
373.158	90.12
373.384	97.12
373.61	95.12
373.835	83.12
374.061	88.12
374.287	99.12
374.513	88.12
374.739	80.12
374.965	97.12
375.191	104.12
375.416	98.12
375.642	103.12
375.868	108.12
376.094	90.12
376.319	85.12
376.545	86.12
376.771	88.12
376.997	89.12
377.222	96.12
377.448	102.12
377.674	93.12
377.899	99.12
378.125	100.12
378.35	94.12
378.576	92.12
378.802	98.12
379.027	94.12
379.253	91.12
379.478	94.12
379.704	105.12
379.929	103.12
380.155	91.12
380.38	86.12
380.606	102.12
380.831	97.12
381.057	87.12
381.282	93.12
381.507	90.12
381.733	105.12
381.958	101.12
382.184	101.12
382.409	93.12
382.634	93.12
382.86	102.12
383.085	93.12
383.31	92.12
383.535	102.12
383.761	112.12
383.986	92.12
384.211	88.12
384.436	89.12
384.662	95.12
384.887	105.12
385.112	103.12
385.337	98.12
385.562	77.12
385.787	99.12
386.013	114.12
386.238	109.12
386.463	97.12
386.688	96.12
386.913	92.12
387.138	109.12
387.363	103.12
387.588	93.12
387.813	92.12
388.038	83.12
388.263	83.12
388.488	101.12
388.713	103.12
388.938	89.12
389.163	109.12
389.387	100.12
389.612	89.12
389.837	110.12
390.062	99.12
390.287	78.12
390.512	108.12
390.736	104.12
390.961	100.12
391.186	107.12
391.411	102.12
391.636	105.12
391.86	99.12
392.085	97.12
392.31	108.12
392.534	114.12
392.759	116.12
392.984	102.12
393.208	99.12
393.433	95.12
393.658	94.12
393.882	117.12
394.107	107.12
394.331	101.12
394.556	114.12
394.78	116.12
395.005	122.12
395.229	99.12
395.454	104.12
395.678	106.12
395.903	108.12
396.127	120.12
396.352	113.12
396.576	98.12
396.801	102.12
397.025	100.12
397.249	100.12
397.474	112.12
397.698	105.12
397.922	114.12
398.147	88.12
398.371	104.12
398.595	104.12
398.82	110.12
399.044	105.12
399.268	119.12
399.492	124.12
399.717	112.12
399.941	122.12
400.165	120.12
400.389	101.12
400.613	109.12
400.837	111.12
401.062	124.12
401.286	102.12
401.51	117.12
401.734	114.12
401.958	116.12
402.182	116.12
402.406	125.12
402.63	119.12
402.854	98.12
403.078	99.12
403.302	118.12
403.526	118.12
403.75	120.12
403.974	111.12
404.198	117.12
404.422	121.12
404.645	134.12
404.869	113.12
405.093	120.12
405.317	99.12
405.541	104.12
405.765	116.12
405.988	114.12
406.212	125.12
406.436	126.12
406.66	109.12
406.883	118.12
407.107	118.12
407.331	116.12
407.555	123.12
407.778	110.12
408.002	120.12
408.226	108.12
408.449	112.12
408.673	117.12
408.896	101.12
409.12	120.12
409.344	109.12
409.567	121.12
409.791	118.12
410.014	103.12
410.238	127.12
410.461	111.12
410.685	126.12
410.908	123.12
411.132	114.12
411.355	105.12
411.578	114.12
411.802	128.12
412.025	119.12
412.249	128.12
412.472	132.12
412.695	123.12
412.919	116.12
413.142	102.12
413.365	112.12
413.589	129.12
413.812	118.12
414.035	120.12
414.258	131.12
414.482	121.12
414.705	122.12
414.928	124.12
415.151	118.12
415.374	126.12
415.597	135.12
415.821	137.12
416.044	106.12
416.267	120.12
416.49	133.12
416.713	138.12
416.936	112.12
417.159	125.12
417.382	124.12
417.605	129.12
417.828	127.12
418.051	132.12
418.274	106.12
418.497	126.12
418.72	130.12
418.943	135.12
419.166	128.12
419.389	129.12
419.611	119.12
419.834	128.12
420.057	144.12
420.28	130.12
420.503	116.12
420.726	136.12
420.948	127.12
421.171	141.12
421.394	136.12
421.617	147.12
421.839	150.12
422.062	142.12
422.285	132.12
422.507	124.12
422.73	130.12
422.953	124.12
423.175	124.12
423.398	121.12
423.621	126.12
423.843	130.12
424.066	150.12
424.288	138.12
424.511	145.12
424.733	156.12
424.956	150.12
425.178	133.12
425.401	137.12
425.623	136.12
425.846	132.12
426.068	137.12
426.291	124.12
426.513	127.12
426.735	128.12
426.958	138.12
427.18	125.12
427.402	117.12
427.625	118.12
427.847	136.12
428.069	130.12
428.292	126.12
428.514	118.12
428.736	120.12
428.958	140.12
429.181	125.12
429.403	126.12
429.625	125.12
429.847	112.12
430.069	126.12
430.292	133.12
430.514	140.12
430.736	133.12
430.958	131.12
431.18	130.12
431.402	123.12
431.624	121.12
431.846	112.12
432.068	103.12
432.29	93.12
432.512	107.12
432.734	109.12
432.956	133.12
433.178	130.12
433.4	143.12
433.622	118.12
433.844	130.12
434.066	131.12
434.287	107.12
434.509	98.12
434.731	107.12
434.953	110.12
435.175	118.12
435.397	129.12
435.618	126.12
435.84	104.12
436.062	112.12
436.284	128.12
436.505	126.12
436.727	116.12
436.949	128.12
437.17	131.12
437.392	132.12
437.614	113.12
437.835	109.12
438.057	104.12
438.278	116.12
438.5	140.12
438.721	128.12
438.943	144.12
439.165	145.12
439.386	141.12
439.608	141.12
439.829	153.12
440.05	133.12
440.272	156.12
440.493	144.12
440.715	135.12
440.936	139.12
441.158	139.12
441.379	136.12
441.6	157.12
441.822	152.12
442.043	172.12
442.264	153.12
442.486	135.12
442.707	126.12
442.928	139.12
443.149	126.12
443.371	143.12
443.592	136.12
443.813	140.12
444.034	142.12
444.255	137.12
444.476	138.12
444.698	135.12
444.919	139.12
445.14	270.12
445.361	200.12
445.582	147.12
445.803	145.12
446.024	143.12
446.245	161.12
446.466	148.12
446.687	156.12
446.908	157.12
447.129	171.12
447.35	149.12
447.571	156.12
447.792	132.12
448.013	144.12
448.234	149.12
448.455	151.12
448.675	150.12
448.896	139.12
449.117	136.12
449.338	135.12
449.559	134.12
449.779	122.12
450	136.12
450.221	140.12
450.442	145.12
450.662	126.12
450.883	117.12
451.104	149.12
451.324	139.12
451.545	125.12
451.766	112.12
451.986	122.12
452.207	135.12
452.428	134.12
452.648	122.12
452.869	115.12
453.089	119.12
453.31	115.12
453.53	112.12
453.751	119.12
453.971	102.12
454.192	106.12
454.412	105.12
454.633	114.12
454.853	101.12
455.073	124.12
455.294	120.12
455.514	109.12
455.734	124.12
455.955	115.12
456.175	115.12
456.395	124.12
456.616	102.12
456.836	123.12
457.056	122.12
457.276	108.12
457.497	107.12
457.717	93.12
457.937	117.12
458.157	100.12
458.377	110.12
458.598	103.12
458.818	99.12
459.038	101.12
459.258	92.12
459.478	85.12
459.698	92.12
459.918	96.12
460.138	101.12
460.358	122.12
460.578	132.12
460.798	114.12
461.018	118.12
461.238	110.12
461.458	118.12
461.678	117.12
461.898	122.12
462.118	101.12
462.338	114.12
462.558	113.12
462.777	116.12
462.997	106.12
463.217	109.12
463.437	113.12
463.657	98.12
463.876	102.12
464.096	104.12
464.316	112.12
464.536	107.12
464.755	112.12
464.975	130.12
465.195	118.12
465.414	120.12
465.634	112.12
465.854	104.12
466.073	120.12
466.293	131.12
466.512	132.12
466.732	117.12
466.951	143.12
467.171	137.12
467.391	130.12
467.61	131.12
467.829	125.12
468.049	149.12
468.268	138.12
468.488	135.12
468.707	141.12
468.927	142.12
469.146	137.12
469.365	143.12
469.585	133.12
469.804	148.12
470.023	130.12
470.243	142.12
470.462	152.12
470.681	164.12
470.901	133.12
471.12	129.12
471.339	155.12
471.558	148.12
471.777	156.12
471.997	142.12
472.216	136.12
472.435	95.12
472.654	92.12
472.873	101.12
473.092	124.12
473.311	134.12
473.53	123.12
473.749	127.12
473.968	149.12
474.187	141.12
474.406	128.12
474.625	130.12
474.844	124.12
475.063	139.12
475.282	123.12
475.501	118.12
475.72	121.12
475.939	126.12
476.158	132.12
476.377	138.12
476.596	132.12
476.814	114.12
477.033	120.12
477.252	113.12
477.471	143.12
477.69	131.12
477.908	123.12
478.127	132.12
478.346	136.12
478.564	133.12
478.783	130.12
479.002	140.12
479.22	154.12
479.439	124.12
479.658	123.12
479.876	117.12
480.095	118.12
480.313	116.12
480.532	129.12
480.751	132.12
480.969	92.12
481.188	75.12
481.406	97.12
481.624	99.12
481.843	93.12
482.061	109.12
482.28	118.12
482.498	130.12
482.717	106.12
482.935	117.12
483.153	140.12
483.372	155.12
483.59	141.12
483.808	134.12
484.027	129.12
484.245	128.12
484.463	144.12
484.681	154.12
484.9	154.12
485.118	156.12
485.336	126.12
485.554	127.12
485.772	109.12
485.99	110.12
486.209	116.12
486.427	101.12
486.645	128.12
486.863	132.12
487.081	151.12
487.299	134.12
487.517	127.12
487.735	163.12
487.953	206.12
488.171	182.12
488.389	168.12
488.607	153.12
488.825	139.12
489.043	124.12
489.261	147.12
489.479	133.12
489.696	142.12
489.914	140.12
490.132	160.12
490.35	143.12
490.568	153.12
490.786	176.12
491.003	155.12
491.221	166.12
491.439	181.12
491.657	202.12
491.874	222.12
492.092	210.12
492.31	243.12
492.527	224.12
492.745	207.12
492.963	191.12
493.18	184.12
493.398	168.12
493.615	165.12
493.833	162.12
494.05	188.12
494.268	185.12
494.485	178.12
494.703	171.12
494.92	156.12
495.138	185.12
495.355	170.12
495.573	163.12
495.79	161.12
496.008	169.12
496.225	157.12
496.442	173.12
496.66	168.12
496.877	156.12
497.094	150.12
497.312	156.12
497.529	149.12
497.746	134.12
497.963	132.12
498.181	132.12
498.398	129.12
498.615	106.12
498.832	123.12
499.049	127.12
499.267	123.12
499.484	126.12
499.701	139.12
499.918	120.12
500.135	145.12
500.352	152.12
500.569	151.12
500.786	147.12
501.003	140.12
501.22	137.12
501.437	132.12
501.654	140.12
501.871	127.12
502.088	134.12
502.305	136.12
502.522	136.12
502.739	129.12
502.956	128.12
503.172	119.12
503.389	117.12
503.606	108.12
503.823	125.12
504.04	137.12
504.256	133.12
504.473	118.12
504.69	120.12
504.907	105.12
505.123	123.12
505.34	133.12
505.557	129.12
505.773	120.12
505.99	123.12
506.207	121.12
506.423	124.12
506.64	125.12
506.856	120.12
507.073	121.12
507.289	124.12
507.506	114.12
507.722	126.12
507.939	107.12
508.155	112.12
508.372	116.12
508.588	111.12
508.805	119.12
509.021	117.12
509.238	118.12
509.454	104.12
509.67	106.12
509.887	117.12
510.103	106.12
510.319	100.12
510.536	99.12
510.752	86.12
510.968	78.12
511.184	83.12
511.401	96.12
511.617	84.12
