Data from Location4.07152019.Energy5.Lamp.07192019.3%Agarose_HRD10591_16-20-29-925.txt Node
Date: Fri Jul 19 16:20:29 EDT 2019
User: cochatt
Spectrometer: HR+D1059
Trigger mode: 1
Integration Time (sec): 1.000000E-1
Scans to average: 1
Electric dark correction enabled: true
Nonlinearity correction enabled: false
Boxcar width: 0
XAxis mode: Wavelengths
Number of Pixels in Spectrum: 2048
>>>>>Begin Spectral Data<<<<<
223.165	-18.5
223.4	-18.5
223.635	-18.5
223.869	-9.5
224.104	-7.5
224.338	-18.5
224.573	-23.5
224.808	-27.5
225.042	-19.5
225.277	-1.5
225.511	-5.5
225.746	-5.5
225.98	8.5
226.215	13.5
226.449	22.5
226.683	26.5
226.918	33.5
227.152	32.5
227.387	35.5
227.621	28.5
227.856	38.5
228.09	45.5
228.324	50.5
228.559	52.5
228.793	45.5
229.027	77.5
229.262	69.5
229.496	67.5
229.73	71.5
229.964	66.5
230.199	74.5
230.433	80.5
230.667	83.5
230.901	68.5
231.136	79.5
231.37	70.5
231.604	85.5
231.838	87.5
232.072	85.5
232.306	88.5
232.541	80.5
232.775	83.5
233.009	93.5
233.243	84.5
233.477	98.5
233.711	85.5
233.945	84.5
234.179	88.5
234.413	63.5
234.647	81.5
234.881	72.5
235.115	84.5
235.349	71.5
235.583	86.5
235.817	74.5
236.051	82.5
236.285	78.5
236.519	81.5
236.753	78.5
236.987	70.5
237.221	84.5
237.455	74.5
237.689	79.5
237.922	84.5
238.156	90.5
238.39	83.5
238.624	84.5
238.858	80.5
239.091	87.5
239.325	77.5
239.559	70.5
239.793	69.5
240.027	70.5
240.26	64.5
240.494	86.5
240.728	68.5
240.961	78.5
241.195	92.5
241.429	73.5
241.662	73.5
241.896	76.5
242.13	67.5
242.363	67.5
242.597	78.5
242.83	82.5
243.064	85.5
243.298	83.5
243.531	85.5
243.765	83.5
243.998	79.5
244.232	84.5
244.465	89.5
244.699	66.5
244.932	68.5
245.166	60.5
245.399	73.5
245.633	78.5
245.866	70.5
246.099	76.5
246.333	81.5
246.566	82.5
246.8	60.5
247.033	65.5
247.266	77.5
247.5	78.5
247.733	84.5
247.966	81.5
248.2	86.5
248.433	92.5
248.666	67.5
248.899	74.5
249.133	78.5
249.366	87.5
249.599	80.5
249.832	69.5
250.066	82.5
250.299	71.5
250.532	70.5
250.765	73.5
250.998	69.5
251.231	84.5
251.465	61.5
251.698	83.5
251.931	74.5
252.164	82.5
252.397	71.5
252.63	76.5
252.863	83.5
253.096	72.5
253.329	77.5
253.562	73.5
253.795	94.5
254.028	79.5
254.261	76.5
254.494	98.5
254.727	74.5
254.96	87.5
255.193	87.5
255.426	88.5
255.659	85.5
255.892	76.5
256.124	73.5
256.357	72.5
256.59	84.5
256.823	78.5
257.056	72.5
257.289	76.5
257.521	73.5
257.754	73.5
257.987	81.5
258.22	84.5
258.452	82.5
258.685	89.5
258.918	75.5
259.151	97.5
259.383	91.5
259.616	85.5
259.849	77.5
260.081	92.5
260.314	69.5
260.547	74.5
260.779	60.5
261.012	80.5
261.244	78.5
261.477	83.5
261.71	88.5
261.942	64.5
262.175	86.5
262.407	82.5
262.64	78.5
262.872	95.5
263.105	80.5
263.337	82.5
263.57	74.5
263.802	82.5
264.035	98.5
264.267	82.5
264.499	86.5
264.732	84.5
264.964	77.5
265.197	75.5
265.429	78.5
265.661	85.5
265.894	59.5
266.126	82.5
266.358	69.5
266.591	98.5
266.823	92.5
267.055	90.5
267.287	83.5
267.52	74.5
267.752	88.5
267.984	92.5
268.216	76.5
268.448	82.5
268.681	74.5
268.913	82.5
269.145	84.5
269.377	85.5
269.609	67.5
269.841	72.5
270.073	73.5
270.306	81.5
270.538	77.5
270.77	90.5
271.002	88.5
271.234	81.5
271.466	76.5
271.698	80.5
271.93	95.5
272.162	90.5
272.394	84.5
272.626	88.5
272.858	69.5
273.09	84.5
273.322	79.5
273.553	82.5
273.785	72.5
274.017	79.5
274.249	89.5
274.481	70.5
274.713	87.5
274.945	95.5
275.176	81.5
275.408	79.5
275.64	82.5
275.872	88.5
276.104	90.5
276.335	96.5
276.567	98.5
276.799	82.5
277.031	87.5
277.262	86.5
277.494	85.5
277.726	87.5
277.957	83.5
278.189	95.5
278.421	98.5
278.652	93.5
278.884	82.5
279.115	78.5
279.347	82.5
279.579	84.5
279.81	94.5
280.042	74.5
280.273	88.5
280.505	90.5
280.736	73.5
280.968	78.5
281.199	88.5
281.431	85.5
281.662	75.5
281.894	86.5
282.125	79.5
282.356	78.5
282.588	88.5
282.819	95.5
283.051	93.5
283.282	85.5
283.513	81.5
283.745	78.5
283.976	71.5
284.207	83.5
284.439	88.5
284.67	76.5
284.901	85.5
285.132	88.5
285.364	98.5
285.595	73.5
285.826	76.5
286.057	82.5
286.288	97.5
286.52	82.5
286.751	91.5
286.982	84.5
287.213	69.5
287.444	85.5
287.675	90.5
287.906	86.5
288.138	72.5
288.369	81.5
288.6	77.5
288.831	91.5
289.062	89.5
289.293	76.5
289.524	80.5
289.755	81.5
289.986	91.5
290.217	76.5
290.448	84.5
290.679	94.5
290.91	92.5
291.141	74.5
291.371	76.5
291.602	87.5
291.833	100.5
292.064	82.5
292.295	83.5
292.526	91.5
292.757	76.5
292.987	94.5
293.218	88.5
293.449	73.5
293.68	87.5
293.91	73.5
294.141	89.5
294.372	78.5
294.603	75.5
294.833	76.5
295.064	97.5
295.295	95.5
295.525	78.5
295.756	78.5
295.987	90.5
296.217	77.5
296.448	81.5
296.679	89.5
296.909	106.5
297.14	75.5
297.37	79.5
297.601	91.5
297.831	89.5
298.062	93.5
298.292	94.5
298.523	89.5
298.753	96.5
298.984	79.5
299.214	75.5
299.445	75.5
299.675	89.5
299.905	79.5
300.136	97.5
300.366	77.5
300.597	65.5
300.827	91.5
301.057	80.5
301.288	74.5
301.518	91.5
301.748	75.5
301.979	72.5
302.209	92.5
302.439	71.5
302.669	83.5
302.9	93.5
303.13	94.5
303.36	86.5
303.59	87.5
303.82	86.5
304.051	89.5
304.281	87.5
304.511	99.5
304.741	73.5
304.971	84.5
305.201	87.5
305.431	78.5
305.661	96.5
305.891	70.5
306.121	89.5
306.352	90.5
306.582	99.5
306.812	101.5
307.042	82.5
307.272	88.5
307.502	82.5
307.731	92.5
307.961	82.5
308.191	78.5
308.421	95.5
308.651	88.5
308.881	72.5
309.111	76.5
309.341	81.5
309.571	75.5
309.8	74.5
310.03	71.5
310.26	82.5
310.49	106.5
310.72	74.5
310.949	84.5
311.179	82.5
311.409	93.5
311.639	84.5
311.868	90.5
312.098	64.5
312.328	75.5
312.557	106.5
312.787	84.5
313.017	88.5
313.246	92.5
313.476	88.5
313.706	92.5
313.935	75.5
314.165	101.5
314.394	86.5
314.624	93.5
314.853	87.5
315.083	87.5
315.312	77.5
315.542	101.5
315.771	81.5
316.001	71.5
316.23	86.5
316.46	83.5
316.689	94.5
316.919	88.5
317.148	75.5
317.377	78.5
317.607	83.5
317.836	74.5
318.065	80.5
318.295	95.5
318.524	89.5
318.753	88.5
318.983	84.5
319.212	78.5
319.441	96.5
319.67	79.5
319.9	75.5
320.129	91.5
320.358	90.5
320.587	77.5
320.816	85.5
321.046	76.5
321.275	80.5
321.504	84.5
321.733	92.5
321.962	87.5
322.191	84.5
322.42	85.5
322.649	81.5
322.878	91.5
323.108	77.5
323.337	80.5
323.566	84.5
323.795	86.5
324.024	85.5
324.253	84.5
324.482	75.5
324.71	84.5
324.939	95.5
325.168	86.5
325.397	78.5
325.626	79.5
325.855	85.5
326.084	87.5
326.313	88.5
326.542	84.5
326.77	77.5
326.999	72.5
327.228	70.5
327.457	85.5
327.686	82.5
327.914	83.5
328.143	98.5
328.372	74.5
328.6	85.5
328.829	75.5
329.058	86.5
329.287	79.5
329.515	88.5
329.744	94.5
329.972	80.5
330.201	78.5
330.43	83.5
330.658	77.5
330.887	92.5
331.115	83.5
331.344	89.5
331.572	82.5
331.801	79.5
332.03	89.5
332.258	85.5
332.486	81.5
332.715	84.5
332.943	79.5
333.172	76.5
333.4	78.5
333.629	69.5
333.857	76.5
334.085	80.5
334.314	85.5
334.542	76.5
334.771	81.5
334.999	84.5
335.227	89.5
335.455	80.5
335.684	83.5
335.912	84.5
336.14	69.5
336.369	77.5
336.597	87.5
336.825	90.5
337.053	94.5
337.281	92.5
337.51	103.5
337.738	90.5
337.966	76.5
338.194	74.5
338.422	92.5
338.65	88.5
338.878	91.5
339.106	83.5
339.334	85.5
339.562	90.5
339.79	95.5
340.018	89.5
340.246	77.5
340.474	97.5
340.702	87.5
340.93	81.5
341.158	95.5
341.386	92.5
341.614	84.5
341.842	84.5
342.07	88.5
342.298	88.5
342.526	94.5
342.754	86.5
342.981	84.5
343.209	82.5
343.437	81.5
343.665	82.5
343.893	96.5
344.12	87.5
344.348	88.5
344.576	80.5
344.804	91.5
345.031	90.5
345.259	77.5
345.487	84.5
345.714	86.5
345.942	90.5
346.17	93.5
346.397	88.5
346.625	86.5
346.853	104.5
347.08	88.5
347.308	85.5
347.535	75.5
347.763	91.5
347.99	86.5
348.218	83.5
348.445	76.5
348.673	89.5
348.9	80.5
349.128	92.5
349.355	74.5
349.583	92.5
349.81	84.5
350.037	72.5
350.265	92.5
350.492	82.5
350.72	85.5
350.947	81.5
351.174	81.5
351.402	93.5
351.629	84.5
351.856	81.5
352.083	79.5
352.311	78.5
352.538	84.5
352.765	71.5
352.992	77.5
353.22	75.5
353.447	83.5
353.674	93.5
353.901	89.5
354.128	61.5
354.355	70.5
354.583	76.5
354.81	75.5
355.037	77.5
355.264	93.5
355.491	83.5
355.718	89.5
355.945	82.5
356.172	89.5
356.399	87.5
356.626	91.5
356.853	84.5
357.08	80.5
357.307	98.5
357.534	98.5
357.761	94.5
357.988	92.5
358.215	78.5
358.441	81.5
358.668	95.5
358.895	91.5
359.122	89.5
359.349	85.5
359.576	92.5
359.802	99.5
360.029	103.5
360.256	96.5
360.483	96.5
360.709	88.5
360.936	91.5
361.163	85.5
361.39	103.5
361.616	80.5
361.843	90.5
362.07	92.5
362.296	82.5
362.523	96.5
362.749	77.5
362.976	83.5
363.203	96.5
363.429	76.5
363.656	81.5
363.882	77.5
364.109	82.5
364.335	86.5
364.562	83.5
364.788	79.5
365.015	88.5
365.241	76.5
365.468	91.5
365.694	93.5
365.92	86.5
366.147	88.5
366.373	91.5
366.599	88.5
366.826	75.5
367.052	93.5
367.278	81.5
367.505	75.5
367.731	92.5
367.957	84.5
368.184	77.5
368.41	78.5
368.636	85.5
368.862	91.5
369.089	94.5
369.315	92.5
369.541	96.5
369.767	84.5
369.993	92.5
370.219	91.5
370.445	92.5
370.672	87.5
370.898	89.5
371.124	95.5
371.35	97.5
371.576	83.5
371.802	90.5
372.028	83.5
372.254	87.5
372.48	98.5
372.706	84.5
372.932	97.5
373.158	99.5
373.384	80.5
373.61	82.5
373.835	83.5
374.061	93.5
374.287	92.5
374.513	86.5
374.739	93.5
374.965	82.5
375.191	81.5
375.416	97.5
375.642	85.5
375.868	102.5
376.094	79.5
376.319	107.5
376.545	78.5
376.771	88.5
376.997	96.5
377.222	102.5
377.448	88.5
377.674	94.5
377.899	84.5
378.125	86.5
378.35	94.5
378.576	84.5
378.802	96.5
379.027	96.5
379.253	77.5
379.478	77.5
379.704	96.5
379.929	97.5
380.155	104.5
380.38	87.5
380.606	99.5
380.831	97.5
381.057	88.5
381.282	89.5
381.507	108.5
381.733	109.5
381.958	97.5
382.184	103.5
382.409	91.5
382.634	100.5
382.86	93.5
383.085	102.5
383.31	91.5
383.535	91.5
383.761	97.5
383.986	97.5
384.211	86.5
384.436	83.5
384.662	101.5
384.887	100.5
385.112	89.5
385.337	105.5
385.562	79.5
385.787	104.5
386.013	108.5
386.238	97.5
386.463	98.5
386.688	93.5
386.913	90.5
387.138	86.5
387.363	94.5
387.588	95.5
387.813	109.5
388.038	102.5
388.263	107.5
388.488	110.5
388.713	108.5
388.938	78.5
389.163	95.5
389.387	92.5
389.612	107.5
389.837	108.5
390.062	106.5
390.287	113.5
390.512	92.5
390.736	99.5
390.961	100.5
391.186	91.5
391.411	106.5
391.636	104.5
391.86	112.5
392.085	105.5
392.31	108.5
392.534	113.5
392.759	98.5
392.984	94.5
393.208	103.5
393.433	100.5
393.658	109.5
393.882	97.5
394.107	99.5
394.331	109.5
394.556	98.5
394.78	102.5
395.005	108.5
395.229	112.5
395.454	110.5
395.678	107.5
395.903	112.5
396.127	107.5
396.352	87.5
396.576	113.5
396.801	105.5
397.025	100.5
397.249	112.5
397.474	116.5
397.698	119.5
397.922	114.5
398.147	109.5
398.371	102.5
398.595	116.5
398.82	101.5
399.044	115.5
399.268	104.5
399.492	95.5
399.717	97.5
399.941	105.5
400.165	117.5
400.389	105.5
400.613	105.5
400.837	113.5
401.062	95.5
401.286	119.5
401.51	112.5
401.734	120.5
401.958	115.5
402.182	115.5
402.406	122.5
402.63	98.5
402.854	113.5
403.078	105.5
403.302	100.5
403.526	122.5
403.75	120.5
403.974	119.5
404.198	109.5
404.422	114.5
404.645	124.5
404.869	119.5
405.093	121.5
405.317	132.5
405.541	122.5
405.765	118.5
405.988	117.5
406.212	107.5
406.436	112.5
406.66	125.5
406.883	113.5
407.107	128.5
407.331	122.5
407.555	113.5
407.778	111.5
408.002	100.5
408.226	100.5
408.449	112.5
408.673	124.5
408.896	111.5
409.12	98.5
409.344	124.5
409.567	105.5
409.791	116.5
410.014	107.5
410.238	126.5
410.461	109.5
410.685	121.5
410.908	112.5
411.132	116.5
411.355	133.5
411.578	120.5
411.802	95.5
412.025	118.5
412.249	109.5
412.472	109.5
412.695	132.5
412.919	123.5
413.142	113.5
413.365	116.5
413.589	127.5
413.812	115.5
414.035	113.5
414.258	117.5
414.482	114.5
414.705	135.5
414.928	124.5
415.151	124.5
415.374	118.5
415.597	134.5
415.821	113.5
416.044	130.5
416.267	131.5
416.49	117.5
416.713	124.5
416.936	128.5
417.159	116.5
417.382	122.5
417.605	130.5
417.828	126.5
418.051	130.5
418.274	140.5
418.497	127.5
418.72	130.5
418.943	124.5
419.166	138.5
419.389	126.5
419.611	143.5
419.834	128.5
420.057	128.5
420.28	135.5
420.503	124.5
420.726	134.5
420.948	122.5
421.171	120.5
421.394	134.5
421.617	124.5
421.839	138.5
422.062	140.5
422.285	131.5
422.507	138.5
422.73	130.5
422.953	123.5
423.175	120.5
423.398	132.5
423.621	134.5
423.843	130.5
424.066	116.5
424.288	147.5
424.511	140.5
424.733	151.5
424.956	153.5
425.178	130.5
425.401	132.5
425.623	129.5
425.846	121.5
426.068	138.5
426.291	128.5
426.513	126.5
426.735	121.5
426.958	125.5
427.18	136.5
427.402	124.5
427.625	116.5
427.847	117.5
428.069	122.5
428.292	134.5
428.514	109.5
428.736	130.5
428.958	128.5
429.181	136.5
429.403	119.5
429.625	116.5
429.847	120.5
430.069	137.5
430.292	126.5
430.514	133.5
430.736	130.5
430.958	126.5
431.18	116.5
431.402	117.5
431.624	129.5
431.846	113.5
432.068	108.5
432.29	101.5
432.512	107.5
432.734	115.5
432.956	132.5
433.178	145.5
433.4	138.5
433.622	124.5
433.844	127.5
434.066	117.5
434.287	107.5
434.509	104.5
434.731	90.5
434.953	115.5
435.175	122.5
435.397	107.5
435.618	116.5
435.84	106.5
436.062	124.5
436.284	106.5
436.505	132.5
436.727	135.5
436.949	123.5
437.17	126.5
437.392	119.5
437.614	121.5
437.835	113.5
438.057	105.5
438.278	117.5
438.5	120.5
438.721	126.5
438.943	134.5
439.165	137.5
439.386	123.5
439.608	142.5
439.829	137.5
440.05	126.5
440.272	134.5
440.493	133.5
440.715	136.5
440.936	138.5
441.158	150.5
441.379	136.5
441.6	148.5
441.822	142.5
442.043	148.5
442.264	150.5
442.486	120.5
442.707	135.5
442.928	146.5
443.149	136.5
443.371	131.5
443.592	122.5
443.813	135.5
444.034	137.5
444.255	149.5
444.476	154.5
444.698	145.5
444.919	139.5
445.14	274.5
445.361	204.5
445.582	128.5
445.803	138.5
446.024	134.5
446.245	157.5
446.466	142.5
446.687	156.5
446.908	167.5
447.129	158.5
447.35	159.5
447.571	130.5
447.792	134.5
448.013	148.5
448.234	132.5
448.455	129.5
448.675	130.5
448.896	138.5
449.117	144.5
449.338	132.5
449.559	146.5
449.779	128.5
450	147.5
450.221	125.5
450.442	135.5
450.662	122.5
450.883	138.5
451.104	137.5
451.324	122.5
451.545	127.5
451.766	124.5
451.986	130.5
452.207	121.5
452.428	130.5
452.648	125.5
452.869	121.5
453.089	117.5
453.31	116.5
453.53	114.5
453.751	105.5
453.971	112.5
454.192	120.5
454.412	110.5
454.633	106.5
454.853	113.5
455.073	113.5
455.294	135.5
455.514	114.5
455.734	116.5
455.955	109.5
456.175	113.5
456.395	101.5
456.616	103.5
456.836	122.5
457.056	94.5
457.276	103.5
457.497	116.5
457.717	109.5
457.937	102.5
458.157	106.5
458.377	97.5
458.598	100.5
458.818	96.5
459.038	91.5
459.258	77.5
459.478	90.5
459.698	82.5
459.918	96.5
460.138	109.5
460.358	117.5
460.578	122.5
460.798	125.5
461.018	104.5
461.238	114.5
461.458	117.5
461.678	94.5
461.898	124.5
462.118	104.5
462.338	108.5
462.558	98.5
462.777	108.5
462.997	119.5
463.217	104.5
463.437	116.5
463.657	106.5
463.876	112.5
464.096	110.5
464.316	97.5
464.536	115.5
464.755	104.5
464.975	95.5
465.195	116.5
465.414	132.5
465.634	120.5
465.854	110.5
466.073	80.5
466.293	113.5
466.512	141.5
466.732	135.5
466.951	130.5
467.171	126.5
467.391	132.5
467.61	129.5
467.829	125.5
468.049	128.5
468.268	124.5
468.488	134.5
468.707	129.5
468.927	134.5
469.146	145.5
469.365	144.5
469.585	140.5
469.804	139.5
470.023	141.5
470.243	135.5
470.462	141.5
470.681	121.5
470.901	151.5
471.12	124.5
471.339	128.5
471.558	128.5
471.777	127.5
471.997	132.5
472.216	135.5
472.435	119.5
472.654	104.5
472.873	120.5
473.092	116.5
473.311	121.5
473.53	112.5
473.749	117.5
473.968	122.5
474.187	130.5
474.406	112.5
474.625	121.5
474.844	138.5
475.063	132.5
475.282	124.5
475.501	107.5
475.72	126.5
475.939	128.5
476.158	127.5
476.377	132.5
476.596	128.5
476.814	126.5
477.033	121.5
477.252	129.5
477.471	123.5
477.69	142.5
477.908	132.5
478.127	126.5
478.346	152.5
478.564	134.5
478.783	138.5
479.002	127.5
479.22	146.5
479.439	130.5
479.658	115.5
479.876	101.5
480.095	115.5
480.313	105.5
480.532	116.5
480.751	105.5
480.969	101.5
481.188	84.5
481.406	84.5
481.624	104.5
481.843	90.5
482.061	100.5
482.28	104.5
482.498	108.5
482.717	106.5
482.935	115.5
483.153	132.5
483.372	148.5
483.59	145.5
483.808	134.5
484.027	130.5
484.245	136.5
484.463	144.5
484.681	159.5
484.9	148.5
485.118	140.5
485.336	127.5
485.554	121.5
485.772	114.5
485.99	117.5
486.209	117.5
486.427	120.5
486.645	122.5
486.863	143.5
487.081	141.5
487.299	124.5
487.517	144.5
487.735	150.5
487.953	179.5
488.171	169.5
488.389	162.5
488.607	151.5
488.825	139.5
489.043	134.5
489.261	134.5
489.479	141.5
489.696	143.5
489.914	128.5
490.132	130.5
490.35	155.5
490.568	152.5
490.786	166.5
491.003	187.5
491.221	168.5
491.439	156.5
491.657	185.5
491.874	198.5
492.092	220.5
492.31	241.5
492.527	226.5
492.745	195.5
492.963	197.5
493.18	188.5
493.398	168.5
493.615	164.5
493.833	163.5
494.05	180.5
494.268	154.5
494.485	173.5
494.703	176.5
494.92	169.5
495.138	176.5
495.355	172.5
495.573	160.5
495.79	151.5
496.008	162.5
496.225	150.5
496.442	156.5
496.66	169.5
496.877	153.5
497.094	172.5
497.312	161.5
497.529	155.5
497.746	142.5
497.963	133.5
498.181	122.5
498.398	112.5
498.615	119.5
498.832	132.5
499.049	119.5
499.267	116.5
499.484	123.5
499.701	137.5
499.918	123.5
500.135	142.5
500.352	145.5
500.569	146.5
500.786	154.5
501.003	145.5
501.22	140.5
501.437	128.5
501.654	130.5
501.871	125.5
502.088	146.5
502.305	125.5
502.522	141.5
502.739	123.5
502.956	119.5
503.172	133.5
503.389	134.5
503.606	117.5
503.823	117.5
504.04	112.5
504.256	110.5
504.473	124.5
504.69	101.5
504.907	116.5
505.123	116.5
505.34	118.5
505.557	148.5
505.773	136.5
505.99	114.5
506.207	130.5
506.423	120.5
506.64	135.5
506.856	137.5
507.073	125.5
507.289	126.5
507.506	123.5
507.722	118.5
507.939	136.5
508.155	122.5
508.372	122.5
508.588	107.5
508.805	115.5
509.021	106.5
509.238	98.5
509.454	108.5
509.67	106.5
509.887	81.5
510.103	95.5
510.319	103.5
510.536	93.5
510.752	93.5
510.968	68.5
511.184	75.5
511.401	98.5
511.617	83.5
511.833	95.5
512.049	90.5
512.265	96.5
512.481	116.5
512.698	89.5
512.914	104.5
513.13	105.5
513.346	101.5
513.562	89.5
513.778	99.5
513.994	87.5
514.21	105.5
514.426	103.5
514.642	84.5
514.858	80.5
515.074	86.5
515.29	101.5
515.506	96.5
515.721	98.5
515.937	104.5
516.153	87.5
516.369	96.5
516.585	75.5
516.801	82.5
517.016	96.5
517.232	94.5
517.448	91.5
517.664	98.5
517.879	92.5
518.095	93.5
518.311	101.5
518.527	90.5
518.742	98.5
518.958	90.5
519.173	107.5
519.389	112.5
519.605	109.5
519.82	100.5
520.036	104.5
520.251	93.5
520.467	90.5
520.682	85.5
520.898	88.5
521.113	89.5
521.329	75.5
521.544	78.5
521.76	94.5
521.975	94.5
522.19	99.5
522.406	98.5
522.621	92.5
522.836	111.5
523.052	122.5
523.267	103.5
523.482	100.5
523.698	130.5
523.913	104.5
524.128	112.5
524.343	123.5
524.559	124.5
524.774	125.5
524.989	114.5
525.204	126.5
525.419	120.5
525.634	109.5
525.849	116.5
526.064	99.5
526.28	117.5
526.495	99.5
526.71	90.5
526.925	87.5
527.14	82.5
527.355	72.5
527.57	86.5
527.785	90.5
527.999	94.5
528.214	125.5
528.429	116.5
528.644	104.5
528.859	152.5
529.074	150.5
529.289	166.5
529.503	168.5
529.718	147.5
529.933	120.5
530.148	118.5
530.363	101.5
530.577	89.5
530.792	85.5
