Data from Location4.07152019.Energy5.Lamp.07192019.3%Agarose_HRD10591_16-18-59-925.txt Node
Date: Fri Jul 19 16:18:59 EDT 2019
User: cochatt
Spectrometer: HR+D1059
Trigger mode: 1
Integration Time (sec): 1.000000E-1
Scans to average: 1
Electric dark correction enabled: true
Nonlinearity correction enabled: false
Boxcar width: 0
XAxis mode: Wavelengths
Number of Pixels in Spectrum: 2048
>>>>>Begin Spectral Data<<<<<
223.165	-12.88
223.4	-12.88
223.635	-12.88
223.869	-18.88
224.104	-1.88
224.338	-20.88
224.573	-11.88
224.808	-4.88
225.042	-21.88
225.277	-14.88
225.511	2.12
225.746	4.12
225.98	17.12
226.215	11.12
226.449	11.12
226.683	21.12
226.918	18.12
227.152	23.12
227.387	41.12
227.621	35.12
227.856	40.12
228.09	43.12
228.324	55.12
228.559	57.12
228.793	69.12
229.027	60.12
229.262	66.12
229.496	70.12
229.73	53.12
229.964	70.12
230.199	74.12
230.433	85.12
230.667	72.12
230.901	89.12
231.136	80.12
231.37	68.12
231.604	81.12
231.838	82.12
232.072	94.12
232.306	87.12
232.541	70.12
232.775	86.12
233.009	64.12
233.243	72.12
233.477	84.12
233.711	79.12
233.945	86.12
234.179	85.12
234.413	85.12
234.647	83.12
234.881	88.12
235.115	92.12
235.349	76.12
235.583	91.12
235.817	83.12
236.051	73.12
236.285	72.12
236.519	79.12
236.753	83.12
236.987	66.12
237.221	73.12
237.455	73.12
237.689	77.12
237.922	81.12
238.156	90.12
238.39	76.12
238.624	83.12
238.858	82.12
239.091	66.12
239.325	68.12
239.559	61.12
239.793	66.12
240.027	76.12
240.26	71.12
240.494	84.12
240.728	74.12
240.961	73.12
241.195	73.12
241.429	88.12
241.662	74.12
241.896	62.12
242.13	69.12
242.363	76.12
242.597	72.12
242.83	74.12
243.064	75.12
243.298	72.12
243.531	78.12
243.765	74.12
243.998	66.12
244.232	75.12
244.465	60.12
244.699	78.12
244.932	92.12
245.166	71.12
245.399	82.12
245.633	87.12
245.866	81.12
246.099	77.12
246.333	82.12
246.566	76.12
246.8	75.12
247.033	73.12
247.266	98.12
247.5	85.12
247.733	80.12
247.966	74.12
248.2	70.12
248.433	69.12
248.666	92.12
248.899	80.12
249.133	70.12
249.366	90.12
249.599	73.12
249.832	69.12
250.066	82.12
250.299	90.12
250.532	83.12
250.765	81.12
250.998	86.12
251.231	73.12
251.465	79.12
251.698	86.12
251.931	87.12
252.164	76.12
252.397	67.12
252.63	72.12
252.863	85.12
253.096	75.12
253.329	79.12
253.562	73.12
253.795	76.12
254.028	86.12
254.261	84.12
254.494	80.12
254.727	78.12
254.96	67.12
255.193	77.12
255.426	80.12
255.659	72.12
255.892	76.12
256.124	72.12
256.357	72.12
256.59	81.12
256.823	90.12
257.056	69.12
257.289	78.12
257.521	78.12
257.754	93.12
257.987	79.12
258.22	71.12
258.452	75.12
258.685	73.12
258.918	79.12
259.151	80.12
259.383	87.12
259.616	83.12
259.849	72.12
260.081	82.12
260.314	74.12
260.547	82.12
260.779	76.12
261.012	80.12
261.244	86.12
261.477	86.12
261.71	74.12
261.942	78.12
262.175	95.12
262.407	80.12
262.64	77.12
262.872	84.12
263.105	71.12
263.337	77.12
263.57	89.12
263.802	78.12
264.035	73.12
264.267	86.12
264.499	85.12
264.732	88.12
264.964	72.12
265.197	77.12
265.429	69.12
265.661	79.12
265.894	86.12
266.126	93.12
266.358	86.12
266.591	84.12
266.823	61.12
267.055	81.12
267.287	71.12
267.52	76.12
267.752	81.12
267.984	75.12
268.216	80.12
268.448	75.12
268.681	80.12
268.913	74.12
269.145	84.12
269.377	82.12
269.609	78.12
269.841	87.12
270.073	84.12
270.306	73.12
270.538	64.12
270.77	86.12
271.002	80.12
271.234	89.12
271.466	82.12
271.698	75.12
271.93	76.12
272.162	78.12
272.394	87.12
272.626	76.12
272.858	73.12
273.09	87.12
273.322	71.12
273.553	85.12
273.785	91.12
274.017	79.12
274.249	68.12
274.481	71.12
274.713	85.12
274.945	75.12
275.176	81.12
275.408	81.12
275.64	88.12
275.872	72.12
276.104	94.12
276.335	79.12
276.567	97.12
276.799	78.12
277.031	69.12
277.262	83.12
277.494	79.12
277.726	90.12
277.957	71.12
278.189	94.12
278.421	73.12
278.652	79.12
278.884	81.12
279.115	89.12
279.347	94.12
279.579	80.12
279.81	76.12
280.042	81.12
280.273	87.12
280.505	81.12
280.736	85.12
280.968	84.12
281.199	97.12
281.431	91.12
281.662	88.12
281.894	87.12
282.125	89.12
282.356	91.12
282.588	80.12
282.819	68.12
283.051	77.12
283.282	76.12
283.513	83.12
283.745	90.12
283.976	71.12
284.207	80.12
284.439	82.12
284.67	90.12
284.901	72.12
285.132	80.12
285.364	91.12
285.595	83.12
285.826	85.12
286.057	87.12
286.288	85.12
286.52	93.12
286.751	92.12
286.982	85.12
287.213	92.12
287.444	87.12
287.675	75.12
287.906	83.12
288.138	79.12
288.369	84.12
288.6	92.12
288.831	73.12
289.062	85.12
289.293	92.12
289.524	95.12
289.755	79.12
289.986	82.12
290.217	80.12
290.448	86.12
290.679	85.12
290.91	106.12
291.141	73.12
291.371	98.12
291.602	76.12
291.833	79.12
292.064	91.12
292.295	90.12
292.526	94.12
292.757	83.12
292.987	80.12
293.218	96.12
293.449	87.12
293.68	75.12
293.91	95.12
294.141	103.12
294.372	73.12
294.603	76.12
294.833	70.12
295.064	82.12
295.295	79.12
295.525	79.12
295.756	94.12
295.987	97.12
296.217	76.12
296.448	77.12
296.679	82.12
296.909	75.12
297.14	79.12
297.37	87.12
297.601	75.12
297.831	85.12
298.062	88.12
298.292	90.12
298.523	78.12
298.753	71.12
298.984	96.12
299.214	86.12
299.445	81.12
299.675	83.12
299.905	81.12
300.136	83.12
300.366	83.12
300.597	91.12
300.827	86.12
301.057	85.12
301.288	99.12
301.518	91.12
301.748	83.12
301.979	90.12
302.209	79.12
302.439	80.12
302.669	87.12
302.9	91.12
303.13	74.12
303.36	76.12
303.59	86.12
303.82	81.12
304.051	84.12
304.281	89.12
304.511	102.12
304.741	99.12
304.971	84.12
305.201	88.12
305.431	91.12
305.661	81.12
305.891	80.12
306.121	94.12
306.352	77.12
306.582	75.12
306.812	86.12
307.042	82.12
307.272	79.12
307.502	81.12
307.731	92.12
307.961	81.12
308.191	76.12
308.421	88.12
308.651	88.12
308.881	69.12
309.111	83.12
309.341	83.12
309.571	92.12
309.8	84.12
310.03	76.12
310.26	72.12
310.49	84.12
310.72	91.12
310.949	84.12
311.179	84.12
311.409	86.12
311.639	80.12
311.868	83.12
312.098	87.12
312.328	74.12
312.557	69.12
312.787	89.12
313.017	75.12
313.246	92.12
313.476	85.12
313.706	74.12
313.935	83.12
314.165	70.12
314.394	77.12
314.624	98.12
314.853	89.12
315.083	99.12
315.312	77.12
315.542	90.12
315.771	88.12
316.001	89.12
316.23	87.12
316.46	88.12
316.689	82.12
316.919	81.12
317.148	89.12
317.377	76.12
317.607	79.12
317.836	95.12
318.065	86.12
318.295	77.12
318.524	77.12
318.753	106.12
318.983	83.12
319.212	97.12
319.441	83.12
319.67	88.12
319.9	88.12
320.129	76.12
320.358	85.12
320.587	83.12
320.816	90.12
321.046	68.12
321.275	80.12
321.504	88.12
321.733	70.12
321.962	83.12
322.191	90.12
322.42	84.12
322.649	71.12
322.878	85.12
323.108	100.12
323.337	78.12
323.566	73.12
323.795	81.12
324.024	86.12
324.253	82.12
324.482	85.12
324.71	94.12
324.939	83.12
325.168	77.12
325.397	72.12
325.626	79.12
325.855	78.12
326.084	85.12
326.313	88.12
326.542	99.12
326.77	93.12
326.999	73.12
327.228	82.12
327.457	69.12
327.686	87.12
327.914	80.12
328.143	93.12
328.372	88.12
328.6	84.12
328.829	77.12
329.058	80.12
329.287	82.12
329.515	92.12
329.744	92.12
329.972	73.12
330.201	83.12
330.43	88.12
330.658	91.12
330.887	90.12
331.115	88.12
331.344	79.12
331.572	67.12
331.801	93.12
332.03	78.12
332.258	86.12
332.486	86.12
332.715	81.12
332.943	74.12
333.172	89.12
333.4	87.12
333.629	86.12
333.857	77.12
334.085	75.12
334.314	82.12
334.542	84.12
334.771	81.12
334.999	80.12
335.227	77.12
335.455	82.12
335.684	85.12
335.912	86.12
336.14	81.12
336.369	91.12
336.597	83.12
336.825	72.12
337.053	83.12
337.281	90.12
337.51	88.12
337.738	89.12
337.966	81.12
338.194	85.12
338.422	79.12
338.65	95.12
338.878	82.12
339.106	76.12
339.334	82.12
339.562	93.12
339.79	99.12
340.018	92.12
340.246	101.12
340.474	84.12
340.702	97.12
340.93	90.12
341.158	84.12
341.386	88.12
341.614	91.12
341.842	98.12
342.07	96.12
342.298	77.12
342.526	80.12
342.754	84.12
342.981	90.12
343.209	94.12
343.437	90.12
343.665	83.12
343.893	81.12
344.12	87.12
344.348	95.12
344.576	89.12
344.804	82.12
345.031	82.12
345.259	86.12
345.487	86.12
345.714	99.12
345.942	91.12
346.17	80.12
346.397	88.12
346.625	97.12
346.853	94.12
347.08	76.12
347.308	91.12
347.535	93.12
347.763	72.12
347.99	73.12
348.218	79.12
348.445	83.12
348.673	82.12
348.9	83.12
349.128	83.12
349.355	92.12
349.583	78.12
349.81	81.12
350.037	91.12
350.265	94.12
350.492	89.12
350.72	83.12
350.947	88.12
351.174	84.12
351.402	95.12
351.629	72.12
351.856	85.12
352.083	73.12
352.311	82.12
352.538	77.12
352.765	89.12
352.992	84.12
353.22	93.12
353.447	81.12
353.674	76.12
353.901	94.12
354.128	101.12
354.355	85.12
354.583	84.12
354.81	95.12
355.037	77.12
355.264	82.12
355.491	77.12
355.718	93.12
355.945	72.12
356.172	73.12
356.399	82.12
356.626	83.12
356.853	93.12
357.08	85.12
357.307	83.12
357.534	76.12
357.761	79.12
357.988	84.12
358.215	85.12
358.441	90.12
358.668	74.12
358.895	81.12
359.122	67.12
359.349	72.12
359.576	73.12
359.802	90.12
360.029	73.12
360.256	85.12
360.483	75.12
360.709	81.12
360.936	79.12
361.163	73.12
361.39	69.12
361.616	87.12
361.843	79.12
362.07	77.12
362.296	96.12
362.523	75.12
362.749	83.12
362.976	79.12
363.203	99.12
363.429	92.12
363.656	93.12
363.882	85.12
364.109	88.12
364.335	89.12
364.562	86.12
364.788	77.12
365.015	85.12
365.241	96.12
365.468	89.12
365.694	95.12
365.92	89.12
366.147	82.12
366.373	82.12
366.599	97.12
366.826	77.12
367.052	88.12
367.278	88.12
367.505	92.12
367.731	91.12
367.957	77.12
368.184	74.12
368.41	107.12
368.636	88.12
368.862	89.12
369.089	87.12
369.315	80.12
369.541	80.12
369.767	85.12
369.993	88.12
370.219	83.12
370.445	88.12
370.672	85.12
370.898	93.12
371.124	76.12
371.35	93.12
371.576	83.12
371.802	74.12
372.028	87.12
372.254	84.12
372.48	95.12
372.706	93.12
372.932	76.12
373.158	84.12
373.384	86.12
373.61	98.12
373.835	91.12
374.061	81.12
374.287	85.12
374.513	84.12
374.739	88.12
374.965	73.12
375.191	85.12
375.416	108.12
375.642	72.12
375.868	102.12
376.094	100.12
376.319	101.12
376.545	85.12
376.771	76.12
376.997	87.12
377.222	95.12
377.448	92.12
377.674	98.12
377.899	98.12
378.125	83.12
378.35	87.12
378.576	93.12
378.802	86.12
379.027	100.12
379.253	98.12
379.478	90.12
379.704	89.12
379.929	89.12
380.155	96.12
380.38	97.12
380.606	95.12
380.831	68.12
381.057	91.12
381.282	96.12
381.507	103.12
381.733	107.12
381.958	90.12
382.184	95.12
382.409	96.12
382.634	99.12
382.86	100.12
383.085	103.12
383.31	105.12
383.535	98.12
383.761	111.12
383.986	93.12
384.211	103.12
384.436	97.12
384.662	104.12
384.887	88.12
385.112	90.12
385.337	88.12
385.562	98.12
385.787	108.12
386.013	108.12
386.238	108.12
386.463	108.12
386.688	111.12
386.913	87.12
387.138	113.12
387.363	89.12
387.588	97.12
387.813	79.12
388.038	107.12
388.263	92.12
388.488	83.12
388.713	100.12
388.938	115.12
389.163	106.12
389.387	118.12
389.612	104.12
389.837	92.12
390.062	104.12
390.287	108.12
390.512	101.12
390.736	96.12
390.961	106.12
391.186	103.12
391.411	98.12
391.636	107.12
391.86	108.12
392.085	112.12
392.31	96.12
392.534	98.12
392.759	111.12
392.984	113.12
393.208	115.12
393.433	90.12
393.658	108.12
393.882	124.12
394.107	100.12
394.331	95.12
394.556	111.12
394.78	107.12
395.005	102.12
395.229	104.12
395.454	126.12
395.678	115.12
395.903	109.12
396.127	111.12
396.352	106.12
396.576	97.12
396.801	117.12
397.025	104.12
397.249	101.12
397.474	114.12
397.698	114.12
397.922	103.12
398.147	102.12
398.371	108.12
398.595	99.12
398.82	111.12
399.044	93.12
399.268	96.12
399.492	105.12
399.717	112.12
399.941	104.12
400.165	110.12
400.389	107.12
400.613	105.12
400.837	106.12
401.062	98.12
401.286	113.12
401.51	121.12
401.734	120.12
401.958	115.12
402.182	106.12
402.406	106.12
402.63	131.12
402.854	108.12
403.078	92.12
403.302	120.12
403.526	111.12
403.75	113.12
403.974	103.12
404.198	113.12
404.422	116.12
404.645	108.12
404.869	124.12
405.093	113.12
405.317	103.12
405.541	123.12
405.765	106.12
405.988	120.12
406.212	111.12
406.436	121.12
406.66	112.12
406.883	111.12
407.107	124.12
407.331	127.12
407.555	127.12
407.778	120.12
408.002	115.12
408.226	121.12
408.449	109.12
408.673	115.12
408.896	115.12
409.12	103.12
409.344	108.12
409.567	117.12
409.791	125.12
410.014	114.12
410.238	113.12
410.461	126.12
410.685	119.12
410.908	119.12
411.132	111.12
411.355	119.12
411.578	128.12
411.802	114.12
412.025	127.12
412.249	117.12
412.472	131.12
412.695	119.12
412.919	120.12
413.142	114.12
413.365	105.12
413.589	121.12
413.812	117.12
414.035	115.12
414.258	128.12
414.482	125.12
414.705	121.12
414.928	115.12
415.151	115.12
415.374	113.12
415.597	129.12
415.821	120.12
416.044	121.12
416.267	127.12
416.49	131.12
416.713	119.12
416.936	123.12
417.159	116.12
417.382	142.12
417.605	137.12
417.828	131.12
418.051	119.12
418.274	127.12
418.497	121.12
418.72	127.12
418.943	123.12
419.166	124.12
419.389	132.12
419.611	134.12
419.834	116.12
420.057	123.12
420.28	136.12
420.503	141.12
420.726	129.12
420.948	128.12
421.171	135.12
421.394	140.12
421.617	127.12
421.839	129.12
422.062	143.12
422.285	124.12
422.507	133.12
422.73	140.12
422.953	130.12
423.175	116.12
423.398	130.12
423.621	131.12
423.843	127.12
424.066	128.12
424.288	132.12
424.511	136.12
424.733	135.12
424.956	137.12
425.178	148.12
425.401	137.12
425.623	135.12
425.846	132.12
426.068	131.12
426.291	141.12
426.513	123.12
426.735	147.12
426.958	131.12
427.18	141.12
427.402	134.12
427.625	127.12
427.847	132.12
428.069	137.12
428.292	130.12
428.514	123.12
428.736	131.12
428.958	131.12
429.181	132.12
429.403	123.12
429.625	121.12
429.847	138.12
430.069	134.12
430.292	137.12
430.514	127.12
430.736	138.12
430.958	136.12
431.18	117.12
431.402	145.12
431.624	135.12
431.846	121.12
432.068	92.12
432.29	109.12
432.512	104.12
432.734	120.12
432.956	129.12
433.178	149.12
433.4	159.12
433.622	140.12
433.844	134.12
434.066	121.12
434.287	98.12
434.509	105.12
434.731	100.12
434.953	100.12
435.175	122.12
435.397	119.12
435.618	113.12
435.84	120.12
436.062	120.12
436.284	116.12
436.505	132.12
436.727	120.12
436.949	134.12
437.17	128.12
437.392	120.12
437.614	112.12
437.835	112.12
438.057	115.12
438.278	118.12
438.5	120.12
438.721	127.12
438.943	148.12
439.165	133.12
439.386	129.12
439.608	137.12
439.829	153.12
440.05	144.12
440.272	142.12
440.493	135.12
440.715	159.12
440.936	151.12
441.158	149.12
441.379	145.12
441.6	159.12
441.822	143.12
442.043	131.12
442.264	145.12
442.486	138.12
442.707	126.12
442.928	135.12
443.149	145.12
443.371	149.12
443.592	136.12
443.813	140.12
444.034	121.12
444.255	141.12
444.476	144.12
444.698	136.12
444.919	135.12
445.14	244.12
445.361	195.12
445.582	159.12
445.803	151.12
446.024	142.12
446.245	153.12
446.466	161.12
446.687	138.12
446.908	154.12
447.129	152.12
447.35	155.12
447.571	146.12
447.792	148.12
448.013	132.12
448.234	147.12
448.455	138.12
448.675	130.12
448.896	144.12
449.117	124.12
449.338	133.12
449.559	150.12
449.779	137.12
450	137.12
450.221	144.12
450.442	132.12
450.662	133.12
450.883	128.12
451.104	149.12
451.324	120.12
451.545	124.12
451.766	134.12
451.986	134.12
452.207	115.12
452.428	121.12
452.648	116.12
452.869	131.12
453.089	104.12
453.31	106.12
453.53	112.12
453.751	99.12
453.971	102.12
454.192	98.12
454.412	119.12
454.633	134.12
454.853	121.12
455.073	113.12
455.294	119.12
455.514	103.12
455.734	119.12
455.955	127.12
456.175	120.12
456.395	110.12
456.616	103.12
456.836	119.12
457.056	125.12
457.276	121.12
457.497	111.12
457.717	120.12
457.937	106.12
458.157	117.12
458.377	113.12
458.598	100.12
458.818	91.12
459.038	85.12
459.258	84.12
459.478	75.12
459.698	98.12
459.918	94.12
460.138	114.12
460.358	120.12
460.578	107.12
460.798	114.12
461.018	112.12
461.238	120.12
461.458	101.12
461.678	98.12
461.898	119.12
462.118	108.12
462.338	116.12
462.558	116.12
462.777	129.12
462.997	112.12
463.217	104.12
463.437	105.12
463.657	99.12
463.876	104.12
464.096	116.12
464.316	101.12
464.536	104.12
464.755	123.12
464.975	99.12
465.195	108.12
465.414	119.12
465.634	120.12
465.854	112.12
466.073	119.12
466.293	118.12
466.512	138.12
466.732	117.12
466.951	127.12
467.171	127.12
467.391	132.12
467.61	130.12
467.829	142.12
468.049	152.12
468.268	135.12
468.488	141.12
468.707	127.12
468.927	132.12
469.146	137.12
469.365	131.12
469.585	131.12
469.804	138.12
470.023	144.12
470.243	138.12
470.462	139.12
470.681	134.12
470.901	134.12
471.12	131.12
471.339	149.12
471.558	139.12
471.777	145.12
471.997	141.12
472.216	133.12
472.435	113.12
472.654	113.12
472.873	97.12
473.092	110.12
473.311	111.12
473.53	129.12
473.749	131.12
473.968	128.12
474.187	126.12
474.406	116.12
474.625	131.12
474.844	147.12
475.063	126.12
475.282	132.12
475.501	109.12
475.72	113.12
475.939	113.12
476.158	127.12
476.377	119.12
476.596	118.12
476.814	119.12
477.033	104.12
477.252	101.12
477.471	122.12
477.69	127.12
477.908	136.12
478.127	143.12
478.346	150.12
478.564	116.12
478.783	137.12
479.002	127.12
479.22	146.12
479.439	128.12
479.658	119.12
479.876	119.12
480.095	96.12
480.313	109.12
480.532	101.12
480.751	108.12
480.969	90.12
481.188	84.12
481.406	88.12
481.624	92.12
481.843	88.12
482.061	98.12
482.28	114.12
482.498	116.12
482.717	101.12
482.935	116.12
483.153	149.12
483.372	134.12
483.59	149.12
483.808	145.12
484.027	129.12
484.245	132.12
484.463	153.12
484.681	169.12
484.9	133.12
485.118	128.12
485.336	118.12
485.554	126.12
485.772	112.12
485.99	98.12
486.209	101.12
486.427	118.12
486.645	108.12
486.863	142.12
487.081	145.12
487.299	135.12
487.517	139.12
487.735	163.12
487.953	188.12
488.171	182.12
488.389	179.12
488.607	161.12
488.825	137.12
489.043	137.12
489.261	152.12
489.479	138.12
489.696	130.12
489.914	141.12
490.132	132.12
490.35	135.12
490.568	145.12
490.786	156.12
491.003	173.12
491.221	194.12
491.439	182.12
491.657	202.12
491.874	188.12
492.092	228.12
492.31	242.12
492.527	210.12
492.745	175.12
492.963	192.12
493.18	172.12
493.398	179.12
493.615	175.12
493.833	160.12
494.05	165.12
494.268	161.12
494.485	170.12
494.703	166.12
494.92	167.12
495.138	177.12
495.355	171.12
495.573	160.12
495.79	164.12
496.008	168.12
496.225	167.12
496.442	182.12
496.66	181.12
496.877	158.12
497.094	169.12
497.312	177.12
497.529	171.12
497.746	143.12
497.963	131.12
498.181	131.12
498.398	124.12
498.615	118.12
498.832	118.12
499.049	116.12
499.267	119.12
499.484	117.12
499.701	123.12
499.918	141.12
500.135	128.12
500.352	140.12
500.569	141.12
500.786	150.12
501.003	146.12
501.22	140.12
501.437	127.12
501.654	130.12
501.871	139.12
502.088	137.12
502.305	137.12
502.522	112.12
502.739	127.12
502.956	128.12
503.172	124.12
503.389	128.12
503.606	124.12
503.823	113.12
504.04	124.12
504.256	118.12
504.473	117.12
504.69	139.12
504.907	121.12
505.123	129.12
505.34	105.12
505.557	119.12
505.773	115.12
505.99	112.12
506.207	113.12
506.423	103.12
506.64	135.12
506.856	119.12
507.073	110.12
507.289	131.12
507.506	116.12
507.722	119.12
507.939	119.12
508.155	118.12
508.372	114.12
508.588	109.12
508.805	116.12
509.021	105.12
509.238	98.12
509.454	98.12
509.67	108.12
509.887	88.12
510.103	81.12
510.319	104.12
510.536	64.12
510.752	82.12
510.968	83.12
511.184	93.12
511.401	93.12
511.617	94.12
