Data from Location4.07152019.Energy5.Lamp.07192019.3%Agarose_HRD10591_16-20-55-929.txt Node
Date: Fri Jul 19 16:20:55 EDT 2019
User: cochatt
Spectrometer: HR+D1059
Trigger mode: 1
Integration Time (sec): 1.000000E-1
Scans to average: 1
Electric dark correction enabled: true
Nonlinearity correction enabled: false
Boxcar width: 0
XAxis mode: Wavelengths
Number of Pixels in Spectrum: 2048
>>>>>Begin Spectral Data<<<<<
223.165	-13.56
223.4	-13.56
223.635	-13.56
223.869	-15.56
224.104	-25.56
224.338	-19.56
224.573	-11.56
224.808	-5.56
225.042	-24.56
225.277	-11.56
225.511	-9.56
225.746	16.44
225.98	7.44
226.215	11.44
226.449	31.44
226.683	20.44
226.918	24.44
227.152	25.44
227.387	34.44
227.621	30.44
227.856	46.44
228.09	38.44
228.324	42.44
228.559	49.44
228.793	71.44
229.027	70.44
229.262	54.44
229.496	65.44
229.73	73.44
229.964	75.44
230.199	70.44
230.433	67.44
230.667	83.44
230.901	78.44
231.136	68.44
231.37	82.44
231.604	71.44
231.838	96.44
232.072	80.44
232.306	79.44
232.541	78.44
232.775	84.44
233.009	73.44
233.243	77.44
233.477	70.44
233.711	80.44
233.945	88.44
234.179	92.44
234.413	87.44
234.647	85.44
234.881	92.44
235.115	88.44
235.349	77.44
235.583	69.44
235.817	63.44
236.051	77.44
236.285	87.44
236.519	92.44
236.753	72.44
236.987	74.44
237.221	70.44
237.455	73.44
237.689	71.44
237.922	84.44
238.156	78.44
238.39	69.44
238.624	89.44
238.858	76.44
239.091	73.44
239.325	85.44
239.559	74.44
239.793	71.44
240.027	80.44
240.26	75.44
240.494	76.44
240.728	69.44
240.961	65.44
241.195	69.44
241.429	78.44
241.662	75.44
241.896	72.44
242.13	73.44
242.363	81.44
242.597	77.44
242.83	67.44
243.064	70.44
243.298	84.44
243.531	81.44
243.765	76.44
243.998	70.44
244.232	76.44
244.465	81.44
244.699	74.44
244.932	83.44
245.166	76.44
245.399	72.44
245.633	79.44
245.866	78.44
246.099	79.44
246.333	75.44
246.566	73.44
246.8	71.44
247.033	66.44
247.266	89.44
247.5	76.44
247.733	70.44
247.966	80.44
248.2	82.44
248.433	80.44
248.666	69.44
248.899	77.44
249.133	72.44
249.366	74.44
249.599	71.44
249.832	74.44
250.066	67.44
250.299	68.44
250.532	84.44
250.765	82.44
250.998	87.44
251.231	84.44
251.465	85.44
251.698	72.44
251.931	83.44
252.164	83.44
252.397	81.44
252.63	75.44
252.863	81.44
253.096	72.44
253.329	71.44
253.562	86.44
253.795	76.44
254.028	78.44
254.261	79.44
254.494	82.44
254.727	89.44
254.96	71.44
255.193	73.44
255.426	92.44
255.659	74.44
255.892	87.44
256.124	65.44
256.357	82.44
256.59	86.44
256.823	81.44
257.056	83.44
257.289	77.44
257.521	80.44
257.754	84.44
257.987	63.44
258.22	90.44
258.452	81.44
258.685	87.44
258.918	76.44
259.151	75.44
259.383	83.44
259.616	84.44
259.849	88.44
260.081	70.44
260.314	76.44
260.547	73.44
260.779	73.44
261.012	58.44
261.244	75.44
261.477	84.44
261.71	73.44
261.942	83.44
262.175	80.44
262.407	66.44
262.64	78.44
262.872	82.44
263.105	77.44
263.337	71.44
263.57	75.44
263.802	65.44
264.035	79.44
264.267	84.44
264.499	65.44
264.732	74.44
264.964	83.44
265.197	78.44
265.429	68.44
265.661	73.44
265.894	79.44
266.126	85.44
266.358	75.44
266.591	76.44
266.823	89.44
267.055	70.44
267.287	77.44
267.52	76.44
267.752	77.44
267.984	89.44
268.216	62.44
268.448	89.44
268.681	85.44
268.913	72.44
269.145	85.44
269.377	103.44
269.609	86.44
269.841	84.44
270.073	65.44
270.306	68.44
270.538	77.44
270.77	80.44
271.002	84.44
271.234	72.44
271.466	84.44
271.698	76.44
271.93	74.44
272.162	81.44
272.394	98.44
272.626	87.44
272.858	90.44
273.09	73.44
273.322	91.44
273.553	75.44
273.785	92.44
274.017	74.44
274.249	75.44
274.481	65.44
274.713	90.44
274.945	86.44
275.176	95.44
275.408	84.44
275.64	78.44
275.872	84.44
276.104	89.44
276.335	87.44
276.567	90.44
276.799	76.44
277.031	77.44
277.262	79.44
277.494	99.44
277.726	102.44
277.957	80.44
278.189	81.44
278.421	80.44
278.652	83.44
278.884	88.44
279.115	87.44
279.347	70.44
279.579	70.44
279.81	87.44
280.042	93.44
280.273	78.44
280.505	92.44
280.736	78.44
280.968	74.44
281.199	91.44
281.431	92.44
281.662	88.44
281.894	84.44
282.125	67.44
282.356	78.44
282.588	102.44
282.819	86.44
283.051	91.44
283.282	99.44
283.513	68.44
283.745	77.44
283.976	82.44
284.207	72.44
284.439	80.44
284.67	71.44
284.901	83.44
285.132	86.44
285.364	88.44
285.595	86.44
285.826	86.44
286.057	99.44
286.288	76.44
286.52	85.44
286.751	80.44
286.982	77.44
287.213	83.44
287.444	76.44
287.675	83.44
287.906	84.44
288.138	83.44
288.369	88.44
288.6	68.44
288.831	75.44
289.062	94.44
289.293	102.44
289.524	78.44
289.755	88.44
289.986	99.44
290.217	80.44
290.448	87.44
290.679	77.44
290.91	80.44
291.141	75.44
291.371	73.44
291.602	83.44
291.833	87.44
292.064	82.44
292.295	83.44
292.526	91.44
292.757	78.44
292.987	83.44
293.218	77.44
293.449	74.44
293.68	71.44
293.91	76.44
294.141	88.44
294.372	70.44
294.603	94.44
294.833	87.44
295.064	87.44
295.295	81.44
295.525	76.44
295.756	93.44
295.987	89.44
296.217	80.44
296.448	83.44
296.679	82.44
296.909	90.44
297.14	88.44
297.37	81.44
297.601	103.44
297.831	83.44
298.062	97.44
298.292	95.44
298.523	98.44
298.753	81.44
298.984	83.44
299.214	94.44
299.445	84.44
299.675	67.44
299.905	81.44
300.136	80.44
300.366	82.44
300.597	80.44
300.827	87.44
301.057	79.44
301.288	96.44
301.518	82.44
301.748	89.44
301.979	86.44
302.209	76.44
302.439	79.44
302.669	84.44
302.9	73.44
303.13	79.44
303.36	86.44
303.59	73.44
303.82	81.44
304.051	87.44
304.281	88.44
304.511	97.44
304.741	77.44
304.971	81.44
305.201	83.44
305.431	81.44
305.661	91.44
305.891	89.44
306.121	76.44
306.352	76.44
306.582	78.44
306.812	81.44
307.042	80.44
307.272	96.44
307.502	87.44
307.731	85.44
307.961	88.44
308.191	66.44
308.421	84.44
308.651	77.44
308.881	87.44
309.111	83.44
309.341	81.44
309.571	87.44
309.8	76.44
310.03	79.44
310.26	77.44
310.49	86.44
310.72	95.44
310.949	71.44
311.179	82.44
311.409	79.44
311.639	88.44
311.868	92.44
312.098	81.44
312.328	86.44
312.557	76.44
312.787	86.44
313.017	84.44
313.246	78.44
313.476	89.44
313.706	78.44
313.935	81.44
314.165	87.44
314.394	98.44
314.624	78.44
314.853	98.44
315.083	94.44
315.312	90.44
315.542	90.44
315.771	79.44
316.001	81.44
316.23	88.44
316.46	90.44
316.689	82.44
316.919	85.44
317.148	87.44
317.377	82.44
317.607	76.44
317.836	82.44
318.065	85.44
318.295	88.44
318.524	93.44
318.753	96.44
318.983	100.44
319.212	76.44
319.441	77.44
319.67	78.44
319.9	75.44
320.129	77.44
320.358	76.44
320.587	80.44
320.816	87.44
321.046	78.44
321.275	86.44
321.504	87.44
321.733	90.44
321.962	79.44
322.191	86.44
322.42	75.44
322.649	88.44
322.878	80.44
323.108	93.44
323.337	88.44
323.566	93.44
323.795	81.44
324.024	84.44
324.253	98.44
324.482	88.44
324.71	97.44
324.939	94.44
325.168	81.44
325.397	94.44
325.626	88.44
325.855	78.44
326.084	87.44
326.313	87.44
326.542	80.44
326.77	87.44
326.999	85.44
327.228	75.44
327.457	75.44
327.686	82.44
327.914	89.44
328.143	79.44
328.372	94.44
328.6	84.44
328.829	87.44
329.058	91.44
329.287	76.44
329.515	89.44
329.744	84.44
329.972	82.44
330.201	91.44
330.43	91.44
330.658	91.44
330.887	85.44
331.115	84.44
331.344	95.44
331.572	78.44
331.801	83.44
332.03	88.44
332.258	82.44
332.486	70.44
332.715	74.44
332.943	79.44
333.172	98.44
333.4	79.44
333.629	72.44
333.857	91.44
334.085	81.44
334.314	84.44
334.542	91.44
334.771	100.44
334.999	71.44
335.227	88.44
335.455	85.44
335.684	93.44
335.912	87.44
336.14	89.44
336.369	92.44
336.597	75.44
336.825	87.44
337.053	82.44
337.281	94.44
337.51	91.44
337.738	74.44
337.966	100.44
338.194	72.44
338.422	75.44
338.65	84.44
338.878	88.44
339.106	86.44
339.334	86.44
339.562	101.44
339.79	84.44
340.018	91.44
340.246	87.44
340.474	82.44
340.702	80.44
340.93	96.44
341.158	85.44
341.386	83.44
341.614	83.44
341.842	86.44
342.07	86.44
342.298	87.44
342.526	84.44
342.754	84.44
342.981	81.44
343.209	95.44
343.437	83.44
343.665	80.44
343.893	78.44
344.12	73.44
344.348	68.44
344.576	96.44
344.804	83.44
345.031	83.44
345.259	95.44
345.487	83.44
345.714	81.44
345.942	68.44
346.17	75.44
346.397	84.44
346.625	81.44
346.853	79.44
347.08	85.44
347.308	77.44
347.535	92.44
347.763	69.44
347.99	79.44
348.218	89.44
348.445	87.44
348.673	82.44
348.9	94.44
349.128	84.44
349.355	87.44
349.583	70.44
349.81	78.44
350.037	66.44
350.265	88.44
350.492	86.44
350.72	85.44
350.947	85.44
351.174	92.44
351.402	78.44
351.629	94.44
351.856	95.44
352.083	83.44
352.311	89.44
352.538	89.44
352.765	88.44
352.992	80.44
353.22	91.44
353.447	105.44
353.674	84.44
353.901	80.44
354.128	82.44
354.355	87.44
354.583	67.44
354.81	87.44
355.037	74.44
355.264	73.44
355.491	74.44
355.718	92.44
355.945	84.44
356.172	76.44
356.399	94.44
356.626	92.44
356.853	88.44
357.08	82.44
357.307	90.44
357.534	80.44
357.761	92.44
357.988	74.44
358.215	85.44
358.441	81.44
358.668	81.44
358.895	79.44
359.122	83.44
359.349	75.44
359.576	83.44
359.802	81.44
360.029	82.44
360.256	87.44
360.483	95.44
360.709	87.44
360.936	85.44
361.163	79.44
361.39	89.44
361.616	77.44
361.843	86.44
362.07	101.44
362.296	91.44
362.523	87.44
362.749	82.44
362.976	94.44
363.203	91.44
363.429	86.44
363.656	89.44
363.882	86.44
364.109	87.44
364.335	107.44
364.562	94.44
364.788	98.44
365.015	93.44
365.241	73.44
365.468	84.44
365.694	90.44
365.92	86.44
366.147	87.44
366.373	95.44
366.599	89.44
366.826	80.44
367.052	76.44
367.278	73.44
367.505	73.44
367.731	97.44
367.957	92.44
368.184	84.44
368.41	100.44
368.636	84.44
368.862	92.44
369.089	90.44
369.315	92.44
369.541	90.44
369.767	87.44
369.993	107.44
370.219	86.44
370.445	89.44
370.672	76.44
370.898	89.44
371.124	84.44
371.35	74.44
371.576	86.44
371.802	94.44
372.028	80.44
372.254	75.44
372.48	82.44
372.706	92.44
372.932	77.44
373.158	110.44
373.384	87.44
373.61	99.44
373.835	90.44
374.061	94.44
374.287	91.44
374.513	88.44
374.739	97.44
374.965	89.44
375.191	99.44
375.416	96.44
375.642	90.44
375.868	105.44
376.094	85.44
376.319	108.44
376.545	88.44
376.771	97.44
376.997	84.44
377.222	98.44
377.448	83.44
377.674	96.44
377.899	98.44
378.125	91.44
378.35	100.44
378.576	98.44
378.802	94.44
379.027	93.44
379.253	97.44
379.478	100.44
379.704	107.44
379.929	88.44
380.155	94.44
380.38	92.44
380.606	102.44
380.831	91.44
381.057	96.44
381.282	95.44
381.507	108.44
381.733	94.44
381.958	82.44
382.184	85.44
382.409	87.44
382.634	90.44
382.86	111.44
383.085	86.44
383.31	86.44
383.535	101.44
383.761	88.44
383.986	94.44
384.211	82.44
384.436	94.44
384.662	90.44
384.887	103.44
385.112	104.44
385.337	86.44
385.562	100.44
385.787	101.44
386.013	88.44
386.238	95.44
386.463	115.44
386.688	93.44
386.913	112.44
387.138	107.44
387.363	94.44
387.588	95.44
387.813	93.44
388.038	104.44
388.263	106.44
388.488	105.44
388.713	100.44
388.938	106.44
389.163	105.44
389.387	112.44
389.612	105.44
389.837	101.44
390.062	94.44
390.287	84.44
390.512	94.44
390.736	105.44
390.961	104.44
391.186	110.44
391.411	97.44
391.636	102.44
391.86	92.44
392.085	108.44
392.31	93.44
392.534	93.44
392.759	103.44
392.984	106.44
393.208	109.44
393.433	103.44
393.658	101.44
393.882	98.44
394.107	112.44
394.331	102.44
394.556	100.44
394.78	101.44
395.005	105.44
395.229	100.44
395.454	108.44
395.678	109.44
395.903	106.44
396.127	112.44
396.352	98.44
396.576	110.44
396.801	109.44
397.025	112.44
397.249	106.44
397.474	116.44
397.698	112.44
397.922	99.44
398.147	98.44
398.371	110.44
398.595	120.44
398.82	87.44
399.044	122.44
399.268	114.44
399.492	96.44
399.717	110.44
399.941	103.44
400.165	122.44
400.389	118.44
400.613	119.44
400.837	104.44
401.062	113.44
401.286	97.44
401.51	111.44
401.734	107.44
401.958	106.44
402.182	112.44
402.406	114.44
402.63	124.44
402.854	110.44
403.078	113.44
403.302	119.44
403.526	118.44
403.75	111.44
403.974	104.44
404.198	110.44
404.422	128.44
404.645	129.44
404.869	114.44
405.093	105.44
405.317	107.44
405.541	121.44
405.765	116.44
405.988	120.44
406.212	123.44
406.436	117.44
406.66	119.44
406.883	123.44
407.107	122.44
407.331	120.44
407.555	111.44
407.778	104.44
408.002	113.44
408.226	110.44
408.449	124.44
408.673	110.44
408.896	116.44
409.12	117.44
409.344	110.44
409.567	120.44
409.791	107.44
410.014	128.44
410.238	110.44
410.461	124.44
410.685	118.44
410.908	118.44
411.132	128.44
411.355	111.44
411.578	118.44
411.802	130.44
412.025	120.44
412.249	101.44
412.472	116.44
412.695	126.44
412.919	118.44
413.142	114.44
413.365	122.44
413.589	126.44
413.812	121.44
414.035	123.44
414.258	125.44
414.482	112.44
414.705	120.44
414.928	133.44
415.151	132.44
415.374	124.44
415.597	116.44
415.821	120.44
416.044	114.44
416.267	135.44
416.49	123.44
416.713	126.44
416.936	112.44
417.159	122.44
417.382	116.44
417.605	124.44
417.828	120.44
418.051	123.44
418.274	118.44
418.497	127.44
418.72	127.44
418.943	129.44
419.166	148.44
419.389	133.44
419.611	128.44
419.834	139.44
420.057	130.44
420.28	132.44
420.503	137.44
420.726	121.44
420.948	122.44
421.171	134.44
421.394	146.44
421.617	150.44
421.839	135.44
422.062	137.44
422.285	130.44
422.507	131.44
422.73	113.44
422.953	133.44
423.175	108.44
423.398	130.44
423.621	132.44
423.843	134.44
424.066	127.44
424.288	128.44
424.511	126.44
424.733	160.44
424.956	128.44
425.178	141.44
425.401	140.44
425.623	136.44
425.846	134.44
426.068	131.44
426.291	116.44
426.513	120.44
426.735	120.44
426.958	134.44
427.18	119.44
427.402	146.44
427.625	120.44
427.847	120.44
428.069	131.44
428.292	113.44
428.514	121.44
428.736	111.44
428.958	110.44
429.181	126.44
429.403	113.44
429.625	134.44
429.847	121.44
430.069	124.44
430.292	111.44
430.514	124.44
430.736	136.44
430.958	110.44
431.18	115.44
431.402	108.44
431.624	114.44
431.846	109.44
432.068	88.44
432.29	91.44
432.512	116.44
432.734	124.44
432.956	119.44
433.178	140.44
433.4	110.44
433.622	128.44
433.844	127.44
434.066	119.44
434.287	99.44
434.509	98.44
434.731	91.44
434.953	115.44
435.175	114.44
435.397	115.44
435.618	130.44
435.84	103.44
436.062	126.44
436.284	118.44
436.505	130.44
436.727	120.44
436.949	135.44
437.17	124.44
437.392	131.44
437.614	137.44
437.835	110.44
438.057	112.44
438.278	117.44
438.5	121.44
438.721	127.44
438.943	142.44
439.165	142.44
439.386	131.44
439.608	131.44
439.829	132.44
440.05	139.44
440.272	139.44
440.493	141.44
440.715	145.44
440.936	120.44
441.158	137.44
441.379	132.44
441.6	139.44
441.822	154.44
442.043	140.44
442.264	142.44
442.486	130.44
442.707	146.44
442.928	149.44
443.149	145.44
443.371	136.44
443.592	134.44
443.813	119.44
444.034	137.44
444.255	123.44
444.476	146.44
444.698	130.44
444.919	149.44
445.14	272.44
445.361	185.44
445.582	140.44
445.803	152.44
446.024	156.44
446.245	146.44
446.466	138.44
446.687	137.44
446.908	142.44
447.129	139.44
447.35	158.44
447.571	143.44
447.792	128.44
448.013	151.44
448.234	136.44
448.455	147.44
448.675	134.44
448.896	132.44
449.117	124.44
449.338	120.44
449.559	134.44
449.779	121.44
450	114.44
450.221	136.44
450.442	134.44
450.662	139.44
450.883	136.44
451.104	132.44
451.324	145.44
451.545	127.44
451.766	121.44
451.986	134.44
452.207	114.44
452.428	126.44
452.648	113.44
452.869	130.44
453.089	117.44
453.31	112.44
453.53	120.44
453.751	107.44
453.971	103.44
454.192	105.44
454.412	105.44
454.633	109.44
454.853	128.44
455.073	122.44
455.294	123.44
455.514	132.44
455.734	119.44
455.955	114.44
456.175	105.44
456.395	99.44
456.616	114.44
456.836	114.44
457.056	104.44
457.276	99.44
457.497	109.44
457.717	98.44
457.937	113.44
458.157	99.44
458.377	107.44
458.598	97.44
458.818	89.44
459.038	78.44
459.258	106.44
459.478	88.44
459.698	99.44
459.918	106.44
460.138	100.44
460.358	109.44
460.578	115.44
460.798	112.44
461.018	114.44
461.238	110.44
461.458	120.44
461.678	112.44
461.898	92.44
462.118	118.44
462.338	115.44
462.558	103.44
462.777	112.44
462.997	92.44
463.217	107.44
463.437	106.44
463.657	116.44
463.876	116.44
464.096	110.44
464.316	118.44
464.536	105.44
464.755	113.44
464.975	106.44
465.195	101.44
465.414	118.44
465.634	117.44
465.854	108.44
466.073	118.44
466.293	116.44
466.512	112.44
466.732	125.44
466.951	130.44
467.171	122.44
467.391	126.44
467.61	129.44
467.829	150.44
468.049	124.44
468.268	127.44
468.488	130.44
468.707	128.44
468.927	131.44
469.146	128.44
469.365	133.44
469.585	138.44
469.804	153.44
470.023	134.44
470.243	141.44
470.462	144.44
470.681	146.44
470.901	128.44
471.12	138.44
471.339	134.44
471.558	140.44
471.777	133.44
471.997	123.44
472.216	117.44
472.435	108.44
472.654	101.44
472.873	94.44
473.092	123.44
473.311	129.44
473.53	123.44
473.749	114.44
473.968	127.44
474.187	119.44
474.406	120.44
474.625	134.44
474.844	136.44
475.063	133.44
475.282	138.44
475.501	118.44
475.72	122.44
475.939	124.44
476.158	123.44
476.377	118.44
476.596	122.44
476.814	119.44
477.033	102.44
477.252	118.44
477.471	120.44
477.69	123.44
477.908	134.44
478.127	131.44
478.346	128.44
478.564	123.44
478.783	132.44
479.002	138.44
479.22	131.44
479.439	137.44
479.658	123.44
479.876	105.44
480.095	104.44
480.313	105.44
480.532	119.44
480.751	102.44
480.969	107.44
481.188	97.44
481.406	90.44
481.624	87.44
481.843	86.44
482.061	98.44
482.28	119.44
482.498	126.44
482.717	98.44
482.935	124.44
483.153	136.44
483.372	150.44
483.59	146.44
483.808	135.44
484.027	138.44
484.245	126.44
484.463	143.44
484.681	146.44
484.9	148.44
485.118	135.44
485.336	130.44
485.554	104.44
485.772	103.44
485.99	103.44
486.209	106.44
486.427	89.44
486.645	112.44
486.863	136.44
487.081	138.44
487.299	137.44
487.517	123.44
487.735	180.44
487.953	176.44
488.171	181.44
488.389	164.44
488.607	162.44
488.825	149.44
489.043	120.44
489.261	123.44
489.479	140.44
489.696	146.44
489.914	146.44
490.132	134.44
490.35	155.44
490.568	155.44
490.786	164.44
491.003	174.44
491.221	180.44
491.439	196.44
491.657	208.44
491.874	206.44
492.092	212.44
492.31	243.44
492.527	207.44
492.745	194.44
492.963	180.44
493.18	177.44
493.398	183.44
493.615	171.44
493.833	154.44
494.05	172.44
494.268	173.44
494.485	175.44
494.703	148.44
494.92	162.44
495.138	169.44
495.355	161.44
495.573	175.44
495.79	159.44
496.008	164.44
496.225	180.44
496.442	160.44
496.66	162.44
496.877	175.44
497.094	172.44
497.312	160.44
497.529	148.44
497.746	158.44
497.963	139.44
498.181	130.44
498.398	138.44
498.615	119.44
498.832	120.44
499.049	120.44
499.267	119.44
499.484	127.44
499.701	132.44
499.918	142.44
500.135	148.44
500.352	129.44
500.569	151.44
500.786	134.44
501.003	135.44
501.22	141.44
501.437	129.44
501.654	127.44
501.871	135.44
502.088	126.44
502.305	120.44
502.522	133.44
502.739	121.44
502.956	123.44
503.172	128.44
503.389	118.44
503.606	119.44
503.823	136.44
504.04	125.44
504.256	107.44
504.473	122.44
504.69	120.44
504.907	127.44
505.123	123.44
505.34	118.44
505.557	129.44
505.773	120.44
505.99	130.44
506.207	121.44
506.423	107.44
506.64	122.44
506.856	110.44
507.073	122.44
507.289	107.44
507.506	112.44
507.722	114.44
507.939	119.44
508.155	104.44
508.372	118.44
508.588	111.44
508.805	115.44
509.021	110.44
509.238	116.44
509.454	101.44
509.67	116.44
509.887	87.44
510.103	93.44
510.319	95.44
510.536	89.44
510.752	83.44
510.968	95.44
511.184	83.44
511.401	87.44
511.617	100.44
