Data from Location4.07152019.Energy5.Lamp.07192019.3%Agarose_HRD10591_16-20-07-926.txt Node
Date: Fri Jul 19 16:20:07 EDT 2019
User: cochatt
Spectrometer: HR+D1059
Trigger mode: 1
Integration Time (sec): 1.000000E-1
Scans to average: 1
Electric dark correction enabled: true
Nonlinearity correction enabled: false
Boxcar width: 0
XAxis mode: Wavelengths
Number of Pixels in Spectrum: 2048
>>>>>Begin Spectral Data<<<<<
223.165	-24.19
223.4	-24.19
223.635	-24.19
223.869	-21.19
224.104	-17.19
224.338	-11.19
224.573	-16.19
224.808	-8.19
225.042	-5.19
225.277	-13.19
225.511	9.81
225.746	5.81
225.98	-4.19
226.215	3.81
226.449	15.81
226.683	19.81
226.918	41.81
227.152	23.81
227.387	45.81
227.621	34.81
227.856	43.81
228.09	51.81
228.324	49.81
228.559	42.81
228.793	58.81
229.027	67.81
229.262	69.81
229.496	73.81
229.73	74.81
229.964	73.81
230.199	73.81
230.433	71.81
230.667	65.81
230.901	76.81
231.136	73.81
231.37	76.81
231.604	77.81
231.838	79.81
232.072	81.81
232.306	96.81
232.541	88.81
232.775	86.81
233.009	100.81
233.243	83.81
233.477	83.81
233.711	79.81
233.945	79.81
234.179	72.81
234.413	84.81
234.647	78.81
234.881	76.81
235.115	81.81
235.349	95.81
235.583	86.81
235.817	89.81
236.051	67.81
236.285	71.81
236.519	77.81
236.753	75.81
236.987	93.81
237.221	91.81
237.455	72.81
237.689	73.81
237.922	80.81
238.156	78.81
238.39	75.81
238.624	91.81
238.858	84.81
239.091	82.81
239.325	66.81
239.559	81.81
239.793	76.81
240.027	74.81
240.26	73.81
240.494	89.81
240.728	79.81
240.961	87.81
241.195	83.81
241.429	84.81
241.662	90.81
241.896	79.81
242.13	72.81
242.363	85.81
242.597	76.81
242.83	78.81
243.064	81.81
243.298	90.81
243.531	73.81
243.765	79.81
243.998	82.81
244.232	72.81
244.465	97.81
244.699	74.81
244.932	79.81
245.166	74.81
245.399	88.81
245.633	85.81
245.866	79.81
246.099	87.81
246.333	90.81
246.566	79.81
246.8	83.81
247.033	79.81
247.266	85.81
247.5	81.81
247.733	76.81
247.966	77.81
248.2	77.81
248.433	74.81
248.666	87.81
248.899	85.81
249.133	93.81
249.366	78.81
249.599	80.81
249.832	92.81
250.066	70.81
250.299	77.81
250.532	84.81
250.765	95.81
250.998	80.81
251.231	75.81
251.465	62.81
251.698	84.81
251.931	87.81
252.164	88.81
252.397	87.81
252.63	93.81
252.863	65.81
253.096	80.81
253.329	80.81
253.562	92.81
253.795	94.81
254.028	71.81
254.261	78.81
254.494	70.81
254.727	88.81
254.96	77.81
255.193	84.81
255.426	87.81
255.659	90.81
255.892	85.81
256.124	71.81
256.357	87.81
256.59	88.81
256.823	67.81
257.056	89.81
257.289	83.81
257.521	82.81
257.754	86.81
257.987	81.81
258.22	83.81
258.452	76.81
258.685	81.81
258.918	77.81
259.151	82.81
259.383	76.81
259.616	85.81
259.849	95.81
260.081	75.81
260.314	87.81
260.547	71.81
260.779	89.81
261.012	78.81
261.244	88.81
261.477	85.81
261.71	81.81
261.942	99.81
262.175	84.81
262.407	88.81
262.64	89.81
262.872	84.81
263.105	78.81
263.337	67.81
263.57	74.81
263.802	82.81
264.035	88.81
264.267	76.81
264.499	90.81
264.732	83.81
264.964	92.81
265.197	77.81
265.429	64.81
265.661	77.81
265.894	91.81
266.126	87.81
266.358	86.81
266.591	91.81
266.823	76.81
267.055	84.81
267.287	90.81
267.52	72.81
267.752	85.81
267.984	77.81
268.216	72.81
268.448	96.81
268.681	81.81
268.913	86.81
269.145	88.81
269.377	74.81
269.609	83.81
269.841	83.81
270.073	86.81
270.306	77.81
270.538	96.81
270.77	89.81
271.002	85.81
271.234	88.81
271.466	83.81
271.698	77.81
271.93	76.81
272.162	88.81
272.394	80.81
272.626	80.81
272.858	84.81
273.09	93.81
273.322	89.81
273.553	77.81
273.785	93.81
274.017	77.81
274.249	91.81
274.481	87.81
274.713	75.81
274.945	85.81
275.176	92.81
275.408	78.81
275.64	97.81
275.872	91.81
276.104	89.81
276.335	85.81
276.567	82.81
276.799	89.81
277.031	87.81
277.262	89.81
277.494	75.81
277.726	83.81
277.957	89.81
278.189	95.81
278.421	86.81
278.652	85.81
278.884	92.81
279.115	85.81
279.347	91.81
279.579	77.81
279.81	82.81
280.042	100.81
280.273	72.81
280.505	77.81
280.736	97.81
280.968	98.81
281.199	90.81
281.431	91.81
281.662	75.81
281.894	85.81
282.125	90.81
282.356	91.81
282.588	83.81
282.819	75.81
283.051	84.81
283.282	91.81
283.513	93.81
283.745	87.81
283.976	88.81
284.207	95.81
284.439	91.81
284.67	82.81
284.901	80.81
285.132	83.81
285.364	86.81
285.595	89.81
285.826	95.81
286.057	75.81
286.288	76.81
286.52	95.81
286.751	83.81
286.982	107.81
287.213	75.81
287.444	89.81
287.675	82.81
287.906	94.81
288.138	88.81
288.369	91.81
288.6	94.81
288.831	71.81
289.062	93.81
289.293	87.81
289.524	77.81
289.755	85.81
289.986	77.81
290.217	91.81
290.448	86.81
290.679	68.81
290.91	79.81
291.141	77.81
291.371	83.81
291.602	78.81
291.833	100.81
292.064	79.81
292.295	96.81
292.526	83.81
292.757	97.81
292.987	94.81
293.218	80.81
293.449	75.81
293.68	84.81
293.91	89.81
294.141	92.81
294.372	88.81
294.603	80.81
294.833	84.81
295.064	86.81
295.295	81.81
295.525	79.81
295.756	83.81
295.987	86.81
296.217	83.81
296.448	107.81
296.679	88.81
296.909	83.81
297.14	83.81
297.37	91.81
297.601	78.81
297.831	89.81
298.062	84.81
298.292	75.81
298.523	84.81
298.753	86.81
298.984	90.81
299.214	85.81
299.445	94.81
299.675	85.81
299.905	74.81
300.136	90.81
300.366	94.81
300.597	83.81
300.827	89.81
301.057	84.81
301.288	74.81
301.518	91.81
301.748	94.81
301.979	98.81
302.209	79.81
302.439	85.81
302.669	91.81
302.9	106.81
303.13	97.81
303.36	94.81
303.59	92.81
303.82	104.81
304.051	97.81
304.281	79.81
304.511	91.81
304.741	91.81
304.971	101.81
305.201	79.81
305.431	65.81
305.661	86.81
305.891	88.81
306.121	97.81
306.352	86.81
306.582	87.81
306.812	93.81
307.042	85.81
307.272	88.81
307.502	87.81
307.731	100.81
307.961	81.81
308.191	83.81
308.421	81.81
308.651	103.81
308.881	102.81
309.111	87.81
309.341	90.81
309.571	89.81
309.8	87.81
310.03	90.81
310.26	84.81
310.49	87.81
310.72	72.81
310.949	92.81
311.179	77.81
311.409	65.81
311.639	93.81
311.868	86.81
312.098	82.81
312.328	83.81
312.557	102.81
312.787	88.81
313.017	94.81
313.246	94.81
313.476	89.81
313.706	71.81
313.935	81.81
314.165	89.81
314.394	87.81
314.624	82.81
314.853	77.81
315.083	86.81
315.312	78.81
315.542	84.81
315.771	73.81
316.001	89.81
316.23	100.81
316.46	63.81
316.689	78.81
316.919	78.81
317.148	84.81
317.377	99.81
317.607	97.81
317.836	77.81
318.065	90.81
318.295	87.81
318.524	92.81
318.753	86.81
318.983	89.81
319.212	92.81
319.441	89.81
319.67	84.81
319.9	84.81
320.129	75.81
320.358	77.81
320.587	88.81
320.816	93.81
321.046	71.81
321.275	83.81
321.504	69.81
321.733	87.81
321.962	88.81
322.191	89.81
322.42	81.81
322.649	85.81
322.878	94.81
323.108	96.81
323.337	69.81
323.566	82.81
323.795	97.81
324.024	92.81
324.253	92.81
324.482	91.81
324.71	83.81
324.939	77.81
325.168	82.81
325.397	81.81
325.626	89.81
325.855	85.81
326.084	91.81
326.313	90.81
326.542	82.81
326.77	93.81
326.999	99.81
327.228	83.81
327.457	92.81
327.686	79.81
327.914	84.81
328.143	98.81
328.372	85.81
328.6	85.81
328.829	80.81
329.058	82.81
329.287	86.81
329.515	95.81
329.744	86.81
329.972	86.81
330.201	84.81
330.43	79.81
330.658	81.81
330.887	95.81
331.115	87.81
331.344	87.81
331.572	82.81
331.801	82.81
332.03	92.81
332.258	91.81
332.486	84.81
332.715	82.81
332.943	79.81
333.172	78.81
333.4	90.81
333.629	96.81
333.857	81.81
334.085	80.81
334.314	60.81
334.542	73.81
334.771	89.81
334.999	74.81
335.227	93.81
335.455	77.81
335.684	84.81
335.912	92.81
336.14	83.81
336.369	89.81
336.597	91.81
336.825	88.81
337.053	97.81
337.281	96.81
337.51	98.81
337.738	97.81
337.966	88.81
338.194	87.81
338.422	77.81
338.65	79.81
338.878	87.81
339.106	83.81
339.334	82.81
339.562	87.81
339.79	87.81
340.018	87.81
340.246	79.81
340.474	81.81
340.702	81.81
340.93	89.81
341.158	84.81
341.386	78.81
341.614	82.81
341.842	89.81
342.07	86.81
342.298	78.81
342.526	81.81
342.754	93.81
342.981	72.81
343.209	85.81
343.437	75.81
343.665	86.81
343.893	86.81
344.12	89.81
344.348	92.81
344.576	80.81
344.804	94.81
345.031	85.81
345.259	95.81
345.487	75.81
345.714	79.81
345.942	79.81
346.17	94.81
346.397	95.81
346.625	82.81
346.853	101.81
347.08	79.81
347.308	93.81
347.535	86.81
347.763	98.81
347.99	88.81
348.218	92.81
348.445	85.81
348.673	90.81
348.9	85.81
349.128	100.81
349.355	84.81
349.583	87.81
349.81	77.81
350.037	78.81
350.265	75.81
350.492	83.81
350.72	89.81
350.947	94.81
351.174	82.81
351.402	84.81
351.629	90.81
351.856	78.81
352.083	89.81
352.311	75.81
352.538	83.81
352.765	92.81
352.992	91.81
353.22	94.81
353.447	91.81
353.674	87.81
353.901	88.81
354.128	97.81
354.355	88.81
354.583	101.81
354.81	92.81
355.037	84.81
355.264	81.81
355.491	86.81
355.718	79.81
355.945	72.81
356.172	92.81
356.399	72.81
356.626	88.81
356.853	78.81
357.08	83.81
357.307	85.81
357.534	76.81
357.761	91.81
357.988	78.81
358.215	92.81
358.441	83.81
358.668	88.81
358.895	83.81
359.122	86.81
359.349	80.81
359.576	91.81
359.802	85.81
360.029	85.81
360.256	86.81
360.483	87.81
360.709	78.81
360.936	72.81
361.163	86.81
361.39	95.81
361.616	85.81
361.843	86.81
362.07	82.81
362.296	92.81
362.523	91.81
362.749	79.81
362.976	88.81
363.203	85.81
363.429	83.81
363.656	92.81
363.882	85.81
364.109	96.81
364.335	85.81
364.562	77.81
364.788	84.81
365.015	89.81
365.241	90.81
365.468	83.81
365.694	94.81
365.92	94.81
366.147	97.81
366.373	89.81
366.599	94.81
366.826	89.81
367.052	83.81
367.278	80.81
367.505	95.81
367.731	86.81
367.957	82.81
368.184	82.81
368.41	94.81
368.636	85.81
368.862	95.81
369.089	98.81
369.315	92.81
369.541	85.81
369.767	87.81
369.993	101.81
370.219	98.81
370.445	74.81
370.672	88.81
370.898	102.81
371.124	74.81
371.35	86.81
371.576	101.81
371.802	91.81
372.028	96.81
372.254	110.81
372.48	89.81
372.706	86.81
372.932	86.81
373.158	85.81
373.384	83.81
373.61	104.81
373.835	104.81
374.061	82.81
374.287	80.81
374.513	83.81
374.739	92.81
374.965	94.81
375.191	88.81
375.416	89.81
375.642	96.81
375.868	89.81
376.094	96.81
376.319	83.81
376.545	92.81
376.771	91.81
376.997	101.81
377.222	95.81
377.448	106.81
377.674	97.81
377.899	96.81
378.125	92.81
378.35	88.81
378.576	91.81
378.802	93.81
379.027	106.81
379.253	109.81
379.478	99.81
379.704	81.81
379.929	99.81
380.155	82.81
380.38	97.81
380.606	88.81
380.831	87.81
381.057	91.81
381.282	84.81
381.507	87.81
381.733	102.81
381.958	100.81
382.184	102.81
382.409	100.81
382.634	101.81
382.86	108.81
383.085	86.81
383.31	93.81
383.535	105.81
383.761	86.81
383.986	85.81
384.211	91.81
384.436	98.81
384.662	95.81
384.887	105.81
385.112	103.81
385.337	83.81
385.562	105.81
385.787	103.81
386.013	108.81
386.238	95.81
386.463	117.81
386.688	101.81
386.913	106.81
387.138	94.81
387.363	97.81
387.588	96.81
387.813	92.81
388.038	93.81
388.263	107.81
388.488	100.81
388.713	106.81
388.938	96.81
389.163	112.81
389.387	93.81
389.612	99.81
389.837	108.81
390.062	95.81
390.287	108.81
390.512	115.81
390.736	98.81
390.961	117.81
391.186	103.81
391.411	101.81
391.636	103.81
391.86	106.81
392.085	121.81
392.31	85.81
392.534	94.81
392.759	113.81
392.984	102.81
393.208	97.81
393.433	124.81
393.658	100.81
393.882	107.81
394.107	105.81
394.331	102.81
394.556	111.81
394.78	109.81
395.005	113.81
395.229	119.81
395.454	95.81
395.678	104.81
395.903	99.81
396.127	104.81
396.352	100.81
396.576	116.81
396.801	105.81
397.025	105.81
397.249	104.81
397.474	119.81
397.698	101.81
397.922	104.81
398.147	114.81
398.371	122.81
398.595	109.81
398.82	110.81
399.044	115.81
399.268	109.81
399.492	113.81
399.717	104.81
399.941	104.81
400.165	107.81
400.389	107.81
400.613	106.81
400.837	115.81
401.062	115.81
401.286	91.81
401.51	95.81
401.734	113.81
401.958	123.81
402.182	116.81
402.406	119.81
402.63	119.81
402.854	111.81
403.078	113.81
403.302	123.81
403.526	130.81
403.75	123.81
403.974	118.81
404.198	119.81
404.422	115.81
404.645	108.81
404.869	129.81
405.093	120.81
405.317	114.81
405.541	108.81
405.765	108.81
405.988	122.81
406.212	117.81
406.436	115.81
406.66	118.81
406.883	112.81
407.107	107.81
407.331	106.81
407.555	119.81
407.778	121.81
408.002	109.81
408.226	116.81
408.449	113.81
408.673	122.81
408.896	114.81
409.12	126.81
409.344	122.81
409.567	126.81
409.791	111.81
410.014	113.81
410.238	101.81
410.461	111.81
410.685	115.81
410.908	113.81
411.132	136.81
411.355	112.81
411.578	117.81
411.802	108.81
412.025	117.81
412.249	121.81
412.472	117.81
412.695	101.81
412.919	129.81
413.142	121.81
413.365	113.81
413.589	120.81
413.812	118.81
414.035	143.81
414.258	122.81
414.482	114.81
414.705	129.81
414.928	128.81
415.151	124.81
415.374	125.81
415.597	120.81
415.821	121.81
416.044	127.81
416.267	115.81
416.49	124.81
416.713	119.81
416.936	129.81
417.159	119.81
417.382	135.81
417.605	116.81
417.828	123.81
418.051	133.81
418.274	118.81
418.497	134.81
418.72	136.81
418.943	128.81
419.166	126.81
419.389	129.81
419.611	129.81
419.834	138.81
420.057	129.81
420.28	131.81
420.503	146.81
420.726	123.81
420.948	131.81
421.171	122.81
421.394	135.81
421.617	139.81
421.839	140.81
422.062	155.81
422.285	137.81
422.507	142.81
422.73	125.81
422.953	127.81
423.175	142.81
423.398	120.81
423.621	132.81
423.843	126.81
424.066	132.81
424.288	145.81
424.511	145.81
424.733	146.81
424.956	137.81
425.178	123.81
425.401	126.81
425.623	134.81
425.846	149.81
426.068	131.81
426.291	138.81
426.513	128.81
426.735	122.81
426.958	120.81
427.18	124.81
427.402	131.81
427.625	137.81
427.847	122.81
428.069	117.81
428.292	126.81
428.514	139.81
428.736	108.81
428.958	127.81
429.181	125.81
429.403	127.81
429.625	129.81
429.847	119.81
430.069	128.81
430.292	121.81
430.514	127.81
430.736	128.81
430.958	122.81
431.18	114.81
431.402	119.81
431.624	121.81
431.846	108.81
432.068	109.81
432.29	103.81
432.512	116.81
432.734	129.81
432.956	132.81
433.178	134.81
433.4	144.81
433.622	124.81
433.844	136.81
434.066	119.81
434.287	116.81
434.509	96.81
434.731	100.81
434.953	108.81
435.175	127.81
435.397	131.81
435.618	129.81
435.84	116.81
436.062	123.81
436.284	119.81
436.505	131.81
436.727	129.81
436.949	132.81
437.17	130.81
437.392	128.81
437.614	114.81
437.835	109.81
438.057	121.81
438.278	129.81
438.5	125.81
438.721	126.81
438.943	130.81
439.165	128.81
439.386	124.81
439.608	140.81
439.829	129.81
440.05	141.81
440.272	141.81
440.493	134.81
440.715	142.81
440.936	141.81
441.158	141.81
441.379	148.81
441.6	147.81
441.822	127.81
442.043	152.81
442.264	142.81
442.486	133.81
442.707	138.81
442.928	138.81
443.149	134.81
443.371	140.81
443.592	132.81
443.813	142.81
444.034	136.81
444.255	157.81
444.476	136.81
444.698	143.81
444.919	142.81
445.14	265.81
445.361	186.81
445.582	143.81
445.803	124.81
446.024	146.81
446.245	145.81
446.466	164.81
446.687	162.81
446.908	152.81
447.129	156.81
447.35	145.81
447.571	165.81
447.792	135.81
448.013	142.81
448.234	140.81
448.455	143.81
448.675	141.81
448.896	134.81
449.117	135.81
449.338	134.81
449.559	132.81
449.779	142.81
450	154.81
450.221	140.81
450.442	138.81
450.662	157.81
450.883	137.81
451.104	136.81
451.324	125.81
451.545	115.81
451.766	118.81
451.986	151.81
452.207	124.81
452.428	131.81
452.648	124.81
452.869	121.81
453.089	119.81
453.31	115.81
453.53	112.81
453.751	107.81
453.971	98.81
454.192	102.81
454.412	106.81
454.633	130.81
454.853	121.81
455.073	124.81
455.294	111.81
455.514	127.81
455.734	113.81
455.955	114.81
456.175	118.81
456.395	101.81
456.616	114.81
456.836	115.81
457.056	119.81
457.276	113.81
457.497	120.81
457.717	117.81
457.937	109.81
458.157	107.81
458.377	104.81
458.598	114.81
458.818	102.81
459.038	97.81
459.258	94.81
459.478	104.81
459.698	91.81
459.918	108.81
460.138	104.81
460.358	118.81
460.578	120.81
460.798	122.81
461.018	115.81
461.238	123.81
461.458	115.81
461.678	110.81
461.898	123.81
462.118	107.81
462.338	118.81
462.558	115.81
462.777	117.81
462.997	106.81
463.217	111.81
463.437	104.81
463.657	103.81
463.876	121.81
464.096	109.81
464.316	110.81
464.536	124.81
464.755	109.81
464.975	111.81
465.195	121.81
465.414	122.81
465.634	126.81
465.854	131.81
466.073	127.81
466.293	123.81
466.512	131.81
466.732	133.81
466.951	145.81
467.171	139.81
467.391	125.81
467.61	136.81
467.829	134.81
468.049	136.81
468.268	131.81
468.488	126.81
468.707	131.81
468.927	128.81
469.146	137.81
469.365	129.81
469.585	139.81
469.804	131.81
470.023	133.81
470.243	140.81
470.462	135.81
470.681	147.81
470.901	144.81
471.12	143.81
471.339	126.81
471.558	135.81
471.777	154.81
471.997	138.81
472.216	123.81
472.435	123.81
472.654	108.81
472.873	115.81
473.092	117.81
473.311	118.81
473.53	120.81
473.749	122.81
473.968	129.81
474.187	132.81
474.406	133.81
474.625	129.81
474.844	140.81
475.063	142.81
475.282	139.81
475.501	114.81
475.72	125.81
475.939	120.81
476.158	128.81
476.377	122.81
476.596	111.81
476.814	122.81
477.033	109.81
477.252	119.81
477.471	123.81
477.69	139.81
477.908	142.81
478.127	144.81
478.346	145.81
478.564	149.81
478.783	128.81
479.002	139.81
479.22	133.81
479.439	147.81
479.658	139.81
479.876	123.81
480.095	114.81
480.313	106.81
480.532	118.81
480.751	113.81
480.969	99.81
481.188	84.81
481.406	85.81
481.624	106.81
481.843	108.81
482.061	95.81
482.28	111.81
482.498	115.81
482.717	100.81
482.935	129.81
483.153	133.81
483.372	135.81
483.59	151.81
483.808	141.81
484.027	130.81
484.245	132.81
484.463	134.81
484.681	158.81
484.9	136.81
485.118	141.81
485.336	153.81
485.554	123.81
485.772	117.81
485.99	104.81
486.209	101.81
486.427	120.81
486.645	120.81
486.863	131.81
487.081	142.81
487.299	135.81
487.517	142.81
487.735	150.81
487.953	177.81
488.171	171.81
488.389	165.81
488.607	161.81
488.825	143.81
489.043	133.81
489.261	143.81
489.479	142.81
489.696	135.81
489.914	146.81
490.132	152.81
490.35	159.81
490.568	160.81
490.786	159.81
491.003	178.81
491.221	177.81
491.439	177.81
491.657	191.81
491.874	199.81
492.092	219.81
492.31	252.81
492.527	218.81
492.745	198.81
492.963	192.81
493.18	171.81
493.398	191.81
493.615	163.81
493.833	181.81
494.05	189.81
494.268	177.81
494.485	194.81
494.703	177.81
494.92	163.81
495.138	187.81
495.355	166.81
495.573	145.81
495.79	162.81
496.008	149.81
496.225	166.81
496.442	182.81
496.66	171.81
496.877	156.81
497.094	153.81
497.312	158.81
497.529	159.81
497.746	142.81
497.963	144.81
498.181	141.81
498.398	121.81
498.615	112.81
498.832	119.81
499.049	117.81
499.267	129.81
499.484	121.81
499.701	141.81
499.918	139.81
500.135	134.81
500.352	153.81
500.569	151.81
500.786	149.81
501.003	147.81
501.22	129.81
501.437	139.81
501.654	128.81
501.871	142.81
502.088	125.81
502.305	127.81
502.522	137.81
502.739	129.81
502.956	139.81
503.172	127.81
503.389	130.81
503.606	126.81
503.823	134.81
504.04	125.81
504.256	130.81
504.473	131.81
504.69	125.81
504.907	121.81
505.123	129.81
505.34	123.81
505.557	133.81
505.773	130.81
505.99	131.81
506.207	121.81
506.423	124.81
506.64	127.81
506.856	124.81
507.073	114.81
507.289	108.81
507.506	117.81
507.722	126.81
507.939	124.81
508.155	121.81
508.372	120.81
508.588	111.81
508.805	110.81
509.021	112.81
509.238	108.81
509.454	116.81
509.67	99.81
509.887	99.81
510.103	100.81
510.319	105.81
510.536	100.81
510.752	99.81
510.968	85.81
511.184	88.81
