Data from Location4.07152019.Energy5.Lamp.07192019.3%Agarose_HRD10591_16-20-04-925.txt Node
Date: Fri Jul 19 16:20:04 EDT 2019
User: cochatt
Spectrometer: HR+D1059
Trigger mode: 1
Integration Time (sec): 1.000000E-1
Scans to average: 1
Electric dark correction enabled: true
Nonlinearity correction enabled: false
Boxcar width: 0
XAxis mode: Wavelengths
Number of Pixels in Spectrum: 2048
>>>>>Begin Spectral Data<<<<<
223.165	-14.44
223.4	-14.44
223.635	-14.44
223.869	-12.44
224.104	-9.44
224.338	-33.44
224.573	-22.44
224.808	-15.44
225.042	5.56
225.277	-10.44
225.511	-2.44
225.746	1.56
225.98	14.56
226.215	12.56
226.449	7.56
226.683	9.56
226.918	29.56
227.152	39.56
227.387	22.56
227.621	24.56
227.856	45.56
228.09	37.56
228.324	56.56
228.559	61.56
228.793	71.56
229.027	61.56
229.262	72.56
229.496	73.56
229.73	70.56
229.964	77.56
230.199	69.56
230.433	73.56
230.667	71.56
230.901	81.56
231.136	67.56
231.37	70.56
231.604	77.56
231.838	74.56
232.072	70.56
232.306	76.56
232.541	89.56
232.775	87.56
233.009	70.56
233.243	87.56
233.477	81.56
233.711	85.56
233.945	88.56
234.179	80.56
234.413	83.56
234.647	75.56
234.881	88.56
235.115	81.56
235.349	87.56
235.583	82.56
235.817	80.56
236.051	78.56
236.285	67.56
236.519	87.56
236.753	71.56
236.987	91.56
237.221	79.56
237.455	66.56
237.689	69.56
237.922	69.56
238.156	65.56
238.39	79.56
238.624	75.56
238.858	65.56
239.091	71.56
239.325	67.56
239.559	75.56
239.793	62.56
240.027	82.56
240.26	85.56
240.494	86.56
240.728	86.56
240.961	79.56
241.195	87.56
241.429	83.56
241.662	75.56
241.896	73.56
242.13	72.56
242.363	72.56
242.597	69.56
242.83	65.56
243.064	75.56
243.298	85.56
243.531	85.56
243.765	73.56
243.998	83.56
244.232	72.56
244.465	75.56
244.699	78.56
244.932	90.56
245.166	74.56
245.399	66.56
245.633	81.56
245.866	76.56
246.099	69.56
246.333	73.56
246.566	81.56
246.8	75.56
247.033	73.56
247.266	73.56
247.5	75.56
247.733	74.56
247.966	73.56
248.2	71.56
248.433	90.56
248.666	79.56
248.899	85.56
249.133	67.56
249.366	81.56
249.599	80.56
249.832	73.56
250.066	70.56
250.299	83.56
250.532	71.56
250.765	74.56
250.998	72.56
251.231	72.56
251.465	75.56
251.698	96.56
251.931	75.56
252.164	67.56
252.397	73.56
252.63	74.56
252.863	82.56
253.096	75.56
253.329	94.56
253.562	73.56
253.795	74.56
254.028	73.56
254.261	83.56
254.494	70.56
254.727	79.56
254.96	78.56
255.193	73.56
255.426	79.56
255.659	70.56
255.892	88.56
256.124	70.56
256.357	85.56
256.59	70.56
256.823	81.56
257.056	76.56
257.289	74.56
257.521	70.56
257.754	66.56
257.987	76.56
258.22	90.56
258.452	81.56
258.685	79.56
258.918	78.56
259.151	91.56
259.383	80.56
259.616	85.56
259.849	79.56
260.081	95.56
260.314	69.56
260.547	99.56
260.779	82.56
261.012	80.56
261.244	87.56
261.477	81.56
261.71	87.56
261.942	89.56
262.175	79.56
262.407	85.56
262.64	69.56
262.872	92.56
263.105	79.56
263.337	82.56
263.57	85.56
263.802	81.56
264.035	75.56
264.267	80.56
264.499	72.56
264.732	84.56
264.964	72.56
265.197	83.56
265.429	72.56
265.661	91.56
265.894	90.56
266.126	76.56
266.358	87.56
266.591	82.56
266.823	69.56
267.055	98.56
267.287	73.56
267.52	64.56
267.752	73.56
267.984	81.56
268.216	80.56
268.448	88.56
268.681	79.56
268.913	69.56
269.145	72.56
269.377	72.56
269.609	68.56
269.841	85.56
270.073	84.56
270.306	75.56
270.538	73.56
270.77	78.56
271.002	80.56
271.234	72.56
271.466	83.56
271.698	97.56
271.93	80.56
272.162	78.56
272.394	63.56
272.626	74.56
272.858	67.56
273.09	78.56
273.322	94.56
273.553	71.56
273.785	78.56
274.017	78.56
274.249	91.56
274.481	89.56
274.713	90.56
274.945	79.56
275.176	70.56
275.408	79.56
275.64	80.56
275.872	74.56
276.104	75.56
276.335	79.56
276.567	78.56
276.799	95.56
277.031	75.56
277.262	74.56
277.494	68.56
277.726	75.56
277.957	81.56
278.189	85.56
278.421	76.56
278.652	102.56
278.884	80.56
279.115	78.56
279.347	86.56
279.579	97.56
279.81	73.56
280.042	89.56
280.273	80.56
280.505	86.56
280.736	92.56
280.968	84.56
281.199	81.56
281.431	71.56
281.662	65.56
281.894	82.56
282.125	79.56
282.356	87.56
282.588	75.56
282.819	81.56
283.051	82.56
283.282	74.56
283.513	78.56
283.745	82.56
283.976	76.56
284.207	87.56
284.439	72.56
284.67	76.56
284.901	79.56
285.132	80.56
285.364	66.56
285.595	72.56
285.826	81.56
286.057	80.56
286.288	86.56
286.52	89.56
286.751	80.56
286.982	79.56
287.213	93.56
287.444	89.56
287.675	86.56
287.906	81.56
288.138	73.56
288.369	87.56
288.6	83.56
288.831	81.56
289.062	89.56
289.293	84.56
289.524	64.56
289.755	81.56
289.986	71.56
290.217	80.56
290.448	86.56
290.679	74.56
290.91	73.56
291.141	87.56
291.371	81.56
291.602	88.56
291.833	74.56
292.064	86.56
292.295	79.56
292.526	80.56
292.757	74.56
292.987	79.56
293.218	75.56
293.449	77.56
293.68	80.56
293.91	87.56
294.141	85.56
294.372	87.56
294.603	87.56
294.833	89.56
295.064	78.56
295.295	81.56
295.525	85.56
295.756	73.56
295.987	77.56
296.217	80.56
296.448	72.56
296.679	85.56
296.909	88.56
297.14	88.56
297.37	78.56
297.601	80.56
297.831	85.56
298.062	89.56
298.292	85.56
298.523	82.56
298.753	87.56
298.984	74.56
299.214	84.56
299.445	81.56
299.675	78.56
299.905	82.56
300.136	79.56
300.366	76.56
300.597	97.56
300.827	75.56
301.057	75.56
301.288	66.56
301.518	89.56
301.748	76.56
301.979	79.56
302.209	87.56
302.439	83.56
302.669	80.56
302.9	83.56
303.13	82.56
303.36	75.56
303.59	80.56
303.82	67.56
304.051	70.56
304.281	88.56
304.511	71.56
304.741	80.56
304.971	72.56
305.201	84.56
305.431	93.56
305.661	78.56
305.891	73.56
306.121	92.56
306.352	85.56
306.582	89.56
306.812	84.56
307.042	90.56
307.272	73.56
307.502	80.56
307.731	101.56
307.961	74.56
308.191	65.56
308.421	80.56
308.651	83.56
308.881	90.56
309.111	78.56
309.341	86.56
309.571	86.56
309.8	85.56
310.03	80.56
310.26	76.56
310.49	80.56
310.72	79.56
310.949	84.56
311.179	79.56
311.409	78.56
311.639	85.56
311.868	81.56
312.098	83.56
312.328	90.56
312.557	82.56
312.787	82.56
313.017	89.56
313.246	81.56
313.476	96.56
313.706	90.56
313.935	79.56
314.165	83.56
314.394	81.56
314.624	88.56
314.853	68.56
315.083	66.56
315.312	88.56
315.542	84.56
315.771	82.56
316.001	73.56
316.23	83.56
316.46	94.56
316.689	82.56
316.919	83.56
317.148	81.56
317.377	66.56
317.607	75.56
317.836	67.56
318.065	95.56
318.295	95.56
318.524	87.56
318.753	81.56
318.983	91.56
319.212	97.56
319.441	86.56
319.67	75.56
319.9	85.56
320.129	90.56
320.358	94.56
320.587	80.56
320.816	88.56
321.046	84.56
321.275	80.56
321.504	73.56
321.733	79.56
321.962	72.56
322.191	78.56
322.42	79.56
322.649	72.56
322.878	96.56
323.108	70.56
323.337	84.56
323.566	79.56
323.795	78.56
324.024	83.56
324.253	93.56
324.482	85.56
324.71	89.56
324.939	91.56
325.168	87.56
325.397	81.56
325.626	74.56
325.855	79.56
326.084	81.56
326.313	86.56
326.542	93.56
326.77	85.56
326.999	85.56
327.228	89.56
327.457	81.56
327.686	89.56
327.914	91.56
328.143	76.56
328.372	90.56
328.6	86.56
328.829	81.56
329.058	87.56
329.287	103.56
329.515	75.56
329.744	77.56
329.972	95.56
330.201	88.56
330.43	83.56
330.658	97.56
330.887	91.56
331.115	89.56
331.344	85.56
331.572	80.56
331.801	85.56
332.03	96.56
332.258	91.56
332.486	89.56
332.715	79.56
332.943	73.56
333.172	76.56
333.4	81.56
333.629	66.56
333.857	77.56
334.085	78.56
334.314	78.56
334.542	98.56
334.771	81.56
334.999	87.56
335.227	80.56
335.455	77.56
335.684	90.56
335.912	72.56
336.14	79.56
336.369	61.56
336.597	79.56
336.825	83.56
337.053	86.56
337.281	71.56
337.51	85.56
337.738	72.56
337.966	80.56
338.194	95.56
338.422	95.56
338.65	93.56
338.878	98.56
339.106	75.56
339.334	86.56
339.562	93.56
339.79	90.56
340.018	83.56
340.246	87.56
340.474	93.56
340.702	90.56
340.93	93.56
341.158	80.56
341.386	87.56
341.614	82.56
341.842	83.56
342.07	82.56
342.298	92.56
342.526	85.56
342.754	82.56
342.981	89.56
343.209	75.56
343.437	98.56
343.665	72.56
343.893	75.56
344.12	92.56
344.348	79.56
344.576	81.56
344.804	85.56
345.031	79.56
345.259	80.56
345.487	81.56
345.714	82.56
345.942	78.56
346.17	87.56
346.397	86.56
346.625	90.56
346.853	74.56
347.08	88.56
347.308	78.56
347.535	70.56
347.763	79.56
347.99	82.56
348.218	90.56
348.445	77.56
348.673	81.56
348.9	88.56
349.128	91.56
349.355	88.56
349.583	83.56
349.81	81.56
350.037	89.56
350.265	98.56
350.492	85.56
350.72	73.56
350.947	72.56
351.174	72.56
351.402	61.56
351.629	77.56
351.856	84.56
352.083	79.56
352.311	89.56
352.538	79.56
352.765	73.56
352.992	72.56
353.22	69.56
353.447	82.56
353.674	86.56
353.901	85.56
354.128	78.56
354.355	93.56
354.583	85.56
354.81	95.56
355.037	96.56
355.264	87.56
355.491	74.56
355.718	90.56
355.945	82.56
356.172	81.56
356.399	81.56
356.626	90.56
356.853	96.56
357.08	92.56
357.307	73.56
357.534	79.56
357.761	93.56
357.988	84.56
358.215	91.56
358.441	93.56
358.668	82.56
358.895	87.56
359.122	79.56
359.349	81.56
359.576	96.56
359.802	85.56
360.029	80.56
360.256	91.56
360.483	66.56
360.709	91.56
360.936	91.56
361.163	90.56
361.39	92.56
361.616	74.56
361.843	80.56
362.07	95.56
362.296	64.56
362.523	94.56
362.749	79.56
362.976	82.56
363.203	64.56
363.429	83.56
363.656	81.56
363.882	78.56
364.109	97.56
364.335	93.56
364.562	102.56
364.788	88.56
365.015	98.56
365.241	75.56
365.468	74.56
365.694	75.56
365.92	79.56
366.147	93.56
366.373	88.56
366.599	88.56
366.826	98.56
367.052	75.56
367.278	86.56
367.505	87.56
367.731	95.56
367.957	75.56
368.184	80.56
368.41	86.56
368.636	82.56
368.862	92.56
369.089	97.56
369.315	89.56
369.541	69.56
369.767	85.56
369.993	103.56
370.219	85.56
370.445	86.56
370.672	107.56
370.898	101.56
371.124	87.56
371.35	84.56
371.576	81.56
371.802	91.56
372.028	89.56
372.254	90.56
372.48	86.56
372.706	94.56
372.932	93.56
373.158	89.56
373.384	95.56
373.61	86.56
373.835	90.56
374.061	75.56
374.287	81.56
374.513	95.56
374.739	91.56
374.965	93.56
375.191	87.56
375.416	81.56
375.642	83.56
375.868	107.56
376.094	85.56
376.319	97.56
376.545	88.56
376.771	94.56
376.997	101.56
377.222	79.56
377.448	81.56
377.674	99.56
377.899	87.56
378.125	95.56
378.35	88.56
378.576	83.56
378.802	99.56
379.027	80.56
379.253	75.56
379.478	99.56
379.704	89.56
379.929	94.56
380.155	97.56
380.38	90.56
380.606	90.56
380.831	82.56
381.057	90.56
381.282	97.56
381.507	101.56
381.733	90.56
381.958	102.56
382.184	88.56
382.409	82.56
382.634	87.56
382.86	105.56
383.085	89.56
383.31	98.56
383.535	89.56
383.761	91.56
383.986	101.56
384.211	89.56
384.436	101.56
384.662	94.56
384.887	91.56
385.112	89.56
385.337	97.56
385.562	96.56
385.787	93.56
386.013	95.56
386.238	104.56
386.463	95.56
386.688	103.56
386.913	101.56
387.138	85.56
387.363	100.56
387.588	100.56
387.813	103.56
388.038	107.56
388.263	98.56
388.488	117.56
388.713	96.56
388.938	100.56
389.163	81.56
389.387	96.56
389.612	92.56
389.837	97.56
390.062	90.56
390.287	105.56
390.512	110.56
390.736	101.56
390.961	82.56
391.186	125.56
391.411	96.56
391.636	102.56
391.86	106.56
392.085	97.56
392.31	94.56
392.534	100.56
392.759	115.56
392.984	96.56
393.208	110.56
393.433	100.56
393.658	97.56
393.882	109.56
394.107	119.56
394.331	95.56
394.556	100.56
394.78	108.56
395.005	105.56
395.229	102.56
395.454	105.56
395.678	102.56
395.903	98.56
396.127	103.56
396.352	92.56
396.576	114.56
396.801	104.56
397.025	111.56
397.249	112.56
397.474	101.56
397.698	119.56
397.922	112.56
398.147	102.56
398.371	111.56
398.595	109.56
398.82	103.56
399.044	106.56
399.268	120.56
399.492	108.56
399.717	114.56
399.941	110.56
400.165	113.56
400.389	109.56
400.613	102.56
400.837	105.56
401.062	110.56
401.286	115.56
401.51	109.56
401.734	113.56
401.958	107.56
402.182	113.56
402.406	100.56
402.63	120.56
402.854	115.56
403.078	120.56
403.302	112.56
403.526	104.56
403.75	116.56
403.974	103.56
404.198	99.56
404.422	100.56
404.645	100.56
404.869	111.56
405.093	121.56
405.317	105.56
405.541	113.56
405.765	118.56
405.988	116.56
406.212	126.56
406.436	109.56
406.66	121.56
406.883	108.56
407.107	126.56
407.331	100.56
407.555	121.56
407.778	131.56
408.002	93.56
408.226	94.56
408.449	124.56
408.673	120.56
408.896	119.56
409.12	126.56
409.344	119.56
409.567	111.56
409.791	109.56
410.014	110.56
410.238	116.56
410.461	112.56
410.685	118.56
410.908	121.56
411.132	131.56
411.355	125.56
411.578	123.56
411.802	125.56
412.025	125.56
412.249	117.56
412.472	123.56
412.695	111.56
412.919	113.56
413.142	113.56
413.365	100.56
413.589	119.56
413.812	125.56
414.035	116.56
414.258	122.56
414.482	115.56
414.705	123.56
414.928	114.56
415.151	127.56
415.374	122.56
415.597	127.56
415.821	118.56
416.044	124.56
416.267	119.56
416.49	136.56
416.713	135.56
416.936	133.56
417.159	123.56
417.382	121.56
417.605	121.56
417.828	134.56
418.051	120.56
418.274	134.56
418.497	135.56
418.72	126.56
418.943	120.56
419.166	138.56
419.389	135.56
419.611	130.56
419.834	123.56
420.057	135.56
420.28	133.56
420.503	133.56
420.726	128.56
420.948	138.56
421.171	136.56
421.394	138.56
421.617	141.56
421.839	125.56
422.062	139.56
422.285	136.56
422.507	138.56
422.73	126.56
422.953	111.56
423.175	112.56
423.398	116.56
423.621	134.56
423.843	120.56
424.066	141.56
424.288	139.56
424.511	145.56
424.733	148.56
424.956	129.56
425.178	130.56
425.401	134.56
425.623	129.56
425.846	131.56
426.068	132.56
426.291	130.56
426.513	130.56
426.735	125.56
426.958	116.56
427.18	123.56
427.402	127.56
427.625	135.56
427.847	134.56
428.069	118.56
428.292	128.56
428.514	126.56
428.736	113.56
428.958	122.56
429.181	124.56
429.403	118.56
429.625	116.56
429.847	117.56
430.069	121.56
430.292	125.56
430.514	127.56
430.736	131.56
430.958	121.56
431.18	107.56
431.402	117.56
431.624	115.56
431.846	104.56
432.068	83.56
432.29	110.56
432.512	114.56
432.734	118.56
432.956	135.56
433.178	148.56
433.4	136.56
433.622	134.56
433.844	126.56
434.066	117.56
434.287	114.56
434.509	91.56
434.731	111.56
434.953	109.56
435.175	112.56
435.397	140.56
435.618	119.56
435.84	108.56
436.062	117.56
436.284	115.56
436.505	120.56
436.727	123.56
436.949	125.56
437.17	130.56
437.392	127.56
437.614	124.56
437.835	120.56
438.057	105.56
438.278	110.56
438.5	125.56
438.721	132.56
438.943	133.56
439.165	126.56
439.386	137.56
439.608	129.56
439.829	138.56
440.05	148.56
440.272	133.56
440.493	159.56
440.715	146.56
440.936	135.56
441.158	129.56
441.379	143.56
441.6	151.56
441.822	150.56
442.043	134.56
442.264	130.56
442.486	123.56
442.707	139.56
442.928	129.56
443.149	139.56
443.371	125.56
443.592	141.56
443.813	141.56
444.034	126.56
444.255	136.56
444.476	155.56
444.698	141.56
444.919	157.56
445.14	301.56
445.361	200.56
445.582	138.56
445.803	128.56
446.024	144.56
446.245	170.56
446.466	142.56
446.687	145.56
446.908	148.56
447.129	151.56
447.35	150.56
447.571	153.56
447.792	148.56
448.013	142.56
448.234	143.56
448.455	144.56
448.675	119.56
448.896	147.56
449.117	146.56
449.338	134.56
449.559	134.56
449.779	128.56
450	130.56
450.221	145.56
450.442	139.56
450.662	127.56
450.883	123.56
451.104	145.56
451.324	135.56
451.545	119.56
451.766	129.56
451.986	123.56
452.207	134.56
452.428	115.56
452.648	123.56
452.869	129.56
453.089	125.56
453.31	110.56
453.53	106.56
453.751	94.56
453.971	114.56
454.192	111.56
454.412	122.56
454.633	118.56
454.853	118.56
455.073	122.56
455.294	122.56
455.514	112.56
455.734	126.56
455.955	118.56
456.175	109.56
456.395	109.56
456.616	123.56
456.836	97.56
457.056	109.56
457.276	109.56
457.497	95.56
457.717	99.56
457.937	106.56
458.157	101.56
458.377	104.56
458.598	91.56
458.818	84.56
459.038	92.56
459.258	77.56
459.478	83.56
459.698	96.56
459.918	77.56
460.138	95.56
460.358	112.56
460.578	136.56
460.798	121.56
461.018	123.56
461.238	122.56
461.458	109.56
461.678	112.56
461.898	116.56
462.118	110.56
462.338	105.56
462.558	92.56
462.777	106.56
462.997	116.56
463.217	106.56
463.437	114.56
463.657	101.56
463.876	105.56
464.096	119.56
464.316	94.56
464.536	115.56
464.755	121.56
464.975	116.56
465.195	98.56
465.414	91.56
465.634	112.56
465.854	131.56
466.073	125.56
466.293	134.56
466.512	121.56
466.732	130.56
466.951	129.56
467.171	125.56
467.391	137.56
467.61	128.56
467.829	129.56
468.049	137.56
468.268	143.56
468.488	134.56
468.707	135.56
468.927	116.56
469.146	132.56
469.365	135.56
469.585	134.56
469.804	137.56
470.023	125.56
470.243	150.56
470.462	125.56
470.681	133.56
470.901	143.56
471.12	144.56
471.339	133.56
471.558	145.56
471.777	142.56
471.997	133.56
472.216	127.56
472.435	121.56
472.654	106.56
472.873	108.56
473.092	106.56
473.311	111.56
473.53	123.56
473.749	117.56
473.968	124.56
474.187	130.56
474.406	104.56
474.625	125.56
474.844	135.56
475.063	134.56
475.282	132.56
475.501	134.56
475.72	132.56
475.939	131.56
476.158	116.56
476.377	119.56
476.596	134.56
476.814	120.56
477.033	103.56
477.252	116.56
477.471	114.56
477.69	136.56
477.908	108.56
478.127	148.56
478.346	113.56
478.564	121.56
478.783	127.56
479.002	131.56
479.22	133.56
479.439	121.56
479.658	131.56
479.876	127.56
480.095	121.56
480.313	123.56
480.532	130.56
480.751	111.56
480.969	105.56
481.188	81.56
481.406	95.56
481.624	85.56
481.843	83.56
482.061	105.56
482.28	99.56
482.498	109.56
482.717	99.56
482.935	125.56
483.153	152.56
483.372	149.56
483.59	142.56
483.808	135.56
484.027	143.56
484.245	122.56
484.463	156.56
484.681	135.56
484.9	144.56
485.118	134.56
485.336	123.56
485.554	117.56
485.772	100.56
485.99	103.56
486.209	105.56
486.427	115.56
486.645	105.56
486.863	131.56
487.081	140.56
487.299	119.56
487.517	142.56
487.735	157.56
487.953	180.56
488.171	165.56
488.389	158.56
488.607	147.56
488.825	148.56
489.043	137.56
489.261	158.56
489.479	129.56
489.696	129.56
489.914	118.56
490.132	122.56
490.35	145.56
490.568	153.56
490.786	155.56
491.003	182.56
491.221	175.56
491.439	186.56
491.657	199.56
491.874	202.56
492.092	211.56
492.31	238.56
492.527	222.56
492.745	184.56
492.963	193.56
493.18	178.56
493.398	189.56
493.615	179.56
493.833	182.56
494.05	166.56
494.268	161.56
494.485	160.56
494.703	170.56
494.92	169.56
495.138	166.56
495.355	161.56
495.573	170.56
495.79	156.56
496.008	167.56
496.225	168.56
496.442	171.56
496.66	157.56
496.877	165.56
497.094	156.56
497.312	148.56
497.529	156.56
497.746	149.56
497.963	137.56
498.181	118.56
498.398	119.56
498.615	115.56
498.832	117.56
499.049	119.56
499.267	115.56
499.484	133.56
499.701	129.56
499.918	134.56
500.135	135.56
500.352	127.56
500.569	144.56
500.786	138.56
501.003	133.56
501.22	121.56
501.437	129.56
501.654	146.56
501.871	121.56
502.088	130.56
502.305	138.56
502.522	124.56
502.739	133.56
502.956	113.56
503.172	129.56
503.389	134.56
503.606	119.56
503.823	119.56
504.04	120.56
504.256	124.56
504.473	118.56
504.69	111.56
504.907	125.56
505.123	120.56
505.34	116.56
505.557	120.56
505.773	119.56
505.99	117.56
506.207	119.56
506.423	113.56
506.64	129.56
506.856	119.56
507.073	122.56
507.289	116.56
507.506	106.56
507.722	121.56
507.939	123.56
508.155	111.56
508.372	103.56
508.588	116.56
508.805	109.56
509.021	110.56
509.238	117.56
509.454	104.56
509.67	103.56
509.887	99.56
510.103	97.56
510.319	87.56
510.536	78.56
510.752	82.56
510.968	74.56
511.184	81.56
511.401	75.56
511.617	73.56
511.833	96.56
