Data from Location4.07152019.Energy5.Lamp.07192019.3%Agarose_HRD10591_16-19-04-973.txt Node
Date: Fri Jul 19 16:19:04 EDT 2019
User: cochatt
Spectrometer: HR+D1059
Trigger mode: 1
Integration Time (sec): 1.000000E-1
Scans to average: 1
Electric dark correction enabled: true
Nonlinearity correction enabled: false
Boxcar width: 0
XAxis mode: Wavelengths
Number of Pixels in Spectrum: 2048
>>>>>Begin Spectral Data<<<<<
223.165	-6.38
223.4	-6.38
223.635	-6.38
223.869	-20.38
224.104	-21.38
224.338	-19.38
224.573	-6.38
224.808	-6.38
225.042	-14.38
225.277	-11.38
225.511	-6.38
225.746	7.62
225.98	20.62
226.215	12.62
226.449	16.62
226.683	17.62
226.918	3.62
227.152	33.62
227.387	39.62
227.621	29.62
227.856	47.62
228.09	24.62
228.324	43.62
228.559	60.62
228.793	37.62
229.027	61.62
229.262	66.62
229.496	62.62
229.73	54.62
229.964	60.62
230.199	68.62
230.433	71.62
230.667	68.62
230.901	70.62
231.136	77.62
231.37	76.62
231.604	68.62
231.838	79.62
232.072	80.62
232.306	74.62
232.541	80.62
232.775	73.62
233.009	77.62
233.243	78.62
233.477	72.62
233.711	81.62
233.945	68.62
234.179	82.62
234.413	71.62
234.647	77.62
234.881	75.62
235.115	85.62
235.349	75.62
235.583	63.62
235.817	79.62
236.051	78.62
236.285	74.62
236.519	61.62
236.753	59.62
236.987	73.62
237.221	76.62
237.455	56.62
237.689	77.62
237.922	66.62
238.156	82.62
238.39	70.62
238.624	81.62
238.858	63.62
239.091	75.62
239.325	76.62
239.559	73.62
239.793	73.62
240.027	84.62
240.26	66.62
240.494	72.62
240.728	72.62
240.961	67.62
241.195	75.62
241.429	67.62
241.662	78.62
241.896	53.62
242.13	67.62
242.363	85.62
242.597	74.62
242.83	61.62
243.064	70.62
243.298	65.62
243.531	63.62
243.765	71.62
243.998	56.62
244.232	66.62
244.465	63.62
244.699	70.62
244.932	72.62
245.166	101.62
245.399	67.62
245.633	68.62
245.866	76.62
246.099	66.62
246.333	64.62
246.566	79.62
246.8	82.62
247.033	60.62
247.266	68.62
247.5	76.62
247.733	84.62
247.966	79.62
248.2	84.62
248.433	73.62
248.666	85.62
248.899	83.62
249.133	68.62
249.366	74.62
249.599	61.62
249.832	82.62
250.066	81.62
250.299	79.62
250.532	82.62
250.765	77.62
250.998	75.62
251.231	83.62
251.465	68.62
251.698	68.62
251.931	70.62
252.164	74.62
252.397	93.62
252.63	79.62
252.863	80.62
253.096	79.62
253.329	78.62
253.562	72.62
253.795	84.62
254.028	67.62
254.261	77.62
254.494	96.62
254.727	69.62
254.96	71.62
255.193	79.62
255.426	77.62
255.659	78.62
255.892	74.62
256.124	64.62
256.357	74.62
256.59	79.62
256.823	86.62
257.056	71.62
257.289	93.62
257.521	86.62
257.754	84.62
257.987	71.62
258.22	67.62
258.452	76.62
258.685	76.62
258.918	80.62
259.151	68.62
259.383	96.62
259.616	74.62
259.849	81.62
260.081	64.62
260.314	67.62
260.547	82.62
260.779	68.62
261.012	68.62
261.244	76.62
261.477	81.62
261.71	64.62
261.942	59.62
262.175	70.62
262.407	75.62
262.64	84.62
262.872	70.62
263.105	78.62
263.337	81.62
263.57	90.62
263.802	83.62
264.035	68.62
264.267	71.62
264.499	72.62
264.732	76.62
264.964	83.62
265.197	70.62
265.429	84.62
265.661	72.62
265.894	77.62
266.126	68.62
266.358	73.62
266.591	87.62
266.823	71.62
267.055	70.62
267.287	86.62
267.52	60.62
267.752	81.62
267.984	68.62
268.216	81.62
268.448	69.62
268.681	80.62
268.913	87.62
269.145	96.62
269.377	84.62
269.609	72.62
269.841	62.62
270.073	82.62
270.306	80.62
270.538	76.62
270.77	74.62
271.002	78.62
271.234	66.62
271.466	88.62
271.698	73.62
271.93	84.62
272.162	85.62
272.394	92.62
272.626	83.62
272.858	71.62
273.09	71.62
273.322	80.62
273.553	79.62
273.785	74.62
274.017	85.62
274.249	83.62
274.481	69.62
274.713	72.62
274.945	70.62
275.176	72.62
275.408	91.62
275.64	79.62
275.872	75.62
276.104	80.62
276.335	71.62
276.567	72.62
276.799	78.62
277.031	77.62
277.262	78.62
277.494	80.62
277.726	84.62
277.957	69.62
278.189	68.62
278.421	77.62
278.652	77.62
278.884	63.62
279.115	77.62
279.347	72.62
279.579	77.62
279.81	65.62
280.042	73.62
280.273	81.62
280.505	71.62
280.736	89.62
280.968	84.62
281.199	83.62
281.431	85.62
281.662	83.62
281.894	80.62
282.125	83.62
282.356	75.62
282.588	63.62
282.819	73.62
283.051	58.62
283.282	88.62
283.513	80.62
283.745	82.62
283.976	92.62
284.207	75.62
284.439	82.62
284.67	80.62
284.901	75.62
285.132	81.62
285.364	82.62
285.595	73.62
285.826	73.62
286.057	82.62
286.288	79.62
286.52	77.62
286.751	79.62
286.982	86.62
287.213	78.62
287.444	74.62
287.675	81.62
287.906	89.62
288.138	91.62
288.369	65.62
288.6	75.62
288.831	74.62
289.062	97.62
289.293	82.62
289.524	84.62
289.755	80.62
289.986	77.62
290.217	90.62
290.448	86.62
290.679	76.62
290.91	73.62
291.141	76.62
291.371	73.62
291.602	85.62
291.833	86.62
292.064	85.62
292.295	77.62
292.526	96.62
292.757	83.62
292.987	82.62
293.218	81.62
293.449	83.62
293.68	84.62
293.91	65.62
294.141	80.62
294.372	75.62
294.603	84.62
294.833	86.62
295.064	76.62
295.295	79.62
295.525	78.62
295.756	69.62
295.987	67.62
296.217	76.62
296.448	77.62
296.679	93.62
296.909	82.62
297.14	78.62
297.37	69.62
297.601	82.62
297.831	80.62
298.062	79.62
298.292	88.62
298.523	83.62
298.753	76.62
298.984	80.62
299.214	67.62
299.445	81.62
299.675	83.62
299.905	82.62
300.136	74.62
300.366	78.62
300.597	79.62
300.827	66.62
301.057	74.62
301.288	85.62
301.518	92.62
301.748	90.62
301.979	88.62
302.209	80.62
302.439	63.62
302.669	72.62
302.9	76.62
303.13	83.62
303.36	85.62
303.59	69.62
303.82	80.62
304.051	85.62
304.281	80.62
304.511	77.62
304.741	86.62
304.971	76.62
305.201	76.62
305.431	76.62
305.661	92.62
305.891	76.62
306.121	83.62
306.352	77.62
306.582	97.62
306.812	91.62
307.042	80.62
307.272	73.62
307.502	78.62
307.731	61.62
307.961	73.62
308.191	83.62
308.421	79.62
308.651	85.62
308.881	80.62
309.111	79.62
309.341	74.62
309.571	95.62
309.8	88.62
310.03	95.62
310.26	88.62
310.49	84.62
310.72	77.62
310.949	69.62
311.179	75.62
311.409	66.62
311.639	80.62
311.868	79.62
312.098	78.62
312.328	80.62
312.557	88.62
312.787	86.62
313.017	77.62
313.246	75.62
313.476	88.62
313.706	81.62
313.935	71.62
314.165	80.62
314.394	81.62
314.624	69.62
314.853	85.62
315.083	57.62
315.312	72.62
315.542	81.62
315.771	81.62
316.001	77.62
316.23	84.62
316.46	67.62
316.689	82.62
316.919	79.62
317.148	92.62
317.377	74.62
317.607	82.62
317.836	84.62
318.065	84.62
318.295	83.62
318.524	69.62
318.753	77.62
318.983	82.62
319.212	83.62
319.441	83.62
319.67	73.62
319.9	59.62
320.129	80.62
320.358	67.62
320.587	86.62
320.816	78.62
321.046	88.62
321.275	64.62
321.504	78.62
321.733	83.62
321.962	75.62
322.191	94.62
322.42	87.62
322.649	81.62
322.878	84.62
323.108	88.62
323.337	79.62
323.566	72.62
323.795	88.62
324.024	77.62
324.253	83.62
324.482	90.62
324.71	87.62
324.939	64.62
325.168	85.62
325.397	90.62
325.626	93.62
325.855	84.62
326.084	84.62
326.313	88.62
326.542	69.62
326.77	72.62
326.999	74.62
327.228	86.62
327.457	71.62
327.686	85.62
327.914	79.62
328.143	86.62
328.372	85.62
328.6	78.62
328.829	78.62
329.058	81.62
329.287	76.62
329.515	76.62
329.744	66.62
329.972	85.62
330.201	77.62
330.43	81.62
330.658	66.62
330.887	81.62
331.115	70.62
331.344	67.62
331.572	78.62
331.801	76.62
332.03	73.62
332.258	83.62
332.486	86.62
332.715	84.62
332.943	90.62
333.172	86.62
333.4	78.62
333.629	73.62
333.857	83.62
334.085	75.62
334.314	92.62
334.542	85.62
334.771	90.62
334.999	95.62
335.227	72.62
335.455	93.62
335.684	74.62
335.912	82.62
336.14	83.62
336.369	93.62
336.597	86.62
336.825	70.62
337.053	74.62
337.281	79.62
337.51	88.62
337.738	74.62
337.966	79.62
338.194	77.62
338.422	76.62
338.65	89.62
338.878	71.62
339.106	75.62
339.334	92.62
339.562	56.62
339.79	79.62
340.018	80.62
340.246	80.62
340.474	84.62
340.702	83.62
340.93	90.62
341.158	67.62
341.386	78.62
341.614	88.62
341.842	119.62
342.07	76.62
342.298	84.62
342.526	81.62
342.754	78.62
342.981	80.62
343.209	81.62
343.437	84.62
343.665	76.62
343.893	90.62
344.12	87.62
344.348	71.62
344.576	62.62
344.804	71.62
345.031	70.62
345.259	79.62
345.487	81.62
345.714	70.62
345.942	78.62
346.17	80.62
346.397	89.62
346.625	76.62
346.853	71.62
347.08	88.62
347.308	83.62
347.535	80.62
347.763	88.62
347.99	89.62
348.218	85.62
348.445	77.62
348.673	88.62
348.9	80.62
349.128	86.62
349.355	75.62
349.583	64.62
349.81	85.62
350.037	78.62
350.265	71.62
350.492	91.62
350.72	77.62
350.947	97.62
351.174	64.62
351.402	68.62
351.629	77.62
351.856	92.62
352.083	84.62
352.311	91.62
352.538	81.62
352.765	65.62
352.992	84.62
353.22	70.62
353.447	88.62
353.674	93.62
353.901	84.62
354.128	80.62
354.355	80.62
354.583	70.62
354.81	77.62
355.037	87.62
355.264	72.62
355.491	66.62
355.718	68.62
355.945	75.62
356.172	81.62
356.399	71.62
356.626	75.62
356.853	82.62
357.08	78.62
357.307	77.62
357.534	67.62
357.761	61.62
357.988	84.62
358.215	82.62
358.441	73.62
358.668	80.62
358.895	68.62
359.122	75.62
359.349	75.62
359.576	70.62
359.802	79.62
360.029	67.62
360.256	67.62
360.483	69.62
360.709	77.62
360.936	80.62
361.163	88.62
361.39	91.62
361.616	71.62
361.843	81.62
362.07	83.62
362.296	79.62
362.523	84.62
362.749	81.62
362.976	72.62
363.203	76.62
363.429	74.62
363.656	91.62
363.882	80.62
364.109	82.62
364.335	86.62
364.562	80.62
364.788	79.62
365.015	74.62
365.241	77.62
365.468	92.62
365.694	72.62
365.92	77.62
366.147	72.62
366.373	79.62
366.599	87.62
366.826	73.62
367.052	71.62
367.278	78.62
367.505	86.62
367.731	87.62
367.957	88.62
368.184	80.62
368.41	75.62
368.636	91.62
368.862	71.62
369.089	77.62
369.315	88.62
369.541	79.62
369.767	88.62
369.993	99.62
370.219	80.62
370.445	98.62
370.672	93.62
370.898	86.62
371.124	85.62
371.35	75.62
371.576	81.62
371.802	102.62
372.028	81.62
372.254	89.62
372.48	88.62
372.706	99.62
372.932	75.62
373.158	79.62
373.384	70.62
373.61	88.62
373.835	88.62
374.061	80.62
374.287	72.62
374.513	92.62
374.739	82.62
374.965	89.62
375.191	85.62
375.416	84.62
375.642	72.62
375.868	79.62
376.094	92.62
376.319	88.62
376.545	76.62
376.771	92.62
376.997	88.62
377.222	86.62
377.448	79.62
377.674	87.62
377.899	89.62
378.125	81.62
378.35	96.62
378.576	83.62
378.802	90.62
379.027	83.62
379.253	76.62
379.478	75.62
379.704	85.62
379.929	98.62
380.155	81.62
380.38	83.62
380.606	91.62
380.831	85.62
381.057	99.62
381.282	104.62
381.507	94.62
381.733	86.62
381.958	83.62
382.184	82.62
382.409	82.62
382.634	93.62
382.86	111.62
383.085	107.62
383.31	90.62
383.535	92.62
383.761	85.62
383.986	85.62
384.211	83.62
384.436	99.62
384.662	91.62
384.887	93.62
385.112	85.62
385.337	79.62
385.562	84.62
385.787	96.62
386.013	90.62
386.238	112.62
386.463	89.62
386.688	93.62
386.913	81.62
387.138	93.62
387.363	107.62
387.588	103.62
387.813	101.62
388.038	104.62
388.263	103.62
388.488	94.62
388.713	96.62
388.938	100.62
389.163	103.62
389.387	91.62
389.612	108.62
389.837	99.62
390.062	97.62
390.287	89.62
390.512	95.62
390.736	104.62
390.961	89.62
391.186	96.62
391.411	93.62
391.636	110.62
391.86	93.62
392.085	115.62
392.31	97.62
392.534	95.62
392.759	99.62
392.984	99.62
393.208	93.62
393.433	112.62
393.658	86.62
393.882	99.62
394.107	88.62
394.331	93.62
394.556	102.62
394.78	92.62
395.005	98.62
395.229	108.62
395.454	94.62
395.678	96.62
395.903	97.62
396.127	95.62
396.352	107.62
396.576	100.62
396.801	95.62
397.025	96.62
397.249	109.62
397.474	115.62
397.698	104.62
397.922	88.62
398.147	95.62
398.371	106.62
398.595	107.62
398.82	97.62
399.044	105.62
399.268	101.62
399.492	115.62
399.717	119.62
399.941	118.62
400.165	98.62
400.389	111.62
400.613	102.62
400.837	89.62
401.062	101.62
401.286	114.62
401.51	113.62
401.734	112.62
401.958	105.62
402.182	93.62
402.406	98.62
402.63	101.62
402.854	116.62
403.078	111.62
403.302	104.62
403.526	121.62
403.75	109.62
403.974	107.62
404.198	98.62
404.422	102.62
404.645	101.62
404.869	117.62
405.093	104.62
405.317	97.62
405.541	107.62
405.765	108.62
405.988	121.62
406.212	117.62
406.436	115.62
406.66	116.62
406.883	104.62
407.107	108.62
407.331	114.62
407.555	108.62
407.778	124.62
408.002	115.62
408.226	110.62
408.449	125.62
408.673	105.62
408.896	112.62
409.12	114.62
409.344	120.62
409.567	104.62
409.791	100.62
410.014	108.62
410.238	115.62
410.461	115.62
410.685	128.62
410.908	115.62
411.132	116.62
411.355	110.62
411.578	97.62
411.802	109.62
412.025	115.62
412.249	115.62
412.472	136.62
412.695	101.62
412.919	96.62
413.142	116.62
413.365	112.62
413.589	117.62
413.812	129.62
414.035	124.62
414.258	120.62
414.482	110.62
414.705	122.62
414.928	115.62
415.151	121.62
415.374	131.62
415.597	118.62
415.821	111.62
416.044	115.62
416.267	114.62
416.49	131.62
416.713	105.62
416.936	107.62
417.159	113.62
417.382	122.62
417.605	120.62
417.828	115.62
418.051	116.62
418.274	123.62
418.497	133.62
418.72	123.62
418.943	126.62
419.166	132.62
419.389	128.62
419.611	126.62
419.834	118.62
420.057	125.62
420.28	123.62
420.503	135.62
420.726	134.62
420.948	130.62
421.171	144.62
421.394	145.62
421.617	145.62
421.839	140.62
422.062	138.62
422.285	124.62
422.507	119.62
422.73	121.62
422.953	107.62
423.175	127.62
423.398	129.62
423.621	119.62
423.843	120.62
424.066	128.62
424.288	144.62
424.511	141.62
424.733	152.62
424.956	125.62
425.178	132.62
425.401	129.62
425.623	113.62
425.846	127.62
426.068	136.62
426.291	127.62
426.513	125.62
426.735	127.62
426.958	129.62
427.18	121.62
427.402	118.62
427.625	121.62
427.847	136.62
428.069	129.62
428.292	115.62
428.514	122.62
428.736	126.62
428.958	116.62
429.181	124.62
429.403	116.62
429.625	132.62
429.847	113.62
430.069	117.62
430.292	115.62
430.514	115.62
430.736	123.62
430.958	120.62
431.18	119.62
431.402	116.62
431.624	121.62
431.846	111.62
432.068	89.62
432.29	87.62
432.512	104.62
432.734	119.62
432.956	131.62
433.178	126.62
433.4	123.62
433.622	129.62
433.844	131.62
434.066	116.62
434.287	94.62
434.509	107.62
434.731	87.62
434.953	113.62
435.175	111.62
435.397	118.62
435.618	121.62
435.84	101.62
436.062	113.62
436.284	119.62
436.505	121.62
436.727	117.62
436.949	131.62
437.17	134.62
437.392	125.62
437.614	115.62
437.835	109.62
438.057	117.62
438.278	92.62
438.5	113.62
438.721	133.62
438.943	127.62
439.165	136.62
439.386	124.62
439.608	131.62
439.829	130.62
440.05	158.62
440.272	135.62
440.493	147.62
440.715	134.62
440.936	137.62
441.158	133.62
441.379	156.62
441.6	137.62
441.822	131.62
442.043	147.62
442.264	124.62
442.486	134.62
442.707	141.62
442.928	127.62
443.149	130.62
443.371	132.62
443.592	140.62
443.813	132.62
444.034	136.62
444.255	127.62
444.476	147.62
444.698	129.62
444.919	141.62
445.14	247.62
445.361	197.62
445.582	140.62
445.803	141.62
446.024	144.62
446.245	159.62
446.466	143.62
446.687	144.62
446.908	148.62
447.129	143.62
447.35	147.62
447.571	141.62
447.792	140.62
448.013	134.62
448.234	147.62
448.455	137.62
448.675	120.62
448.896	128.62
449.117	126.62
449.338	133.62
449.559	123.62
449.779	127.62
450	128.62
450.221	125.62
450.442	147.62
450.662	123.62
450.883	123.62
451.104	123.62
451.324	127.62
451.545	127.62
451.766	130.62
451.986	133.62
452.207	120.62
452.428	137.62
452.648	127.62
452.869	116.62
453.089	111.62
453.31	115.62
453.53	103.62
453.751	111.62
453.971	93.62
454.192	102.62
454.412	98.62
454.633	118.62
454.853	122.62
455.073	113.62
455.294	115.62
455.514	118.62
455.734	119.62
455.955	117.62
456.175	105.62
456.395	103.62
456.616	104.62
456.836	102.62
457.056	103.62
457.276	113.62
457.497	101.62
457.717	111.62
457.937	99.62
458.157	104.62
458.377	101.62
458.598	79.62
458.818	96.62
459.038	86.62
459.258	76.62
459.478	91.62
459.698	103.62
459.918	97.62
460.138	93.62
460.358	115.62
460.578	125.62
460.798	116.62
461.018	113.62
461.238	122.62
461.458	116.62
461.678	125.62
461.898	115.62
462.118	126.62
462.338	104.62
462.558	109.62
462.777	108.62
462.997	98.62
463.217	110.62
463.437	115.62
463.657	104.62
463.876	109.62
464.096	109.62
464.316	85.62
464.536	97.62
464.755	111.62
464.975	109.62
465.195	112.62
465.414	104.62
465.634	107.62
465.854	124.62
466.073	123.62
466.293	124.62
466.512	128.62
466.732	117.62
466.951	119.62
467.171	141.62
467.391	127.62
467.61	121.62
467.829	114.62
468.049	141.62
468.268	133.62
468.488	133.62
468.707	132.62
468.927	137.62
469.146	117.62
469.365	131.62
469.585	142.62
469.804	129.62
470.023	138.62
470.243	126.62
470.462	127.62
470.681	145.62
470.901	138.62
471.12	122.62
471.339	137.62
471.558	136.62
471.777	119.62
471.997	144.62
472.216	125.62
472.435	120.62
472.654	116.62
472.873	103.62
473.092	111.62
473.311	99.62
473.53	127.62
473.749	113.62
473.968	144.62
474.187	99.62
474.406	103.62
474.625	136.62
474.844	128.62
475.063	117.62
475.282	118.62
475.501	99.62
475.72	117.62
475.939	114.62
476.158	118.62
476.377	120.62
476.596	116.62
476.814	101.62
477.033	98.62
477.252	103.62
477.471	119.62
477.69	127.62
477.908	139.62
478.127	132.62
478.346	129.62
478.564	131.62
478.783	131.62
479.002	132.62
479.22	136.62
479.439	121.62
479.658	125.62
479.876	119.62
480.095	101.62
480.313	106.62
480.532	119.62
480.751	105.62
480.969	81.62
481.188	81.62
481.406	89.62
481.624	76.62
481.843	73.62
482.061	93.62
482.28	113.62
482.498	110.62
482.717	104.62
482.935	132.62
483.153	126.62
483.372	158.62
483.59	138.62
483.808	136.62
484.027	125.62
484.245	124.62
484.463	141.62
484.681	171.62
484.9	134.62
485.118	132.62
485.336	134.62
485.554	110.62
485.772	99.62
485.99	91.62
486.209	105.62
486.427	95.62
486.645	116.62
486.863	136.62
487.081	128.62
487.299	135.62
487.517	142.62
487.735	153.62
487.953	180.62
488.171	176.62
488.389	162.62
488.607	163.62
488.825	129.62
489.043	135.62
489.261	147.62
489.479	125.62
489.696	134.62
489.914	131.62
490.132	135.62
490.35	147.62
490.568	140.62
490.786	153.62
491.003	154.62
491.221	168.62
491.439	172.62
491.657	189.62
491.874	186.62
492.092	195.62
492.31	238.62
492.527	223.62
492.745	210.62
492.963	177.62
493.18	189.62
493.398	178.62
493.615	171.62
493.833	182.62
494.05	191.62
494.268	145.62
494.485	162.62
494.703	158.62
494.92	153.62
495.138	155.62
495.355	161.62
495.573	173.62
495.79	151.62
496.008	153.62
496.225	154.62
496.442	161.62
496.66	164.62
496.877	152.62
497.094	160.62
497.312	156.62
497.529	151.62
497.746	142.62
497.963	131.62
498.181	121.62
498.398	111.62
498.615	116.62
498.832	120.62
499.049	119.62
499.267	133.62
499.484	113.62
499.701	131.62
499.918	128.62
500.135	122.62
500.352	152.62
500.569	129.62
500.786	131.62
501.003	150.62
501.22	131.62
501.437	143.62
501.654	128.62
501.871	116.62
502.088	149.62
502.305	132.62
502.522	123.62
502.739	139.62
502.956	114.62
503.172	112.62
503.389	125.62
503.606	111.62
503.823	119.62
504.04	124.62
504.256	103.62
504.473	116.62
504.69	111.62
504.907	118.62
505.123	105.62
505.34	129.62
505.557	111.62
505.773	109.62
505.99	123.62
506.207	120.62
506.423	123.62
506.64	114.62
506.856	127.62
507.073	123.62
507.289	118.62
507.506	113.62
507.722	107.62
507.939	107.62
508.155	118.62
508.372	112.62
508.588	114.62
508.805	104.62
509.021	96.62
509.238	109.62
509.454	97.62
509.67	98.62
509.887	86.62
510.103	99.62
510.319	89.62
510.536	88.62
510.752	82.62
510.968	80.62
511.184	76.62
511.401	85.62
511.617	100.62
511.833	87.62
512.049	88.62
512.265	89.62
512.481	92.62
