Data from Location4.07152019.Energy5.Lamp.07192019.3%Agarose_HRD10591_16-18-20-925.txt Node
Date: Fri Jul 19 16:18:20 EDT 2019
User: cochatt
Spectrometer: HR+D1059
Trigger mode: 1
Integration Time (sec): 1.000000E-1
Scans to average: 1
Electric dark correction enabled: true
Nonlinearity correction enabled: false
Boxcar width: 0
XAxis mode: Wavelengths
Number of Pixels in Spectrum: 2048
>>>>>Begin Spectral Data<<<<<
223.165	-4.88
223.4	-4.88
223.635	-4.88
223.869	-17.88
224.104	-12.88
224.338	-15.88
224.573	-10.88
224.808	-15.88
225.042	-13.88
225.277	9.12
225.511	5.12
225.746	1.12
225.98	4.12
226.215	10.12
226.449	16.12
226.683	6.12
226.918	25.12
227.152	15.12
227.387	41.12
227.621	29.12
227.856	49.12
228.09	50.12
228.324	58.12
228.559	45.12
228.793	58.12
229.027	48.12
229.262	75.12
229.496	84.12
229.73	75.12
229.964	73.12
230.199	87.12
230.433	77.12
230.667	73.12
230.901	74.12
231.136	87.12
231.37	93.12
231.604	80.12
231.838	101.12
232.072	73.12
232.306	68.12
232.541	84.12
232.775	82.12
233.009	91.12
233.243	79.12
233.477	84.12
233.711	84.12
233.945	92.12
234.179	91.12
234.413	89.12
234.647	67.12
234.881	78.12
235.115	86.12
235.349	82.12
235.583	96.12
235.817	88.12
236.051	72.12
236.285	75.12
236.519	85.12
236.753	72.12
236.987	78.12
237.221	68.12
237.455	71.12
237.689	74.12
237.922	88.12
238.156	71.12
238.39	75.12
238.624	79.12
238.858	69.12
239.091	82.12
239.325	76.12
239.559	77.12
239.793	70.12
240.027	80.12
240.26	77.12
240.494	86.12
240.728	90.12
240.961	69.12
241.195	72.12
241.429	75.12
241.662	68.12
241.896	69.12
242.13	74.12
242.363	94.12
242.597	81.12
242.83	67.12
243.064	72.12
243.298	88.12
243.531	69.12
243.765	74.12
243.998	87.12
244.232	80.12
244.465	85.12
244.699	88.12
244.932	88.12
245.166	78.12
245.399	78.12
245.633	69.12
245.866	71.12
246.099	70.12
246.333	86.12
246.566	68.12
246.8	77.12
247.033	69.12
247.266	84.12
247.5	79.12
247.733	94.12
247.966	81.12
248.2	78.12
248.433	79.12
248.666	80.12
248.899	81.12
249.133	69.12
249.366	87.12
249.599	78.12
249.832	69.12
250.066	92.12
250.299	76.12
250.532	73.12
250.765	75.12
250.998	84.12
251.231	74.12
251.465	77.12
251.698	83.12
251.931	85.12
252.164	75.12
252.397	77.12
252.63	87.12
252.863	99.12
253.096	74.12
253.329	75.12
253.562	83.12
253.795	80.12
254.028	75.12
254.261	83.12
254.494	76.12
254.727	64.12
254.96	88.12
255.193	77.12
255.426	64.12
255.659	84.12
255.892	96.12
256.124	75.12
256.357	71.12
256.59	87.12
256.823	72.12
257.056	78.12
257.289	65.12
257.521	82.12
257.754	73.12
257.987	85.12
258.22	78.12
258.452	79.12
258.685	93.12
258.918	72.12
259.151	76.12
259.383	77.12
259.616	93.12
259.849	73.12
260.081	83.12
260.314	82.12
260.547	69.12
260.779	78.12
261.012	89.12
261.244	70.12
261.477	81.12
261.71	59.12
261.942	77.12
262.175	73.12
262.407	100.12
262.64	82.12
262.872	90.12
263.105	73.12
263.337	81.12
263.57	90.12
263.802	90.12
264.035	78.12
264.267	75.12
264.499	78.12
264.732	72.12
264.964	86.12
265.197	74.12
265.429	81.12
265.661	94.12
265.894	78.12
266.126	97.12
266.358	80.12
266.591	87.12
266.823	84.12
267.055	82.12
267.287	84.12
267.52	79.12
267.752	86.12
267.984	73.12
268.216	69.12
268.448	88.12
268.681	87.12
268.913	93.12
269.145	91.12
269.377	86.12
269.609	87.12
269.841	93.12
270.073	79.12
270.306	73.12
270.538	88.12
270.77	68.12
271.002	65.12
271.234	81.12
271.466	77.12
271.698	77.12
271.93	78.12
272.162	80.12
272.394	82.12
272.626	77.12
272.858	83.12
273.09	95.12
273.322	90.12
273.553	84.12
273.785	98.12
274.017	96.12
274.249	94.12
274.481	80.12
274.713	99.12
274.945	76.12
275.176	92.12
275.408	89.12
275.64	86.12
275.872	75.12
276.104	98.12
276.335	84.12
276.567	83.12
276.799	79.12
277.031	93.12
277.262	80.12
277.494	87.12
277.726	81.12
277.957	79.12
278.189	77.12
278.421	86.12
278.652	87.12
278.884	89.12
279.115	84.12
279.347	77.12
279.579	75.12
279.81	87.12
280.042	88.12
280.273	83.12
280.505	75.12
280.736	77.12
280.968	88.12
281.199	82.12
281.431	78.12
281.662	79.12
281.894	74.12
282.125	84.12
282.356	86.12
282.588	90.12
282.819	90.12
283.051	83.12
283.282	88.12
283.513	88.12
283.745	74.12
283.976	85.12
284.207	79.12
284.439	87.12
284.67	82.12
284.901	87.12
285.132	78.12
285.364	82.12
285.595	73.12
285.826	100.12
286.057	90.12
286.288	86.12
286.52	77.12
286.751	97.12
286.982	93.12
287.213	87.12
287.444	76.12
287.675	97.12
287.906	81.12
288.138	76.12
288.369	83.12
288.6	66.12
288.831	85.12
289.062	89.12
289.293	83.12
289.524	101.12
289.755	85.12
289.986	75.12
290.217	82.12
290.448	72.12
290.679	98.12
290.91	95.12
291.141	86.12
291.371	99.12
291.602	99.12
291.833	62.12
292.064	90.12
292.295	82.12
292.526	70.12
292.757	62.12
292.987	75.12
293.218	88.12
293.449	89.12
293.68	72.12
293.91	79.12
294.141	85.12
294.372	75.12
294.603	98.12
294.833	93.12
295.064	75.12
295.295	77.12
295.525	82.12
295.756	76.12
295.987	85.12
296.217	77.12
296.448	73.12
296.679	81.12
296.909	100.12
297.14	84.12
297.37	94.12
297.601	88.12
297.831	89.12
298.062	90.12
298.292	79.12
298.523	73.12
298.753	85.12
298.984	91.12
299.214	86.12
299.445	102.12
299.675	83.12
299.905	94.12
300.136	73.12
300.366	89.12
300.597	81.12
300.827	76.12
301.057	88.12
301.288	93.12
301.518	73.12
301.748	77.12
301.979	98.12
302.209	78.12
302.439	79.12
302.669	68.12
302.9	66.12
303.13	80.12
303.36	91.12
303.59	72.12
303.82	92.12
304.051	94.12
304.281	83.12
304.511	94.12
304.741	96.12
304.971	84.12
305.201	64.12
305.431	77.12
305.661	74.12
305.891	81.12
306.121	88.12
306.352	77.12
306.582	87.12
306.812	66.12
307.042	75.12
307.272	75.12
307.502	89.12
307.731	82.12
307.961	84.12
308.191	85.12
308.421	68.12
308.651	86.12
308.881	70.12
309.111	85.12
309.341	90.12
309.571	85.12
309.8	79.12
310.03	71.12
310.26	92.12
310.49	84.12
310.72	82.12
310.949	87.12
311.179	88.12
311.409	91.12
311.639	75.12
311.868	89.12
312.098	90.12
312.328	67.12
312.557	70.12
312.787	80.12
313.017	80.12
313.246	83.12
313.476	88.12
313.706	96.12
313.935	77.12
314.165	91.12
314.394	92.12
314.624	97.12
314.853	88.12
315.083	86.12
315.312	72.12
315.542	92.12
315.771	97.12
316.001	78.12
316.23	85.12
316.46	86.12
316.689	78.12
316.919	73.12
317.148	86.12
317.377	72.12
317.607	82.12
317.836	85.12
318.065	77.12
318.295	86.12
318.524	82.12
318.753	78.12
318.983	91.12
319.212	96.12
319.441	83.12
319.67	94.12
319.9	99.12
320.129	84.12
320.358	82.12
320.587	92.12
320.816	78.12
321.046	66.12
321.275	82.12
321.504	80.12
321.733	80.12
321.962	86.12
322.191	96.12
322.42	88.12
322.649	77.12
322.878	84.12
323.108	84.12
323.337	64.12
323.566	85.12
323.795	88.12
324.024	82.12
324.253	92.12
324.482	81.12
324.71	86.12
324.939	89.12
325.168	87.12
325.397	93.12
325.626	94.12
325.855	78.12
326.084	80.12
326.313	78.12
326.542	80.12
326.77	82.12
326.999	82.12
327.228	81.12
327.457	81.12
327.686	90.12
327.914	83.12
328.143	88.12
328.372	77.12
328.6	82.12
328.829	98.12
329.058	76.12
329.287	79.12
329.515	77.12
329.744	88.12
329.972	85.12
330.201	78.12
330.43	86.12
330.658	96.12
330.887	85.12
331.115	90.12
331.344	88.12
331.572	78.12
331.801	66.12
332.03	97.12
332.258	76.12
332.486	76.12
332.715	84.12
332.943	92.12
333.172	85.12
333.4	82.12
333.629	71.12
333.857	76.12
334.085	72.12
334.314	77.12
334.542	78.12
334.771	96.12
334.999	83.12
335.227	93.12
335.455	83.12
335.684	88.12
335.912	96.12
336.14	80.12
336.369	77.12
336.597	79.12
336.825	72.12
337.053	86.12
337.281	88.12
337.51	84.12
337.738	76.12
337.966	86.12
338.194	86.12
338.422	86.12
338.65	72.12
338.878	88.12
339.106	81.12
339.334	93.12
339.562	78.12
339.79	90.12
340.018	92.12
340.246	74.12
340.474	91.12
340.702	84.12
340.93	82.12
341.158	73.12
341.386	75.12
341.614	91.12
341.842	90.12
342.07	83.12
342.298	88.12
342.526	85.12
342.754	88.12
342.981	89.12
343.209	91.12
343.437	95.12
343.665	76.12
343.893	85.12
344.12	94.12
344.348	72.12
344.576	92.12
344.804	100.12
345.031	86.12
345.259	93.12
345.487	92.12
345.714	78.12
345.942	97.12
346.17	90.12
346.397	89.12
346.625	79.12
346.853	89.12
347.08	78.12
347.308	69.12
347.535	79.12
347.763	83.12
347.99	94.12
348.218	85.12
348.445	81.12
348.673	101.12
348.9	83.12
349.128	88.12
349.355	80.12
349.583	96.12
349.81	78.12
350.037	84.12
350.265	83.12
350.492	81.12
350.72	72.12
350.947	73.12
351.174	82.12
351.402	86.12
351.629	89.12
351.856	95.12
352.083	93.12
352.311	84.12
352.538	89.12
352.765	77.12
352.992	88.12
353.22	87.12
353.447	78.12
353.674	89.12
353.901	83.12
354.128	91.12
354.355	84.12
354.583	78.12
354.81	100.12
355.037	81.12
355.264	93.12
355.491	99.12
355.718	90.12
355.945	90.12
356.172	80.12
356.399	82.12
356.626	83.12
356.853	78.12
357.08	73.12
357.307	90.12
357.534	92.12
357.761	90.12
357.988	90.12
358.215	80.12
358.441	88.12
358.668	88.12
358.895	73.12
359.122	92.12
359.349	90.12
359.576	79.12
359.802	85.12
360.029	80.12
360.256	75.12
360.483	89.12
360.709	83.12
360.936	84.12
361.163	78.12
361.39	78.12
361.616	77.12
361.843	87.12
362.07	86.12
362.296	95.12
362.523	92.12
362.749	88.12
362.976	85.12
363.203	74.12
363.429	95.12
363.656	87.12
363.882	99.12
364.109	78.12
364.335	94.12
364.562	85.12
364.788	86.12
365.015	81.12
365.241	84.12
365.468	86.12
365.694	82.12
365.92	88.12
366.147	87.12
366.373	94.12
366.599	93.12
366.826	83.12
367.052	82.12
367.278	91.12
367.505	88.12
367.731	87.12
367.957	102.12
368.184	84.12
368.41	74.12
368.636	87.12
368.862	94.12
369.089	80.12
369.315	97.12
369.541	80.12
369.767	87.12
369.993	83.12
370.219	96.12
370.445	88.12
370.672	90.12
370.898	92.12
371.124	86.12
371.35	101.12
371.576	81.12
371.802	98.12
372.028	89.12
372.254	89.12
372.48	92.12
372.706	84.12
372.932	76.12
373.158	100.12
373.384	90.12
373.61	84.12
373.835	105.12
374.061	93.12
374.287	88.12
374.513	87.12
374.739	89.12
374.965	90.12
375.191	94.12
375.416	99.12
375.642	89.12
375.868	99.12
376.094	100.12
376.319	86.12
376.545	103.12
376.771	89.12
376.997	92.12
377.222	83.12
377.448	101.12
377.674	94.12
377.899	108.12
378.125	94.12
378.35	88.12
378.576	100.12
378.802	87.12
379.027	88.12
379.253	107.12
379.478	96.12
379.704	92.12
379.929	83.12
380.155	94.12
380.38	100.12
380.606	88.12
380.831	98.12
381.057	97.12
381.282	74.12
381.507	100.12
381.733	85.12
381.958	89.12
382.184	91.12
382.409	94.12
382.634	94.12
382.86	93.12
383.085	107.12
383.31	86.12
383.535	85.12
383.761	87.12
383.986	77.12
384.211	94.12
384.436	100.12
384.662	88.12
384.887	101.12
385.112	83.12
385.337	83.12
385.562	86.12
385.787	94.12
386.013	103.12
386.238	94.12
386.463	94.12
386.688	97.12
386.913	96.12
387.138	95.12
387.363	116.12
387.588	111.12
387.813	107.12
388.038	90.12
388.263	96.12
388.488	99.12
388.713	105.12
388.938	115.12
389.163	94.12
389.387	96.12
389.612	103.12
389.837	105.12
390.062	107.12
390.287	108.12
390.512	88.12
390.736	101.12
390.961	84.12
391.186	99.12
391.411	105.12
391.636	98.12
391.86	98.12
392.085	93.12
392.31	104.12
392.534	110.12
392.759	103.12
392.984	90.12
393.208	104.12
393.433	98.12
393.658	109.12
393.882	94.12
394.107	96.12
394.331	88.12
394.556	90.12
394.78	100.12
395.005	106.12
395.229	91.12
395.454	98.12
395.678	103.12
395.903	101.12
396.127	108.12
396.352	100.12
396.576	119.12
396.801	112.12
397.025	96.12
397.249	100.12
397.474	87.12
397.698	99.12
397.922	102.12
398.147	121.12
398.371	89.12
398.595	102.12
398.82	99.12
399.044	108.12
399.268	102.12
399.492	83.12
399.717	114.12
399.941	124.12
400.165	115.12
400.389	109.12
400.613	102.12
400.837	116.12
401.062	110.12
401.286	115.12
401.51	122.12
401.734	104.12
401.958	114.12
402.182	100.12
402.406	105.12
402.63	122.12
402.854	114.12
403.078	103.12
403.302	99.12
403.526	112.12
403.75	119.12
403.974	124.12
404.198	125.12
404.422	98.12
404.645	113.12
404.869	112.12
405.093	129.12
405.317	113.12
405.541	124.12
405.765	110.12
405.988	128.12
406.212	124.12
406.436	126.12
406.66	109.12
406.883	120.12
407.107	114.12
407.331	126.12
407.555	122.12
407.778	107.12
408.002	116.12
408.226	125.12
408.449	131.12
408.673	116.12
408.896	108.12
409.12	121.12
409.344	125.12
409.567	119.12
409.791	115.12
410.014	122.12
410.238	120.12
410.461	136.12
410.685	121.12
410.908	123.12
411.132	126.12
411.355	109.12
411.578	105.12
411.802	114.12
412.025	103.12
412.249	134.12
412.472	107.12
412.695	108.12
412.919	122.12
413.142	122.12
413.365	128.12
413.589	127.12
413.812	130.12
414.035	129.12
414.258	120.12
414.482	118.12
414.705	119.12
414.928	122.12
415.151	117.12
415.374	116.12
415.597	125.12
415.821	126.12
416.044	121.12
416.267	106.12
416.49	121.12
416.713	141.12
416.936	125.12
417.159	130.12
417.382	104.12
417.605	123.12
417.828	124.12
418.051	120.12
418.274	133.12
418.497	122.12
418.72	122.12
418.943	117.12
419.166	128.12
419.389	138.12
419.611	124.12
419.834	128.12
420.057	122.12
420.28	142.12
420.503	128.12
420.726	122.12
420.948	130.12
421.171	126.12
421.394	128.12
421.617	130.12
421.839	140.12
422.062	138.12
422.285	134.12
422.507	121.12
422.73	126.12
422.953	117.12
423.175	118.12
423.398	131.12
423.621	118.12
423.843	105.12
424.066	130.12
424.288	133.12
424.511	145.12
424.733	150.12
424.956	131.12
425.178	130.12
425.401	142.12
425.623	126.12
425.846	125.12
426.068	116.12
426.291	120.12
426.513	121.12
426.735	141.12
426.958	135.12
427.18	128.12
427.402	117.12
427.625	124.12
427.847	134.12
428.069	136.12
428.292	140.12
428.514	134.12
428.736	139.12
428.958	125.12
429.181	135.12
429.403	114.12
429.625	136.12
429.847	129.12
430.069	123.12
430.292	110.12
430.514	116.12
430.736	117.12
430.958	117.12
431.18	109.12
431.402	130.12
431.624	118.12
431.846	115.12
432.068	80.12
432.29	101.12
432.512	131.12
432.734	116.12
432.956	121.12
433.178	134.12
433.4	141.12
433.622	134.12
433.844	132.12
434.066	124.12
434.287	111.12
434.509	98.12
434.731	96.12
434.953	115.12
435.175	118.12
435.397	123.12
435.618	121.12
435.84	107.12
436.062	126.12
436.284	132.12
436.505	129.12
436.727	128.12
436.949	120.12
437.17	125.12
437.392	127.12
437.614	130.12
437.835	115.12
438.057	100.12
438.278	109.12
438.5	128.12
438.721	144.12
438.943	134.12
439.165	138.12
439.386	130.12
439.608	154.12
439.829	142.12
440.05	148.12
440.272	126.12
440.493	143.12
440.715	138.12
440.936	142.12
441.158	142.12
441.379	141.12
441.6	136.12
441.822	141.12
442.043	134.12
442.264	150.12
442.486	150.12
442.707	137.12
442.928	143.12
443.149	140.12
443.371	145.12
443.592	124.12
443.813	132.12
444.034	134.12
444.255	139.12
444.476	134.12
444.698	149.12
444.919	148.12
445.14	263.12
445.361	189.12
445.582	149.12
445.803	158.12
446.024	160.12
446.245	152.12
446.466	160.12
446.687	162.12
446.908	154.12
447.129	144.12
447.35	147.12
447.571	156.12
447.792	142.12
448.013	137.12
448.234	157.12
448.455	137.12
448.675	132.12
448.896	133.12
449.117	131.12
449.338	130.12
449.559	146.12
449.779	130.12
450	124.12
450.221	132.12
450.442	126.12
450.662	145.12
450.883	133.12
451.104	137.12
451.324	142.12
451.545	140.12
451.766	135.12
451.986	112.12
452.207	120.12
452.428	132.12
452.648	131.12
452.869	133.12
453.089	107.12
453.31	114.12
453.53	118.12
453.751	114.12
453.971	108.12
454.192	108.12
454.412	103.12
454.633	119.12
454.853	112.12
455.073	127.12
455.294	120.12
455.514	124.12
455.734	127.12
455.955	112.12
456.175	125.12
456.395	124.12
456.616	105.12
456.836	96.12
457.056	105.12
457.276	106.12
457.497	113.12
457.717	111.12
457.937	101.12
458.157	117.12
458.377	101.12
458.598	110.12
458.818	90.12
459.038	94.12
459.258	82.12
459.478	90.12
459.698	88.12
459.918	112.12
460.138	101.12
460.358	118.12
460.578	114.12
460.798	117.12
461.018	110.12
461.238	132.12
461.458	122.12
461.678	120.12
461.898	101.12
462.118	118.12
462.338	118.12
462.558	112.12
462.777	115.12
462.997	106.12
463.217	116.12
463.437	115.12
463.657	121.12
463.876	116.12
464.096	120.12
464.316	113.12
464.536	96.12
464.755	112.12
464.975	113.12
465.195	114.12
465.414	119.12
465.634	124.12
465.854	124.12
466.073	124.12
466.293	129.12
466.512	137.12
466.732	114.12
466.951	128.12
467.171	135.12
467.391	142.12
467.61	132.12
467.829	141.12
468.049	137.12
468.268	131.12
468.488	137.12
468.707	133.12
468.927	132.12
469.146	141.12
469.365	141.12
469.585	141.12
469.804	157.12
470.023	142.12
470.243	143.12
470.462	128.12
470.681	131.12
470.901	137.12
471.12	139.12
471.339	128.12
471.558	142.12
471.777	142.12
471.997	146.12
472.216	123.12
472.435	114.12
472.654	102.12
472.873	128.12
473.092	122.12
473.311	120.12
473.53	131.12
473.749	126.12
473.968	140.12
474.187	124.12
474.406	125.12
474.625	125.12
474.844	130.12
475.063	141.12
475.282	120.12
475.501	109.12
475.72	130.12
475.939	128.12
476.158	127.12
476.377	138.12
476.596	130.12
476.814	120.12
477.033	92.12
477.252	111.12
477.471	125.12
477.69	125.12
477.908	134.12
478.127	134.12
478.346	117.12
478.564	144.12
478.783	130.12
479.002	136.12
479.22	135.12
479.439	120.12
479.658	106.12
479.876	104.12
480.095	93.12
480.313	104.12
480.532	116.12
480.751	105.12
480.969	100.12
481.188	95.12
481.406	92.12
481.624	98.12
481.843	90.12
482.061	101.12
482.28	116.12
482.498	120.12
482.717	105.12
482.935	110.12
483.153	121.12
483.372	158.12
483.59	154.12
483.808	152.12
484.027	136.12
484.245	136.12
484.463	142.12
484.681	190.12
484.9	153.12
485.118	149.12
485.336	132.12
485.554	106.12
485.772	96.12
485.99	114.12
486.209	124.12
486.427	120.12
486.645	119.12
486.863	139.12
487.081	137.12
487.299	134.12
487.517	138.12
487.735	160.12
487.953	191.12
488.171	167.12
488.389	160.12
488.607	168.12
488.825	148.12
489.043	123.12
489.261	135.12
489.479	137.12
489.696	137.12
489.914	139.12
490.132	139.12
490.35	148.12
490.568	162.12
490.786	160.12
491.003	169.12
491.221	189.12
491.439	172.12
491.657	197.12
491.874	196.12
492.092	228.12
492.31	241.12
492.527	232.12
492.745	189.12
492.963	188.12
493.18	200.12
493.398	174.12
493.615	176.12
493.833	178.12
494.05	179.12
494.268	167.12
494.485	158.12
494.703	178.12
494.92	172.12
495.138	166.12
495.355	168.12
495.573	172.12
495.79	151.12
496.008	168.12
496.225	168.12
496.442	163.12
496.66	162.12
496.877	169.12
497.094	163.12
497.312	169.12
497.529	144.12
497.746	140.12
497.963	141.12
498.181	138.12
498.398	118.12
498.615	117.12
498.832	116.12
499.049	128.12
499.267	130.12
499.484	114.12
499.701	143.12
499.918	139.12
500.135	138.12
500.352	138.12
500.569	143.12
500.786	153.12
501.003	136.12
501.22	142.12
501.437	146.12
501.654	130.12
501.871	145.12
502.088	122.12
502.305	128.12
502.522	136.12
502.739	146.12
502.956	129.12
503.172	122.12
503.389	125.12
503.606	109.12
503.823	128.12
504.04	120.12
504.256	120.12
504.473	100.12
504.69	124.12
504.907	112.12
505.123	122.12
505.34	128.12
505.557	126.12
505.773	126.12
505.99	122.12
506.207	114.12
506.423	121.12
506.64	113.12
506.856	135.12
507.073	124.12
507.289	113.12
507.506	119.12
507.722	112.12
507.939	113.12
508.155	116.12
508.372	124.12
508.588	124.12
508.805	119.12
509.021	114.12
509.238	104.12
509.454	96.12
509.67	90.12
509.887	101.12
510.103	106.12
510.319	103.12
510.536	94.12
510.752	92.12
510.968	91.12
511.184	99.12
511.401	97.12
511.617	80.12
511.833	81.12
