Data from Location4.07152019.Energy5.Lamp.07192019.3%Agarose_HRD10591_16-20-43-925.txt Node
Date: Fri Jul 19 16:20:43 EDT 2019
User: cochatt
Spectrometer: HR+D1059
Trigger mode: 1
Integration Time (sec): 1.000000E-1
Scans to average: 1
Electric dark correction enabled: true
Nonlinearity correction enabled: false
Boxcar width: 0
XAxis mode: Wavelengths
Number of Pixels in Spectrum: 2048
>>>>>Begin Spectral Data<<<<<
223.165	-16.88
223.4	-16.88
223.635	-16.88
223.869	-28.88
224.104	-21.88
224.338	-1.88
224.573	-21.88
224.808	-12.88
225.042	-9.88
225.277	4.12
225.511	-16.88
225.746	7.12
225.98	5.12
226.215	11.12
226.449	9.12
226.683	33.12
226.918	27.12
227.152	34.12
227.387	40.12
227.621	37.12
227.856	34.12
228.09	44.12
228.324	58.12
228.559	61.12
228.793	51.12
229.027	69.12
229.262	64.12
229.496	75.12
229.73	77.12
229.964	72.12
230.199	72.12
230.433	60.12
230.667	76.12
230.901	67.12
231.136	71.12
231.37	76.12
231.604	81.12
231.838	90.12
232.072	80.12
232.306	89.12
232.541	72.12
232.775	82.12
233.009	96.12
233.243	77.12
233.477	82.12
233.711	89.12
233.945	82.12
234.179	76.12
234.413	84.12
234.647	89.12
234.881	88.12
235.115	93.12
235.349	82.12
235.583	85.12
235.817	82.12
236.051	74.12
236.285	75.12
236.519	72.12
236.753	72.12
236.987	81.12
237.221	68.12
237.455	75.12
237.689	72.12
237.922	89.12
238.156	84.12
238.39	76.12
238.624	69.12
238.858	65.12
239.091	66.12
239.325	76.12
239.559	74.12
239.793	68.12
240.027	66.12
240.26	63.12
240.494	84.12
240.728	79.12
240.961	82.12
241.195	75.12
241.429	74.12
241.662	76.12
241.896	77.12
242.13	91.12
242.363	71.12
242.597	75.12
242.83	73.12
243.064	88.12
243.298	77.12
243.531	69.12
243.765	78.12
243.998	82.12
244.232	66.12
244.465	78.12
244.699	76.12
244.932	84.12
245.166	74.12
245.399	85.12
245.633	70.12
245.866	77.12
246.099	77.12
246.333	87.12
246.566	84.12
246.8	82.12
247.033	79.12
247.266	74.12
247.5	82.12
247.733	78.12
247.966	82.12
248.2	83.12
248.433	76.12
248.666	88.12
248.899	90.12
249.133	71.12
249.366	74.12
249.599	83.12
249.832	88.12
250.066	85.12
250.299	77.12
250.532	89.12
250.765	88.12
250.998	75.12
251.231	90.12
251.465	83.12
251.698	78.12
251.931	65.12
252.164	82.12
252.397	80.12
252.63	78.12
252.863	62.12
253.096	85.12
253.329	75.12
253.562	88.12
253.795	68.12
254.028	71.12
254.261	82.12
254.494	88.12
254.727	74.12
254.96	73.12
255.193	75.12
255.426	69.12
255.659	77.12
255.892	73.12
256.124	92.12
256.357	76.12
256.59	92.12
256.823	79.12
257.056	89.12
257.289	94.12
257.521	78.12
257.754	93.12
257.987	73.12
258.22	85.12
258.452	91.12
258.685	90.12
258.918	91.12
259.151	85.12
259.383	81.12
259.616	78.12
259.849	79.12
260.081	88.12
260.314	71.12
260.547	78.12
260.779	87.12
261.012	95.12
261.244	75.12
261.477	86.12
261.71	82.12
261.942	78.12
262.175	84.12
262.407	75.12
262.64	78.12
262.872	92.12
263.105	79.12
263.337	71.12
263.57	91.12
263.802	86.12
264.035	92.12
264.267	68.12
264.499	80.12
264.732	76.12
264.964	83.12
265.197	78.12
265.429	78.12
265.661	76.12
265.894	83.12
266.126	83.12
266.358	78.12
266.591	85.12
266.823	89.12
267.055	70.12
267.287	69.12
267.52	87.12
267.752	89.12
267.984	101.12
268.216	77.12
268.448	79.12
268.681	81.12
268.913	79.12
269.145	89.12
269.377	93.12
269.609	85.12
269.841	85.12
270.073	84.12
270.306	87.12
270.538	103.12
270.77	75.12
271.002	68.12
271.234	89.12
271.466	81.12
271.698	84.12
271.93	98.12
272.162	79.12
272.394	78.12
272.626	77.12
272.858	89.12
273.09	76.12
273.322	83.12
273.553	73.12
273.785	89.12
274.017	85.12
274.249	78.12
274.481	93.12
274.713	86.12
274.945	81.12
275.176	80.12
275.408	98.12
275.64	104.12
275.872	82.12
276.104	82.12
276.335	75.12
276.567	89.12
276.799	78.12
277.031	96.12
277.262	84.12
277.494	94.12
277.726	87.12
277.957	77.12
278.189	78.12
278.421	79.12
278.652	101.12
278.884	86.12
279.115	83.12
279.347	86.12
279.579	90.12
279.81	89.12
280.042	82.12
280.273	68.12
280.505	69.12
280.736	92.12
280.968	100.12
281.199	83.12
281.431	95.12
281.662	75.12
281.894	90.12
282.125	79.12
282.356	84.12
282.588	93.12
282.819	78.12
283.051	88.12
283.282	83.12
283.513	89.12
283.745	82.12
283.976	98.12
284.207	89.12
284.439	86.12
284.67	81.12
284.901	91.12
285.132	80.12
285.364	90.12
285.595	82.12
285.826	71.12
286.057	97.12
286.288	79.12
286.52	75.12
286.751	90.12
286.982	78.12
287.213	77.12
287.444	72.12
287.675	83.12
287.906	82.12
288.138	79.12
288.369	96.12
288.6	84.12
288.831	85.12
289.062	88.12
289.293	81.12
289.524	82.12
289.755	93.12
289.986	75.12
290.217	90.12
290.448	73.12
290.679	77.12
290.91	84.12
291.141	76.12
291.371	80.12
291.602	81.12
291.833	79.12
292.064	94.12
292.295	87.12
292.526	85.12
292.757	74.12
292.987	87.12
293.218	78.12
293.449	86.12
293.68	93.12
293.91	88.12
294.141	90.12
294.372	79.12
294.603	86.12
294.833	81.12
295.064	75.12
295.295	97.12
295.525	79.12
295.756	75.12
295.987	88.12
296.217	70.12
296.448	81.12
296.679	83.12
296.909	78.12
297.14	70.12
297.37	83.12
297.601	93.12
297.831	85.12
298.062	96.12
298.292	78.12
298.523	94.12
298.753	84.12
298.984	100.12
299.214	89.12
299.445	86.12
299.675	107.12
299.905	78.12
300.136	81.12
300.366	82.12
300.597	87.12
300.827	88.12
301.057	86.12
301.288	87.12
301.518	93.12
301.748	68.12
301.979	76.12
302.209	78.12
302.439	89.12
302.669	110.12
302.9	86.12
303.13	82.12
303.36	88.12
303.59	82.12
303.82	81.12
304.051	91.12
304.281	79.12
304.511	79.12
304.741	87.12
304.971	84.12
305.201	85.12
305.431	80.12
305.661	87.12
305.891	89.12
306.121	88.12
306.352	102.12
306.582	81.12
306.812	71.12
307.042	86.12
307.272	78.12
307.502	76.12
307.731	79.12
307.961	74.12
308.191	83.12
308.421	76.12
308.651	82.12
308.881	93.12
309.111	92.12
309.341	81.12
309.571	89.12
309.8	87.12
310.03	79.12
310.26	72.12
310.49	76.12
310.72	86.12
310.949	73.12
311.179	102.12
311.409	86.12
311.639	93.12
311.868	78.12
312.098	84.12
312.328	81.12
312.557	77.12
312.787	82.12
313.017	89.12
313.246	81.12
313.476	83.12
313.706	93.12
313.935	103.12
314.165	78.12
314.394	84.12
314.624	68.12
314.853	72.12
315.083	84.12
315.312	87.12
315.542	94.12
315.771	93.12
316.001	78.12
316.23	86.12
316.46	90.12
316.689	81.12
316.919	96.12
317.148	98.12
317.377	94.12
317.607	78.12
317.836	91.12
318.065	86.12
318.295	102.12
318.524	85.12
318.753	96.12
318.983	90.12
319.212	90.12
319.441	92.12
319.67	94.12
319.9	79.12
320.129	77.12
320.358	82.12
320.587	85.12
320.816	82.12
321.046	91.12
321.275	93.12
321.504	82.12
321.733	78.12
321.962	78.12
322.191	86.12
322.42	84.12
322.649	82.12
322.878	89.12
323.108	89.12
323.337	89.12
323.566	85.12
323.795	76.12
324.024	79.12
324.253	92.12
324.482	87.12
324.71	90.12
324.939	89.12
325.168	72.12
325.397	81.12
325.626	89.12
325.855	88.12
326.084	83.12
326.313	76.12
326.542	83.12
326.77	93.12
326.999	94.12
327.228	87.12
327.457	87.12
327.686	101.12
327.914	83.12
328.143	101.12
328.372	77.12
328.6	82.12
328.829	73.12
329.058	86.12
329.287	91.12
329.515	79.12
329.744	78.12
329.972	89.12
330.201	85.12
330.43	76.12
330.658	88.12
330.887	92.12
331.115	94.12
331.344	90.12
331.572	99.12
331.801	91.12
332.03	95.12
332.258	92.12
332.486	70.12
332.715	98.12
332.943	86.12
333.172	95.12
333.4	78.12
333.629	83.12
333.857	70.12
334.085	78.12
334.314	92.12
334.542	88.12
334.771	87.12
334.999	86.12
335.227	78.12
335.455	90.12
335.684	90.12
335.912	97.12
336.14	74.12
336.369	83.12
336.597	86.12
336.825	76.12
337.053	80.12
337.281	84.12
337.51	89.12
337.738	93.12
337.966	94.12
338.194	74.12
338.422	84.12
338.65	79.12
338.878	93.12
339.106	91.12
339.334	93.12
339.562	75.12
339.79	88.12
340.018	88.12
340.246	100.12
340.474	89.12
340.702	89.12
340.93	89.12
341.158	84.12
341.386	84.12
341.614	83.12
341.842	93.12
342.07	86.12
342.298	79.12
342.526	81.12
342.754	90.12
342.981	83.12
343.209	99.12
343.437	81.12
343.665	79.12
343.893	88.12
344.12	90.12
344.348	100.12
344.576	85.12
344.804	84.12
345.031	82.12
345.259	81.12
345.487	97.12
345.714	87.12
345.942	81.12
346.17	102.12
346.397	88.12
346.625	101.12
346.853	77.12
347.08	87.12
347.308	77.12
347.535	77.12
347.763	79.12
347.99	79.12
348.218	84.12
348.445	78.12
348.673	89.12
348.9	88.12
349.128	85.12
349.355	91.12
349.583	70.12
349.81	71.12
350.037	81.12
350.265	78.12
350.492	87.12
350.72	93.12
350.947	91.12
351.174	84.12
351.402	99.12
351.629	85.12
351.856	91.12
352.083	86.12
352.311	80.12
352.538	92.12
352.765	80.12
352.992	74.12
353.22	77.12
353.447	92.12
353.674	99.12
353.901	73.12
354.128	90.12
354.355	79.12
354.583	99.12
354.81	91.12
355.037	84.12
355.264	77.12
355.491	91.12
355.718	72.12
355.945	90.12
356.172	90.12
356.399	100.12
356.626	87.12
356.853	86.12
357.08	99.12
357.307	75.12
357.534	92.12
357.761	83.12
357.988	90.12
358.215	78.12
358.441	81.12
358.668	69.12
358.895	91.12
359.122	80.12
359.349	96.12
359.576	85.12
359.802	77.12
360.029	87.12
360.256	99.12
360.483	90.12
360.709	85.12
360.936	94.12
361.163	91.12
361.39	94.12
361.616	86.12
361.843	78.12
362.07	80.12
362.296	76.12
362.523	74.12
362.749	86.12
362.976	78.12
363.203	80.12
363.429	94.12
363.656	97.12
363.882	96.12
364.109	84.12
364.335	55.12
364.562	81.12
364.788	73.12
365.015	70.12
365.241	87.12
365.468	96.12
365.694	85.12
365.92	93.12
366.147	88.12
366.373	84.12
366.599	89.12
366.826	84.12
367.052	78.12
367.278	109.12
367.505	88.12
367.731	100.12
367.957	86.12
368.184	85.12
368.41	93.12
368.636	88.12
368.862	91.12
369.089	104.12
369.315	89.12
369.541	87.12
369.767	94.12
369.993	99.12
370.219	89.12
370.445	93.12
370.672	86.12
370.898	93.12
371.124	84.12
371.35	87.12
371.576	97.12
371.802	91.12
372.028	94.12
372.254	95.12
372.48	92.12
372.706	94.12
372.932	93.12
373.158	95.12
373.384	97.12
373.61	91.12
373.835	88.12
374.061	86.12
374.287	102.12
374.513	91.12
374.739	83.12
374.965	92.12
375.191	86.12
375.416	94.12
375.642	89.12
375.868	104.12
376.094	96.12
376.319	98.12
376.545	104.12
376.771	93.12
376.997	90.12
377.222	107.12
377.448	106.12
377.674	105.12
377.899	97.12
378.125	89.12
378.35	90.12
378.576	80.12
378.802	95.12
379.027	107.12
379.253	88.12
379.478	91.12
379.704	94.12
379.929	74.12
380.155	89.12
380.38	103.12
380.606	97.12
380.831	85.12
381.057	96.12
381.282	80.12
381.507	102.12
381.733	85.12
381.958	93.12
382.184	100.12
382.409	76.12
382.634	97.12
382.86	98.12
383.085	97.12
383.31	92.12
383.535	103.12
383.761	94.12
383.986	109.12
384.211	98.12
384.436	91.12
384.662	93.12
384.887	95.12
385.112	92.12
385.337	98.12
385.562	113.12
385.787	93.12
386.013	106.12
386.238	97.12
386.463	89.12
386.688	100.12
386.913	91.12
387.138	94.12
387.363	89.12
387.588	99.12
387.813	116.12
388.038	93.12
388.263	101.12
388.488	108.12
388.713	97.12
388.938	79.12
389.163	80.12
389.387	109.12
389.612	101.12
389.837	97.12
390.062	105.12
390.287	99.12
390.512	109.12
390.736	113.12
390.961	105.12
391.186	120.12
391.411	97.12
391.636	101.12
391.86	95.12
392.085	88.12
392.31	121.12
392.534	97.12
392.759	120.12
392.984	103.12
393.208	103.12
393.433	95.12
393.658	105.12
393.882	103.12
394.107	92.12
394.331	94.12
394.556	106.12
394.78	106.12
395.005	109.12
395.229	102.12
395.454	110.12
395.678	118.12
395.903	114.12
396.127	99.12
396.352	108.12
396.576	97.12
396.801	123.12
397.025	121.12
397.249	114.12
397.474	126.12
397.698	113.12
397.922	110.12
398.147	107.12
398.371	102.12
398.595	111.12
398.82	109.12
399.044	108.12
399.268	93.12
399.492	96.12
399.717	108.12
399.941	110.12
400.165	116.12
400.389	111.12
400.613	101.12
400.837	123.12
401.062	94.12
401.286	117.12
401.51	124.12
401.734	124.12
401.958	129.12
402.182	104.12
402.406	113.12
402.63	115.12
402.854	119.12
403.078	118.12
403.302	116.12
403.526	108.12
403.75	113.12
403.974	104.12
404.198	111.12
404.422	117.12
404.645	121.12
404.869	119.12
405.093	103.12
405.317	120.12
405.541	125.12
405.765	111.12
405.988	117.12
406.212	113.12
406.436	118.12
406.66	115.12
406.883	125.12
407.107	125.12
407.331	131.12
407.555	118.12
407.778	124.12
408.002	115.12
408.226	117.12
408.449	110.12
408.673	115.12
408.896	115.12
409.12	124.12
409.344	126.12
409.567	117.12
409.791	113.12
410.014	121.12
410.238	132.12
410.461	132.12
410.685	125.12
410.908	115.12
411.132	121.12
411.355	118.12
411.578	121.12
411.802	118.12
412.025	113.12
412.249	118.12
412.472	116.12
412.695	131.12
412.919	108.12
413.142	110.12
413.365	131.12
413.589	108.12
413.812	131.12
414.035	118.12
414.258	127.12
414.482	118.12
414.705	112.12
414.928	137.12
415.151	126.12
415.374	115.12
415.597	121.12
415.821	116.12
416.044	119.12
416.267	130.12
416.49	125.12
416.713	118.12
416.936	127.12
417.159	119.12
417.382	110.12
417.605	115.12
417.828	114.12
418.051	125.12
418.274	121.12
418.497	125.12
418.72	129.12
418.943	136.12
419.166	139.12
419.389	135.12
419.611	139.12
419.834	140.12
420.057	127.12
420.28	127.12
420.503	124.12
420.726	130.12
420.948	121.12
421.171	136.12
421.394	131.12
421.617	147.12
421.839	151.12
422.062	137.12
422.285	135.12
422.507	129.12
422.73	129.12
422.953	122.12
423.175	129.12
423.398	129.12
423.621	142.12
423.843	127.12
424.066	135.12
424.288	125.12
424.511	146.12
424.733	147.12
424.956	134.12
425.178	130.12
425.401	142.12
425.623	149.12
425.846	115.12
426.068	127.12
426.291	138.12
426.513	114.12
426.735	138.12
426.958	131.12
427.18	147.12
427.402	134.12
427.625	109.12
427.847	142.12
428.069	129.12
428.292	122.12
428.514	119.12
428.736	125.12
428.958	133.12
429.181	123.12
429.403	126.12
429.625	122.12
429.847	124.12
430.069	131.12
430.292	140.12
430.514	126.12
430.736	115.12
430.958	110.12
431.18	124.12
431.402	111.12
431.624	100.12
431.846	108.12
432.068	106.12
432.29	98.12
432.512	115.12
432.734	115.12
432.956	119.12
433.178	143.12
433.4	142.12
433.622	139.12
433.844	138.12
434.066	124.12
434.287	121.12
434.509	94.12
434.731	100.12
434.953	107.12
435.175	102.12
435.397	118.12
435.618	107.12
435.84	115.12
436.062	111.12
436.284	110.12
436.505	127.12
436.727	133.12
436.949	137.12
437.17	130.12
437.392	125.12
437.614	116.12
437.835	116.12
438.057	118.12
438.278	121.12
438.5	115.12
438.721	143.12
438.943	137.12
439.165	122.12
439.386	125.12
439.608	148.12
439.829	138.12
440.05	131.12
440.272	149.12
440.493	137.12
440.715	146.12
440.936	131.12
441.158	133.12
441.379	143.12
441.6	153.12
441.822	149.12
442.043	126.12
442.264	134.12
442.486	143.12
442.707	133.12
442.928	140.12
443.149	122.12
443.371	142.12
443.592	149.12
443.813	134.12
444.034	115.12
444.255	138.12
444.476	123.12
444.698	144.12
444.919	136.12
445.14	284.12
445.361	195.12
445.582	166.12
445.803	147.12
446.024	149.12
446.245	145.12
446.466	143.12
446.687	143.12
446.908	151.12
447.129	153.12
447.35	146.12
447.571	144.12
447.792	135.12
448.013	140.12
448.234	140.12
448.455	150.12
448.675	149.12
448.896	144.12
449.117	133.12
449.338	133.12
449.559	143.12
449.779	137.12
450	140.12
450.221	136.12
450.442	132.12
450.662	147.12
450.883	135.12
451.104	128.12
451.324	126.12
451.545	128.12
451.766	114.12
451.986	131.12
452.207	131.12
452.428	116.12
452.648	123.12
452.869	117.12
453.089	109.12
453.31	108.12
453.53	109.12
453.751	107.12
453.971	109.12
454.192	104.12
454.412	110.12
454.633	119.12
454.853	119.12
455.073	133.12
455.294	140.12
455.514	129.12
455.734	123.12
455.955	114.12
456.175	115.12
456.395	113.12
456.616	116.12
456.836	104.12
457.056	127.12
457.276	108.12
457.497	101.12
457.717	106.12
457.937	109.12
458.157	106.12
458.377	101.12
458.598	101.12
458.818	107.12
459.038	72.12
459.258	77.12
459.478	100.12
459.698	88.12
459.918	91.12
460.138	97.12
460.358	107.12
460.578	126.12
460.798	110.12
461.018	111.12
461.238	116.12
461.458	123.12
461.678	102.12
461.898	107.12
462.118	121.12
462.338	113.12
462.558	115.12
462.777	107.12
462.997	115.12
463.217	104.12
463.437	91.12
463.657	111.12
463.876	121.12
464.096	112.12
464.316	109.12
464.536	109.12
464.755	123.12
464.975	137.12
465.195	125.12
465.414	119.12
465.634	117.12
465.854	116.12
466.073	122.12
466.293	114.12
466.512	138.12
466.732	129.12
466.951	123.12
467.171	130.12
467.391	125.12
467.61	147.12
467.829	133.12
468.049	135.12
468.268	130.12
468.488	130.12
468.707	131.12
468.927	131.12
469.146	128.12
469.365	138.12
469.585	142.12
469.804	138.12
470.023	127.12
470.243	139.12
470.462	152.12
470.681	162.12
470.901	142.12
471.12	136.12
471.339	134.12
471.558	147.12
471.777	153.12
471.997	136.12
472.216	121.12
472.435	114.12
472.654	113.12
472.873	107.12
473.092	123.12
473.311	134.12
473.53	107.12
473.749	139.12
473.968	136.12
474.187	117.12
474.406	110.12
474.625	137.12
474.844	119.12
475.063	127.12
475.282	126.12
475.501	123.12
475.72	131.12
475.939	130.12
476.158	120.12
476.377	122.12
476.596	131.12
476.814	108.12
477.033	107.12
477.252	114.12
477.471	119.12
477.69	136.12
477.908	143.12
478.127	131.12
478.346	142.12
478.564	129.12
478.783	133.12
479.002	130.12
479.22	131.12
479.439	131.12
479.658	123.12
479.876	130.12
480.095	107.12
480.313	116.12
480.532	131.12
480.751	119.12
480.969	94.12
481.188	97.12
481.406	91.12
481.624	85.12
481.843	75.12
482.061	73.12
482.28	103.12
482.498	114.12
482.717	116.12
482.935	123.12
483.153	141.12
483.372	133.12
483.59	144.12
483.808	140.12
484.027	129.12
484.245	129.12
484.463	155.12
484.681	148.12
484.9	150.12
485.118	141.12
485.336	117.12
485.554	119.12
485.772	110.12
485.99	101.12
486.209	113.12
486.427	104.12
486.645	123.12
486.863	142.12
487.081	141.12
487.299	133.12
487.517	139.12
487.735	156.12
487.953	187.12
488.171	180.12
488.389	177.12
488.607	170.12
488.825	149.12
489.043	142.12
489.261	123.12
489.479	123.12
489.696	152.12
489.914	132.12
490.132	147.12
490.35	152.12
490.568	161.12
490.786	165.12
491.003	175.12
491.221	164.12
491.439	164.12
491.657	196.12
491.874	183.12
492.092	214.12
492.31	249.12
492.527	220.12
492.745	215.12
492.963	199.12
493.18	190.12
493.398	181.12
493.615	171.12
493.833	165.12
494.05	167.12
494.268	160.12
494.485	174.12
494.703	167.12
494.92	177.12
495.138	170.12
495.355	183.12
495.573	164.12
495.79	149.12
496.008	167.12
496.225	170.12
496.442	174.12
496.66	179.12
496.877	173.12
497.094	157.12
497.312	159.12
497.529	171.12
497.746	144.12
497.963	145.12
498.181	123.12
498.398	128.12
498.615	109.12
498.832	129.12
499.049	128.12
499.267	127.12
499.484	133.12
499.701	115.12
499.918	127.12
500.135	139.12
500.352	138.12
500.569	142.12
500.786	147.12
501.003	137.12
501.22	137.12
501.437	133.12
501.654	117.12
501.871	116.12
502.088	133.12
502.305	133.12
502.522	132.12
502.739	128.12
502.956	124.12
503.172	114.12
503.389	124.12
503.606	123.12
503.823	118.12
504.04	121.12
504.256	117.12
504.473	121.12
504.69	114.12
504.907	108.12
505.123	114.12
505.34	118.12
505.557	130.12
505.773	132.12
505.99	118.12
506.207	140.12
506.423	121.12
506.64	133.12
506.856	116.12
507.073	124.12
507.289	122.12
507.506	108.12
507.722	132.12
507.939	104.12
508.155	124.12
508.372	121.12
508.588	116.12
508.805	118.12
509.021	111.12
509.238	106.12
509.454	107.12
509.67	93.12
509.887	89.12
510.103	95.12
510.319	93.12
510.536	89.12
510.752	86.12
510.968	91.12
511.184	89.12
511.401	94.12
