Data from Location4.07152019.Energy5.Lamp.07192019.3%Agarose_HRD10591_16-19-15-925.txt Node
Date: Fri Jul 19 16:19:15 EDT 2019
User: cochatt
Spectrometer: HR+D1059
Trigger mode: 1
Integration Time (sec): 1.000000E-1
Scans to average: 1
Electric dark correction enabled: true
Nonlinearity correction enabled: false
Boxcar width: 0
XAxis mode: Wavelengths
Number of Pixels in Spectrum: 2048
>>>>>Begin Spectral Data<<<<<
223.165	-9.44
223.4	-9.44
223.635	-9.44
223.869	-10.44
224.104	-13.44
224.338	-26.44
224.573	-20.44
224.808	-17.44
225.042	-5.44
225.277	-3.44
225.511	-1.44
225.746	12.56
225.98	-0.44
226.215	5.56
226.449	19.56
226.683	24.56
226.918	21.56
227.152	24.56
227.387	44.56
227.621	41.56
227.856	48.56
228.09	44.56
228.324	40.56
228.559	72.56
228.793	62.56
229.027	72.56
229.262	73.56
229.496	63.56
229.73	74.56
229.964	76.56
230.199	69.56
230.433	76.56
230.667	81.56
230.901	84.56
231.136	91.56
231.37	79.56
231.604	71.56
231.838	74.56
232.072	90.56
232.306	88.56
232.541	79.56
232.775	84.56
233.009	83.56
233.243	84.56
233.477	78.56
233.711	90.56
233.945	84.56
234.179	78.56
234.413	90.56
234.647	78.56
234.881	77.56
235.115	91.56
235.349	104.56
235.583	90.56
235.817	85.56
236.051	71.56
236.285	73.56
236.519	71.56
236.753	78.56
236.987	86.56
237.221	72.56
237.455	98.56
237.689	87.56
237.922	76.56
238.156	87.56
238.39	88.56
238.624	73.56
238.858	84.56
239.091	78.56
239.325	69.56
239.559	79.56
239.793	82.56
240.027	87.56
240.26	93.56
240.494	93.56
240.728	80.56
240.961	74.56
241.195	77.56
241.429	75.56
241.662	87.56
241.896	72.56
242.13	84.56
242.363	74.56
242.597	88.56
242.83	70.56
243.064	73.56
243.298	68.56
243.531	84.56
243.765	82.56
243.998	84.56
244.232	89.56
244.465	71.56
244.699	90.56
244.932	77.56
245.166	69.56
245.399	89.56
245.633	84.56
245.866	66.56
246.099	86.56
246.333	71.56
246.566	93.56
246.8	76.56
247.033	68.56
247.266	84.56
247.5	81.56
247.733	69.56
247.966	85.56
248.2	87.56
248.433	85.56
248.666	83.56
248.899	84.56
249.133	71.56
249.366	86.56
249.599	86.56
249.832	91.56
250.066	76.56
250.299	60.56
250.532	80.56
250.765	80.56
250.998	66.56
251.231	78.56
251.465	86.56
251.698	88.56
251.931	75.56
252.164	73.56
252.397	86.56
252.63	82.56
252.863	71.56
253.096	77.56
253.329	70.56
253.562	81.56
253.795	80.56
254.028	87.56
254.261	85.56
254.494	85.56
254.727	94.56
254.96	75.56
255.193	87.56
255.426	89.56
255.659	86.56
255.892	91.56
256.124	82.56
256.357	67.56
256.59	71.56
256.823	90.56
257.056	74.56
257.289	84.56
257.521	90.56
257.754	76.56
257.987	88.56
258.22	72.56
258.452	89.56
258.685	88.56
258.918	77.56
259.151	84.56
259.383	72.56
259.616	85.56
259.849	72.56
260.081	87.56
260.314	79.56
260.547	80.56
260.779	76.56
261.012	79.56
261.244	80.56
261.477	100.56
261.71	79.56
261.942	94.56
262.175	80.56
262.407	105.56
262.64	92.56
262.872	82.56
263.105	86.56
263.337	89.56
263.57	86.56
263.802	79.56
264.035	84.56
264.267	92.56
264.499	77.56
264.732	99.56
264.964	90.56
265.197	80.56
265.429	100.56
265.661	79.56
265.894	93.56
266.126	82.56
266.358	63.56
266.591	88.56
266.823	91.56
267.055	80.56
267.287	90.56
267.52	80.56
267.752	101.56
267.984	86.56
268.216	80.56
268.448	88.56
268.681	90.56
268.913	92.56
269.145	75.56
269.377	88.56
269.609	84.56
269.841	87.56
270.073	92.56
270.306	88.56
270.538	86.56
270.77	77.56
271.002	88.56
271.234	84.56
271.466	93.56
271.698	91.56
271.93	99.56
272.162	74.56
272.394	80.56
272.626	92.56
272.858	82.56
273.09	90.56
273.322	99.56
273.553	91.56
273.785	89.56
274.017	94.56
274.249	97.56
274.481	81.56
274.713	95.56
274.945	81.56
275.176	80.56
275.408	90.56
275.64	55.56
275.872	69.56
276.104	90.56
276.335	94.56
276.567	79.56
276.799	90.56
277.031	82.56
277.262	85.56
277.494	92.56
277.726	78.56
277.957	86.56
278.189	86.56
278.421	77.56
278.652	69.56
278.884	87.56
279.115	94.56
279.347	86.56
279.579	90.56
279.81	99.56
280.042	89.56
280.273	77.56
280.505	82.56
280.736	86.56
280.968	84.56
281.199	83.56
281.431	72.56
281.662	90.56
281.894	100.56
282.125	90.56
282.356	73.56
282.588	88.56
282.819	86.56
283.051	105.56
283.282	95.56
283.513	102.56
283.745	83.56
283.976	96.56
284.207	76.56
284.439	92.56
284.67	88.56
284.901	91.56
285.132	86.56
285.364	83.56
285.595	80.56
285.826	87.56
286.057	94.56
286.288	92.56
286.52	98.56
286.751	100.56
286.982	96.56
287.213	92.56
287.444	86.56
287.675	92.56
287.906	97.56
288.138	66.56
288.369	76.56
288.6	83.56
288.831	80.56
289.062	82.56
289.293	81.56
289.524	86.56
289.755	90.56
289.986	81.56
290.217	79.56
290.448	94.56
290.679	96.56
290.91	83.56
291.141	85.56
291.371	89.56
291.602	85.56
291.833	85.56
292.064	77.56
292.295	86.56
292.526	87.56
292.757	92.56
292.987	97.56
293.218	88.56
293.449	86.56
293.68	79.56
293.91	90.56
294.141	66.56
294.372	87.56
294.603	81.56
294.833	90.56
295.064	88.56
295.295	88.56
295.525	85.56
295.756	103.56
295.987	91.56
296.217	89.56
296.448	83.56
296.679	86.56
296.909	87.56
297.14	86.56
297.37	88.56
297.601	88.56
297.831	90.56
298.062	90.56
298.292	78.56
298.523	85.56
298.753	90.56
298.984	89.56
299.214	79.56
299.445	93.56
299.675	84.56
299.905	102.56
300.136	85.56
300.366	79.56
300.597	89.56
300.827	76.56
301.057	79.56
301.288	86.56
301.518	82.56
301.748	86.56
301.979	93.56
302.209	91.56
302.439	77.56
302.669	81.56
302.9	87.56
303.13	89.56
303.36	98.56
303.59	84.56
303.82	83.56
304.051	89.56
304.281	84.56
304.511	88.56
304.741	87.56
304.971	89.56
305.201	74.56
305.431	82.56
305.661	86.56
305.891	84.56
306.121	80.56
306.352	81.56
306.582	95.56
306.812	83.56
307.042	93.56
307.272	84.56
307.502	97.56
307.731	77.56
307.961	91.56
308.191	83.56
308.421	93.56
308.651	97.56
308.881	80.56
309.111	94.56
309.341	93.56
309.571	81.56
309.8	79.56
310.03	76.56
310.26	98.56
310.49	90.56
310.72	86.56
310.949	78.56
311.179	91.56
311.409	82.56
311.639	91.56
311.868	92.56
312.098	86.56
312.328	84.56
312.557	85.56
312.787	80.56
313.017	86.56
313.246	87.56
313.476	94.56
313.706	85.56
313.935	87.56
314.165	75.56
314.394	86.56
314.624	85.56
314.853	88.56
315.083	91.56
315.312	77.56
315.542	80.56
315.771	112.56
316.001	96.56
316.23	96.56
316.46	91.56
316.689	96.56
316.919	77.56
317.148	79.56
317.377	86.56
317.607	82.56
317.836	90.56
318.065	95.56
318.295	84.56
318.524	75.56
318.753	99.56
318.983	89.56
319.212	78.56
319.441	77.56
319.67	86.56
319.9	84.56
320.129	76.56
320.358	72.56
320.587	81.56
320.816	79.56
321.046	96.56
321.275	89.56
321.504	95.56
321.733	89.56
321.962	95.56
322.191	87.56
322.42	91.56
322.649	79.56
322.878	100.56
323.108	89.56
323.337	88.56
323.566	74.56
323.795	75.56
324.024	99.56
324.253	95.56
324.482	90.56
324.71	78.56
324.939	82.56
325.168	82.56
325.397	78.56
325.626	82.56
325.855	68.56
326.084	66.56
326.313	81.56
326.542	80.56
326.77	86.56
326.999	88.56
327.228	75.56
327.457	89.56
327.686	91.56
327.914	83.56
328.143	93.56
328.372	98.56
328.6	103.56
328.829	84.56
329.058	78.56
329.287	76.56
329.515	85.56
329.744	83.56
329.972	81.56
330.201	91.56
330.43	89.56
330.658	90.56
330.887	86.56
331.115	79.56
331.344	88.56
331.572	103.56
331.801	81.56
332.03	84.56
332.258	92.56
332.486	83.56
332.715	92.56
332.943	89.56
333.172	90.56
333.4	97.56
333.629	99.56
333.857	79.56
334.085	84.56
334.314	79.56
334.542	98.56
334.771	75.56
334.999	74.56
335.227	80.56
335.455	77.56
335.684	84.56
335.912	82.56
336.14	100.56
336.369	76.56
336.597	83.56
336.825	86.56
337.053	92.56
337.281	83.56
337.51	82.56
337.738	83.56
337.966	101.56
338.194	82.56
338.422	83.56
338.65	89.56
338.878	85.56
339.106	99.56
339.334	85.56
339.562	84.56
339.79	98.56
340.018	87.56
340.246	69.56
340.474	93.56
340.702	84.56
340.93	79.56
341.158	97.56
341.386	85.56
341.614	77.56
341.842	92.56
342.07	77.56
342.298	84.56
342.526	100.56
342.754	84.56
342.981	72.56
343.209	82.56
343.437	95.56
343.665	101.56
343.893	82.56
344.12	91.56
344.348	71.56
344.576	98.56
344.804	86.56
345.031	95.56
345.259	96.56
345.487	80.56
345.714	92.56
345.942	90.56
346.17	84.56
346.397	68.56
346.625	87.56
346.853	84.56
347.08	87.56
347.308	93.56
347.535	93.56
347.763	92.56
347.99	89.56
348.218	93.56
348.445	63.56
348.673	82.56
348.9	100.56
349.128	99.56
349.355	79.56
349.583	90.56
349.81	90.56
350.037	98.56
350.265	93.56
350.492	106.56
350.72	77.56
350.947	78.56
351.174	84.56
351.402	90.56
351.629	81.56
351.856	96.56
352.083	83.56
352.311	104.56
352.538	85.56
352.765	84.56
352.992	89.56
353.22	89.56
353.447	92.56
353.674	93.56
353.901	92.56
354.128	88.56
354.355	85.56
354.583	74.56
354.81	80.56
355.037	92.56
355.264	90.56
355.491	78.56
355.718	93.56
355.945	102.56
356.172	80.56
356.399	83.56
356.626	92.56
356.853	98.56
357.08	80.56
357.307	109.56
357.534	90.56
357.761	84.56
357.988	90.56
358.215	90.56
358.441	85.56
358.668	84.56
358.895	83.56
359.122	87.56
359.349	91.56
359.576	101.56
359.802	79.56
360.029	88.56
360.256	86.56
360.483	75.56
360.709	89.56
360.936	101.56
361.163	74.56
361.39	85.56
361.616	89.56
361.843	96.56
362.07	85.56
362.296	91.56
362.523	76.56
362.749	94.56
362.976	83.56
363.203	87.56
363.429	90.56
363.656	81.56
363.882	72.56
364.109	79.56
364.335	90.56
364.562	86.56
364.788	89.56
365.015	87.56
365.241	85.56
365.468	87.56
365.694	103.56
365.92	89.56
366.147	95.56
366.373	86.56
366.599	80.56
366.826	91.56
367.052	89.56
367.278	90.56
367.505	79.56
367.731	91.56
367.957	84.56
368.184	88.56
368.41	79.56
368.636	106.56
368.862	103.56
369.089	78.56
369.315	78.56
369.541	95.56
369.767	100.56
369.993	87.56
370.219	91.56
370.445	84.56
370.672	94.56
370.898	101.56
371.124	84.56
371.35	104.56
371.576	91.56
371.802	90.56
372.028	98.56
372.254	102.56
372.48	98.56
372.706	87.56
372.932	102.56
373.158	97.56
373.384	91.56
373.61	96.56
373.835	107.56
374.061	79.56
374.287	94.56
374.513	93.56
374.739	97.56
374.965	94.56
375.191	100.56
375.416	95.56
375.642	92.56
375.868	90.56
376.094	99.56
376.319	90.56
376.545	97.56
376.771	89.56
376.997	86.56
377.222	93.56
377.448	92.56
377.674	103.56
377.899	86.56
378.125	100.56
378.35	102.56
378.576	102.56
378.802	96.56
379.027	106.56
379.253	94.56
379.478	100.56
379.704	100.56
379.929	102.56
380.155	88.56
380.38	107.56
380.606	97.56
380.831	99.56
381.057	103.56
381.282	88.56
381.507	96.56
381.733	89.56
381.958	95.56
382.184	81.56
382.409	107.56
382.634	114.56
382.86	90.56
383.085	108.56
383.31	96.56
383.535	98.56
383.761	94.56
383.986	98.56
384.211	90.56
384.436	86.56
384.662	114.56
384.887	102.56
385.112	105.56
385.337	108.56
385.562	114.56
385.787	99.56
386.013	98.56
386.238	101.56
386.463	113.56
386.688	94.56
386.913	92.56
387.138	96.56
387.363	104.56
387.588	94.56
387.813	100.56
388.038	100.56
388.263	110.56
388.488	99.56
388.713	99.56
388.938	111.56
389.163	88.56
389.387	95.56
389.612	89.56
389.837	117.56
390.062	104.56
390.287	106.56
390.512	90.56
390.736	104.56
390.961	101.56
391.186	112.56
391.411	110.56
391.636	100.56
391.86	104.56
392.085	109.56
392.31	98.56
392.534	116.56
392.759	100.56
392.984	102.56
393.208	104.56
393.433	89.56
393.658	111.56
393.882	101.56
394.107	122.56
394.331	104.56
394.556	107.56
394.78	106.56
395.005	97.56
395.229	111.56
395.454	115.56
395.678	96.56
395.903	116.56
396.127	106.56
396.352	106.56
396.576	122.56
396.801	122.56
397.025	119.56
397.249	117.56
397.474	116.56
397.698	109.56
397.922	103.56
398.147	123.56
398.371	106.56
398.595	115.56
398.82	104.56
399.044	106.56
399.268	104.56
399.492	106.56
399.717	120.56
399.941	107.56
400.165	102.56
400.389	121.56
400.613	114.56
400.837	124.56
401.062	117.56
401.286	111.56
401.51	114.56
401.734	117.56
401.958	112.56
402.182	117.56
402.406	118.56
402.63	107.56
402.854	107.56
403.078	119.56
403.302	127.56
403.526	115.56
403.75	123.56
403.974	131.56
404.198	129.56
404.422	120.56
404.645	104.56
404.869	116.56
405.093	126.56
405.317	134.56
405.541	116.56
405.765	140.56
405.988	117.56
406.212	122.56
406.436	109.56
406.66	119.56
406.883	124.56
407.107	117.56
407.331	102.56
407.555	98.56
407.778	106.56
408.002	125.56
408.226	106.56
408.449	111.56
408.673	126.56
408.896	124.56
409.12	117.56
409.344	122.56
409.567	122.56
409.791	121.56
410.014	130.56
410.238	114.56
410.461	113.56
410.685	123.56
410.908	126.56
411.132	116.56
411.355	131.56
411.578	120.56
411.802	136.56
412.025	114.56
412.249	115.56
412.472	107.56
412.695	106.56
412.919	127.56
413.142	120.56
413.365	138.56
413.589	128.56
413.812	123.56
414.035	125.56
414.258	122.56
414.482	126.56
414.705	131.56
414.928	127.56
415.151	110.56
415.374	118.56
415.597	118.56
415.821	129.56
416.044	129.56
416.267	128.56
416.49	130.56
416.713	116.56
416.936	122.56
417.159	128.56
417.382	133.56
417.605	116.56
417.828	129.56
418.051	133.56
418.274	124.56
418.497	121.56
418.72	127.56
418.943	122.56
419.166	136.56
419.389	133.56
419.611	138.56
419.834	138.56
420.057	125.56
420.28	134.56
420.503	136.56
420.726	121.56
420.948	134.56
421.171	119.56
421.394	126.56
421.617	130.56
421.839	122.56
422.062	141.56
422.285	127.56
422.507	136.56
422.73	138.56
422.953	118.56
423.175	130.56
423.398	128.56
423.621	128.56
423.843	138.56
424.066	142.56
424.288	139.56
424.511	145.56
424.733	130.56
424.956	140.56
425.178	150.56
425.401	148.56
425.623	143.56
425.846	130.56
426.068	122.56
426.291	136.56
426.513	125.56
426.735	127.56
426.958	138.56
427.18	124.56
427.402	138.56
427.625	135.56
427.847	134.56
428.069	131.56
428.292	111.56
428.514	124.56
428.736	140.56
428.958	120.56
429.181	133.56
429.403	127.56
429.625	130.56
429.847	131.56
430.069	123.56
430.292	135.56
430.514	134.56
430.736	109.56
430.958	141.56
431.18	135.56
431.402	131.56
431.624	126.56
431.846	102.56
432.068	90.56
432.29	105.56
432.512	122.56
432.734	121.56
432.956	134.56
433.178	148.56
433.4	148.56
433.622	131.56
433.844	141.56
434.066	123.56
434.287	108.56
434.509	100.56
434.731	105.56
434.953	112.56
435.175	114.56
435.397	114.56
435.618	128.56
435.84	120.56
436.062	127.56
436.284	118.56
436.505	142.56
436.727	128.56
436.949	143.56
437.17	130.56
437.392	137.56
437.614	126.56
437.835	111.56
438.057	101.56
438.278	108.56
438.5	115.56
438.721	132.56
438.943	150.56
439.165	142.56
439.386	134.56
439.608	127.56
439.829	138.56
440.05	141.56
440.272	141.56
440.493	154.56
440.715	132.56
440.936	143.56
441.158	124.56
441.379	142.56
441.6	144.56
441.822	124.56
442.043	135.56
442.264	142.56
442.486	140.56
442.707	152.56
442.928	132.56
443.149	133.56
443.371	142.56
443.592	149.56
443.813	156.56
444.034	129.56
444.255	148.56
444.476	142.56
444.698	140.56
444.919	146.56
445.14	286.56
445.361	215.56
445.582	150.56
445.803	149.56
446.024	153.56
446.245	147.56
446.466	149.56
446.687	160.56
446.908	150.56
447.129	146.56
447.35	160.56
447.571	165.56
447.792	167.56
448.013	147.56
448.234	151.56
448.455	138.56
448.675	144.56
448.896	144.56
449.117	145.56
449.338	136.56
449.559	124.56
449.779	125.56
450	130.56
450.221	136.56
450.442	146.56
450.662	140.56
450.883	132.56
451.104	141.56
451.324	157.56
451.545	133.56
451.766	138.56
451.986	132.56
452.207	119.56
452.428	121.56
452.648	119.56
452.869	112.56
453.089	109.56
453.31	107.56
453.53	101.56
453.751	109.56
453.971	96.56
454.192	111.56
454.412	109.56
454.633	115.56
454.853	112.56
455.073	134.56
455.294	123.56
455.514	124.56
455.734	108.56
455.955	103.56
456.175	116.56
456.395	123.56
456.616	108.56
456.836	125.56
457.056	126.56
457.276	123.56
457.497	126.56
457.717	117.56
457.937	127.56
458.157	120.56
458.377	110.56
458.598	105.56
458.818	93.56
459.038	92.56
459.258	86.56
459.478	94.56
459.698	87.56
459.918	102.56
460.138	106.56
460.358	97.56
460.578	119.56
460.798	126.56
461.018	107.56
461.238	108.56
461.458	121.56
461.678	118.56
461.898	93.56
462.118	118.56
462.338	126.56
462.558	114.56
462.777	116.56
462.997	107.56
463.217	110.56
463.437	104.56
463.657	97.56
463.876	102.56
464.096	104.56
464.316	104.56
464.536	109.56
464.755	124.56
464.975	116.56
465.195	123.56
465.414	121.56
465.634	129.56
465.854	120.56
466.073	123.56
466.293	122.56
466.512	129.56
466.732	134.56
466.951	133.56
467.171	129.56
467.391	136.56
467.61	138.56
467.829	146.56
468.049	130.56
468.268	139.56
468.488	135.56
468.707	133.56
468.927	144.56
469.146	143.56
469.365	139.56
469.585	137.56
469.804	131.56
470.023	130.56
470.243	141.56
470.462	149.56
470.681	138.56
470.901	152.56
471.12	138.56
471.339	142.56
471.558	124.56
471.777	132.56
471.997	132.56
472.216	117.56
472.435	114.56
472.654	118.56
472.873	106.56
473.092	117.56
473.311	127.56
473.53	131.56
473.749	132.56
473.968	143.56
474.187	134.56
474.406	121.56
474.625	129.56
474.844	128.56
475.063	130.56
475.282	128.56
475.501	126.56
475.72	131.56
475.939	131.56
476.158	142.56
476.377	127.56
476.596	117.56
476.814	119.56
477.033	117.56
477.252	110.56
477.471	128.56
477.69	137.56
477.908	150.56
478.127	132.56
478.346	125.56
478.564	129.56
478.783	123.56
479.002	139.56
479.22	136.56
479.439	130.56
479.658	142.56
479.876	111.56
480.095	119.56
480.313	122.56
480.532	121.56
480.751	126.56
480.969	102.56
481.188	93.56
481.406	86.56
481.624	87.56
481.843	95.56
482.061	114.56
482.28	108.56
482.498	110.56
482.717	112.56
482.935	109.56
483.153	131.56
483.372	156.56
483.59	143.56
483.808	144.56
484.027	143.56
484.245	136.56
484.463	162.56
484.681	167.56
484.9	134.56
485.118	140.56
485.336	115.56
485.554	125.56
485.772	122.56
485.99	106.56
486.209	107.56
486.427	98.56
486.645	120.56
486.863	145.56
487.081	141.56
487.299	132.56
487.517	146.56
487.735	181.56
487.953	181.56
488.171	186.56
488.389	186.56
488.607	184.56
488.825	149.56
489.043	134.56
489.261	123.56
489.479	142.56
489.696	145.56
489.914	142.56
490.132	147.56
490.35	156.56
490.568	157.56
490.786	178.56
491.003	167.56
491.221	182.56
491.439	172.56
491.657	184.56
491.874	209.56
492.092	216.56
492.31	251.56
492.527	227.56
492.745	204.56
492.963	200.56
493.18	182.56
493.398	196.56
493.615	182.56
493.833	178.56
494.05	186.56
494.268	175.56
494.485	178.56
494.703	174.56
494.92	178.56
495.138	175.56
495.355	164.56
495.573	159.56
495.79	174.56
496.008	180.56
496.225	162.56
496.442	154.56
496.66	173.56
496.877	165.56
497.094	172.56
497.312	159.56
497.529	158.56
497.746	155.56
497.963	137.56
498.181	130.56
498.398	128.56
498.615	131.56
498.832	108.56
499.049	118.56
499.267	125.56
499.484	133.56
499.701	149.56
499.918	134.56
500.135	156.56
500.352	148.56
500.569	135.56
500.786	146.56
501.003	131.56
501.22	141.56
501.437	132.56
501.654	153.56
501.871	143.56
502.088	139.56
502.305	147.56
502.522	143.56
502.739	142.56
502.956	131.56
503.172	123.56
503.389	130.56
503.606	130.56
503.823	124.56
504.04	118.56
504.256	132.56
504.473	132.56
504.69	128.56
504.907	123.56
505.123	130.56
505.34	122.56
505.557	136.56
505.773	125.56
505.99	128.56
506.207	138.56
506.423	121.56
506.64	118.56
506.856	129.56
507.073	129.56
507.289	111.56
507.506	109.56
507.722	99.56
507.939	105.56
508.155	116.56
508.372	126.56
508.588	109.56
508.805	117.56
509.021	126.56
509.238	111.56
509.454	122.56
509.67	106.56
509.887	99.56
510.103	103.56
510.319	91.56
510.536	78.56
510.752	94.56
510.968	89.56
511.184	75.56
