Data from Location4.07152019.Energy5.Lamp.07192019.3%Agarose_HRD10591_16-19-20-927.txt Node
Date: Fri Jul 19 16:19:20 EDT 2019
User: cochatt
Spectrometer: HR+D1059
Trigger mode: 1
Integration Time (sec): 1.000000E-1
Scans to average: 1
Electric dark correction enabled: true
Nonlinearity correction enabled: false
Boxcar width: 0
XAxis mode: Wavelengths
Number of Pixels in Spectrum: 2048
>>>>>Begin Spectral Data<<<<<
223.165	-19.75
223.4	-19.75
223.635	-19.75
223.869	-31.75
224.104	-16.75
224.338	-12.75
224.573	-22.75
224.808	-12.75
225.042	-11.75
225.277	-3.75
225.511	5.25
225.746	16.25
225.98	8.25
226.215	24.25
226.449	23.25
226.683	16.25
226.918	7.25
227.152	31.25
227.387	30.25
227.621	32.25
227.856	34.25
228.09	41.25
228.324	44.25
228.559	60.25
228.793	73.25
229.027	67.25
229.262	65.25
229.496	59.25
229.73	71.25
229.964	65.25
230.199	77.25
230.433	68.25
230.667	67.25
230.901	72.25
231.136	89.25
231.37	83.25
231.604	68.25
231.838	86.25
232.072	82.25
232.306	83.25
232.541	73.25
232.775	80.25
233.009	81.25
233.243	90.25
233.477	77.25
233.711	83.25
233.945	89.25
234.179	89.25
234.413	95.25
234.647	83.25
234.881	77.25
235.115	81.25
235.349	86.25
235.583	78.25
235.817	72.25
236.051	80.25
236.285	91.25
236.519	75.25
236.753	71.25
236.987	68.25
237.221	76.25
237.455	80.25
237.689	76.25
237.922	75.25
238.156	86.25
238.39	64.25
238.624	76.25
238.858	85.25
239.091	76.25
239.325	67.25
239.559	83.25
239.793	87.25
240.027	83.25
240.26	79.25
240.494	75.25
240.728	73.25
240.961	83.25
241.195	81.25
241.429	67.25
241.662	79.25
241.896	81.25
242.13	71.25
242.363	72.25
242.597	81.25
242.83	68.25
243.064	91.25
243.298	74.25
243.531	80.25
243.765	75.25
243.998	81.25
244.232	84.25
244.465	69.25
244.699	79.25
244.932	83.25
245.166	76.25
245.399	77.25
245.633	67.25
245.866	85.25
246.099	69.25
246.333	77.25
246.566	70.25
246.8	97.25
247.033	86.25
247.266	82.25
247.5	98.25
247.733	75.25
247.966	88.25
248.2	75.25
248.433	68.25
248.666	81.25
248.899	69.25
249.133	91.25
249.366	82.25
249.599	73.25
249.832	69.25
250.066	97.25
250.299	74.25
250.532	93.25
250.765	76.25
250.998	88.25
251.231	88.25
251.465	79.25
251.698	78.25
251.931	72.25
252.164	79.25
252.397	75.25
252.63	70.25
252.863	78.25
253.096	75.25
253.329	90.25
253.562	74.25
253.795	80.25
254.028	74.25
254.261	83.25
254.494	71.25
254.727	84.25
254.96	57.25
255.193	68.25
255.426	80.25
255.659	105.25
255.892	96.25
256.124	75.25
256.357	85.25
256.59	94.25
256.823	84.25
257.056	75.25
257.289	84.25
257.521	75.25
257.754	75.25
257.987	80.25
258.22	78.25
258.452	76.25
258.685	85.25
258.918	83.25
259.151	79.25
259.383	74.25
259.616	69.25
259.849	85.25
260.081	83.25
260.314	72.25
260.547	78.25
260.779	89.25
261.012	88.25
261.244	74.25
261.477	72.25
261.71	67.25
261.942	81.25
262.175	95.25
262.407	74.25
262.64	75.25
262.872	71.25
263.105	87.25
263.337	77.25
263.57	68.25
263.802	81.25
264.035	82.25
264.267	94.25
264.499	82.25
264.732	96.25
264.964	98.25
265.197	89.25
265.429	89.25
265.661	77.25
265.894	86.25
266.126	80.25
266.358	81.25
266.591	83.25
266.823	82.25
267.055	82.25
267.287	82.25
267.52	88.25
267.752	92.25
267.984	80.25
268.216	79.25
268.448	80.25
268.681	81.25
268.913	88.25
269.145	85.25
269.377	78.25
269.609	68.25
269.841	88.25
270.073	92.25
270.306	76.25
270.538	94.25
270.77	72.25
271.002	89.25
271.234	77.25
271.466	89.25
271.698	78.25
271.93	83.25
272.162	81.25
272.394	69.25
272.626	70.25
272.858	80.25
273.09	92.25
273.322	83.25
273.553	83.25
273.785	87.25
274.017	78.25
274.249	101.25
274.481	92.25
274.713	86.25
274.945	83.25
275.176	77.25
275.408	80.25
275.64	92.25
275.872	71.25
276.104	90.25
276.335	80.25
276.567	72.25
276.799	75.25
277.031	84.25
277.262	77.25
277.494	84.25
277.726	95.25
277.957	82.25
278.189	82.25
278.421	80.25
278.652	80.25
278.884	81.25
279.115	77.25
279.347	79.25
279.579	79.25
279.81	75.25
280.042	89.25
280.273	98.25
280.505	86.25
280.736	82.25
280.968	82.25
281.199	87.25
281.431	73.25
281.662	82.25
281.894	90.25
282.125	88.25
282.356	91.25
282.588	88.25
282.819	77.25
283.051	80.25
283.282	89.25
283.513	90.25
283.745	92.25
283.976	84.25
284.207	81.25
284.439	89.25
284.67	87.25
284.901	83.25
285.132	74.25
285.364	86.25
285.595	86.25
285.826	77.25
286.057	91.25
286.288	85.25
286.52	83.25
286.751	76.25
286.982	92.25
287.213	85.25
287.444	87.25
287.675	81.25
287.906	76.25
288.138	92.25
288.369	77.25
288.6	79.25
288.831	88.25
289.062	91.25
289.293	76.25
289.524	91.25
289.755	92.25
289.986	75.25
290.217	79.25
290.448	77.25
290.679	85.25
290.91	89.25
291.141	88.25
291.371	92.25
291.602	83.25
291.833	80.25
292.064	69.25
292.295	97.25
292.526	92.25
292.757	84.25
292.987	82.25
293.218	85.25
293.449	92.25
293.68	89.25
293.91	86.25
294.141	89.25
294.372	89.25
294.603	84.25
294.833	87.25
295.064	79.25
295.295	83.25
295.525	96.25
295.756	84.25
295.987	77.25
296.217	83.25
296.448	94.25
296.679	96.25
296.909	93.25
297.14	83.25
297.37	87.25
297.601	92.25
297.831	86.25
298.062	96.25
298.292	91.25
298.523	71.25
298.753	86.25
298.984	85.25
299.214	85.25
299.445	81.25
299.675	78.25
299.905	89.25
300.136	83.25
300.366	90.25
300.597	77.25
300.827	79.25
301.057	77.25
301.288	87.25
301.518	77.25
301.748	88.25
301.979	74.25
302.209	89.25
302.439	89.25
302.669	91.25
302.9	87.25
303.13	68.25
303.36	75.25
303.59	73.25
303.82	89.25
304.051	69.25
304.281	103.25
304.511	99.25
304.741	99.25
304.971	81.25
305.201	82.25
305.431	91.25
305.661	76.25
305.891	69.25
306.121	87.25
306.352	81.25
306.582	102.25
306.812	93.25
307.042	100.25
307.272	74.25
307.502	87.25
307.731	76.25
307.961	75.25
308.191	82.25
308.421	72.25
308.651	89.25
308.881	95.25
309.111	86.25
309.341	96.25
309.571	86.25
309.8	63.25
310.03	90.25
310.26	90.25
310.49	71.25
310.72	89.25
310.949	88.25
311.179	88.25
311.409	78.25
311.639	87.25
311.868	83.25
312.098	89.25
312.328	83.25
312.557	89.25
312.787	80.25
313.017	88.25
313.246	88.25
313.476	93.25
313.706	88.25
313.935	80.25
314.165	81.25
314.394	80.25
314.624	96.25
314.853	95.25
315.083	80.25
315.312	97.25
315.542	102.25
315.771	66.25
316.001	76.25
316.23	83.25
316.46	84.25
316.689	86.25
316.919	82.25
317.148	71.25
317.377	87.25
317.607	84.25
317.836	66.25
318.065	98.25
318.295	98.25
318.524	97.25
318.753	79.25
318.983	70.25
319.212	87.25
319.441	85.25
319.67	90.25
319.9	86.25
320.129	97.25
320.358	77.25
320.587	84.25
320.816	92.25
321.046	83.25
321.275	88.25
321.504	93.25
321.733	83.25
321.962	97.25
322.191	100.25
322.42	68.25
322.649	92.25
322.878	71.25
323.108	99.25
323.337	87.25
323.566	86.25
323.795	84.25
324.024	81.25
324.253	99.25
324.482	98.25
324.71	85.25
324.939	95.25
325.168	90.25
325.397	83.25
325.626	86.25
325.855	83.25
326.084	90.25
326.313	83.25
326.542	80.25
326.77	79.25
326.999	79.25
327.228	90.25
327.457	89.25
327.686	82.25
327.914	81.25
328.143	83.25
328.372	97.25
328.6	88.25
328.829	89.25
329.058	96.25
329.287	100.25
329.515	77.25
329.744	76.25
329.972	89.25
330.201	79.25
330.43	101.25
330.658	82.25
330.887	99.25
331.115	90.25
331.344	106.25
331.572	78.25
331.801	90.25
332.03	95.25
332.258	81.25
332.486	89.25
332.715	83.25
332.943	87.25
333.172	91.25
333.4	78.25
333.629	90.25
333.857	83.25
334.085	95.25
334.314	72.25
334.542	84.25
334.771	87.25
334.999	82.25
335.227	76.25
335.455	76.25
335.684	80.25
335.912	103.25
336.14	90.25
336.369	83.25
336.597	83.25
336.825	73.25
337.053	97.25
337.281	87.25
337.51	81.25
337.738	80.25
337.966	72.25
338.194	93.25
338.422	68.25
338.65	71.25
338.878	84.25
339.106	88.25
339.334	91.25
339.562	82.25
339.79	96.25
340.018	87.25
340.246	78.25
340.474	83.25
340.702	99.25
340.93	82.25
341.158	89.25
341.386	79.25
341.614	72.25
341.842	90.25
342.07	97.25
342.298	83.25
342.526	82.25
342.754	74.25
342.981	76.25
343.209	95.25
343.437	74.25
343.665	75.25
343.893	90.25
344.12	95.25
344.348	83.25
344.576	88.25
344.804	82.25
345.031	92.25
345.259	76.25
345.487	89.25
345.714	81.25
345.942	80.25
346.17	90.25
346.397	84.25
346.625	80.25
346.853	89.25
347.08	97.25
347.308	82.25
347.535	98.25
347.763	89.25
347.99	102.25
348.218	86.25
348.445	81.25
348.673	77.25
348.9	85.25
349.128	102.25
349.355	70.25
349.583	97.25
349.81	76.25
350.037	66.25
350.265	107.25
350.492	77.25
350.72	81.25
350.947	78.25
351.174	96.25
351.402	74.25
351.629	92.25
351.856	101.25
352.083	91.25
352.311	79.25
352.538	89.25
352.765	88.25
352.992	89.25
353.22	84.25
353.447	92.25
353.674	78.25
353.901	89.25
354.128	91.25
354.355	97.25
354.583	88.25
354.81	85.25
355.037	84.25
355.264	91.25
355.491	86.25
355.718	89.25
355.945	73.25
356.172	90.25
356.399	89.25
356.626	86.25
356.853	70.25
357.08	90.25
357.307	92.25
357.534	88.25
357.761	76.25
357.988	79.25
358.215	75.25
358.441	79.25
358.668	85.25
358.895	72.25
359.122	94.25
359.349	99.25
359.576	77.25
359.802	83.25
360.029	106.25
360.256	92.25
360.483	81.25
360.709	81.25
360.936	68.25
361.163	82.25
361.39	89.25
361.616	78.25
361.843	78.25
362.07	81.25
362.296	97.25
362.523	85.25
362.749	73.25
362.976	83.25
363.203	92.25
363.429	89.25
363.656	87.25
363.882	82.25
364.109	70.25
364.335	86.25
364.562	77.25
364.788	85.25
365.015	94.25
365.241	78.25
365.468	87.25
365.694	86.25
365.92	88.25
366.147	72.25
366.373	76.25
366.599	97.25
366.826	90.25
367.052	95.25
367.278	89.25
367.505	83.25
367.731	96.25
367.957	87.25
368.184	98.25
368.41	93.25
368.636	86.25
368.862	99.25
369.089	91.25
369.315	81.25
369.541	89.25
369.767	95.25
369.993	102.25
370.219	89.25
370.445	87.25
370.672	87.25
370.898	99.25
371.124	88.25
371.35	93.25
371.576	91.25
371.802	96.25
372.028	96.25
372.254	85.25
372.48	94.25
372.706	94.25
372.932	103.25
373.158	90.25
373.384	98.25
373.61	103.25
373.835	91.25
374.061	84.25
374.287	78.25
374.513	89.25
374.739	91.25
374.965	87.25
375.191	75.25
375.416	103.25
375.642	86.25
375.868	83.25
376.094	83.25
376.319	99.25
376.545	105.25
376.771	92.25
376.997	90.25
377.222	95.25
377.448	93.25
377.674	82.25
377.899	99.25
378.125	84.25
378.35	106.25
378.576	95.25
378.802	88.25
379.027	96.25
379.253	93.25
379.478	85.25
379.704	93.25
379.929	97.25
380.155	98.25
380.38	88.25
380.606	104.25
380.831	95.25
381.057	96.25
381.282	88.25
381.507	95.25
381.733	102.25
381.958	105.25
382.184	98.25
382.409	87.25
382.634	91.25
382.86	83.25
383.085	99.25
383.31	90.25
383.535	89.25
383.761	95.25
383.986	86.25
384.211	79.25
384.436	103.25
384.662	91.25
384.887	100.25
385.112	91.25
385.337	87.25
385.562	100.25
385.787	95.25
386.013	118.25
386.238	103.25
386.463	100.25
386.688	97.25
386.913	101.25
387.138	90.25
387.363	90.25
387.588	99.25
387.813	112.25
388.038	89.25
388.263	105.25
388.488	97.25
388.713	95.25
388.938	102.25
389.163	118.25
389.387	105.25
389.612	104.25
389.837	109.25
390.062	100.25
390.287	104.25
390.512	93.25
390.736	104.25
390.961	102.25
391.186	111.25
391.411	109.25
391.636	108.25
391.86	112.25
392.085	107.25
392.31	113.25
392.534	92.25
392.759	97.25
392.984	101.25
393.208	98.25
393.433	109.25
393.658	82.25
393.882	103.25
394.107	114.25
394.331	115.25
394.556	100.25
394.78	102.25
395.005	100.25
395.229	101.25
395.454	111.25
395.678	113.25
395.903	110.25
396.127	110.25
396.352	112.25
396.576	98.25
396.801	111.25
397.025	105.25
397.249	99.25
397.474	114.25
397.698	103.25
397.922	106.25
398.147	99.25
398.371	113.25
398.595	104.25
398.82	109.25
399.044	97.25
399.268	104.25
399.492	110.25
399.717	105.25
399.941	113.25
400.165	117.25
400.389	108.25
400.613	95.25
400.837	105.25
401.062	94.25
401.286	119.25
401.51	106.25
401.734	111.25
401.958	104.25
402.182	112.25
402.406	97.25
402.63	114.25
402.854	123.25
403.078	111.25
403.302	99.25
403.526	90.25
403.75	121.25
403.974	116.25
404.198	116.25
404.422	114.25
404.645	123.25
404.869	95.25
405.093	118.25
405.317	114.25
405.541	124.25
405.765	123.25
405.988	122.25
406.212	132.25
406.436	121.25
406.66	106.25
406.883	120.25
407.107	127.25
407.331	107.25
407.555	114.25
407.778	119.25
408.002	108.25
408.226	121.25
408.449	112.25
408.673	104.25
408.896	112.25
409.12	100.25
409.344	116.25
409.567	119.25
409.791	113.25
410.014	99.25
410.238	116.25
410.461	125.25
410.685	127.25
410.908	128.25
411.132	123.25
411.355	116.25
411.578	119.25
411.802	117.25
412.025	104.25
412.249	113.25
412.472	113.25
412.695	113.25
412.919	116.25
413.142	97.25
413.365	130.25
413.589	106.25
413.812	123.25
414.035	122.25
414.258	126.25
414.482	118.25
414.705	115.25
414.928	123.25
415.151	118.25
415.374	119.25
415.597	115.25
415.821	121.25
416.044	116.25
416.267	116.25
416.49	124.25
416.713	124.25
416.936	107.25
417.159	119.25
417.382	118.25
417.605	132.25
417.828	133.25
418.051	128.25
418.274	135.25
418.497	130.25
418.72	127.25
418.943	135.25
419.166	152.25
419.389	138.25
419.611	128.25
419.834	137.25
420.057	125.25
420.28	123.25
420.503	134.25
420.726	129.25
420.948	135.25
421.171	131.25
421.394	137.25
421.617	129.25
421.839	130.25
422.062	139.25
422.285	129.25
422.507	124.25
422.73	121.25
422.953	125.25
423.175	133.25
423.398	136.25
423.621	131.25
423.843	142.25
424.066	135.25
424.288	126.25
424.511	137.25
424.733	139.25
424.956	165.25
425.178	126.25
425.401	130.25
425.623	133.25
425.846	106.25
426.068	140.25
426.291	143.25
426.513	129.25
426.735	118.25
426.958	137.25
427.18	125.25
427.402	138.25
427.625	129.25
427.847	119.25
428.069	108.25
428.292	122.25
428.514	131.25
428.736	125.25
428.958	128.25
429.181	131.25
429.403	121.25
429.625	119.25
429.847	128.25
430.069	114.25
430.292	119.25
430.514	127.25
430.736	118.25
430.958	128.25
431.18	125.25
431.402	124.25
431.624	118.25
431.846	121.25
432.068	85.25
432.29	102.25
432.512	119.25
432.734	124.25
432.956	129.25
433.178	122.25
433.4	136.25
433.622	126.25
433.844	132.25
434.066	114.25
434.287	116.25
434.509	92.25
434.731	86.25
434.953	114.25
435.175	123.25
435.397	122.25
435.618	119.25
435.84	119.25
436.062	104.25
436.284	118.25
436.505	115.25
436.727	124.25
436.949	124.25
437.17	125.25
437.392	124.25
437.614	124.25
437.835	119.25
438.057	98.25
438.278	115.25
438.5	136.25
438.721	137.25
438.943	124.25
439.165	127.25
439.386	127.25
439.608	144.25
439.829	145.25
440.05	143.25
440.272	136.25
440.493	147.25
440.715	137.25
440.936	142.25
441.158	150.25
441.379	139.25
441.6	147.25
441.822	153.25
442.043	139.25
442.264	132.25
442.486	142.25
442.707	127.25
442.928	143.25
443.149	131.25
443.371	145.25
443.592	135.25
443.813	140.25
444.034	150.25
444.255	136.25
444.476	134.25
444.698	132.25
444.919	125.25
445.14	273.25
445.361	195.25
445.582	148.25
445.803	137.25
446.024	147.25
446.245	153.25
446.466	152.25
446.687	141.25
446.908	154.25
447.129	154.25
447.35	153.25
447.571	133.25
447.792	131.25
448.013	147.25
448.234	129.25
448.455	149.25
448.675	131.25
448.896	127.25
449.117	138.25
449.338	127.25
449.559	145.25
449.779	128.25
450	120.25
450.221	131.25
450.442	135.25
450.662	124.25
450.883	124.25
451.104	123.25
451.324	136.25
451.545	125.25
451.766	123.25
451.986	137.25
452.207	130.25
452.428	124.25
452.648	120.25
452.869	120.25
453.089	114.25
453.31	107.25
453.53	123.25
453.751	97.25
453.971	92.25
454.192	120.25
454.412	101.25
454.633	102.25
454.853	110.25
455.073	119.25
455.294	127.25
455.514	112.25
455.734	119.25
455.955	109.25
456.175	121.25
456.395	124.25
456.616	102.25
456.836	108.25
457.056	115.25
457.276	115.25
457.497	96.25
457.717	119.25
457.937	103.25
458.157	112.25
458.377	97.25
458.598	96.25
458.818	87.25
459.038	87.25
459.258	91.25
459.478	98.25
459.698	103.25
459.918	105.25
460.138	103.25
460.358	114.25
460.578	105.25
460.798	115.25
461.018	116.25
461.238	114.25
461.458	99.25
461.678	114.25
461.898	109.25
462.118	86.25
462.338	105.25
462.558	111.25
462.777	113.25
462.997	111.25
463.217	98.25
463.437	87.25
463.657	113.25
463.876	113.25
464.096	94.25
464.316	99.25
464.536	114.25
464.755	115.25
464.975	133.25
465.195	117.25
465.414	116.25
465.634	106.25
465.854	119.25
466.073	126.25
466.293	120.25
466.512	125.25
466.732	128.25
466.951	116.25
467.171	121.25
467.391	124.25
467.61	132.25
467.829	129.25
468.049	136.25
468.268	151.25
468.488	134.25
468.707	135.25
468.927	145.25
469.146	129.25
469.365	124.25
469.585	113.25
469.804	130.25
470.023	128.25
470.243	130.25
470.462	134.25
470.681	139.25
470.901	130.25
471.12	133.25
471.339	147.25
471.558	135.25
471.777	131.25
471.997	124.25
472.216	128.25
472.435	129.25
472.654	120.25
472.873	113.25
473.092	120.25
473.311	131.25
473.53	131.25
473.749	126.25
473.968	134.25
474.187	109.25
474.406	118.25
474.625	115.25
474.844	118.25
475.063	120.25
475.282	118.25
475.501	121.25
475.72	111.25
475.939	114.25
476.158	119.25
476.377	132.25
476.596	113.25
476.814	124.25
477.033	108.25
477.252	103.25
477.471	117.25
477.69	116.25
477.908	117.25
478.127	136.25
478.346	135.25
478.564	136.25
478.783	133.25
479.002	155.25
479.22	142.25
479.439	136.25
479.658	119.25
479.876	107.25
480.095	103.25
480.313	121.25
480.532	112.25
480.751	117.25
480.969	88.25
481.188	83.25
481.406	94.25
481.624	93.25
481.843	84.25
482.061	104.25
482.28	116.25
482.498	124.25
482.717	121.25
482.935	123.25
483.153	137.25
483.372	145.25
483.59	147.25
483.808	136.25
484.027	137.25
484.245	139.25
484.463	140.25
484.681	163.25
484.9	135.25
485.118	129.25
485.336	139.25
485.554	119.25
485.772	104.25
485.99	97.25
486.209	101.25
486.427	116.25
486.645	110.25
486.863	125.25
487.081	141.25
487.299	128.25
487.517	141.25
487.735	153.25
487.953	187.25
488.171	165.25
488.389	166.25
488.607	155.25
488.825	139.25
489.043	135.25
489.261	136.25
489.479	147.25
489.696	135.25
489.914	139.25
490.132	148.25
490.35	148.25
490.568	167.25
490.786	165.25
491.003	171.25
491.221	179.25
491.439	173.25
491.657	192.25
491.874	187.25
492.092	209.25
492.31	243.25
492.527	218.25
492.745	186.25
492.963	181.25
493.18	175.25
493.398	171.25
493.615	163.25
493.833	183.25
494.05	168.25
494.268	166.25
494.485	158.25
494.703	183.25
494.92	157.25
495.138	167.25
495.355	163.25
495.573	163.25
495.79	161.25
496.008	163.25
496.225	164.25
496.442	164.25
496.66	179.25
496.877	153.25
497.094	157.25
497.312	159.25
497.529	161.25
497.746	156.25
497.963	140.25
498.181	135.25
498.398	130.25
498.615	130.25
498.832	116.25
499.049	126.25
499.267	126.25
499.484	133.25
499.701	119.25
499.918	138.25
500.135	136.25
500.352	145.25
500.569	130.25
500.786	139.25
501.003	132.25
501.22	148.25
501.437	132.25
501.654	144.25
501.871	140.25
502.088	134.25
502.305	122.25
502.522	145.25
502.739	127.25
502.956	130.25
503.172	120.25
503.389	124.25
503.606	124.25
503.823	128.25
504.04	103.25
504.256	127.25
504.473	127.25
504.69	108.25
504.907	119.25
505.123	111.25
505.34	128.25
505.557	124.25
505.773	120.25
505.99	138.25
506.207	120.25
506.423	123.25
506.64	116.25
506.856	122.25
507.073	125.25
507.289	112.25
507.506	107.25
507.722	132.25
507.939	137.25
508.155	113.25
508.372	110.25
508.588	121.25
508.805	114.25
509.021	107.25
509.238	102.25
509.454	100.25
509.67	101.25
509.887	103.25
510.103	90.25
510.319	91.25
510.536	89.25
510.752	88.25
510.968	77.25
511.184	86.25
511.401	91.25
511.617	87.25
