Data from Location4.07152019.Energy5.Lamp.07192019.3%Agarose_HRD10591_16-19-25-925.txt Node
Date: Fri Jul 19 16:19:25 EDT 2019
User: cochatt
Spectrometer: HR+D1059
Trigger mode: 1
Integration Time (sec): 1.000000E-1
Scans to average: 1
Electric dark correction enabled: true
Nonlinearity correction enabled: false
Boxcar width: 0
XAxis mode: Wavelengths
Number of Pixels in Spectrum: 2048
>>>>>Begin Spectral Data<<<<<
223.165	-25.31
223.4	-25.31
223.635	-25.31
223.869	-25.31
224.104	-13.31
224.338	-18.31
224.573	-24.31
224.808	-14.31
225.042	-7.31
225.277	-11.31
225.511	0.69
225.746	22.69
225.98	5.69
226.215	14.69
226.449	7.69
226.683	27.69
226.918	24.69
227.152	35.69
227.387	28.69
227.621	33.69
227.856	32.69
228.09	40.69
228.324	37.69
228.559	45.69
228.793	57.69
229.027	56.69
229.262	56.69
229.496	52.69
229.73	63.69
229.964	69.69
230.199	66.69
230.433	68.69
230.667	87.69
230.901	71.69
231.136	79.69
231.37	69.69
231.604	80.69
231.838	72.69
232.072	71.69
232.306	72.69
232.541	83.69
232.775	78.69
233.009	87.69
233.243	90.69
233.477	76.69
233.711	84.69
233.945	74.69
234.179	85.69
234.413	82.69
234.647	76.69
234.881	83.69
235.115	91.69
235.349	86.69
235.583	79.69
235.817	85.69
236.051	69.69
236.285	74.69
236.519	79.69
236.753	66.69
236.987	76.69
237.221	69.69
237.455	58.69
237.689	80.69
237.922	79.69
238.156	72.69
238.39	73.69
238.624	61.69
238.858	74.69
239.091	73.69
239.325	71.69
239.559	78.69
239.793	78.69
240.027	83.69
240.26	74.69
240.494	64.69
240.728	82.69
240.961	71.69
241.195	93.69
241.429	64.69
241.662	64.69
241.896	74.69
242.13	85.69
242.363	82.69
242.597	81.69
242.83	75.69
243.064	70.69
243.298	74.69
243.531	77.69
243.765	80.69
243.998	87.69
244.232	81.69
244.465	64.69
244.699	74.69
244.932	68.69
245.166	89.69
245.399	57.69
245.633	68.69
245.866	84.69
246.099	67.69
246.333	69.69
246.566	80.69
246.8	82.69
247.033	62.69
247.266	85.69
247.5	70.69
247.733	73.69
247.966	65.69
248.2	67.69
248.433	73.69
248.666	66.69
248.899	77.69
249.133	92.69
249.366	82.69
249.599	78.69
249.832	74.69
250.066	73.69
250.299	77.69
250.532	88.69
250.765	73.69
250.998	62.69
251.231	88.69
251.465	84.69
251.698	81.69
251.931	89.69
252.164	64.69
252.397	68.69
252.63	71.69
252.863	85.69
253.096	77.69
253.329	78.69
253.562	78.69
253.795	82.69
254.028	69.69
254.261	91.69
254.494	70.69
254.727	75.69
254.96	67.69
255.193	86.69
255.426	76.69
255.659	90.69
255.892	83.69
256.124	64.69
256.357	70.69
256.59	69.69
256.823	87.69
257.056	83.69
257.289	79.69
257.521	72.69
257.754	71.69
257.987	84.69
258.22	88.69
258.452	93.69
258.685	83.69
258.918	77.69
259.151	72.69
259.383	86.69
259.616	88.69
259.849	69.69
260.081	80.69
260.314	87.69
260.547	80.69
260.779	79.69
261.012	79.69
261.244	68.69
261.477	67.69
261.71	72.69
261.942	89.69
262.175	80.69
262.407	88.69
262.64	84.69
262.872	72.69
263.105	72.69
263.337	88.69
263.57	83.69
263.802	76.69
264.035	76.69
264.267	78.69
264.499	80.69
264.732	84.69
264.964	74.69
265.197	81.69
265.429	73.69
265.661	85.69
265.894	83.69
266.126	73.69
266.358	83.69
266.591	82.69
266.823	84.69
267.055	88.69
267.287	82.69
267.52	80.69
267.752	80.69
267.984	81.69
268.216	83.69
268.448	75.69
268.681	95.69
268.913	97.69
269.145	92.69
269.377	71.69
269.609	78.69
269.841	91.69
270.073	71.69
270.306	80.69
270.538	94.69
270.77	84.69
271.002	76.69
271.234	77.69
271.466	75.69
271.698	84.69
271.93	79.69
272.162	76.69
272.394	89.69
272.626	78.69
272.858	82.69
273.09	82.69
273.322	77.69
273.553	74.69
273.785	92.69
274.017	79.69
274.249	79.69
274.481	72.69
274.713	83.69
274.945	90.69
275.176	77.69
275.408	84.69
275.64	83.69
275.872	74.69
276.104	82.69
276.335	76.69
276.567	77.69
276.799	79.69
277.031	75.69
277.262	83.69
277.494	86.69
277.726	78.69
277.957	70.69
278.189	92.69
278.421	88.69
278.652	72.69
278.884	90.69
279.115	75.69
279.347	84.69
279.579	72.69
279.81	74.69
280.042	78.69
280.273	88.69
280.505	71.69
280.736	71.69
280.968	82.69
281.199	91.69
281.431	87.69
281.662	81.69
281.894	88.69
282.125	80.69
282.356	91.69
282.588	90.69
282.819	74.69
283.051	100.69
283.282	82.69
283.513	85.69
283.745	91.69
283.976	80.69
284.207	88.69
284.439	92.69
284.67	89.69
284.901	80.69
285.132	68.69
285.364	91.69
285.595	90.69
285.826	70.69
286.057	84.69
286.288	84.69
286.52	77.69
286.751	97.69
286.982	73.69
287.213	84.69
287.444	70.69
287.675	89.69
287.906	86.69
288.138	86.69
288.369	97.69
288.6	78.69
288.831	70.69
289.062	81.69
289.293	72.69
289.524	84.69
289.755	79.69
289.986	83.69
290.217	83.69
290.448	99.69
290.679	79.69
290.91	80.69
291.141	77.69
291.371	75.69
291.602	92.69
291.833	78.69
292.064	82.69
292.295	80.69
292.526	83.69
292.757	91.69
292.987	92.69
293.218	87.69
293.449	85.69
293.68	89.69
293.91	101.69
294.141	76.69
294.372	88.69
294.603	93.69
294.833	79.69
295.064	89.69
295.295	81.69
295.525	70.69
295.756	85.69
295.987	82.69
296.217	79.69
296.448	73.69
296.679	91.69
296.909	93.69
297.14	77.69
297.37	86.69
297.601	75.69
297.831	82.69
298.062	93.69
298.292	78.69
298.523	79.69
298.753	93.69
298.984	84.69
299.214	75.69
299.445	81.69
299.675	81.69
299.905	86.69
300.136	74.69
300.366	89.69
300.597	85.69
300.827	57.69
301.057	82.69
301.288	77.69
301.518	73.69
301.748	79.69
301.979	81.69
302.209	80.69
302.439	78.69
302.669	81.69
302.9	72.69
303.13	74.69
303.36	67.69
303.59	94.69
303.82	78.69
304.051	90.69
304.281	89.69
304.511	93.69
304.741	74.69
304.971	84.69
305.201	87.69
305.431	82.69
305.661	87.69
305.891	78.69
306.121	81.69
306.352	94.69
306.582	89.69
306.812	77.69
307.042	84.69
307.272	89.69
307.502	77.69
307.731	88.69
307.961	66.69
308.191	86.69
308.421	100.69
308.651	73.69
308.881	77.69
309.111	78.69
309.341	69.69
309.571	68.69
309.8	66.69
310.03	81.69
310.26	87.69
310.49	82.69
310.72	82.69
310.949	68.69
311.179	73.69
311.409	83.69
311.639	95.69
311.868	86.69
312.098	74.69
312.328	86.69
312.557	84.69
312.787	70.69
313.017	80.69
313.246	78.69
313.476	84.69
313.706	79.69
313.935	78.69
314.165	98.69
314.394	60.69
314.624	66.69
314.853	86.69
315.083	91.69
315.312	100.69
315.542	91.69
315.771	86.69
316.001	80.69
316.23	83.69
316.46	67.69
316.689	69.69
316.919	77.69
317.148	78.69
317.377	77.69
317.607	70.69
317.836	82.69
318.065	93.69
318.295	92.69
318.524	71.69
318.753	86.69
318.983	73.69
319.212	73.69
319.441	81.69
319.67	81.69
319.9	81.69
320.129	75.69
320.358	82.69
320.587	71.69
320.816	93.69
321.046	70.69
321.275	82.69
321.504	72.69
321.733	89.69
321.962	91.69
322.191	81.69
322.42	73.69
322.649	80.69
322.878	86.69
323.108	96.69
323.337	93.69
323.566	81.69
323.795	81.69
324.024	77.69
324.253	70.69
324.482	82.69
324.71	87.69
324.939	85.69
325.168	85.69
325.397	84.69
325.626	86.69
325.855	97.69
326.084	86.69
326.313	99.69
326.542	82.69
326.77	72.69
326.999	89.69
327.228	80.69
327.457	86.69
327.686	89.69
327.914	68.69
328.143	90.69
328.372	70.69
328.6	67.69
328.829	73.69
329.058	77.69
329.287	83.69
329.515	93.69
329.744	76.69
329.972	81.69
330.201	79.69
330.43	66.69
330.658	74.69
330.887	79.69
331.115	82.69
331.344	70.69
331.572	84.69
331.801	91.69
332.03	77.69
332.258	85.69
332.486	90.69
332.715	83.69
332.943	92.69
333.172	82.69
333.4	84.69
333.629	81.69
333.857	78.69
334.085	76.69
334.314	88.69
334.542	87.69
334.771	80.69
334.999	87.69
335.227	69.69
335.455	66.69
335.684	80.69
335.912	78.69
336.14	89.69
336.369	84.69
336.597	86.69
336.825	83.69
337.053	64.69
337.281	79.69
337.51	79.69
337.738	68.69
337.966	72.69
338.194	84.69
338.422	70.69
338.65	93.69
338.878	82.69
339.106	80.69
339.334	88.69
339.562	81.69
339.79	82.69
340.018	85.69
340.246	80.69
340.474	85.69
340.702	88.69
340.93	69.69
341.158	86.69
341.386	68.69
341.614	73.69
341.842	85.69
342.07	71.69
342.298	85.69
342.526	83.69
342.754	78.69
342.981	87.69
343.209	93.69
343.437	104.69
343.665	78.69
343.893	69.69
344.12	83.69
344.348	94.69
344.576	79.69
344.804	80.69
345.031	82.69
345.259	86.69
345.487	64.69
345.714	84.69
345.942	71.69
346.17	79.69
346.397	84.69
346.625	75.69
346.853	81.69
347.08	83.69
347.308	68.69
347.535	79.69
347.763	76.69
347.99	74.69
348.218	81.69
348.445	79.69
348.673	86.69
348.9	86.69
349.128	86.69
349.355	77.69
349.583	81.69
349.81	77.69
350.037	75.69
350.265	74.69
350.492	79.69
350.72	77.69
350.947	90.69
351.174	91.69
351.402	79.69
351.629	83.69
351.856	89.69
352.083	86.69
352.311	80.69
352.538	84.69
352.765	72.69
352.992	82.69
353.22	84.69
353.447	70.69
353.674	90.69
353.901	92.69
354.128	78.69
354.355	90.69
354.583	87.69
354.81	84.69
355.037	83.69
355.264	80.69
355.491	66.69
355.718	88.69
355.945	84.69
356.172	79.69
356.399	83.69
356.626	86.69
356.853	72.69
357.08	83.69
357.307	84.69
357.534	73.69
357.761	71.69
357.988	82.69
358.215	83.69
358.441	74.69
358.668	86.69
358.895	86.69
359.122	77.69
359.349	73.69
359.576	85.69
359.802	89.69
360.029	90.69
360.256	86.69
360.483	79.69
360.709	71.69
360.936	95.69
361.163	85.69
361.39	79.69
361.616	77.69
361.843	82.69
362.07	71.69
362.296	67.69
362.523	74.69
362.749	79.69
362.976	78.69
363.203	92.69
363.429	78.69
363.656	82.69
363.882	84.69
364.109	84.69
364.335	83.69
364.562	95.69
364.788	82.69
365.015	68.69
365.241	82.69
365.468	80.69
365.694	74.69
365.92	93.69
366.147	66.69
366.373	78.69
366.599	67.69
366.826	73.69
367.052	79.69
367.278	79.69
367.505	79.69
367.731	94.69
367.957	94.69
368.184	78.69
368.41	85.69
368.636	74.69
368.862	89.69
369.089	85.69
369.315	99.69
369.541	82.69
369.767	79.69
369.993	88.69
370.219	81.69
370.445	84.69
370.672	85.69
370.898	100.69
371.124	93.69
371.35	98.69
371.576	94.69
371.802	97.69
372.028	87.69
372.254	85.69
372.48	89.69
372.706	85.69
372.932	77.69
373.158	98.69
373.384	77.69
373.61	86.69
373.835	90.69
374.061	95.69
374.287	80.69
374.513	89.69
374.739	72.69
374.965	98.69
375.191	107.69
375.416	88.69
375.642	95.69
375.868	75.69
376.094	99.69
376.319	92.69
376.545	101.69
376.771	87.69
376.997	90.69
377.222	86.69
377.448	94.69
377.674	78.69
377.899	89.69
378.125	87.69
378.35	88.69
378.576	86.69
378.802	88.69
379.027	94.69
379.253	93.69
379.478	95.69
379.704	80.69
379.929	82.69
380.155	89.69
380.38	93.69
380.606	84.69
380.831	80.69
381.057	98.69
381.282	90.69
381.507	91.69
381.733	106.69
381.958	99.69
382.184	98.69
382.409	86.69
382.634	96.69
382.86	89.69
383.085	101.69
383.31	93.69
383.535	101.69
383.761	84.69
383.986	86.69
384.211	99.69
384.436	84.69
384.662	82.69
384.887	92.69
385.112	105.69
385.337	101.69
385.562	93.69
385.787	94.69
386.013	100.69
386.238	102.69
386.463	83.69
386.688	90.69
386.913	80.69
387.138	114.69
387.363	96.69
387.588	82.69
387.813	86.69
388.038	98.69
388.263	101.69
388.488	97.69
388.713	103.69
388.938	89.69
389.163	100.69
389.387	101.69
389.612	95.69
389.837	75.69
390.062	96.69
390.287	109.69
390.512	92.69
390.736	95.69
390.961	96.69
391.186	97.69
391.411	111.69
391.636	99.69
391.86	101.69
392.085	101.69
392.31	97.69
392.534	113.69
392.759	118.69
392.984	101.69
393.208	93.69
393.433	90.69
393.658	92.69
393.882	105.69
394.107	116.69
394.331	89.69
394.556	100.69
394.78	96.69
395.005	92.69
395.229	117.69
395.454	105.69
395.678	110.69
395.903	97.69
396.127	94.69
396.352	109.69
396.576	104.69
396.801	99.69
397.025	98.69
397.249	103.69
397.474	114.69
397.698	110.69
397.922	109.69
398.147	96.69
398.371	117.69
398.595	92.69
398.82	101.69
399.044	98.69
399.268	105.69
399.492	103.69
399.717	104.69
399.941	97.69
400.165	114.69
400.389	89.69
400.613	105.69
400.837	91.69
401.062	112.69
401.286	103.69
401.51	108.69
401.734	98.69
401.958	97.69
402.182	112.69
402.406	105.69
402.63	103.69
402.854	108.69
403.078	101.69
403.302	90.69
403.526	100.69
403.75	102.69
403.974	114.69
404.198	96.69
404.422	110.69
404.645	111.69
404.869	108.69
405.093	120.69
405.317	109.69
405.541	119.69
405.765	121.69
405.988	118.69
406.212	122.69
406.436	117.69
406.66	115.69
406.883	118.69
407.107	106.69
407.331	116.69
407.555	124.69
407.778	106.69
408.002	112.69
408.226	104.69
408.449	103.69
408.673	101.69
408.896	121.69
409.12	117.69
409.344	117.69
409.567	119.69
409.791	109.69
410.014	130.69
410.238	108.69
410.461	121.69
410.685	111.69
410.908	112.69
411.132	131.69
411.355	110.69
411.578	132.69
411.802	103.69
412.025	106.69
412.249	112.69
412.472	103.69
412.695	102.69
412.919	111.69
413.142	96.69
413.365	120.69
413.589	121.69
413.812	112.69
414.035	114.69
414.258	118.69
414.482	117.69
414.705	109.69
414.928	113.69
415.151	104.69
415.374	116.69
415.597	114.69
415.821	100.69
416.044	111.69
416.267	109.69
416.49	116.69
416.713	128.69
416.936	147.69
417.159	138.69
417.382	99.69
417.605	113.69
417.828	139.69
418.051	144.69
418.274	128.69
418.497	134.69
418.72	121.69
418.943	118.69
419.166	120.69
419.389	136.69
419.611	129.69
419.834	117.69
420.057	144.69
420.28	132.69
420.503	126.69
420.726	126.69
420.948	119.69
421.171	134.69
421.394	129.69
421.617	132.69
421.839	140.69
422.062	129.69
422.285	128.69
422.507	140.69
422.73	124.69
422.953	126.69
423.175	119.69
423.398	137.69
423.621	112.69
423.843	120.69
424.066	134.69
424.288	130.69
424.511	117.69
424.733	126.69
424.956	139.69
425.178	144.69
425.401	153.69
425.623	124.69
425.846	117.69
426.068	117.69
426.291	108.69
426.513	124.69
426.735	123.69
426.958	120.69
427.18	129.69
427.402	122.69
427.625	121.69
427.847	128.69
428.069	120.69
428.292	123.69
428.514	127.69
428.736	120.69
428.958	124.69
429.181	131.69
429.403	134.69
429.625	132.69
429.847	118.69
430.069	114.69
430.292	121.69
430.514	110.69
430.736	122.69
430.958	142.69
431.18	127.69
431.402	112.69
431.624	116.69
431.846	105.69
432.068	101.69
432.29	100.69
432.512	101.69
432.734	114.69
432.956	134.69
433.178	129.69
433.4	130.69
433.622	135.69
433.844	129.69
434.066	110.69
434.287	99.69
434.509	104.69
434.731	97.69
434.953	117.69
435.175	124.69
435.397	126.69
435.618	102.69
435.84	120.69
436.062	116.69
436.284	130.69
436.505	110.69
436.727	136.69
436.949	124.69
437.17	137.69
437.392	135.69
437.614	98.69
437.835	108.69
438.057	101.69
438.278	104.69
438.5	112.69
438.721	140.69
438.943	135.69
439.165	135.69
439.386	135.69
439.608	137.69
439.829	134.69
440.05	151.69
440.272	140.69
440.493	121.69
440.715	146.69
440.936	139.69
441.158	134.69
441.379	121.69
441.6	123.69
441.822	130.69
442.043	145.69
442.264	143.69
442.486	130.69
442.707	128.69
442.928	138.69
443.149	146.69
443.371	145.69
443.592	128.69
443.813	135.69
444.034	116.69
444.255	130.69
444.476	134.69
444.698	118.69
444.919	136.69
445.14	264.69
445.361	192.69
445.582	146.69
445.803	132.69
446.024	145.69
446.245	153.69
446.466	140.69
446.687	148.69
446.908	153.69
447.129	138.69
447.35	134.69
447.571	144.69
447.792	143.69
448.013	141.69
448.234	118.69
448.455	139.69
448.675	136.69
448.896	124.69
449.117	121.69
449.338	128.69
449.559	139.69
449.779	130.69
450	132.69
450.221	126.69
450.442	134.69
450.662	141.69
450.883	113.69
451.104	128.69
451.324	121.69
451.545	118.69
451.766	110.69
451.986	136.69
452.207	121.69
452.428	130.69
452.648	136.69
452.869	126.69
453.089	113.69
453.31	120.69
453.53	116.69
453.751	93.69
453.971	96.69
454.192	115.69
454.412	102.69
454.633	94.69
454.853	115.69
455.073	122.69
455.294	119.69
455.514	131.69
455.734	118.69
455.955	126.69
456.175	105.69
456.395	116.69
456.616	108.69
456.836	115.69
457.056	105.69
457.276	103.69
457.497	102.69
457.717	95.69
457.937	101.69
458.157	90.69
458.377	110.69
458.598	99.69
458.818	100.69
459.038	95.69
459.258	77.69
459.478	84.69
459.698	100.69
459.918	88.69
460.138	113.69
460.358	113.69
460.578	115.69
460.798	113.69
461.018	97.69
461.238	124.69
461.458	121.69
461.678	130.69
461.898	119.69
462.118	109.69
462.338	102.69
462.558	109.69
462.777	113.69
462.997	114.69
463.217	89.69
463.437	124.69
463.657	92.69
463.876	105.69
464.096	110.69
464.316	100.69
464.536	114.69
464.755	118.69
464.975	120.69
465.195	111.69
465.414	121.69
465.634	113.69
465.854	93.69
466.073	108.69
466.293	119.69
466.512	121.69
466.732	110.69
466.951	122.69
467.171	120.69
467.391	128.69
467.61	117.69
467.829	128.69
468.049	134.69
468.268	121.69
468.488	131.69
468.707	130.69
468.927	120.69
469.146	124.69
469.365	138.69
469.585	121.69
469.804	136.69
470.023	126.69
470.243	136.69
470.462	128.69
470.681	144.69
470.901	124.69
471.12	131.69
471.339	133.69
471.558	138.69
471.777	131.69
471.997	131.69
472.216	124.69
472.435	110.69
472.654	105.69
472.873	96.69
473.092	116.69
473.311	99.69
473.53	118.69
473.749	126.69
473.968	111.69
474.187	124.69
474.406	110.69
474.625	119.69
474.844	125.69
475.063	124.69
475.282	126.69
475.501	127.69
475.72	114.69
475.939	117.69
476.158	128.69
476.377	124.69
476.596	104.69
476.814	102.69
477.033	110.69
477.252	99.69
477.471	120.69
477.69	132.69
477.908	133.69
478.127	139.69
478.346	120.69
478.564	121.69
478.783	126.69
479.002	126.69
479.22	118.69
479.439	126.69
479.658	123.69
479.876	118.69
480.095	120.69
480.313	119.69
480.532	120.69
480.751	104.69
480.969	95.69
481.188	81.69
481.406	95.69
481.624	94.69
481.843	96.69
482.061	94.69
482.28	115.69
482.498	111.69
482.717	104.69
482.935	120.69
483.153	142.69
483.372	135.69
483.59	165.69
483.808	132.69
484.027	126.69
484.245	142.69
484.463	134.69
484.681	156.69
484.9	150.69
485.118	140.69
485.336	122.69
485.554	102.69
485.772	91.69
485.99	98.69
486.209	100.69
486.427	103.69
486.645	128.69
486.863	139.69
487.081	134.69
487.299	122.69
487.517	121.69
487.735	162.69
487.953	173.69
488.171	179.69
488.389	166.69
488.607	168.69
488.825	136.69
489.043	124.69
489.261	137.69
489.479	126.69
489.696	135.69
489.914	140.69
490.132	118.69
490.35	144.69
490.568	146.69
490.786	154.69
491.003	168.69
491.221	161.69
491.439	167.69
491.657	195.69
491.874	193.69
492.092	212.69
492.31	242.69
492.527	213.69
492.745	189.69
492.963	196.69
493.18	189.69
493.398	166.69
493.615	168.69
493.833	159.69
494.05	176.69
494.268	160.69
494.485	161.69
494.703	169.69
494.92	165.69
495.138	161.69
495.355	150.69
495.573	163.69
495.79	138.69
496.008	159.69
496.225	141.69
496.442	152.69
496.66	148.69
496.877	165.69
497.094	152.69
497.312	158.69
497.529	150.69
497.746	151.69
497.963	139.69
498.181	130.69
498.398	121.69
498.615	117.69
498.832	122.69
499.049	113.69
499.267	119.69
499.484	128.69
499.701	122.69
499.918	127.69
500.135	136.69
500.352	140.69
500.569	141.69
500.786	124.69
501.003	123.69
501.22	129.69
501.437	129.69
501.654	134.69
501.871	129.69
502.088	132.69
502.305	136.69
502.522	118.69
502.739	123.69
502.956	119.69
503.172	130.69
503.389	117.69
503.606	112.69
503.823	112.69
504.04	121.69
504.256	112.69
504.473	113.69
504.69	122.69
504.907	124.69
505.123	114.69
505.34	127.69
505.557	130.69
505.773	116.69
505.99	119.69
506.207	110.69
506.423	124.69
506.64	112.69
506.856	111.69
507.073	116.69
507.289	121.69
507.506	103.69
507.722	124.69
507.939	113.69
508.155	109.69
508.372	105.69
508.588	112.69
508.805	99.69
509.021	116.69
509.238	105.69
509.454	117.69
509.67	89.69
509.887	113.69
510.103	91.69
510.319	75.69
510.536	94.69
510.752	90.69
510.968	73.69
511.184	86.69
511.401	80.69
511.617	93.69
511.833	85.69
512.049	85.69
512.265	100.69
