Data from Location4.07152019.Energy5.Lamp.07192019.3%Agarose_HRD10591_16-21-02-926.txt Node
Date: Fri Jul 19 16:21:02 EDT 2019
User: cochatt
Spectrometer: HR+D1059
Trigger mode: 1
Integration Time (sec): 1.000000E-1
Scans to average: 1
Electric dark correction enabled: true
Nonlinearity correction enabled: false
Boxcar width: 0
XAxis mode: Wavelengths
Number of Pixels in Spectrum: 2048
>>>>>Begin Spectral Data<<<<<
223.165	-15.38
223.4	-15.38
223.635	-15.38
223.869	-23.38
224.104	-10.38
224.338	-6.38
224.573	-14.38
224.808	-25.38
225.042	-2.38
225.277	-1.38
225.511	-0.38
225.746	-2.38
225.98	0.62
226.215	7.62
226.449	21.62
226.683	19.62
226.918	18.62
227.152	33.62
227.387	35.62
227.621	45.62
227.856	40.62
228.09	50.62
228.324	45.62
228.559	62.62
228.793	59.62
229.027	68.62
229.262	64.62
229.496	62.62
229.73	63.62
229.964	72.62
230.199	71.62
230.433	78.62
230.667	83.62
230.901	74.62
231.136	79.62
231.37	83.62
231.604	73.62
231.838	89.62
232.072	95.62
232.306	91.62
232.541	74.62
232.775	80.62
233.009	89.62
233.243	90.62
233.477	89.62
233.711	88.62
233.945	88.62
234.179	78.62
234.413	106.62
234.647	77.62
234.881	81.62
235.115	84.62
235.349	76.62
235.583	80.62
235.817	75.62
236.051	83.62
236.285	77.62
236.519	84.62
236.753	67.62
236.987	90.62
237.221	87.62
237.455	76.62
237.689	77.62
237.922	75.62
238.156	81.62
238.39	77.62
238.624	81.62
238.858	79.62
239.091	83.62
239.325	79.62
239.559	85.62
239.793	85.62
240.027	99.62
240.26	76.62
240.494	85.62
240.728	85.62
240.961	79.62
241.195	100.62
241.429	80.62
241.662	85.62
241.896	89.62
242.13	72.62
242.363	79.62
242.597	78.62
242.83	74.62
243.064	84.62
243.298	88.62
243.531	75.62
243.765	69.62
243.998	77.62
244.232	99.62
244.465	72.62
244.699	68.62
244.932	88.62
245.166	81.62
245.399	80.62
245.633	80.62
245.866	90.62
246.099	75.62
246.333	79.62
246.566	94.62
246.8	76.62
247.033	82.62
247.266	77.62
247.5	79.62
247.733	83.62
247.966	76.62
248.2	82.62
248.433	79.62
248.666	77.62
248.899	69.62
249.133	92.62
249.366	80.62
249.599	93.62
249.832	81.62
250.066	77.62
250.299	75.62
250.532	74.62
250.765	77.62
250.998	75.62
251.231	79.62
251.465	79.62
251.698	79.62
251.931	90.62
252.164	67.62
252.397	85.62
252.63	81.62
252.863	79.62
253.096	93.62
253.329	80.62
253.562	79.62
253.795	87.62
254.028	82.62
254.261	90.62
254.494	80.62
254.727	88.62
254.96	76.62
255.193	93.62
255.426	81.62
255.659	88.62
255.892	95.62
256.124	90.62
256.357	96.62
256.59	87.62
256.823	88.62
257.056	68.62
257.289	67.62
257.521	93.62
257.754	80.62
257.987	100.62
258.22	89.62
258.452	94.62
258.685	88.62
258.918	93.62
259.151	93.62
259.383	89.62
259.616	75.62
259.849	99.62
260.081	88.62
260.314	73.62
260.547	75.62
260.779	85.62
261.012	82.62
261.244	105.62
261.477	94.62
261.71	82.62
261.942	83.62
262.175	80.62
262.407	74.62
262.64	101.62
262.872	96.62
263.105	78.62
263.337	81.62
263.57	78.62
263.802	79.62
264.035	93.62
264.267	100.62
264.499	89.62
264.732	95.62
264.964	78.62
265.197	91.62
265.429	79.62
265.661	78.62
265.894	96.62
266.126	89.62
266.358	73.62
266.591	88.62
266.823	88.62
267.055	81.62
267.287	86.62
267.52	83.62
267.752	84.62
267.984	82.62
268.216	82.62
268.448	94.62
268.681	92.62
268.913	58.62
269.145	92.62
269.377	87.62
269.609	85.62
269.841	87.62
270.073	96.62
270.306	80.62
270.538	88.62
270.77	95.62
271.002	94.62
271.234	94.62
271.466	87.62
271.698	90.62
271.93	81.62
272.162	73.62
272.394	97.62
272.626	94.62
272.858	84.62
273.09	90.62
273.322	86.62
273.553	82.62
273.785	92.62
274.017	74.62
274.249	84.62
274.481	81.62
274.713	77.62
274.945	82.62
275.176	87.62
275.408	95.62
275.64	75.62
275.872	74.62
276.104	86.62
276.335	87.62
276.567	87.62
276.799	104.62
277.031	73.62
277.262	88.62
277.494	81.62
277.726	89.62
277.957	90.62
278.189	95.62
278.421	86.62
278.652	83.62
278.884	85.62
279.115	92.62
279.347	100.62
279.579	77.62
279.81	75.62
280.042	86.62
280.273	80.62
280.505	85.62
280.736	85.62
280.968	93.62
281.199	90.62
281.431	77.62
281.662	87.62
281.894	92.62
282.125	79.62
282.356	80.62
282.588	79.62
282.819	73.62
283.051	87.62
283.282	74.62
283.513	79.62
283.745	88.62
283.976	81.62
284.207	93.62
284.439	83.62
284.67	97.62
284.901	90.62
285.132	86.62
285.364	87.62
285.595	91.62
285.826	102.62
286.057	89.62
286.288	85.62
286.52	78.62
286.751	90.62
286.982	78.62
287.213	93.62
287.444	87.62
287.675	90.62
287.906	96.62
288.138	86.62
288.369	99.62
288.6	86.62
288.831	78.62
289.062	85.62
289.293	97.62
289.524	80.62
289.755	96.62
289.986	84.62
290.217	87.62
290.448	76.62
290.679	82.62
290.91	94.62
291.141	85.62
291.371	87.62
291.602	84.62
291.833	76.62
292.064	75.62
292.295	83.62
292.526	93.62
292.757	90.62
292.987	79.62
293.218	89.62
293.449	86.62
293.68	93.62
293.91	92.62
294.141	89.62
294.372	97.62
294.603	93.62
294.833	90.62
295.064	80.62
295.295	88.62
295.525	73.62
295.756	85.62
295.987	87.62
296.217	87.62
296.448	95.62
296.679	91.62
296.909	84.62
297.14	87.62
297.37	90.62
297.601	86.62
297.831	77.62
298.062	94.62
298.292	88.62
298.523	90.62
298.753	79.62
298.984	94.62
299.214	95.62
299.445	96.62
299.675	83.62
299.905	89.62
300.136	78.62
300.366	78.62
300.597	99.62
300.827	93.62
301.057	82.62
301.288	94.62
301.518	104.62
301.748	93.62
301.979	83.62
302.209	93.62
302.439	97.62
302.669	100.62
302.9	79.62
303.13	86.62
303.36	94.62
303.59	73.62
303.82	89.62
304.051	87.62
304.281	92.62
304.511	95.62
304.741	87.62
304.971	75.62
305.201	95.62
305.431	91.62
305.661	91.62
305.891	74.62
306.121	80.62
306.352	88.62
306.582	79.62
306.812	82.62
307.042	100.62
307.272	92.62
307.502	76.62
307.731	99.62
307.961	86.62
308.191	88.62
308.421	86.62
308.651	98.62
308.881	90.62
309.111	101.62
309.341	88.62
309.571	96.62
309.8	91.62
310.03	78.62
310.26	89.62
310.49	90.62
310.72	96.62
310.949	82.62
311.179	100.62
311.409	87.62
311.639	83.62
311.868	92.62
312.098	76.62
312.328	100.62
312.557	88.62
312.787	83.62
313.017	92.62
313.246	89.62
313.476	85.62
313.706	86.62
313.935	85.62
314.165	87.62
314.394	88.62
314.624	70.62
314.853	92.62
315.083	80.62
315.312	89.62
315.542	79.62
315.771	78.62
316.001	84.62
316.23	93.62
316.46	86.62
316.689	86.62
316.919	88.62
317.148	96.62
317.377	99.62
317.607	85.62
317.836	89.62
318.065	94.62
318.295	90.62
318.524	79.62
318.753	81.62
318.983	85.62
319.212	94.62
319.441	87.62
319.67	90.62
319.9	103.62
320.129	79.62
320.358	105.62
320.587	87.62
320.816	91.62
321.046	92.62
321.275	88.62
321.504	86.62
321.733	87.62
321.962	86.62
322.191	88.62
322.42	96.62
322.649	81.62
322.878	86.62
323.108	85.62
323.337	80.62
323.566	86.62
323.795	88.62
324.024	95.62
324.253	83.62
324.482	95.62
324.71	74.62
324.939	75.62
325.168	84.62
325.397	92.62
325.626	86.62
325.855	92.62
326.084	82.62
326.313	79.62
326.542	77.62
326.77	74.62
326.999	98.62
327.228	77.62
327.457	85.62
327.686	100.62
327.914	89.62
328.143	81.62
328.372	97.62
328.6	95.62
328.829	60.62
329.058	80.62
329.287	86.62
329.515	88.62
329.744	90.62
329.972	83.62
330.201	78.62
330.43	92.62
330.658	101.62
330.887	80.62
331.115	93.62
331.344	89.62
331.572	82.62
331.801	90.62
332.03	81.62
332.258	86.62
332.486	87.62
332.715	92.62
332.943	76.62
333.172	85.62
333.4	78.62
333.629	87.62
333.857	79.62
334.085	86.62
334.314	85.62
334.542	84.62
334.771	76.62
334.999	81.62
335.227	74.62
335.455	91.62
335.684	87.62
335.912	102.62
336.14	93.62
336.369	94.62
336.597	77.62
336.825	97.62
337.053	85.62
337.281	80.62
337.51	97.62
337.738	96.62
337.966	86.62
338.194	91.62
338.422	87.62
338.65	92.62
338.878	81.62
339.106	91.62
339.334	88.62
339.562	89.62
339.79	103.62
340.018	100.62
340.246	82.62
340.474	100.62
340.702	83.62
340.93	90.62
341.158	90.62
341.386	96.62
341.614	81.62
341.842	83.62
342.07	80.62
342.298	87.62
342.526	94.62
342.754	95.62
342.981	91.62
343.209	86.62
343.437	90.62
343.665	86.62
343.893	77.62
344.12	91.62
344.348	98.62
344.576	90.62
344.804	84.62
345.031	85.62
345.259	95.62
345.487	89.62
345.714	85.62
345.942	95.62
346.17	95.62
346.397	88.62
346.625	85.62
346.853	83.62
347.08	88.62
347.308	85.62
347.535	91.62
347.763	92.62
347.99	101.62
348.218	83.62
348.445	77.62
348.673	85.62
348.9	81.62
349.128	87.62
349.355	90.62
349.583	89.62
349.81	84.62
350.037	85.62
350.265	97.62
350.492	90.62
350.72	91.62
350.947	87.62
351.174	74.62
351.402	78.62
351.629	72.62
351.856	86.62
352.083	79.62
352.311	73.62
352.538	87.62
352.765	67.62
352.992	76.62
353.22	90.62
353.447	80.62
353.674	92.62
353.901	85.62
354.128	99.62
354.355	83.62
354.583	80.62
354.81	83.62
355.037	83.62
355.264	89.62
355.491	92.62
355.718	93.62
355.945	99.62
356.172	81.62
356.399	98.62
356.626	71.62
356.853	83.62
357.08	85.62
357.307	95.62
357.534	85.62
357.761	75.62
357.988	93.62
358.215	90.62
358.441	82.62
358.668	83.62
358.895	85.62
359.122	84.62
359.349	82.62
359.576	95.62
359.802	87.62
360.029	89.62
360.256	88.62
360.483	85.62
360.709	95.62
360.936	90.62
361.163	85.62
361.39	75.62
361.616	91.62
361.843	85.62
362.07	78.62
362.296	82.62
362.523	89.62
362.749	90.62
362.976	89.62
363.203	93.62
363.429	86.62
363.656	81.62
363.882	80.62
364.109	90.62
364.335	84.62
364.562	95.62
364.788	85.62
365.015	93.62
365.241	84.62
365.468	101.62
365.694	93.62
365.92	84.62
366.147	98.62
366.373	85.62
366.599	78.62
366.826	95.62
367.052	102.62
367.278	90.62
367.505	81.62
367.731	101.62
367.957	87.62
368.184	93.62
368.41	97.62
368.636	88.62
368.862	92.62
369.089	79.62
369.315	82.62
369.541	90.62
369.767	85.62
369.993	85.62
370.219	81.62
370.445	94.62
370.672	95.62
370.898	89.62
371.124	114.62
371.35	98.62
371.576	102.62
371.802	99.62
372.028	105.62
372.254	87.62
372.48	92.62
372.706	95.62
372.932	95.62
373.158	84.62
373.384	96.62
373.61	101.62
373.835	93.62
374.061	95.62
374.287	87.62
374.513	90.62
374.739	100.62
374.965	87.62
375.191	101.62
375.416	97.62
375.642	78.62
375.868	95.62
376.094	89.62
376.319	110.62
376.545	107.62
376.771	80.62
376.997	90.62
377.222	100.62
377.448	86.62
377.674	107.62
377.899	92.62
378.125	97.62
378.35	96.62
378.576	93.62
378.802	94.62
379.027	96.62
379.253	95.62
379.478	81.62
379.704	99.62
379.929	87.62
380.155	93.62
380.38	93.62
380.606	98.62
380.831	110.62
381.057	105.62
381.282	76.62
381.507	95.62
381.733	93.62
381.958	97.62
382.184	86.62
382.409	105.62
382.634	102.62
382.86	120.62
383.085	99.62
383.31	91.62
383.535	102.62
383.761	102.62
383.986	94.62
384.211	97.62
384.436	96.62
384.662	99.62
384.887	94.62
385.112	118.62
385.337	100.62
385.562	91.62
385.787	119.62
386.013	103.62
386.238	91.62
386.463	94.62
386.688	105.62
386.913	99.62
387.138	95.62
387.363	92.62
387.588	105.62
387.813	96.62
388.038	99.62
388.263	106.62
388.488	90.62
388.713	106.62
388.938	105.62
389.163	105.62
389.387	110.62
389.612	93.62
389.837	89.62
390.062	104.62
390.287	107.62
390.512	102.62
390.736	99.62
390.961	94.62
391.186	114.62
391.411	107.62
391.636	115.62
391.86	101.62
392.085	121.62
392.31	94.62
392.534	90.62
392.759	114.62
392.984	113.62
393.208	115.62
393.433	93.62
393.658	99.62
393.882	117.62
394.107	118.62
394.331	100.62
394.556	112.62
394.78	107.62
395.005	107.62
395.229	105.62
395.454	110.62
395.678	105.62
395.903	115.62
396.127	119.62
396.352	116.62
396.576	119.62
396.801	104.62
397.025	118.62
397.249	112.62
397.474	121.62
397.698	110.62
397.922	99.62
398.147	112.62
398.371	113.62
398.595	102.62
398.82	103.62
399.044	100.62
399.268	106.62
399.492	103.62
399.717	121.62
399.941	116.62
400.165	110.62
400.389	107.62
400.613	117.62
400.837	116.62
401.062	111.62
401.286	118.62
401.51	113.62
401.734	93.62
401.958	107.62
402.182	99.62
402.406	100.62
402.63	124.62
402.854	107.62
403.078	124.62
403.302	123.62
403.526	127.62
403.75	118.62
403.974	119.62
404.198	110.62
404.422	117.62
404.645	126.62
404.869	125.62
405.093	117.62
405.317	115.62
405.541	110.62
405.765	116.62
405.988	123.62
406.212	121.62
406.436	109.62
406.66	105.62
406.883	107.62
407.107	120.62
407.331	129.62
407.555	115.62
407.778	110.62
408.002	110.62
408.226	118.62
408.449	119.62
408.673	111.62
408.896	118.62
409.12	131.62
409.344	121.62
409.567	117.62
409.791	123.62
410.014	124.62
410.238	120.62
410.461	118.62
410.685	127.62
410.908	116.62
411.132	122.62
411.355	121.62
411.578	113.62
411.802	131.62
412.025	103.62
412.249	124.62
412.472	113.62
412.695	108.62
412.919	131.62
413.142	129.62
413.365	134.62
413.589	116.62
413.812	126.62
414.035	131.62
414.258	122.62
414.482	114.62
414.705	115.62
414.928	123.62
415.151	136.62
415.374	109.62
415.597	119.62
415.821	129.62
416.044	124.62
416.267	108.62
416.49	121.62
416.713	130.62
416.936	131.62
417.159	117.62
417.382	121.62
417.605	136.62
417.828	122.62
418.051	119.62
418.274	128.62
418.497	125.62
418.72	129.62
418.943	142.62
419.166	126.62
419.389	129.62
419.611	132.62
419.834	142.62
420.057	125.62
420.28	136.62
420.503	128.62
420.726	131.62
420.948	122.62
421.171	135.62
421.394	135.62
421.617	121.62
421.839	159.62
422.062	141.62
422.285	139.62
422.507	118.62
422.73	128.62
422.953	126.62
423.175	120.62
423.398	127.62
423.621	127.62
423.843	123.62
424.066	122.62
424.288	146.62
424.511	158.62
424.733	145.62
424.956	142.62
425.178	142.62
425.401	132.62
425.623	133.62
425.846	141.62
426.068	123.62
426.291	137.62
426.513	133.62
426.735	119.62
426.958	123.62
427.18	127.62
427.402	131.62
427.625	119.62
427.847	128.62
428.069	125.62
428.292	132.62
428.514	120.62
428.736	121.62
428.958	133.62
429.181	132.62
429.403	125.62
429.625	119.62
429.847	136.62
430.069	124.62
430.292	123.62
430.514	127.62
430.736	141.62
430.958	144.62
431.18	133.62
431.402	140.62
431.624	121.62
431.846	119.62
432.068	104.62
432.29	87.62
432.512	116.62
432.734	119.62
432.956	128.62
433.178	129.62
433.4	124.62
433.622	127.62
433.844	141.62
434.066	125.62
434.287	108.62
434.509	112.62
434.731	89.62
434.953	107.62
435.175	107.62
435.397	127.62
435.618	111.62
435.84	127.62
436.062	123.62
436.284	125.62
436.505	124.62
436.727	138.62
436.949	119.62
437.17	140.62
437.392	139.62
437.614	118.62
437.835	120.62
438.057	107.62
438.278	115.62
438.5	125.62
438.721	139.62
438.943	152.62
439.165	129.62
439.386	137.62
439.608	146.62
439.829	140.62
440.05	136.62
440.272	137.62
440.493	147.62
440.715	149.62
440.936	141.62
441.158	139.62
441.379	134.62
441.6	139.62
441.822	137.62
442.043	147.62
442.264	130.62
442.486	136.62
442.707	132.62
442.928	121.62
443.149	121.62
443.371	143.62
443.592	135.62
443.813	137.62
444.034	131.62
444.255	133.62
444.476	137.62
444.698	131.62
444.919	136.62
445.14	262.62
445.361	201.62
445.582	158.62
445.803	146.62
446.024	145.62
446.245	151.62
446.466	159.62
446.687	155.62
446.908	173.62
447.129	171.62
447.35	151.62
447.571	157.62
447.792	145.62
448.013	161.62
448.234	133.62
448.455	148.62
448.675	156.62
448.896	132.62
449.117	136.62
449.338	141.62
449.559	146.62
449.779	131.62
450	134.62
450.221	133.62
450.442	129.62
450.662	147.62
450.883	141.62
451.104	133.62
451.324	147.62
451.545	128.62
451.766	138.62
451.986	129.62
452.207	129.62
452.428	132.62
452.648	118.62
452.869	117.62
453.089	107.62
453.31	118.62
453.53	115.62
453.751	115.62
453.971	86.62
454.192	110.62
454.412	116.62
454.633	119.62
454.853	108.62
455.073	131.62
455.294	128.62
455.514	126.62
455.734	121.62
455.955	127.62
456.175	110.62
456.395	112.62
456.616	105.62
456.836	120.62
457.056	101.62
457.276	128.62
457.497	107.62
457.717	118.62
457.937	117.62
458.157	101.62
458.377	101.62
458.598	96.62
458.818	91.62
459.038	103.62
459.258	85.62
459.478	92.62
459.698	89.62
459.918	101.62
460.138	110.62
460.358	123.62
460.578	125.62
460.798	102.62
461.018	112.62
461.238	124.62
461.458	119.62
461.678	121.62
461.898	126.62
462.118	133.62
462.338	126.62
462.558	128.62
462.777	108.62
462.997	120.62
463.217	119.62
463.437	116.62
463.657	107.62
463.876	115.62
464.096	115.62
464.316	120.62
464.536	132.62
464.755	127.62
464.975	129.62
465.195	104.62
465.414	122.62
465.634	142.62
465.854	120.62
466.073	118.62
466.293	139.62
466.512	141.62
466.732	152.62
466.951	127.62
467.171	141.62
467.391	131.62
467.61	127.62
467.829	140.62
468.049	134.62
468.268	134.62
468.488	135.62
468.707	130.62
468.927	133.62
469.146	154.62
469.365	139.62
469.585	139.62
469.804	144.62
470.023	144.62
470.243	139.62
470.462	152.62
470.681	139.62
470.901	139.62
471.12	148.62
471.339	128.62
471.558	136.62
471.777	144.62
471.997	124.62
472.216	140.62
472.435	115.62
472.654	113.62
472.873	100.62
473.092	108.62
473.311	121.62
473.53	129.62
473.749	123.62
473.968	113.62
474.187	139.62
474.406	133.62
474.625	129.62
474.844	133.62
475.063	145.62
475.282	126.62
475.501	117.62
475.72	124.62
475.939	127.62
476.158	130.62
476.377	139.62
476.596	124.62
476.814	123.62
477.033	108.62
477.252	105.62
477.471	116.62
477.69	135.62
477.908	128.62
478.127	144.62
478.346	140.62
478.564	141.62
478.783	146.62
479.002	135.62
479.22	134.62
479.439	138.62
479.658	126.62
479.876	112.62
480.095	119.62
480.313	115.62
480.532	115.62
480.751	119.62
480.969	98.62
481.188	101.62
481.406	87.62
481.624	83.62
481.843	101.62
482.061	92.62
482.28	118.62
482.498	127.62
482.717	106.62
482.935	131.62
483.153	140.62
483.372	159.62
483.59	146.62
483.808	147.62
484.027	133.62
484.245	141.62
484.463	156.62
484.681	151.62
484.9	136.62
485.118	149.62
485.336	127.62
485.554	109.62
485.772	106.62
485.99	117.62
486.209	112.62
486.427	119.62
486.645	125.62
486.863	141.62
487.081	144.62
487.299	139.62
487.517	145.62
487.735	161.62
487.953	201.62
488.171	171.62
488.389	173.62
488.607	168.62
488.825	144.62
489.043	147.62
489.261	138.62
489.479	137.62
489.696	149.62
489.914	137.62
490.132	136.62
490.35	145.62
490.568	163.62
490.786	201.62
491.003	163.62
491.221	179.62
491.439	189.62
491.657	188.62
491.874	210.62
492.092	237.62
492.31	243.62
492.527	235.62
492.745	198.62
492.963	192.62
493.18	197.62
493.398	178.62
493.615	182.62
493.833	179.62
494.05	169.62
494.268	176.62
494.485	169.62
494.703	188.62
494.92	171.62
495.138	174.62
495.355	175.62
495.573	174.62
495.79	173.62
496.008	176.62
496.225	168.62
496.442	157.62
496.66	168.62
496.877	168.62
497.094	158.62
497.312	155.62
497.529	157.62
497.746	129.62
497.963	140.62
498.181	140.62
498.398	112.62
498.615	114.62
498.832	121.62
499.049	125.62
499.267	123.62
499.484	121.62
499.701	139.62
499.918	144.62
500.135	139.62
500.352	146.62
500.569	145.62
500.786	155.62
501.003	132.62
501.22	127.62
501.437	131.62
501.654	150.62
501.871	136.62
502.088	137.62
502.305	134.62
502.522	142.62
502.739	133.62
502.956	132.62
503.172	127.62
503.389	122.62
503.606	124.62
503.823	122.62
504.04	108.62
504.256	112.62
504.473	133.62
504.69	121.62
504.907	144.62
505.123	121.62
505.34	119.62
505.557	144.62
505.773	136.62
505.99	133.62
506.207	131.62
506.423	115.62
506.64	125.62
506.856	120.62
507.073	116.62
507.289	133.62
507.506	123.62
507.722	125.62
507.939	119.62
508.155	116.62
508.372	100.62
508.588	115.62
508.805	115.62
509.021	122.62
509.238	122.62
509.454	101.62
509.67	113.62
509.887	119.62
510.103	109.62
510.319	100.62
510.536	97.62
510.752	100.62
510.968	107.62
511.184	99.62
