Data from Location4.07152019.Energy5.Lamp.07192019.3%Agarose_HRD10591_16-20-57-926.txt Node
Date: Fri Jul 19 16:20:57 EDT 2019
User: cochatt
Spectrometer: HR+D1059
Trigger mode: 1
Integration Time (sec): 1.000000E-1
Scans to average: 1
Electric dark correction enabled: true
Nonlinearity correction enabled: false
Boxcar width: 0
XAxis mode: Wavelengths
Number of Pixels in Spectrum: 2048
>>>>>Begin Spectral Data<<<<<
223.165	-12.44
223.4	-12.44
223.635	-12.44
223.869	-15.44
224.104	-9.44
224.338	-14.44
224.573	-14.44
224.808	-3.44
225.042	-10.44
225.277	9.56
225.511	-13.44
225.746	-4.44
225.98	8.56
226.215	8.56
226.449	14.56
226.683	21.56
226.918	11.56
227.152	23.56
227.387	29.56
227.621	38.56
227.856	47.56
228.09	49.56
228.324	66.56
228.559	64.56
228.793	46.56
229.027	59.56
229.262	56.56
229.496	64.56
229.73	58.56
229.964	71.56
230.199	67.56
230.433	69.56
230.667	81.56
230.901	68.56
231.136	76.56
231.37	85.56
231.604	83.56
231.838	81.56
232.072	80.56
232.306	84.56
232.541	74.56
232.775	85.56
233.009	89.56
233.243	72.56
233.477	84.56
233.711	67.56
233.945	80.56
234.179	75.56
234.413	77.56
234.647	82.56
234.881	90.56
235.115	81.56
235.349	77.56
235.583	81.56
235.817	79.56
236.051	58.56
236.285	72.56
236.519	61.56
236.753	73.56
236.987	77.56
237.221	58.56
237.455	88.56
237.689	67.56
237.922	89.56
238.156	76.56
238.39	74.56
238.624	72.56
238.858	63.56
239.091	59.56
239.325	59.56
239.559	69.56
239.793	75.56
240.027	81.56
240.26	67.56
240.494	68.56
240.728	87.56
240.961	69.56
241.195	80.56
241.429	71.56
241.662	58.56
241.896	77.56
242.13	58.56
242.363	68.56
242.597	81.56
242.83	67.56
243.064	69.56
243.298	69.56
243.531	75.56
243.765	70.56
243.998	92.56
244.232	68.56
244.465	79.56
244.699	80.56
244.932	72.56
245.166	61.56
245.399	66.56
245.633	75.56
245.866	76.56
246.099	65.56
246.333	88.56
246.566	87.56
246.8	80.56
247.033	65.56
247.266	76.56
247.5	83.56
247.733	85.56
247.966	82.56
248.2	82.56
248.433	80.56
248.666	89.56
248.899	70.56
249.133	77.56
249.366	80.56
249.599	79.56
249.832	72.56
250.066	71.56
250.299	83.56
250.532	74.56
250.765	73.56
250.998	69.56
251.231	78.56
251.465	77.56
251.698	86.56
251.931	84.56
252.164	85.56
252.397	82.56
252.63	74.56
252.863	86.56
253.096	83.56
253.329	101.56
253.562	74.56
253.795	98.56
254.028	88.56
254.261	85.56
254.494	75.56
254.727	87.56
254.96	83.56
255.193	86.56
255.426	82.56
255.659	77.56
255.892	79.56
256.124	79.56
256.357	68.56
256.59	81.56
256.823	86.56
257.056	87.56
257.289	89.56
257.521	61.56
257.754	76.56
257.987	85.56
258.22	79.56
258.452	82.56
258.685	76.56
258.918	76.56
259.151	85.56
259.383	91.56
259.616	84.56
259.849	92.56
260.081	79.56
260.314	86.56
260.547	74.56
260.779	89.56
261.012	77.56
261.244	84.56
261.477	89.56
261.71	82.56
261.942	68.56
262.175	91.56
262.407	81.56
262.64	84.56
262.872	86.56
263.105	77.56
263.337	77.56
263.57	85.56
263.802	80.56
264.035	76.56
264.267	63.56
264.499	78.56
264.732	89.56
264.964	75.56
265.197	82.56
265.429	68.56
265.661	81.56
265.894	77.56
266.126	86.56
266.358	89.56
266.591	89.56
266.823	92.56
267.055	76.56
267.287	82.56
267.52	97.56
267.752	86.56
267.984	88.56
268.216	99.56
268.448	76.56
268.681	75.56
268.913	86.56
269.145	88.56
269.377	91.56
269.609	80.56
269.841	75.56
270.073	75.56
270.306	80.56
270.538	83.56
270.77	95.56
271.002	80.56
271.234	84.56
271.466	79.56
271.698	95.56
271.93	86.56
272.162	81.56
272.394	96.56
272.626	74.56
272.858	82.56
273.09	87.56
273.322	74.56
273.553	80.56
273.785	76.56
274.017	87.56
274.249	95.56
274.481	90.56
274.713	84.56
274.945	95.56
275.176	87.56
275.408	82.56
275.64	81.56
275.872	77.56
276.104	82.56
276.335	77.56
276.567	82.56
276.799	84.56
277.031	87.56
277.262	82.56
277.494	77.56
277.726	66.56
277.957	79.56
278.189	85.56
278.421	76.56
278.652	87.56
278.884	83.56
279.115	81.56
279.347	88.56
279.579	77.56
279.81	84.56
280.042	88.56
280.273	77.56
280.505	75.56
280.736	74.56
280.968	74.56
281.199	88.56
281.431	82.56
281.662	72.56
281.894	88.56
282.125	89.56
282.356	87.56
282.588	88.56
282.819	82.56
283.051	68.56
283.282	90.56
283.513	75.56
283.745	86.56
283.976	78.56
284.207	90.56
284.439	73.56
284.67	81.56
284.901	87.56
285.132	75.56
285.364	77.56
285.595	88.56
285.826	63.56
286.057	93.56
286.288	89.56
286.52	84.56
286.751	85.56
286.982	87.56
287.213	92.56
287.444	74.56
287.675	77.56
287.906	78.56
288.138	94.56
288.369	80.56
288.6	88.56
288.831	85.56
289.062	72.56
289.293	84.56
289.524	91.56
289.755	73.56
289.986	79.56
290.217	95.56
290.448	86.56
290.679	92.56
290.91	87.56
291.141	84.56
291.371	90.56
291.602	81.56
291.833	94.56
292.064	80.56
292.295	73.56
292.526	76.56
292.757	89.56
292.987	86.56
293.218	89.56
293.449	87.56
293.68	71.56
293.91	84.56
294.141	76.56
294.372	77.56
294.603	79.56
294.833	89.56
295.064	86.56
295.295	87.56
295.525	91.56
295.756	85.56
295.987	91.56
296.217	80.56
296.448	73.56
296.679	85.56
296.909	93.56
297.14	87.56
297.37	86.56
297.601	73.56
297.831	92.56
298.062	75.56
298.292	85.56
298.523	75.56
298.753	83.56
298.984	74.56
299.214	68.56
299.445	84.56
299.675	87.56
299.905	94.56
300.136	102.56
300.366	85.56
300.597	71.56
300.827	93.56
301.057	84.56
301.288	86.56
301.518	78.56
301.748	81.56
301.979	99.56
302.209	90.56
302.439	93.56
302.669	78.56
302.9	80.56
303.13	78.56
303.36	88.56
303.59	96.56
303.82	104.56
304.051	96.56
304.281	79.56
304.511	83.56
304.741	90.56
304.971	77.56
305.201	86.56
305.431	77.56
305.661	95.56
305.891	82.56
306.121	94.56
306.352	76.56
306.582	72.56
306.812	91.56
307.042	75.56
307.272	90.56
307.502	99.56
307.731	98.56
307.961	87.56
308.191	75.56
308.421	84.56
308.651	79.56
308.881	89.56
309.111	75.56
309.341	78.56
309.571	90.56
309.8	80.56
310.03	87.56
310.26	91.56
310.49	83.56
310.72	82.56
310.949	71.56
311.179	91.56
311.409	87.56
311.639	79.56
311.868	92.56
312.098	83.56
312.328	70.56
312.557	79.56
312.787	88.56
313.017	97.56
313.246	82.56
313.476	85.56
313.706	68.56
313.935	100.56
314.165	85.56
314.394	84.56
314.624	93.56
314.853	84.56
315.083	83.56
315.312	84.56
315.542	82.56
315.771	86.56
316.001	85.56
316.23	90.56
316.46	84.56
316.689	83.56
316.919	86.56
317.148	92.56
317.377	103.56
317.607	78.56
317.836	83.56
318.065	75.56
318.295	82.56
318.524	86.56
318.753	89.56
318.983	75.56
319.212	75.56
319.441	76.56
319.67	75.56
319.9	92.56
320.129	80.56
320.358	93.56
320.587	94.56
320.816	90.56
321.046	90.56
321.275	95.56
321.504	84.56
321.733	92.56
321.962	80.56
322.191	91.56
322.42	77.56
322.649	93.56
322.878	91.56
323.108	95.56
323.337	82.56
323.566	98.56
323.795	96.56
324.024	77.56
324.253	76.56
324.482	88.56
324.71	84.56
324.939	79.56
325.168	76.56
325.397	88.56
325.626	81.56
325.855	91.56
326.084	87.56
326.313	87.56
326.542	83.56
326.77	79.56
326.999	96.56
327.228	87.56
327.457	71.56
327.686	75.56
327.914	78.56
328.143	103.56
328.372	99.56
328.6	82.56
328.829	81.56
329.058	95.56
329.287	89.56
329.515	82.56
329.744	88.56
329.972	83.56
330.201	92.56
330.43	87.56
330.658	84.56
330.887	74.56
331.115	68.56
331.344	81.56
331.572	88.56
331.801	94.56
332.03	91.56
332.258	91.56
332.486	75.56
332.715	81.56
332.943	86.56
333.172	72.56
333.4	69.56
333.629	81.56
333.857	79.56
334.085	75.56
334.314	87.56
334.542	81.56
334.771	93.56
334.999	96.56
335.227	92.56
335.455	83.56
335.684	83.56
335.912	90.56
336.14	81.56
336.369	82.56
336.597	92.56
336.825	89.56
337.053	83.56
337.281	70.56
337.51	89.56
337.738	91.56
337.966	98.56
338.194	102.56
338.422	80.56
338.65	91.56
338.878	92.56
339.106	88.56
339.334	93.56
339.562	88.56
339.79	88.56
340.018	82.56
340.246	76.56
340.474	80.56
340.702	85.56
340.93	99.56
341.158	89.56
341.386	92.56
341.614	76.56
341.842	84.56
342.07	86.56
342.298	83.56
342.526	79.56
342.754	77.56
342.981	90.56
343.209	85.56
343.437	83.56
343.665	79.56
343.893	83.56
344.12	83.56
344.348	100.56
344.576	84.56
344.804	95.56
345.031	97.56
345.259	80.56
345.487	81.56
345.714	84.56
345.942	87.56
346.17	80.56
346.397	87.56
346.625	92.56
346.853	83.56
347.08	79.56
347.308	84.56
347.535	82.56
347.763	82.56
347.99	70.56
348.218	83.56
348.445	87.56
348.673	83.56
348.9	86.56
349.128	97.56
349.355	77.56
349.583	102.56
349.81	98.56
350.037	96.56
350.265	89.56
350.492	85.56
350.72	93.56
350.947	85.56
351.174	91.56
351.402	84.56
351.629	82.56
351.856	88.56
352.083	87.56
352.311	90.56
352.538	90.56
352.765	90.56
352.992	83.56
353.22	82.56
353.447	72.56
353.674	87.56
353.901	82.56
354.128	83.56
354.355	95.56
354.583	103.56
354.81	72.56
355.037	95.56
355.264	79.56
355.491	77.56
355.718	93.56
355.945	93.56
356.172	93.56
356.399	84.56
356.626	88.56
356.853	85.56
357.08	94.56
357.307	79.56
357.534	75.56
357.761	76.56
357.988	84.56
358.215	85.56
358.441	72.56
358.668	84.56
358.895	87.56
359.122	77.56
359.349	78.56
359.576	86.56
359.802	87.56
360.029	81.56
360.256	91.56
360.483	72.56
360.709	78.56
360.936	87.56
361.163	84.56
361.39	79.56
361.616	90.56
361.843	84.56
362.07	87.56
362.296	81.56
362.523	86.56
362.749	78.56
362.976	91.56
363.203	91.56
363.429	84.56
363.656	89.56
363.882	80.56
364.109	85.56
364.335	76.56
364.562	81.56
364.788	81.56
365.015	71.56
365.241	92.56
365.468	89.56
365.694	84.56
365.92	92.56
366.147	93.56
366.373	85.56
366.599	74.56
366.826	69.56
367.052	78.56
367.278	86.56
367.505	91.56
367.731	99.56
367.957	72.56
368.184	89.56
368.41	84.56
368.636	93.56
368.862	96.56
369.089	91.56
369.315	90.56
369.541	111.56
369.767	89.56
369.993	93.56
370.219	92.56
370.445	98.56
370.672	102.56
370.898	81.56
371.124	84.56
371.35	86.56
371.576	94.56
371.802	85.56
372.028	92.56
372.254	91.56
372.48	82.56
372.706	106.56
372.932	87.56
373.158	90.56
373.384	77.56
373.61	81.56
373.835	92.56
374.061	76.56
374.287	83.56
374.513	95.56
374.739	95.56
374.965	104.56
375.191	78.56
375.416	95.56
375.642	90.56
375.868	92.56
376.094	92.56
376.319	77.56
376.545	105.56
376.771	83.56
376.997	88.56
377.222	94.56
377.448	106.56
377.674	87.56
377.899	100.56
378.125	86.56
378.35	99.56
378.576	92.56
378.802	90.56
379.027	90.56
379.253	86.56
379.478	101.56
379.704	100.56
379.929	99.56
380.155	100.56
380.38	86.56
380.606	86.56
380.831	95.56
381.057	90.56
381.282	94.56
381.507	94.56
381.733	100.56
381.958	87.56
382.184	92.56
382.409	101.56
382.634	99.56
382.86	105.56
383.085	83.56
383.31	92.56
383.535	99.56
383.761	101.56
383.986	107.56
384.211	99.56
384.436	100.56
384.662	87.56
384.887	91.56
385.112	97.56
385.337	104.56
385.562	97.56
385.787	92.56
386.013	106.56
386.238	104.56
386.463	93.56
386.688	88.56
386.913	98.56
387.138	87.56
387.363	96.56
387.588	96.56
387.813	97.56
388.038	88.56
388.263	109.56
388.488	108.56
388.713	93.56
388.938	97.56
389.163	110.56
389.387	103.56
389.612	104.56
389.837	82.56
390.062	106.56
390.287	101.56
390.512	97.56
390.736	101.56
390.961	96.56
391.186	103.56
391.411	111.56
391.636	106.56
391.86	105.56
392.085	98.56
392.31	98.56
392.534	95.56
392.759	97.56
392.984	106.56
393.208	95.56
393.433	87.56
393.658	106.56
393.882	107.56
394.107	107.56
394.331	109.56
394.556	103.56
394.78	97.56
395.005	100.56
395.229	100.56
395.454	86.56
395.678	91.56
395.903	109.56
396.127	115.56
396.352	97.56
396.576	99.56
396.801	103.56
397.025	107.56
397.249	116.56
397.474	111.56
397.698	104.56
397.922	99.56
398.147	95.56
398.371	103.56
398.595	104.56
398.82	112.56
399.044	97.56
399.268	116.56
399.492	105.56
399.717	105.56
399.941	95.56
400.165	100.56
400.389	118.56
400.613	105.56
400.837	111.56
401.062	117.56
401.286	106.56
401.51	118.56
401.734	108.56
401.958	96.56
402.182	100.56
402.406	117.56
402.63	106.56
402.854	116.56
403.078	99.56
403.302	113.56
403.526	117.56
403.75	113.56
403.974	119.56
404.198	116.56
404.422	108.56
404.645	105.56
404.869	104.56
405.093	99.56
405.317	114.56
405.541	119.56
405.765	106.56
405.988	121.56
406.212	109.56
406.436	113.56
406.66	102.56
406.883	111.56
407.107	115.56
407.331	116.56
407.555	119.56
407.778	105.56
408.002	100.56
408.226	114.56
408.449	113.56
408.673	120.56
408.896	123.56
409.12	116.56
409.344	107.56
409.567	137.56
409.791	122.56
410.014	117.56
410.238	101.56
410.461	122.56
410.685	108.56
410.908	115.56
411.132	125.56
411.355	116.56
411.578	124.56
411.802	124.56
412.025	128.56
412.249	122.56
412.472	103.56
412.695	126.56
412.919	105.56
413.142	111.56
413.365	118.56
413.589	125.56
413.812	129.56
414.035	123.56
414.258	131.56
414.482	126.56
414.705	124.56
414.928	117.56
415.151	124.56
415.374	129.56
415.597	121.56
415.821	127.56
416.044	125.56
416.267	107.56
416.49	132.56
416.713	128.56
416.936	125.56
417.159	127.56
417.382	137.56
417.605	114.56
417.828	137.56
418.051	131.56
418.274	135.56
418.497	140.56
418.72	132.56
418.943	125.56
419.166	128.56
419.389	142.56
419.611	130.56
419.834	124.56
420.057	122.56
420.28	133.56
420.503	141.56
420.726	130.56
420.948	124.56
421.171	116.56
421.394	128.56
421.617	142.56
421.839	138.56
422.062	118.56
422.285	142.56
422.507	131.56
422.73	128.56
422.953	116.56
423.175	125.56
423.398	123.56
423.621	121.56
423.843	126.56
424.066	131.56
424.288	125.56
424.511	155.56
424.733	139.56
424.956	129.56
425.178	141.56
425.401	135.56
425.623	131.56
425.846	131.56
426.068	139.56
426.291	133.56
426.513	111.56
426.735	133.56
426.958	131.56
427.18	128.56
427.402	131.56
427.625	130.56
427.847	127.56
428.069	148.56
428.292	124.56
428.514	118.56
428.736	136.56
428.958	119.56
429.181	138.56
429.403	137.56
429.625	139.56
429.847	124.56
430.069	129.56
430.292	117.56
430.514	118.56
430.736	104.56
430.958	115.56
431.18	135.56
431.402	139.56
431.624	113.56
431.846	128.56
432.068	109.56
432.29	93.56
432.512	124.56
432.734	132.56
432.956	128.56
433.178	144.56
433.4	121.56
433.622	138.56
433.844	125.56
434.066	123.56
434.287	119.56
434.509	97.56
434.731	102.56
434.953	124.56
435.175	117.56
435.397	118.56
435.618	115.56
435.84	117.56
436.062	137.56
436.284	118.56
436.505	120.56
436.727	120.56
436.949	125.56
437.17	137.56
437.392	107.56
437.614	125.56
437.835	112.56
438.057	97.56
438.278	119.56
438.5	111.56
438.721	124.56
438.943	122.56
439.165	143.56
439.386	127.56
439.608	137.56
439.829	148.56
440.05	147.56
440.272	138.56
440.493	145.56
440.715	119.56
440.936	129.56
441.158	142.56
441.379	151.56
441.6	143.56
441.822	115.56
442.043	127.56
442.264	142.56
442.486	146.56
442.707	153.56
442.928	139.56
443.149	127.56
443.371	141.56
443.592	121.56
443.813	127.56
444.034	132.56
444.255	131.56
444.476	141.56
444.698	151.56
444.919	136.56
445.14	266.56
445.361	213.56
445.582	143.56
445.803	135.56
446.024	164.56
446.245	153.56
446.466	152.56
446.687	159.56
446.908	147.56
447.129	154.56
447.35	141.56
447.571	148.56
447.792	150.56
448.013	132.56
448.234	137.56
448.455	130.56
448.675	133.56
448.896	151.56
449.117	145.56
449.338	157.56
449.559	124.56
449.779	120.56
450	133.56
450.221	127.56
450.442	142.56
450.662	132.56
450.883	133.56
451.104	128.56
451.324	142.56
451.545	117.56
451.766	121.56
451.986	124.56
452.207	120.56
452.428	117.56
452.648	123.56
452.869	113.56
453.089	122.56
453.31	114.56
453.53	102.56
453.751	122.56
453.971	106.56
454.192	116.56
454.412	106.56
454.633	113.56
454.853	119.56
455.073	130.56
455.294	135.56
455.514	119.56
455.734	101.56
455.955	127.56
456.175	104.56
456.395	99.56
456.616	113.56
456.836	107.56
457.056	113.56
457.276	98.56
457.497	97.56
457.717	105.56
457.937	106.56
458.157	105.56
458.377	108.56
458.598	105.56
458.818	87.56
459.038	70.56
459.258	90.56
459.478	94.56
459.698	93.56
459.918	95.56
460.138	103.56
460.358	128.56
460.578	113.56
460.798	104.56
461.018	127.56
461.238	113.56
461.458	131.56
461.678	107.56
461.898	108.56
462.118	108.56
462.338	108.56
462.558	99.56
462.777	103.56
462.997	103.56
463.217	106.56
463.437	104.56
463.657	108.56
463.876	98.56
464.096	101.56
464.316	108.56
464.536	118.56
464.755	115.56
464.975	105.56
465.195	117.56
465.414	115.56
465.634	103.56
465.854	107.56
466.073	115.56
466.293	112.56
466.512	130.56
466.732	131.56
466.951	137.56
467.171	131.56
467.391	142.56
467.61	127.56
467.829	134.56
468.049	140.56
468.268	128.56
468.488	124.56
468.707	131.56
468.927	121.56
469.146	135.56
469.365	138.56
469.585	129.56
469.804	133.56
470.023	119.56
470.243	135.56
470.462	154.56
470.681	152.56
470.901	141.56
471.12	149.56
471.339	144.56
471.558	148.56
471.777	127.56
471.997	123.56
472.216	136.56
472.435	114.56
472.654	109.56
472.873	101.56
473.092	108.56
473.311	120.56
473.53	119.56
473.749	131.56
473.968	119.56
474.187	106.56
474.406	111.56
474.625	121.56
474.844	127.56
475.063	118.56
475.282	139.56
475.501	109.56
475.72	107.56
475.939	119.56
476.158	134.56
476.377	133.56
476.596	120.56
476.814	116.56
477.033	97.56
477.252	107.56
477.471	121.56
477.69	119.56
477.908	140.56
478.127	135.56
478.346	135.56
478.564	101.56
478.783	133.56
479.002	140.56
479.22	139.56
479.439	127.56
479.658	125.56
479.876	127.56
480.095	122.56
480.313	131.56
480.532	117.56
480.751	108.56
480.969	99.56
481.188	90.56
481.406	87.56
481.624	95.56
481.843	81.56
482.061	104.56
482.28	101.56
482.498	108.56
482.717	104.56
482.935	123.56
483.153	153.56
483.372	147.56
483.59	133.56
483.808	132.56
484.027	136.56
484.245	137.56
484.463	163.56
484.681	167.56
484.9	137.56
485.118	150.56
485.336	133.56
485.554	109.56
485.772	94.56
485.99	103.56
486.209	105.56
486.427	114.56
486.645	127.56
486.863	131.56
487.081	139.56
487.299	130.56
487.517	145.56
487.735	153.56
487.953	171.56
488.171	170.56
488.389	182.56
488.607	168.56
488.825	148.56
489.043	138.56
489.261	145.56
489.479	128.56
489.696	136.56
489.914	130.56
490.132	135.56
490.35	149.56
490.568	159.56
490.786	156.56
491.003	165.56
491.221	180.56
491.439	164.56
491.657	185.56
491.874	207.56
492.092	213.56
492.31	234.56
492.527	218.56
492.745	188.56
492.963	178.56
493.18	172.56
493.398	168.56
493.615	170.56
493.833	169.56
494.05	176.56
494.268	159.56
494.485	159.56
494.703	178.56
494.92	177.56
495.138	175.56
495.355	162.56
495.573	169.56
495.79	162.56
496.008	168.56
496.225	169.56
496.442	150.56
496.66	155.56
496.877	157.56
497.094	180.56
497.312	147.56
497.529	164.56
497.746	146.56
497.963	128.56
498.181	127.56
498.398	106.56
498.615	116.56
498.832	117.56
499.049	117.56
499.267	115.56
499.484	129.56
499.701	124.56
499.918	121.56
500.135	136.56
500.352	125.56
500.569	149.56
500.786	146.56
501.003	147.56
501.22	141.56
501.437	135.56
501.654	122.56
501.871	135.56
502.088	124.56
502.305	141.56
502.522	131.56
502.739	114.56
502.956	133.56
503.172	130.56
503.389	114.56
503.606	121.56
503.823	109.56
504.04	134.56
504.256	117.56
504.473	120.56
504.69	138.56
504.907	119.56
505.123	113.56
505.34	114.56
505.557	112.56
505.773	117.56
505.99	123.56
506.207	125.56
506.423	111.56
506.64	123.56
506.856	108.56
507.073	109.56
507.289	112.56
507.506	117.56
507.722	104.56
507.939	123.56
508.155	114.56
508.372	119.56
508.588	127.56
508.805	104.56
509.021	96.56
509.238	107.56
509.454	111.56
509.67	99.56
509.887	105.56
510.103	106.56
510.319	93.56
510.536	86.56
510.752	83.56
510.968	87.56
511.184	90.56
511.401	88.56
511.617	90.56
511.833	93.56
