Data from Location4.07152019.Energy5.Lamp.07192019.3%Agarose_HRD10591_16-19-33-926.txt Node
Date: Fri Jul 19 16:19:33 EDT 2019
User: cochatt
Spectrometer: HR+D1059
Trigger mode: 1
Integration Time (sec): 1.000000E-1
Scans to average: 1
Electric dark correction enabled: true
Nonlinearity correction enabled: false
Boxcar width: 0
XAxis mode: Wavelengths
Number of Pixels in Spectrum: 2048
>>>>>Begin Spectral Data<<<<<
223.165	-16.75
223.4	-16.75
223.635	-16.75
223.869	-18.75
224.104	-9.75
224.338	-13.75
224.573	-20.75
224.808	0.25
225.042	-5.75
225.277	-4.75
225.511	8.25
225.746	4.25
225.98	12.25
226.215	5.25
226.449	12.25
226.683	6.25
226.918	12.25
227.152	29.25
227.387	40.25
227.621	43.25
227.856	41.25
228.09	62.25
228.324	57.25
228.559	56.25
228.793	59.25
229.027	64.25
229.262	73.25
229.496	76.25
229.73	70.25
229.964	63.25
230.199	75.25
230.433	68.25
230.667	76.25
230.901	71.25
231.136	65.25
231.37	73.25
231.604	84.25
231.838	89.25
232.072	81.25
232.306	73.25
232.541	67.25
232.775	86.25
233.009	82.25
233.243	83.25
233.477	84.25
233.711	90.25
233.945	71.25
234.179	93.25
234.413	72.25
234.647	88.25
234.881	73.25
235.115	85.25
235.349	77.25
235.583	74.25
235.817	81.25
236.051	70.25
236.285	86.25
236.519	72.25
236.753	70.25
236.987	73.25
237.221	78.25
237.455	85.25
237.689	82.25
237.922	82.25
238.156	87.25
238.39	82.25
238.624	79.25
238.858	72.25
239.091	66.25
239.325	75.25
239.559	75.25
239.793	84.25
240.027	70.25
240.26	74.25
240.494	76.25
240.728	78.25
240.961	90.25
241.195	82.25
241.429	68.25
241.662	66.25
241.896	71.25
242.13	95.25
242.363	76.25
242.597	86.25
242.83	79.25
243.064	64.25
243.298	72.25
243.531	77.25
243.765	65.25
243.998	65.25
244.232	89.25
244.465	96.25
244.699	92.25
244.932	77.25
245.166	66.25
245.399	77.25
245.633	81.25
245.866	72.25
246.099	81.25
246.333	67.25
246.566	76.25
246.8	86.25
247.033	76.25
247.266	79.25
247.5	78.25
247.733	80.25
247.966	70.25
248.2	76.25
248.433	88.25
248.666	81.25
248.899	83.25
249.133	58.25
249.366	80.25
249.599	89.25
249.832	73.25
250.066	83.25
250.299	96.25
250.532	71.25
250.765	86.25
250.998	88.25
251.231	64.25
251.465	84.25
251.698	78.25
251.931	71.25
252.164	77.25
252.397	81.25
252.63	83.25
252.863	78.25
253.096	90.25
253.329	79.25
253.562	87.25
253.795	69.25
254.028	88.25
254.261	71.25
254.494	79.25
254.727	75.25
254.96	76.25
255.193	67.25
255.426	85.25
255.659	76.25
255.892	83.25
256.124	79.25
256.357	84.25
256.59	83.25
256.823	84.25
257.056	87.25
257.289	69.25
257.521	75.25
257.754	84.25
257.987	83.25
258.22	88.25
258.452	90.25
258.685	86.25
258.918	76.25
259.151	82.25
259.383	77.25
259.616	75.25
259.849	88.25
260.081	71.25
260.314	93.25
260.547	88.25
260.779	84.25
261.012	81.25
261.244	79.25
261.477	78.25
261.71	88.25
261.942	107.25
262.175	63.25
262.407	81.25
262.64	77.25
262.872	78.25
263.105	84.25
263.337	64.25
263.57	88.25
263.802	82.25
264.035	82.25
264.267	77.25
264.499	88.25
264.732	81.25
264.964	81.25
265.197	84.25
265.429	93.25
265.661	97.25
265.894	66.25
266.126	84.25
266.358	87.25
266.591	83.25
266.823	79.25
267.055	82.25
267.287	69.25
267.52	94.25
267.752	73.25
267.984	87.25
268.216	103.25
268.448	84.25
268.681	78.25
268.913	88.25
269.145	74.25
269.377	86.25
269.609	88.25
269.841	94.25
270.073	73.25
270.306	96.25
270.538	67.25
270.77	75.25
271.002	79.25
271.234	78.25
271.466	82.25
271.698	89.25
271.93	82.25
272.162	76.25
272.394	81.25
272.626	76.25
272.858	82.25
273.09	90.25
273.322	83.25
273.553	75.25
273.785	83.25
274.017	77.25
274.249	75.25
274.481	81.25
274.713	82.25
274.945	88.25
275.176	90.25
275.408	71.25
275.64	79.25
275.872	86.25
276.104	85.25
276.335	76.25
276.567	87.25
276.799	78.25
277.031	84.25
277.262	86.25
277.494	88.25
277.726	96.25
277.957	74.25
278.189	89.25
278.421	85.25
278.652	87.25
278.884	93.25
279.115	71.25
279.347	84.25
279.579	88.25
279.81	79.25
280.042	85.25
280.273	88.25
280.505	84.25
280.736	76.25
280.968	79.25
281.199	89.25
281.431	78.25
281.662	81.25
281.894	74.25
282.125	81.25
282.356	80.25
282.588	84.25
282.819	85.25
283.051	73.25
283.282	86.25
283.513	101.25
283.745	76.25
283.976	77.25
284.207	71.25
284.439	83.25
284.67	85.25
284.901	69.25
285.132	79.25
285.364	86.25
285.595	81.25
285.826	75.25
286.057	70.25
286.288	92.25
286.52	84.25
286.751	79.25
286.982	86.25
287.213	75.25
287.444	80.25
287.675	90.25
287.906	90.25
288.138	92.25
288.369	84.25
288.6	92.25
288.831	86.25
289.062	82.25
289.293	99.25
289.524	84.25
289.755	86.25
289.986	80.25
290.217	81.25
290.448	86.25
290.679	87.25
290.91	84.25
291.141	74.25
291.371	81.25
291.602	87.25
291.833	76.25
292.064	80.25
292.295	79.25
292.526	90.25
292.757	89.25
292.987	87.25
293.218	88.25
293.449	80.25
293.68	81.25
293.91	74.25
294.141	98.25
294.372	76.25
294.603	77.25
294.833	67.25
295.064	67.25
295.295	76.25
295.525	86.25
295.756	92.25
295.987	100.25
296.217	83.25
296.448	82.25
296.679	78.25
296.909	84.25
297.14	91.25
297.37	74.25
297.601	86.25
297.831	74.25
298.062	88.25
298.292	80.25
298.523	75.25
298.753	77.25
298.984	85.25
299.214	92.25
299.445	84.25
299.675	86.25
299.905	83.25
300.136	77.25
300.366	77.25
300.597	85.25
300.827	86.25
301.057	75.25
301.288	88.25
301.518	96.25
301.748	78.25
301.979	83.25
302.209	84.25
302.439	83.25
302.669	94.25
302.9	91.25
303.13	83.25
303.36	80.25
303.59	80.25
303.82	83.25
304.051	86.25
304.281	99.25
304.511	81.25
304.741	74.25
304.971	87.25
305.201	93.25
305.431	77.25
305.661	76.25
305.891	86.25
306.121	83.25
306.352	68.25
306.582	76.25
306.812	103.25
307.042	83.25
307.272	81.25
307.502	100.25
307.731	87.25
307.961	101.25
308.191	69.25
308.421	78.25
308.651	80.25
308.881	78.25
309.111	99.25
309.341	89.25
309.571	86.25
309.8	70.25
310.03	75.25
310.26	77.25
310.49	93.25
310.72	92.25
310.949	90.25
311.179	76.25
311.409	79.25
311.639	68.25
311.868	86.25
312.098	89.25
312.328	82.25
312.557	76.25
312.787	85.25
313.017	85.25
313.246	92.25
313.476	90.25
313.706	71.25
313.935	90.25
314.165	77.25
314.394	87.25
314.624	83.25
314.853	77.25
315.083	76.25
315.312	73.25
315.542	84.25
315.771	88.25
316.001	86.25
316.23	76.25
316.46	75.25
316.689	78.25
316.919	90.25
317.148	97.25
317.377	74.25
317.607	66.25
317.836	77.25
318.065	85.25
318.295	83.25
318.524	94.25
318.753	88.25
318.983	92.25
319.212	94.25
319.441	78.25
319.67	76.25
319.9	78.25
320.129	93.25
320.358	84.25
320.587	85.25
320.816	92.25
321.046	89.25
321.275	88.25
321.504	77.25
321.733	70.25
321.962	93.25
322.191	90.25
322.42	86.25
322.649	108.25
322.878	81.25
323.108	90.25
323.337	90.25
323.566	95.25
323.795	86.25
324.024	91.25
324.253	91.25
324.482	69.25
324.71	90.25
324.939	84.25
325.168	82.25
325.397	81.25
325.626	70.25
325.855	72.25
326.084	85.25
326.313	81.25
326.542	80.25
326.77	69.25
326.999	76.25
327.228	96.25
327.457	86.25
327.686	92.25
327.914	95.25
328.143	71.25
328.372	77.25
328.6	86.25
328.829	81.25
329.058	84.25
329.287	83.25
329.515	73.25
329.744	82.25
329.972	79.25
330.201	93.25
330.43	76.25
330.658	77.25
330.887	82.25
331.115	65.25
331.344	87.25
331.572	93.25
331.801	97.25
332.03	90.25
332.258	76.25
332.486	80.25
332.715	77.25
332.943	74.25
333.172	85.25
333.4	72.25
333.629	87.25
333.857	92.25
334.085	83.25
334.314	84.25
334.542	78.25
334.771	91.25
334.999	99.25
335.227	89.25
335.455	88.25
335.684	100.25
335.912	80.25
336.14	76.25
336.369	80.25
336.597	86.25
336.825	89.25
337.053	77.25
337.281	80.25
337.51	87.25
337.738	92.25
337.966	84.25
338.194	72.25
338.422	90.25
338.65	86.25
338.878	93.25
339.106	80.25
339.334	82.25
339.562	86.25
339.79	77.25
340.018	92.25
340.246	92.25
340.474	84.25
340.702	88.25
340.93	77.25
341.158	87.25
341.386	84.25
341.614	66.25
341.842	79.25
342.07	88.25
342.298	90.25
342.526	85.25
342.754	88.25
342.981	89.25
343.209	87.25
343.437	86.25
343.665	78.25
343.893	96.25
344.12	90.25
344.348	76.25
344.576	90.25
344.804	87.25
345.031	100.25
345.259	83.25
345.487	78.25
345.714	86.25
345.942	74.25
346.17	86.25
346.397	76.25
346.625	87.25
346.853	81.25
347.08	86.25
347.308	90.25
347.535	84.25
347.763	76.25
347.99	88.25
348.218	81.25
348.445	83.25
348.673	88.25
348.9	85.25
349.128	76.25
349.355	87.25
349.583	80.25
349.81	80.25
350.037	90.25
350.265	92.25
350.492	90.25
350.72	86.25
350.947	88.25
351.174	105.25
351.402	81.25
351.629	82.25
351.856	86.25
352.083	74.25
352.311	85.25
352.538	78.25
352.765	77.25
352.992	66.25
353.22	103.25
353.447	73.25
353.674	72.25
353.901	92.25
354.128	93.25
354.355	80.25
354.583	84.25
354.81	87.25
355.037	83.25
355.264	75.25
355.491	84.25
355.718	70.25
355.945	84.25
356.172	79.25
356.399	90.25
356.626	82.25
356.853	81.25
357.08	83.25
357.307	95.25
357.534	89.25
357.761	73.25
357.988	87.25
358.215	73.25
358.441	93.25
358.668	85.25
358.895	83.25
359.122	82.25
359.349	76.25
359.576	87.25
359.802	87.25
360.029	80.25
360.256	112.25
360.483	86.25
360.709	79.25
360.936	81.25
361.163	93.25
361.39	90.25
361.616	85.25
361.843	99.25
362.07	89.25
362.296	80.25
362.523	82.25
362.749	75.25
362.976	85.25
363.203	86.25
363.429	82.25
363.656	98.25
363.882	106.25
364.109	77.25
364.335	75.25
364.562	77.25
364.788	101.25
365.015	73.25
365.241	84.25
365.468	83.25
365.694	85.25
365.92	89.25
366.147	86.25
366.373	98.25
366.599	73.25
366.826	84.25
367.052	76.25
367.278	82.25
367.505	96.25
367.731	97.25
367.957	86.25
368.184	98.25
368.41	90.25
368.636	72.25
368.862	83.25
369.089	83.25
369.315	93.25
369.541	84.25
369.767	92.25
369.993	93.25
370.219	75.25
370.445	76.25
370.672	87.25
370.898	75.25
371.124	80.25
371.35	93.25
371.576	86.25
371.802	82.25
372.028	91.25
372.254	97.25
372.48	88.25
372.706	93.25
372.932	91.25
373.158	84.25
373.384	68.25
373.61	108.25
373.835	79.25
374.061	84.25
374.287	81.25
374.513	77.25
374.739	95.25
374.965	94.25
375.191	89.25
375.416	84.25
375.642	93.25
375.868	98.25
376.094	88.25
376.319	97.25
376.545	90.25
376.771	76.25
376.997	93.25
377.222	82.25
377.448	88.25
377.674	83.25
377.899	86.25
378.125	83.25
378.35	87.25
378.576	96.25
378.802	97.25
379.027	85.25
379.253	85.25
379.478	93.25
379.704	95.25
379.929	90.25
380.155	84.25
380.38	89.25
380.606	106.25
380.831	104.25
381.057	95.25
381.282	100.25
381.507	104.25
381.733	101.25
381.958	101.25
382.184	112.25
382.409	96.25
382.634	84.25
382.86	103.25
383.085	112.25
383.31	92.25
383.535	101.25
383.761	95.25
383.986	93.25
384.211	89.25
384.436	103.25
384.662	102.25
384.887	94.25
385.112	87.25
385.337	96.25
385.562	94.25
385.787	108.25
386.013	89.25
386.238	97.25
386.463	98.25
386.688	98.25
386.913	99.25
387.138	87.25
387.363	92.25
387.588	90.25
387.813	104.25
388.038	99.25
388.263	98.25
388.488	93.25
388.713	103.25
388.938	96.25
389.163	92.25
389.387	112.25
389.612	100.25
389.837	98.25
390.062	110.25
390.287	87.25
390.512	112.25
390.736	102.25
390.961	102.25
391.186	100.25
391.411	116.25
391.636	82.25
391.86	100.25
392.085	107.25
392.31	110.25
392.534	106.25
392.759	115.25
392.984	96.25
393.208	100.25
393.433	97.25
393.658	100.25
393.882	100.25
394.107	112.25
394.331	114.25
394.556	113.25
394.78	122.25
395.005	98.25
395.229	106.25
395.454	100.25
395.678	97.25
395.903	106.25
396.127	112.25
396.352	112.25
396.576	108.25
396.801	104.25
397.025	97.25
397.249	105.25
397.474	114.25
397.698	114.25
397.922	108.25
398.147	107.25
398.371	103.25
398.595	97.25
398.82	102.25
399.044	106.25
399.268	115.25
399.492	93.25
399.717	117.25
399.941	115.25
400.165	101.25
400.389	115.25
400.613	106.25
400.837	116.25
401.062	111.25
401.286	105.25
401.51	102.25
401.734	104.25
401.958	116.25
402.182	110.25
402.406	109.25
402.63	90.25
402.854	116.25
403.078	122.25
403.302	113.25
403.526	128.25
403.75	100.25
403.974	110.25
404.198	108.25
404.422	114.25
404.645	107.25
404.869	106.25
405.093	115.25
405.317	109.25
405.541	114.25
405.765	114.25
405.988	122.25
406.212	117.25
406.436	116.25
406.66	112.25
406.883	110.25
407.107	116.25
407.331	123.25
407.555	116.25
407.778	120.25
408.002	118.25
408.226	109.25
408.449	123.25
408.673	122.25
408.896	106.25
409.12	106.25
409.344	112.25
409.567	130.25
409.791	107.25
410.014	105.25
410.238	119.25
410.461	122.25
410.685	114.25
410.908	119.25
411.132	92.25
411.355	110.25
411.578	128.25
411.802	106.25
412.025	105.25
412.249	125.25
412.472	107.25
412.695	116.25
412.919	122.25
413.142	130.25
413.365	124.25
413.589	137.25
413.812	121.25
414.035	123.25
414.258	123.25
414.482	115.25
414.705	126.25
414.928	125.25
415.151	122.25
415.374	106.25
415.597	122.25
415.821	112.25
416.044	126.25
416.267	120.25
416.49	128.25
416.713	131.25
416.936	112.25
417.159	112.25
417.382	128.25
417.605	131.25
417.828	127.25
418.051	107.25
418.274	128.25
418.497	112.25
418.72	130.25
418.943	119.25
419.166	119.25
419.389	114.25
419.611	127.25
419.834	130.25
420.057	132.25
420.28	134.25
420.503	125.25
420.726	124.25
420.948	113.25
421.171	119.25
421.394	125.25
421.617	137.25
421.839	144.25
422.062	127.25
422.285	124.25
422.507	141.25
422.73	147.25
422.953	122.25
423.175	129.25
423.398	126.25
423.621	138.25
423.843	140.25
424.066	137.25
424.288	142.25
424.511	122.25
424.733	120.25
424.956	132.25
425.178	112.25
425.401	127.25
425.623	123.25
425.846	134.25
426.068	115.25
426.291	122.25
426.513	124.25
426.735	132.25
426.958	134.25
427.18	122.25
427.402	136.25
427.625	117.25
427.847	114.25
428.069	126.25
428.292	126.25
428.514	122.25
428.736	123.25
428.958	123.25
429.181	118.25
429.403	126.25
429.625	120.25
429.847	118.25
430.069	126.25
430.292	124.25
430.514	126.25
430.736	117.25
430.958	114.25
431.18	138.25
431.402	131.25
431.624	108.25
431.846	125.25
432.068	98.25
432.29	85.25
432.512	116.25
432.734	128.25
432.956	136.25
433.178	137.25
433.4	129.25
433.622	145.25
433.844	148.25
434.066	115.25
434.287	111.25
434.509	100.25
434.731	92.25
434.953	112.25
435.175	126.25
435.397	122.25
435.618	119.25
435.84	114.25
436.062	108.25
436.284	110.25
436.505	128.25
436.727	126.25
436.949	131.25
437.17	130.25
437.392	117.25
437.614	125.25
437.835	103.25
438.057	107.25
438.278	116.25
438.5	119.25
438.721	134.25
438.943	145.25
439.165	136.25
439.386	132.25
439.608	138.25
439.829	122.25
440.05	146.25
440.272	135.25
440.493	139.25
440.715	142.25
440.936	136.25
441.158	136.25
441.379	145.25
441.6	142.25
441.822	157.25
442.043	141.25
442.264	137.25
442.486	122.25
442.707	136.25
442.928	150.25
443.149	128.25
443.371	137.25
443.592	138.25
443.813	135.25
444.034	141.25
444.255	129.25
444.476	146.25
444.698	145.25
444.919	128.25
445.14	259.25
445.361	211.25
445.582	141.25
445.803	130.25
446.024	138.25
446.245	149.25
446.466	160.25
446.687	154.25
446.908	159.25
447.129	150.25
447.35	149.25
447.571	154.25
447.792	149.25
448.013	140.25
448.234	142.25
448.455	128.25
448.675	139.25
448.896	135.25
449.117	141.25
449.338	133.25
449.559	125.25
449.779	134.25
450	142.25
450.221	125.25
450.442	132.25
450.662	124.25
450.883	136.25
451.104	123.25
451.324	134.25
451.545	140.25
451.766	126.25
451.986	134.25
452.207	135.25
452.428	129.25
452.648	124.25
452.869	120.25
453.089	111.25
453.31	88.25
453.53	100.25
453.751	123.25
453.971	104.25
454.192	107.25
454.412	125.25
454.633	105.25
454.853	128.25
455.073	122.25
455.294	127.25
455.514	125.25
455.734	120.25
455.955	110.25
456.175	102.25
456.395	126.25
456.616	122.25
456.836	113.25
457.056	102.25
457.276	104.25
457.497	108.25
457.717	118.25
457.937	126.25
458.157	113.25
458.377	106.25
458.598	100.25
458.818	97.25
459.038	93.25
459.258	101.25
459.478	83.25
459.698	90.25
459.918	87.25
460.138	116.25
460.358	94.25
460.578	108.25
460.798	109.25
461.018	105.25
461.238	118.25
461.458	109.25
461.678	114.25
461.898	113.25
462.118	109.25
462.338	116.25
462.558	117.25
462.777	109.25
462.997	100.25
463.217	118.25
463.437	109.25
463.657	103.25
463.876	123.25
464.096	108.25
464.316	107.25
464.536	106.25
464.755	109.25
464.975	117.25
465.195	112.25
465.414	130.25
465.634	138.25
465.854	114.25
466.073	120.25
466.293	121.25
466.512	133.25
466.732	131.25
466.951	146.25
467.171	136.25
467.391	130.25
467.61	125.25
467.829	136.25
468.049	134.25
468.268	115.25
468.488	139.25
468.707	141.25
468.927	132.25
469.146	124.25
469.365	132.25
469.585	125.25
469.804	128.25
470.023	148.25
470.243	134.25
470.462	140.25
470.681	119.25
470.901	131.25
471.12	123.25
471.339	136.25
471.558	132.25
471.777	147.25
471.997	124.25
472.216	128.25
472.435	115.25
472.654	119.25
472.873	117.25
473.092	118.25
473.311	127.25
473.53	120.25
473.749	136.25
473.968	132.25
474.187	120.25
474.406	97.25
474.625	124.25
474.844	143.25
475.063	132.25
475.282	123.25
475.501	123.25
475.72	118.25
475.939	122.25
476.158	132.25
476.377	123.25
476.596	113.25
476.814	122.25
477.033	109.25
477.252	110.25
477.471	116.25
477.69	137.25
477.908	136.25
478.127	141.25
478.346	127.25
478.564	133.25
478.783	126.25
479.002	142.25
479.22	153.25
479.439	150.25
479.658	125.25
479.876	115.25
480.095	105.25
480.313	124.25
480.532	120.25
480.751	106.25
480.969	97.25
481.188	84.25
481.406	83.25
481.624	88.25
481.843	93.25
482.061	96.25
482.28	115.25
482.498	105.25
482.717	108.25
482.935	117.25
483.153	151.25
483.372	132.25
483.59	157.25
483.808	161.25
484.027	136.25
484.245	144.25
484.463	124.25
484.681	153.25
484.9	148.25
485.118	130.25
485.336	110.25
485.554	117.25
485.772	92.25
485.99	99.25
486.209	108.25
486.427	116.25
486.645	126.25
486.863	138.25
487.081	149.25
487.299	131.25
487.517	145.25
487.735	165.25
487.953	172.25
488.171	187.25
488.389	149.25
488.607	164.25
488.825	152.25
489.043	126.25
489.261	153.25
489.479	140.25
489.696	135.25
489.914	141.25
490.132	129.25
490.35	153.25
490.568	165.25
490.786	160.25
491.003	184.25
491.221	176.25
491.439	179.25
491.657	192.25
491.874	187.25
492.092	218.25
492.31	235.25
492.527	220.25
492.745	195.25
492.963	181.25
493.18	173.25
493.398	172.25
493.615	179.25
493.833	166.25
494.05	151.25
494.268	165.25
494.485	176.25
494.703	167.25
494.92	173.25
495.138	168.25
495.355	172.25
495.573	157.25
495.79	170.25
496.008	142.25
496.225	148.25
496.442	158.25
496.66	166.25
496.877	151.25
497.094	165.25
497.312	156.25
497.529	170.25
497.746	150.25
497.963	144.25
498.181	134.25
498.398	138.25
498.615	128.25
498.832	109.25
499.049	112.25
499.267	118.25
499.484	129.25
499.701	132.25
499.918	152.25
500.135	125.25
500.352	121.25
500.569	144.25
500.786	128.25
501.003	139.25
501.22	136.25
501.437	151.25
501.654	135.25
501.871	142.25
502.088	122.25
502.305	112.25
502.522	114.25
502.739	132.25
502.956	121.25
503.172	126.25
503.389	120.25
503.606	112.25
503.823	107.25
504.04	119.25
504.256	126.25
504.473	126.25
504.69	116.25
504.907	124.25
505.123	119.25
505.34	129.25
505.557	115.25
505.773	121.25
505.99	114.25
506.207	120.25
506.423	127.25
506.64	124.25
506.856	124.25
507.073	107.25
507.289	113.25
507.506	117.25
507.722	117.25
507.939	110.25
508.155	128.25
508.372	122.25
508.588	114.25
508.805	113.25
509.021	108.25
509.238	98.25
509.454	104.25
509.67	93.25
509.887	94.25
510.103	113.25
510.319	105.25
510.536	103.25
510.752	84.25
510.968	87.25
511.184	83.25
511.401	89.25
511.617	98.25
