Data from Location4.07152019.Energy5.Lamp.07192019.3%Agarose_HRD10591_16-19-22-925.txt Node
Date: Fri Jul 19 16:19:22 EDT 2019
User: cochatt
Spectrometer: HR+D1059
Trigger mode: 1
Integration Time (sec): 1.000000E-1
Scans to average: 1
Electric dark correction enabled: true
Nonlinearity correction enabled: false
Boxcar width: 0
XAxis mode: Wavelengths
Number of Pixels in Spectrum: 2048
>>>>>Begin Spectral Data<<<<<
223.165	-6.81
223.4	-6.81
223.635	-6.81
223.869	-10.81
224.104	-12.81
224.338	-18.81
224.573	-13.81
224.808	-19.81
225.042	7.19
225.277	-10.81
225.511	-7.81
225.746	-10.81
225.98	9.19
226.215	12.19
226.449	5.19
226.683	25.19
226.918	25.19
227.152	28.19
227.387	47.19
227.621	37.19
227.856	39.19
228.09	62.19
228.324	43.19
228.559	64.19
228.793	65.19
229.027	69.19
229.262	69.19
229.496	85.19
229.73	53.19
229.964	75.19
230.199	72.19
230.433	69.19
230.667	82.19
230.901	76.19
231.136	79.19
231.37	73.19
231.604	85.19
231.838	93.19
232.072	72.19
232.306	89.19
232.541	83.19
232.775	77.19
233.009	80.19
233.243	74.19
233.477	77.19
233.711	90.19
233.945	79.19
234.179	79.19
234.413	66.19
234.647	77.19
234.881	91.19
235.115	84.19
235.349	73.19
235.583	73.19
235.817	90.19
236.051	77.19
236.285	84.19
236.519	76.19
236.753	68.19
236.987	93.19
237.221	82.19
237.455	79.19
237.689	76.19
237.922	78.19
238.156	85.19
238.39	85.19
238.624	92.19
238.858	77.19
239.091	79.19
239.325	79.19
239.559	78.19
239.793	92.19
240.027	75.19
240.26	73.19
240.494	65.19
240.728	64.19
240.961	83.19
241.195	83.19
241.429	86.19
241.662	78.19
241.896	71.19
242.13	69.19
242.363	80.19
242.597	83.19
242.83	89.19
243.064	80.19
243.298	65.19
243.531	84.19
243.765	66.19
243.998	78.19
244.232	89.19
244.465	82.19
244.699	77.19
244.932	82.19
245.166	72.19
245.399	84.19
245.633	85.19
245.866	61.19
246.099	73.19
246.333	72.19
246.566	82.19
246.8	79.19
247.033	71.19
247.266	76.19
247.5	73.19
247.733	78.19
247.966	88.19
248.2	80.19
248.433	82.19
248.666	90.19
248.899	90.19
249.133	72.19
249.366	74.19
249.599	85.19
249.832	93.19
250.066	88.19
250.299	63.19
250.532	66.19
250.765	82.19
250.998	73.19
251.231	87.19
251.465	81.19
251.698	68.19
251.931	97.19
252.164	69.19
252.397	64.19
252.63	77.19
252.863	69.19
253.096	73.19
253.329	82.19
253.562	87.19
253.795	79.19
254.028	83.19
254.261	65.19
254.494	81.19
254.727	77.19
254.96	71.19
255.193	74.19
255.426	77.19
255.659	70.19
255.892	85.19
256.124	94.19
256.357	86.19
256.59	91.19
256.823	79.19
257.056	83.19
257.289	87.19
257.521	80.19
257.754	90.19
257.987	88.19
258.22	76.19
258.452	85.19
258.685	71.19
258.918	74.19
259.151	99.19
259.383	72.19
259.616	76.19
259.849	67.19
260.081	83.19
260.314	91.19
260.547	81.19
260.779	83.19
261.012	85.19
261.244	83.19
261.477	89.19
261.71	82.19
261.942	87.19
262.175	80.19
262.407	83.19
262.64	71.19
262.872	78.19
263.105	82.19
263.337	93.19
263.57	90.19
263.802	77.19
264.035	77.19
264.267	70.19
264.499	85.19
264.732	92.19
264.964	76.19
265.197	86.19
265.429	92.19
265.661	87.19
265.894	81.19
266.126	72.19
266.358	93.19
266.591	81.19
266.823	81.19
267.055	75.19
267.287	91.19
267.52	94.19
267.752	89.19
267.984	72.19
268.216	84.19
268.448	90.19
268.681	88.19
268.913	77.19
269.145	92.19
269.377	87.19
269.609	84.19
269.841	88.19
270.073	85.19
270.306	82.19
270.538	85.19
270.77	90.19
271.002	75.19
271.234	76.19
271.466	93.19
271.698	85.19
271.93	71.19
272.162	91.19
272.394	83.19
272.626	88.19
272.858	75.19
273.09	71.19
273.322	85.19
273.553	82.19
273.785	64.19
274.017	81.19
274.249	78.19
274.481	78.19
274.713	77.19
274.945	83.19
275.176	83.19
275.408	92.19
275.64	80.19
275.872	67.19
276.104	85.19
276.335	97.19
276.567	75.19
276.799	85.19
277.031	91.19
277.262	68.19
277.494	93.19
277.726	77.19
277.957	84.19
278.189	78.19
278.421	74.19
278.652	76.19
278.884	94.19
279.115	80.19
279.347	80.19
279.579	74.19
279.81	86.19
280.042	97.19
280.273	79.19
280.505	83.19
280.736	82.19
280.968	82.19
281.199	90.19
281.431	73.19
281.662	82.19
281.894	78.19
282.125	81.19
282.356	85.19
282.588	81.19
282.819	86.19
283.051	80.19
283.282	72.19
283.513	92.19
283.745	75.19
283.976	77.19
284.207	85.19
284.439	92.19
284.67	85.19
284.901	88.19
285.132	77.19
285.364	90.19
285.595	82.19
285.826	92.19
286.057	79.19
286.288	73.19
286.52	85.19
286.751	85.19
286.982	77.19
287.213	79.19
287.444	81.19
287.675	83.19
287.906	94.19
288.138	82.19
288.369	89.19
288.6	72.19
288.831	79.19
289.062	96.19
289.293	83.19
289.524	85.19
289.755	92.19
289.986	73.19
290.217	87.19
290.448	87.19
290.679	76.19
290.91	80.19
291.141	79.19
291.371	92.19
291.602	91.19
291.833	84.19
292.064	93.19
292.295	83.19
292.526	98.19
292.757	84.19
292.987	90.19
293.218	85.19
293.449	78.19
293.68	91.19
293.91	79.19
294.141	70.19
294.372	79.19
294.603	83.19
294.833	90.19
295.064	83.19
295.295	77.19
295.525	96.19
295.756	90.19
295.987	89.19
296.217	81.19
296.448	98.19
296.679	82.19
296.909	86.19
297.14	80.19
297.37	79.19
297.601	86.19
297.831	79.19
298.062	88.19
298.292	89.19
298.523	77.19
298.753	84.19
298.984	84.19
299.214	82.19
299.445	77.19
299.675	89.19
299.905	93.19
300.136	87.19
300.366	83.19
300.597	95.19
300.827	80.19
301.057	106.19
301.288	81.19
301.518	71.19
301.748	71.19
301.979	81.19
302.209	91.19
302.439	88.19
302.669	90.19
302.9	73.19
303.13	84.19
303.36	80.19
303.59	95.19
303.82	94.19
304.051	80.19
304.281	84.19
304.511	88.19
304.741	92.19
304.971	71.19
305.201	87.19
305.431	75.19
305.661	84.19
305.891	67.19
306.121	76.19
306.352	107.19
306.582	82.19
306.812	91.19
307.042	81.19
307.272	80.19
307.502	80.19
307.731	85.19
307.961	90.19
308.191	83.19
308.421	90.19
308.651	86.19
308.881	81.19
309.111	91.19
309.341	75.19
309.571	72.19
309.8	84.19
310.03	80.19
310.26	103.19
310.49	82.19
310.72	85.19
310.949	86.19
311.179	87.19
311.409	80.19
311.639	82.19
311.868	82.19
312.098	101.19
312.328	76.19
312.557	90.19
312.787	83.19
313.017	68.19
313.246	79.19
313.476	87.19
313.706	80.19
313.935	82.19
314.165	82.19
314.394	89.19
314.624	78.19
314.853	81.19
315.083	84.19
315.312	90.19
315.542	71.19
315.771	83.19
316.001	86.19
316.23	94.19
316.46	77.19
316.689	67.19
316.919	95.19
317.148	69.19
317.377	81.19
317.607	85.19
317.836	69.19
318.065	77.19
318.295	76.19
318.524	83.19
318.753	84.19
318.983	94.19
319.212	78.19
319.441	76.19
319.67	79.19
319.9	67.19
320.129	82.19
320.358	90.19
320.587	67.19
320.816	94.19
321.046	94.19
321.275	83.19
321.504	90.19
321.733	81.19
321.962	99.19
322.191	95.19
322.42	87.19
322.649	76.19
322.878	89.19
323.108	85.19
323.337	81.19
323.566	75.19
323.795	80.19
324.024	79.19
324.253	76.19
324.482	75.19
324.71	79.19
324.939	92.19
325.168	84.19
325.397	82.19
325.626	88.19
325.855	84.19
326.084	94.19
326.313	70.19
326.542	84.19
326.77	82.19
326.999	75.19
327.228	73.19
327.457	73.19
327.686	87.19
327.914	88.19
328.143	98.19
328.372	82.19
328.6	76.19
328.829	90.19
329.058	82.19
329.287	71.19
329.515	95.19
329.744	73.19
329.972	80.19
330.201	88.19
330.43	86.19
330.658	79.19
330.887	82.19
331.115	81.19
331.344	77.19
331.572	103.19
331.801	75.19
332.03	90.19
332.258	83.19
332.486	81.19
332.715	84.19
332.943	84.19
333.172	84.19
333.4	78.19
333.629	81.19
333.857	76.19
334.085	89.19
334.314	77.19
334.542	82.19
334.771	92.19
334.999	85.19
335.227	84.19
335.455	85.19
335.684	96.19
335.912	98.19
336.14	72.19
336.369	83.19
336.597	82.19
336.825	86.19
337.053	79.19
337.281	83.19
337.51	86.19
337.738	98.19
337.966	88.19
338.194	87.19
338.422	74.19
338.65	83.19
338.878	74.19
339.106	74.19
339.334	75.19
339.562	87.19
339.79	86.19
340.018	66.19
340.246	91.19
340.474	92.19
340.702	90.19
340.93	89.19
341.158	85.19
341.386	75.19
341.614	71.19
341.842	81.19
342.07	97.19
342.298	89.19
342.526	83.19
342.754	90.19
342.981	83.19
343.209	84.19
343.437	88.19
343.665	88.19
343.893	83.19
344.12	90.19
344.348	84.19
344.576	83.19
344.804	84.19
345.031	84.19
345.259	112.19
345.487	85.19
345.714	81.19
345.942	80.19
346.17	87.19
346.397	92.19
346.625	78.19
346.853	76.19
347.08	67.19
347.308	86.19
347.535	79.19
347.763	83.19
347.99	84.19
348.218	89.19
348.445	89.19
348.673	73.19
348.9	83.19
349.128	88.19
349.355	77.19
349.583	79.19
349.81	81.19
350.037	72.19
350.265	81.19
350.492	90.19
350.72	77.19
350.947	92.19
351.174	91.19
351.402	87.19
351.629	86.19
351.856	91.19
352.083	86.19
352.311	82.19
352.538	77.19
352.765	79.19
352.992	86.19
353.22	91.19
353.447	82.19
353.674	91.19
353.901	95.19
354.128	100.19
354.355	96.19
354.583	77.19
354.81	80.19
355.037	86.19
355.264	83.19
355.491	73.19
355.718	95.19
355.945	81.19
356.172	84.19
356.399	76.19
356.626	70.19
356.853	87.19
357.08	88.19
357.307	85.19
357.534	77.19
357.761	84.19
357.988	81.19
358.215	80.19
358.441	81.19
358.668	91.19
358.895	77.19
359.122	74.19
359.349	83.19
359.576	93.19
359.802	83.19
360.029	72.19
360.256	91.19
360.483	88.19
360.709	92.19
360.936	98.19
361.163	70.19
361.39	81.19
361.616	80.19
361.843	73.19
362.07	89.19
362.296	90.19
362.523	87.19
362.749	72.19
362.976	75.19
363.203	84.19
363.429	95.19
363.656	81.19
363.882	88.19
364.109	80.19
364.335	81.19
364.562	89.19
364.788	92.19
365.015	85.19
365.241	79.19
365.468	87.19
365.694	91.19
365.92	77.19
366.147	82.19
366.373	81.19
366.599	68.19
366.826	90.19
367.052	87.19
367.278	89.19
367.505	88.19
367.731	79.19
367.957	75.19
368.184	79.19
368.41	70.19
368.636	97.19
368.862	110.19
369.089	100.19
369.315	79.19
369.541	98.19
369.767	100.19
369.993	98.19
370.219	76.19
370.445	91.19
370.672	86.19
370.898	89.19
371.124	83.19
371.35	100.19
371.576	83.19
371.802	91.19
372.028	92.19
372.254	89.19
372.48	96.19
372.706	86.19
372.932	77.19
373.158	93.19
373.384	95.19
373.61	86.19
373.835	97.19
374.061	91.19
374.287	87.19
374.513	93.19
374.739	96.19
374.965	107.19
375.191	87.19
375.416	85.19
375.642	89.19
375.868	89.19
376.094	99.19
376.319	80.19
376.545	88.19
376.771	97.19
376.997	100.19
377.222	92.19
377.448	98.19
377.674	81.19
377.899	96.19
378.125	101.19
378.35	101.19
378.576	99.19
378.802	99.19
379.027	96.19
379.253	102.19
379.478	84.19
379.704	98.19
379.929	107.19
380.155	86.19
380.38	85.19
380.606	98.19
380.831	86.19
381.057	92.19
381.282	109.19
381.507	98.19
381.733	99.19
381.958	99.19
382.184	95.19
382.409	100.19
382.634	89.19
382.86	103.19
383.085	100.19
383.31	87.19
383.535	87.19
383.761	93.19
383.986	88.19
384.211	96.19
384.436	91.19
384.662	97.19
384.887	87.19
385.112	102.19
385.337	92.19
385.562	90.19
385.787	92.19
386.013	100.19
386.238	97.19
386.463	98.19
386.688	100.19
386.913	112.19
387.138	111.19
387.363	101.19
387.588	99.19
387.813	104.19
388.038	91.19
388.263	98.19
388.488	94.19
388.713	92.19
388.938	87.19
389.163	106.19
389.387	108.19
389.612	105.19
389.837	97.19
390.062	91.19
390.287	91.19
390.512	100.19
390.736	105.19
390.961	88.19
391.186	106.19
391.411	97.19
391.636	102.19
391.86	92.19
392.085	105.19
392.31	97.19
392.534	93.19
392.759	109.19
392.984	110.19
393.208	100.19
393.433	108.19
393.658	93.19
393.882	102.19
394.107	82.19
394.331	86.19
394.556	104.19
394.78	105.19
395.005	89.19
395.229	95.19
395.454	109.19
395.678	97.19
395.903	108.19
396.127	105.19
396.352	100.19
396.576	103.19
396.801	105.19
397.025	107.19
397.249	105.19
397.474	88.19
397.698	120.19
397.922	101.19
398.147	95.19
398.371	121.19
398.595	112.19
398.82	107.19
399.044	101.19
399.268	104.19
399.492	102.19
399.717	103.19
399.941	102.19
400.165	101.19
400.389	105.19
400.613	109.19
400.837	108.19
401.062	121.19
401.286	95.19
401.51	111.19
401.734	101.19
401.958	113.19
402.182	116.19
402.406	116.19
402.63	114.19
402.854	104.19
403.078	115.19
403.302	97.19
403.526	107.19
403.75	113.19
403.974	101.19
404.198	121.19
404.422	117.19
404.645	112.19
404.869	107.19
405.093	108.19
405.317	143.19
405.541	115.19
405.765	114.19
405.988	128.19
406.212	124.19
406.436	102.19
406.66	113.19
406.883	123.19
407.107	112.19
407.331	112.19
407.555	109.19
407.778	118.19
408.002	119.19
408.226	102.19
408.449	115.19
408.673	104.19
408.896	113.19
409.12	111.19
409.344	119.19
409.567	117.19
409.791	112.19
410.014	119.19
410.238	106.19
410.461	117.19
410.685	127.19
410.908	132.19
411.132	120.19
411.355	118.19
411.578	117.19
411.802	98.19
412.025	113.19
412.249	116.19
412.472	117.19
412.695	110.19
412.919	106.19
413.142	115.19
413.365	111.19
413.589	117.19
413.812	113.19
414.035	124.19
414.258	119.19
414.482	121.19
414.705	113.19
414.928	119.19
415.151	118.19
415.374	113.19
415.597	121.19
415.821	134.19
416.044	116.19
416.267	145.19
416.49	120.19
416.713	115.19
416.936	116.19
417.159	122.19
417.382	115.19
417.605	117.19
417.828	125.19
418.051	129.19
418.274	128.19
418.497	127.19
418.72	120.19
418.943	125.19
419.166	127.19
419.389	130.19
419.611	119.19
419.834	113.19
420.057	128.19
420.28	124.19
420.503	113.19
420.726	118.19
420.948	128.19
421.171	131.19
421.394	128.19
421.617	144.19
421.839	131.19
422.062	127.19
422.285	127.19
422.507	123.19
422.73	115.19
422.953	139.19
423.175	127.19
423.398	117.19
423.621	119.19
423.843	128.19
424.066	128.19
424.288	125.19
424.511	147.19
424.733	151.19
424.956	134.19
425.178	140.19
425.401	140.19
425.623	125.19
425.846	139.19
426.068	133.19
426.291	123.19
426.513	128.19
426.735	123.19
426.958	130.19
427.18	123.19
427.402	106.19
427.625	140.19
427.847	135.19
428.069	134.19
428.292	119.19
428.514	133.19
428.736	125.19
428.958	121.19
429.181	135.19
429.403	123.19
429.625	130.19
429.847	118.19
430.069	133.19
430.292	123.19
430.514	126.19
430.736	136.19
430.958	127.19
431.18	127.19
431.402	121.19
431.624	109.19
431.846	103.19
432.068	95.19
432.29	85.19
432.512	106.19
432.734	123.19
432.956	127.19
433.178	142.19
433.4	127.19
433.622	130.19
433.844	133.19
434.066	117.19
434.287	114.19
434.509	97.19
434.731	107.19
434.953	96.19
435.175	115.19
435.397	125.19
435.618	121.19
435.84	107.19
436.062	113.19
436.284	131.19
436.505	138.19
436.727	114.19
436.949	120.19
437.17	131.19
437.392	121.19
437.614	116.19
437.835	118.19
438.057	104.19
438.278	111.19
438.5	111.19
438.721	138.19
438.943	132.19
439.165	140.19
439.386	148.19
439.608	139.19
439.829	131.19
440.05	147.19
440.272	147.19
440.493	139.19
440.715	149.19
440.936	145.19
441.158	146.19
441.379	145.19
441.6	152.19
441.822	130.19
442.043	127.19
442.264	123.19
442.486	120.19
442.707	112.19
442.928	129.19
443.149	146.19
443.371	137.19
443.592	139.19
443.813	129.19
444.034	136.19
444.255	136.19
444.476	149.19
444.698	136.19
444.919	133.19
445.14	269.19
445.361	193.19
445.582	146.19
445.803	142.19
446.024	139.19
446.245	146.19
446.466	136.19
446.687	147.19
446.908	149.19
447.129	157.19
447.35	159.19
447.571	141.19
447.792	137.19
448.013	132.19
448.234	134.19
448.455	141.19
448.675	146.19
448.896	139.19
449.117	133.19
449.338	127.19
449.559	136.19
449.779	140.19
450	132.19
450.221	131.19
450.442	134.19
450.662	128.19
450.883	117.19
451.104	132.19
451.324	119.19
451.545	131.19
451.766	125.19
451.986	125.19
452.207	122.19
452.428	132.19
452.648	123.19
452.869	113.19
453.089	116.19
453.31	111.19
453.53	106.19
453.751	96.19
453.971	104.19
454.192	109.19
454.412	125.19
454.633	115.19
454.853	108.19
455.073	126.19
455.294	113.19
455.514	117.19
455.734	124.19
455.955	109.19
456.175	115.19
456.395	111.19
456.616	100.19
456.836	108.19
457.056	113.19
457.276	115.19
457.497	117.19
457.717	109.19
457.937	98.19
458.157	105.19
458.377	110.19
458.598	117.19
458.818	97.19
459.038	84.19
459.258	84.19
459.478	99.19
459.698	97.19
459.918	93.19
460.138	118.19
460.358	122.19
460.578	122.19
460.798	116.19
461.018	115.19
461.238	104.19
461.458	107.19
461.678	112.19
461.898	105.19
462.118	102.19
462.338	113.19
462.558	111.19
462.777	112.19
462.997	113.19
463.217	97.19
463.437	100.19
463.657	101.19
463.876	115.19
464.096	101.19
464.316	108.19
464.536	118.19
464.755	116.19
464.975	119.19
465.195	117.19
465.414	121.19
465.634	120.19
465.854	129.19
466.073	128.19
466.293	131.19
466.512	114.19
466.732	121.19
466.951	112.19
467.171	136.19
467.391	123.19
467.61	129.19
467.829	142.19
468.049	145.19
468.268	122.19
468.488	123.19
468.707	123.19
468.927	130.19
469.146	133.19
469.365	136.19
469.585	134.19
469.804	135.19
470.023	125.19
470.243	137.19
470.462	142.19
470.681	140.19
470.901	141.19
471.12	139.19
471.339	146.19
471.558	133.19
471.777	149.19
471.997	133.19
472.216	117.19
472.435	116.19
472.654	116.19
472.873	112.19
473.092	121.19
473.311	124.19
473.53	137.19
473.749	120.19
473.968	127.19
474.187	124.19
474.406	115.19
474.625	111.19
474.844	122.19
475.063	124.19
475.282	131.19
475.501	111.19
475.72	115.19
475.939	113.19
476.158	119.19
476.377	116.19
476.596	108.19
476.814	104.19
477.033	105.19
477.252	108.19
477.471	119.19
477.69	116.19
477.908	131.19
478.127	141.19
478.346	133.19
478.564	122.19
478.783	137.19
479.002	131.19
479.22	133.19
479.439	137.19
479.658	129.19
479.876	104.19
480.095	114.19
480.313	120.19
480.532	121.19
480.751	103.19
480.969	95.19
481.188	106.19
481.406	86.19
481.624	87.19
481.843	79.19
482.061	97.19
482.28	113.19
482.498	112.19
482.717	86.19
482.935	117.19
483.153	130.19
483.372	163.19
483.59	158.19
483.808	155.19
484.027	131.19
484.245	118.19
484.463	153.19
484.681	146.19
484.9	142.19
485.118	142.19
485.336	105.19
485.554	108.19
485.772	97.19
485.99	117.19
486.209	109.19
486.427	108.19
486.645	112.19
486.863	145.19
487.081	137.19
487.299	123.19
487.517	141.19
487.735	153.19
487.953	183.19
488.171	168.19
488.389	161.19
488.607	163.19
488.825	148.19
489.043	137.19
489.261	140.19
489.479	125.19
489.696	138.19
489.914	147.19
490.132	137.19
490.35	149.19
490.568	163.19
490.786	183.19
491.003	170.19
491.221	169.19
491.439	161.19
491.657	182.19
491.874	199.19
492.092	207.19
492.31	247.19
492.527	236.19
492.745	213.19
492.963	191.19
493.18	192.19
493.398	167.19
493.615	200.19
493.833	160.19
494.05	179.19
494.268	164.19
494.485	171.19
494.703	177.19
494.92	165.19
495.138	167.19
495.355	159.19
495.573	167.19
495.79	156.19
496.008	147.19
496.225	160.19
496.442	156.19
496.66	179.19
496.877	151.19
497.094	160.19
497.312	162.19
497.529	155.19
497.746	139.19
497.963	147.19
498.181	129.19
498.398	115.19
498.615	122.19
498.832	116.19
499.049	111.19
499.267	111.19
499.484	128.19
499.701	148.19
499.918	129.19
500.135	129.19
500.352	128.19
500.569	128.19
500.786	141.19
501.003	155.19
501.22	139.19
501.437	115.19
501.654	123.19
501.871	127.19
502.088	111.19
502.305	140.19
502.522	140.19
502.739	132.19
502.956	136.19
503.172	127.19
503.389	121.19
503.606	113.19
503.823	115.19
504.04	115.19
504.256	121.19
504.473	115.19
504.69	107.19
504.907	122.19
505.123	112.19
505.34	116.19
505.557	118.19
505.773	115.19
505.99	125.19
506.207	118.19
506.423	115.19
506.64	115.19
506.856	108.19
507.073	119.19
507.289	116.19
507.506	102.19
507.722	103.19
507.939	116.19
508.155	119.19
508.372	121.19
508.588	107.19
508.805	108.19
509.021	94.19
509.238	98.19
509.454	113.19
509.67	104.19
509.887	111.19
510.103	104.19
510.319	102.19
510.536	95.19
510.752	99.19
510.968	81.19
511.184	95.19
511.401	75.19
511.617	95.19
511.833	93.19
