Data from Location4.07152019.Energy5.Lamp.07192019.3%Agarose_HRD10591_16-20-00-925.txt Node
Date: Fri Jul 19 16:20:00 EDT 2019
User: cochatt
Spectrometer: HR+D1059
Trigger mode: 1
Integration Time (sec): 1.000000E-1
Scans to average: 1
Electric dark correction enabled: true
Nonlinearity correction enabled: false
Boxcar width: 0
XAxis mode: Wavelengths
Number of Pixels in Spectrum: 2048
>>>>>Begin Spectral Data<<<<<
223.165	-25.44
223.4	-25.44
223.635	-25.44
223.869	-21.44
224.104	-15.44
224.338	-15.44
224.573	-11.44
224.808	-7.44
225.042	-19.44
225.277	-2.44
225.511	5.56
225.746	8.56
225.98	3.56
226.215	11.56
226.449	20.56
226.683	22.56
226.918	24.56
227.152	21.56
227.387	30.56
227.621	35.56
227.856	39.56
228.09	40.56
228.324	54.56
228.559	64.56
228.793	58.56
229.027	68.56
229.262	69.56
229.496	54.56
229.73	57.56
229.964	72.56
230.199	72.56
230.433	77.56
230.667	79.56
230.901	67.56
231.136	83.56
231.37	83.56
231.604	76.56
231.838	78.56
232.072	71.56
232.306	71.56
232.541	82.56
232.775	88.56
233.009	77.56
233.243	77.56
233.477	67.56
233.711	85.56
233.945	75.56
234.179	67.56
234.413	88.56
234.647	88.56
234.881	88.56
235.115	89.56
235.349	90.56
235.583	84.56
235.817	77.56
236.051	85.56
236.285	82.56
236.519	87.56
236.753	79.56
236.987	81.56
237.221	79.56
237.455	87.56
237.689	85.56
237.922	95.56
238.156	80.56
238.39	79.56
238.624	81.56
238.858	75.56
239.091	72.56
239.325	87.56
239.559	81.56
239.793	72.56
240.027	82.56
240.26	63.56
240.494	68.56
240.728	75.56
240.961	71.56
241.195	69.56
241.429	68.56
241.662	81.56
241.896	72.56
242.13	70.56
242.363	82.56
242.597	82.56
242.83	77.56
243.064	76.56
243.298	73.56
243.531	79.56
243.765	72.56
243.998	77.56
244.232	70.56
244.465	73.56
244.699	85.56
244.932	89.56
245.166	65.56
245.399	76.56
245.633	74.56
245.866	74.56
246.099	68.56
246.333	74.56
246.566	67.56
246.8	77.56
247.033	53.56
247.266	72.56
247.5	70.56
247.733	71.56
247.966	63.56
248.2	69.56
248.433	77.56
248.666	74.56
248.899	83.56
249.133	75.56
249.366	73.56
249.599	72.56
249.832	73.56
250.066	97.56
250.299	91.56
250.532	71.56
250.765	71.56
250.998	78.56
251.231	75.56
251.465	77.56
251.698	80.56
251.931	76.56
252.164	72.56
252.397	73.56
252.63	88.56
252.863	88.56
253.096	88.56
253.329	77.56
253.562	71.56
253.795	80.56
254.028	73.56
254.261	88.56
254.494	86.56
254.727	75.56
254.96	85.56
255.193	71.56
255.426	92.56
255.659	87.56
255.892	83.56
256.124	73.56
256.357	77.56
256.59	91.56
256.823	83.56
257.056	82.56
257.289	81.56
257.521	67.56
257.754	87.56
257.987	64.56
258.22	78.56
258.452	92.56
258.685	83.56
258.918	85.56
259.151	85.56
259.383	71.56
259.616	87.56
259.849	81.56
260.081	71.56
260.314	81.56
260.547	80.56
260.779	90.56
261.012	72.56
261.244	69.56
261.477	94.56
261.71	77.56
261.942	96.56
262.175	88.56
262.407	77.56
262.64	74.56
262.872	82.56
263.105	92.56
263.337	80.56
263.57	78.56
263.802	81.56
264.035	79.56
264.267	73.56
264.499	92.56
264.732	83.56
264.964	96.56
265.197	92.56
265.429	88.56
265.661	71.56
265.894	76.56
266.126	84.56
266.358	86.56
266.591	76.56
266.823	63.56
267.055	67.56
267.287	76.56
267.52	80.56
267.752	82.56
267.984	83.56
268.216	78.56
268.448	81.56
268.681	84.56
268.913	101.56
269.145	74.56
269.377	76.56
269.609	67.56
269.841	83.56
270.073	89.56
270.306	71.56
270.538	81.56
270.77	76.56
271.002	90.56
271.234	72.56
271.466	97.56
271.698	87.56
271.93	82.56
272.162	84.56
272.394	84.56
272.626	73.56
272.858	84.56
273.09	87.56
273.322	89.56
273.553	84.56
273.785	69.56
274.017	77.56
274.249	91.56
274.481	83.56
274.713	76.56
274.945	86.56
275.176	94.56
275.408	89.56
275.64	90.56
275.872	84.56
276.104	76.56
276.335	76.56
276.567	76.56
276.799	74.56
277.031	90.56
277.262	86.56
277.494	84.56
277.726	77.56
277.957	82.56
278.189	91.56
278.421	95.56
278.652	86.56
278.884	92.56
279.115	89.56
279.347	84.56
279.579	88.56
279.81	83.56
280.042	67.56
280.273	64.56
280.505	90.56
280.736	87.56
280.968	79.56
281.199	88.56
281.431	81.56
281.662	103.56
281.894	85.56
282.125	85.56
282.356	75.56
282.588	83.56
282.819	80.56
283.051	91.56
283.282	86.56
283.513	77.56
283.745	73.56
283.976	91.56
284.207	88.56
284.439	87.56
284.67	94.56
284.901	87.56
285.132	100.56
285.364	95.56
285.595	82.56
285.826	86.56
286.057	82.56
286.288	76.56
286.52	86.56
286.751	85.56
286.982	91.56
287.213	103.56
287.444	88.56
287.675	101.56
287.906	77.56
288.138	65.56
288.369	89.56
288.6	90.56
288.831	89.56
289.062	92.56
289.293	85.56
289.524	79.56
289.755	84.56
289.986	84.56
290.217	83.56
290.448	92.56
290.679	83.56
290.91	77.56
291.141	95.56
291.371	82.56
291.602	75.56
291.833	80.56
292.064	81.56
292.295	70.56
292.526	67.56
292.757	82.56
292.987	74.56
293.218	83.56
293.449	79.56
293.68	85.56
293.91	96.56
294.141	88.56
294.372	82.56
294.603	78.56
294.833	68.56
295.064	72.56
295.295	76.56
295.525	84.56
295.756	92.56
295.987	103.56
296.217	86.56
296.448	85.56
296.679	69.56
296.909	69.56
297.14	77.56
297.37	89.56
297.601	103.56
297.831	81.56
298.062	87.56
298.292	93.56
298.523	82.56
298.753	87.56
298.984	88.56
299.214	84.56
299.445	70.56
299.675	85.56
299.905	88.56
300.136	73.56
300.366	93.56
300.597	86.56
300.827	83.56
301.057	95.56
301.288	92.56
301.518	87.56
301.748	88.56
301.979	88.56
302.209	97.56
302.439	84.56
302.669	67.56
302.9	92.56
303.13	91.56
303.36	83.56
303.59	89.56
303.82	79.56
304.051	81.56
304.281	95.56
304.511	88.56
304.741	95.56
304.971	78.56
305.201	76.56
305.431	72.56
305.661	87.56
305.891	84.56
306.121	84.56
306.352	71.56
306.582	89.56
306.812	84.56
307.042	79.56
307.272	79.56
307.502	77.56
307.731	92.56
307.961	74.56
308.191	67.56
308.421	85.56
308.651	82.56
308.881	96.56
309.111	77.56
309.341	76.56
309.571	92.56
309.8	93.56
310.03	85.56
310.26	88.56
310.49	90.56
310.72	89.56
310.949	86.56
311.179	75.56
311.409	85.56
311.639	96.56
311.868	96.56
312.098	103.56
312.328	78.56
312.557	82.56
312.787	76.56
313.017	73.56
313.246	83.56
313.476	90.56
313.706	73.56
313.935	79.56
314.165	94.56
314.394	76.56
314.624	78.56
314.853	79.56
315.083	88.56
315.312	90.56
315.542	95.56
315.771	96.56
316.001	73.56
316.23	67.56
316.46	76.56
316.689	91.56
316.919	85.56
317.148	81.56
317.377	92.56
317.607	82.56
317.836	91.56
318.065	84.56
318.295	82.56
318.524	89.56
318.753	89.56
318.983	68.56
319.212	88.56
319.441	77.56
319.67	76.56
319.9	73.56
320.129	85.56
320.358	69.56
320.587	87.56
320.816	81.56
321.046	79.56
321.275	85.56
321.504	84.56
321.733	91.56
321.962	86.56
322.191	88.56
322.42	81.56
322.649	91.56
322.878	77.56
323.108	88.56
323.337	72.56
323.566	83.56
323.795	91.56
324.024	78.56
324.253	76.56
324.482	74.56
324.71	85.56
324.939	98.56
325.168	78.56
325.397	91.56
325.626	90.56
325.855	99.56
326.084	83.56
326.313	75.56
326.542	92.56
326.77	85.56
326.999	76.56
327.228	91.56
327.457	96.56
327.686	84.56
327.914	99.56
328.143	90.56
328.372	88.56
328.6	83.56
328.829	97.56
329.058	68.56
329.287	67.56
329.515	93.56
329.744	90.56
329.972	88.56
330.201	77.56
330.43	92.56
330.658	90.56
330.887	82.56
331.115	89.56
331.344	97.56
331.572	73.56
331.801	86.56
332.03	71.56
332.258	94.56
332.486	91.56
332.715	82.56
332.943	73.56
333.172	75.56
333.4	72.56
333.629	83.56
333.857	81.56
334.085	102.56
334.314	73.56
334.542	92.56
334.771	84.56
334.999	83.56
335.227	108.56
335.455	83.56
335.684	83.56
335.912	89.56
336.14	74.56
336.369	88.56
336.597	92.56
336.825	88.56
337.053	82.56
337.281	79.56
337.51	86.56
337.738	84.56
337.966	76.56
338.194	70.56
338.422	62.56
338.65	76.56
338.878	95.56
339.106	89.56
339.334	69.56
339.562	91.56
339.79	84.56
340.018	73.56
340.246	84.56
340.474	92.56
340.702	78.56
340.93	69.56
341.158	90.56
341.386	71.56
341.614	100.56
341.842	87.56
342.07	80.56
342.298	79.56
342.526	77.56
342.754	85.56
342.981	89.56
343.209	76.56
343.437	96.56
343.665	84.56
343.893	86.56
344.12	90.56
344.348	95.56
344.576	84.56
344.804	79.56
345.031	87.56
345.259	85.56
345.487	67.56
345.714	77.56
345.942	81.56
346.17	73.56
346.397	87.56
346.625	67.56
346.853	91.56
347.08	95.56
347.308	82.56
347.535	83.56
347.763	65.56
347.99	73.56
348.218	86.56
348.445	90.56
348.673	81.56
348.9	92.56
349.128	81.56
349.355	88.56
349.583	76.56
349.81	73.56
350.037	78.56
350.265	85.56
350.492	95.56
350.72	71.56
350.947	90.56
351.174	79.56
351.402	87.56
351.629	79.56
351.856	73.56
352.083	98.56
352.311	87.56
352.538	77.56
352.765	76.56
352.992	89.56
353.22	86.56
353.447	84.56
353.674	100.56
353.901	85.56
354.128	84.56
354.355	87.56
354.583	95.56
354.81	84.56
355.037	86.56
355.264	84.56
355.491	84.56
355.718	71.56
355.945	88.56
356.172	76.56
356.399	82.56
356.626	94.56
356.853	90.56
357.08	73.56
357.307	88.56
357.534	83.56
357.761	86.56
357.988	94.56
358.215	97.56
358.441	77.56
358.668	79.56
358.895	63.56
359.122	73.56
359.349	75.56
359.576	79.56
359.802	87.56
360.029	90.56
360.256	98.56
360.483	76.56
360.709	91.56
360.936	90.56
361.163	84.56
361.39	89.56
361.616	97.56
361.843	83.56
362.07	90.56
362.296	83.56
362.523	92.56
362.749	83.56
362.976	71.56
363.203	98.56
363.429	77.56
363.656	81.56
363.882	76.56
364.109	95.56
364.335	87.56
364.562	79.56
364.788	101.56
365.015	95.56
365.241	78.56
365.468	87.56
365.694	70.56
365.92	92.56
366.147	81.56
366.373	90.56
366.599	90.56
366.826	97.56
367.052	87.56
367.278	90.56
367.505	85.56
367.731	111.56
367.957	89.56
368.184	76.56
368.41	88.56
368.636	85.56
368.862	84.56
369.089	89.56
369.315	108.56
369.541	96.56
369.767	94.56
369.993	84.56
370.219	95.56
370.445	94.56
370.672	75.56
370.898	92.56
371.124	84.56
371.35	93.56
371.576	90.56
371.802	84.56
372.028	85.56
372.254	89.56
372.48	96.56
372.706	81.56
372.932	89.56
373.158	91.56
373.384	90.56
373.61	94.56
373.835	93.56
374.061	90.56
374.287	87.56
374.513	92.56
374.739	93.56
374.965	105.56
375.191	97.56
375.416	95.56
375.642	104.56
375.868	101.56
376.094	93.56
376.319	89.56
376.545	83.56
376.771	98.56
376.997	84.56
377.222	81.56
377.448	99.56
377.674	89.56
377.899	99.56
378.125	90.56
378.35	103.56
378.576	68.56
378.802	85.56
379.027	99.56
379.253	99.56
379.478	98.56
379.704	90.56
379.929	102.56
380.155	90.56
380.38	97.56
380.606	99.56
380.831	90.56
381.057	93.56
381.282	95.56
381.507	106.56
381.733	100.56
381.958	102.56
382.184	104.56
382.409	96.56
382.634	101.56
382.86	95.56
383.085	87.56
383.31	91.56
383.535	89.56
383.761	83.56
383.986	91.56
384.211	104.56
384.436	104.56
384.662	95.56
384.887	107.56
385.112	74.56
385.337	95.56
385.562	93.56
385.787	93.56
386.013	100.56
386.238	85.56
386.463	80.56
386.688	90.56
386.913	104.56
387.138	89.56
387.363	97.56
387.588	90.56
387.813	106.56
388.038	99.56
388.263	97.56
388.488	101.56
388.713	106.56
388.938	99.56
389.163	115.56
389.387	107.56
389.612	95.56
389.837	104.56
390.062	90.56
390.287	101.56
390.512	97.56
390.736	94.56
390.961	91.56
391.186	118.56
391.411	100.56
391.636	99.56
391.86	100.56
392.085	95.56
392.31	102.56
392.534	98.56
392.759	110.56
392.984	111.56
393.208	101.56
393.433	105.56
393.658	90.56
393.882	99.56
394.107	95.56
394.331	85.56
394.556	102.56
394.78	113.56
395.005	95.56
395.229	108.56
395.454	109.56
395.678	112.56
395.903	112.56
396.127	96.56
396.352	113.56
396.576	111.56
396.801	95.56
397.025	86.56
397.249	108.56
397.474	122.56
397.698	102.56
397.922	113.56
398.147	116.56
398.371	116.56
398.595	108.56
398.82	113.56
399.044	102.56
399.268	115.56
399.492	108.56
399.717	113.56
399.941	123.56
400.165	110.56
400.389	100.56
400.613	103.56
400.837	111.56
401.062	108.56
401.286	111.56
401.51	117.56
401.734	109.56
401.958	111.56
402.182	116.56
402.406	105.56
402.63	88.56
402.854	119.56
403.078	96.56
403.302	111.56
403.526	119.56
403.75	112.56
403.974	116.56
404.198	131.56
404.422	107.56
404.645	108.56
404.869	116.56
405.093	118.56
405.317	103.56
405.541	115.56
405.765	115.56
405.988	115.56
406.212	133.56
406.436	128.56
406.66	121.56
406.883	123.56
407.107	118.56
407.331	115.56
407.555	117.56
407.778	128.56
408.002	120.56
408.226	119.56
408.449	125.56
408.673	111.56
408.896	111.56
409.12	118.56
409.344	116.56
409.567	135.56
409.791	119.56
410.014	111.56
410.238	119.56
410.461	128.56
410.685	134.56
410.908	117.56
411.132	133.56
411.355	131.56
411.578	121.56
411.802	130.56
412.025	123.56
412.249	125.56
412.472	125.56
412.695	130.56
412.919	119.56
413.142	113.56
413.365	105.56
413.589	125.56
413.812	106.56
414.035	129.56
414.258	122.56
414.482	112.56
414.705	126.56
414.928	132.56
415.151	122.56
415.374	133.56
415.597	117.56
415.821	111.56
416.044	123.56
416.267	113.56
416.49	134.56
416.713	132.56
416.936	127.56
417.159	121.56
417.382	115.56
417.605	115.56
417.828	129.56
418.051	136.56
418.274	129.56
418.497	121.56
418.72	127.56
418.943	144.56
419.166	119.56
419.389	139.56
419.611	145.56
419.834	123.56
420.057	130.56
420.28	142.56
420.503	134.56
420.726	127.56
420.948	122.56
421.171	135.56
421.394	125.56
421.617	135.56
421.839	149.56
422.062	137.56
422.285	116.56
422.507	121.56
422.73	115.56
422.953	120.56
423.175	119.56
423.398	114.56
423.621	133.56
423.843	135.56
424.066	136.56
424.288	131.56
424.511	132.56
424.733	141.56
424.956	145.56
425.178	119.56
425.401	122.56
425.623	131.56
425.846	129.56
426.068	142.56
426.291	111.56
426.513	145.56
426.735	133.56
426.958	136.56
427.18	123.56
427.402	121.56
427.625	127.56
427.847	127.56
428.069	117.56
428.292	139.56
428.514	137.56
428.736	121.56
428.958	131.56
429.181	123.56
429.403	131.56
429.625	139.56
429.847	136.56
430.069	122.56
430.292	131.56
430.514	121.56
430.736	139.56
430.958	141.56
431.18	125.56
431.402	123.56
431.624	110.56
431.846	97.56
432.068	93.56
432.29	108.56
432.512	106.56
432.734	117.56
432.956	146.56
433.178	133.56
433.4	133.56
433.622	153.56
433.844	117.56
434.066	122.56
434.287	123.56
434.509	104.56
434.731	94.56
434.953	105.56
435.175	126.56
435.397	123.56
435.618	135.56
435.84	116.56
436.062	122.56
436.284	115.56
436.505	127.56
436.727	131.56
436.949	124.56
437.17	131.56
437.392	142.56
437.614	113.56
437.835	106.56
438.057	95.56
438.278	106.56
438.5	111.56
438.721	133.56
438.943	135.56
439.165	135.56
439.386	134.56
439.608	141.56
439.829	147.56
440.05	155.56
440.272	147.56
440.493	157.56
440.715	146.56
440.936	133.56
441.158	141.56
441.379	148.56
441.6	151.56
441.822	152.56
442.043	154.56
442.264	123.56
442.486	123.56
442.707	151.56
442.928	137.56
443.149	148.56
443.371	148.56
443.592	133.56
443.813	135.56
444.034	137.56
444.255	141.56
444.476	127.56
444.698	139.56
444.919	135.56
445.14	266.56
445.361	193.56
445.582	167.56
445.803	143.56
446.024	153.56
446.245	149.56
446.466	162.56
446.687	152.56
446.908	153.56
447.129	142.56
447.35	150.56
447.571	139.56
447.792	145.56
448.013	135.56
448.234	137.56
448.455	137.56
448.675	147.56
448.896	131.56
449.117	120.56
449.338	140.56
449.559	130.56
449.779	135.56
450	136.56
450.221	122.56
450.442	132.56
450.662	140.56
450.883	138.56
451.104	134.56
451.324	137.56
451.545	132.56
451.766	134.56
451.986	139.56
452.207	137.56
452.428	123.56
452.648	135.56
452.869	123.56
453.089	111.56
453.31	112.56
453.53	122.56
453.751	109.56
453.971	104.56
454.192	114.56
454.412	100.56
454.633	114.56
454.853	131.56
455.073	125.56
455.294	133.56
455.514	112.56
455.734	127.56
455.955	121.56
456.175	115.56
456.395	113.56
456.616	109.56
456.836	107.56
457.056	110.56
457.276	111.56
457.497	102.56
457.717	102.56
457.937	104.56
458.157	116.56
458.377	111.56
458.598	93.56
458.818	92.56
459.038	83.56
459.258	87.56
459.478	79.56
459.698	96.56
459.918	104.56
460.138	103.56
460.358	114.56
460.578	101.56
460.798	119.56
461.018	119.56
461.238	114.56
461.458	112.56
461.678	124.56
461.898	114.56
462.118	122.56
462.338	117.56
462.558	119.56
462.777	119.56
462.997	130.56
463.217	111.56
463.437	112.56
463.657	116.56
463.876	103.56
464.096	109.56
464.316	107.56
464.536	105.56
464.755	123.56
464.975	125.56
465.195	127.56
465.414	119.56
465.634	105.56
465.854	122.56
466.073	131.56
466.293	134.56
466.512	137.56
466.732	124.56
466.951	129.56
467.171	121.56
467.391	123.56
467.61	132.56
467.829	132.56
468.049	134.56
468.268	137.56
468.488	125.56
468.707	124.56
468.927	135.56
469.146	127.56
469.365	149.56
469.585	162.56
469.804	133.56
470.023	148.56
470.243	125.56
470.462	128.56
470.681	137.56
470.901	136.56
471.12	129.56
471.339	149.56
471.558	144.56
471.777	153.56
471.997	132.56
472.216	128.56
472.435	129.56
472.654	87.56
472.873	109.56
473.092	109.56
473.311	127.56
473.53	127.56
473.749	132.56
473.968	137.56
474.187	141.56
474.406	119.56
474.625	124.56
474.844	141.56
475.063	128.56
475.282	130.56
475.501	125.56
475.72	118.56
475.939	134.56
476.158	140.56
476.377	130.56
476.596	131.56
476.814	125.56
477.033	104.56
477.252	115.56
477.471	121.56
477.69	138.56
477.908	153.56
478.127	130.56
478.346	137.56
478.564	127.56
478.783	131.56
479.002	141.56
479.22	135.56
479.439	128.56
479.658	124.56
479.876	101.56
480.095	116.56
480.313	124.56
480.532	97.56
480.751	117.56
480.969	112.56
481.188	94.56
481.406	99.56
481.624	89.56
481.843	93.56
482.061	107.56
482.28	125.56
482.498	117.56
482.717	107.56
482.935	119.56
483.153	129.56
483.372	145.56
483.59	136.56
483.808	131.56
484.027	140.56
484.245	136.56
484.463	136.56
484.681	164.56
484.9	146.56
485.118	130.56
485.336	131.56
485.554	125.56
485.772	104.56
485.99	108.56
486.209	114.56
486.427	103.56
486.645	118.56
486.863	134.56
487.081	141.56
487.299	118.56
487.517	146.56
487.735	164.56
487.953	174.56
488.171	163.56
488.389	175.56
488.607	168.56
488.825	134.56
489.043	131.56
489.261	119.56
489.479	152.56
489.696	137.56
489.914	144.56
490.132	135.56
490.35	144.56
490.568	149.56
490.786	151.56
491.003	171.56
491.221	185.56
491.439	184.56
491.657	169.56
491.874	203.56
492.092	219.56
492.31	247.56
492.527	241.56
492.745	224.56
492.963	187.56
493.18	175.56
493.398	185.56
493.615	183.56
493.833	185.56
494.05	177.56
494.268	164.56
494.485	183.56
494.703	151.56
494.92	176.56
495.138	181.56
495.355	170.56
495.573	151.56
495.79	155.56
496.008	165.56
496.225	180.56
496.442	172.56
496.66	172.56
496.877	165.56
497.094	159.56
497.312	155.56
497.529	161.56
497.746	159.56
497.963	129.56
498.181	123.56
498.398	135.56
498.615	123.56
498.832	121.56
499.049	111.56
499.267	115.56
499.484	116.56
499.701	130.56
499.918	130.56
500.135	139.56
500.352	133.56
500.569	144.56
500.786	139.56
501.003	138.56
501.22	136.56
501.437	134.56
501.654	139.56
501.871	114.56
502.088	134.56
502.305	125.56
502.522	122.56
502.739	129.56
502.956	139.56
503.172	126.56
503.389	120.56
503.606	119.56
503.823	122.56
504.04	129.56
504.256	124.56
504.473	121.56
504.69	111.56
504.907	153.56
505.123	115.56
505.34	121.56
505.557	134.56
505.773	128.56
505.99	111.56
506.207	100.56
506.423	122.56
506.64	127.56
506.856	129.56
507.073	120.56
507.289	126.56
507.506	115.56
507.722	118.56
507.939	108.56
508.155	121.56
508.372	115.56
508.588	113.56
508.805	107.56
509.021	123.56
509.238	111.56
509.454	106.56
509.67	97.56
509.887	104.56
510.103	107.56
510.319	94.56
510.536	92.56
510.752	83.56
510.968	96.56
511.184	70.56
511.401	78.56
511.617	90.56
