Data from Location4.07152019.Energy5.Lamp.07192019.3%Agarose_HRD10591_16-18-36-925.txt Node
Date: Fri Jul 19 16:18:36 EDT 2019
User: cochatt
Spectrometer: HR+D1059
Trigger mode: 1
Integration Time (sec): 1.000000E-1
Scans to average: 1
Electric dark correction enabled: true
Nonlinearity correction enabled: false
Boxcar width: 0
XAxis mode: Wavelengths
Number of Pixels in Spectrum: 2048
>>>>>Begin Spectral Data<<<<<
223.165	-17.88
223.4	-17.88
223.635	-17.88
223.869	-7.88
224.104	-1.88
224.338	-18.88
224.573	0.12
224.808	-13.88
225.042	-11.88
225.277	6.12
225.511	-7.88
225.746	-10.88
225.98	-3.88
226.215	5.12
226.449	-1.88
226.683	16.12
226.918	29.12
227.152	40.12
227.387	33.12
227.621	37.12
227.856	43.12
228.09	42.12
228.324	48.12
228.559	45.12
228.793	66.12
229.027	54.12
229.262	64.12
229.496	63.12
229.73	75.12
229.964	73.12
230.199	85.12
230.433	84.12
230.667	90.12
230.901	75.12
231.136	70.12
231.37	83.12
231.604	76.12
231.838	73.12
232.072	98.12
232.306	82.12
232.541	78.12
232.775	92.12
233.009	81.12
233.243	75.12
233.477	93.12
233.711	85.12
233.945	82.12
234.179	69.12
234.413	79.12
234.647	92.12
234.881	94.12
235.115	85.12
235.349	90.12
235.583	92.12
235.817	86.12
236.051	81.12
236.285	65.12
236.519	86.12
236.753	64.12
236.987	82.12
237.221	86.12
237.455	82.12
237.689	79.12
237.922	80.12
238.156	73.12
238.39	66.12
238.624	87.12
238.858	66.12
239.091	92.12
239.325	75.12
239.559	87.12
239.793	85.12
240.027	86.12
240.26	83.12
240.494	89.12
240.728	97.12
240.961	78.12
241.195	73.12
241.429	72.12
241.662	65.12
241.896	84.12
242.13	91.12
242.363	85.12
242.597	88.12
242.83	74.12
243.064	97.12
243.298	80.12
243.531	83.12
243.765	82.12
243.998	70.12
244.232	74.12
244.465	75.12
244.699	74.12
244.932	73.12
245.166	74.12
245.399	82.12
245.633	78.12
245.866	89.12
246.099	76.12
246.333	85.12
246.566	79.12
246.8	85.12
247.033	76.12
247.266	88.12
247.5	81.12
247.733	80.12
247.966	69.12
248.2	82.12
248.433	85.12
248.666	67.12
248.899	75.12
249.133	95.12
249.366	74.12
249.599	86.12
249.832	74.12
250.066	86.12
250.299	86.12
250.532	76.12
250.765	76.12
250.998	81.12
251.231	81.12
251.465	84.12
251.698	77.12
251.931	78.12
252.164	94.12
252.397	89.12
252.63	87.12
252.863	68.12
253.096	83.12
253.329	92.12
253.562	76.12
253.795	70.12
254.028	94.12
254.261	80.12
254.494	78.12
254.727	92.12
254.96	76.12
255.193	88.12
255.426	76.12
255.659	76.12
255.892	102.12
256.124	68.12
256.357	78.12
256.59	86.12
256.823	81.12
257.056	79.12
257.289	70.12
257.521	73.12
257.754	90.12
257.987	77.12
258.22	74.12
258.452	84.12
258.685	70.12
258.918	84.12
259.151	59.12
259.383	74.12
259.616	72.12
259.849	86.12
260.081	90.12
260.314	98.12
260.547	89.12
260.779	81.12
261.012	98.12
261.244	82.12
261.477	86.12
261.71	82.12
261.942	88.12
262.175	83.12
262.407	72.12
262.64	91.12
262.872	92.12
263.105	84.12
263.337	76.12
263.57	77.12
263.802	71.12
264.035	80.12
264.267	86.12
264.499	82.12
264.732	75.12
264.964	93.12
265.197	74.12
265.429	84.12
265.661	79.12
265.894	61.12
266.126	90.12
266.358	86.12
266.591	81.12
266.823	98.12
267.055	90.12
267.287	68.12
267.52	70.12
267.752	84.12
267.984	82.12
268.216	89.12
268.448	68.12
268.681	79.12
268.913	87.12
269.145	92.12
269.377	65.12
269.609	90.12
269.841	75.12
270.073	68.12
270.306	85.12
270.538	93.12
270.77	72.12
271.002	83.12
271.234	79.12
271.466	84.12
271.698	77.12
271.93	68.12
272.162	92.12
272.394	102.12
272.626	72.12
272.858	90.12
273.09	85.12
273.322	84.12
273.553	85.12
273.785	84.12
274.017	80.12
274.249	74.12
274.481	86.12
274.713	90.12
274.945	90.12
275.176	76.12
275.408	82.12
275.64	86.12
275.872	75.12
276.104	82.12
276.335	70.12
276.567	78.12
276.799	83.12
277.031	77.12
277.262	84.12
277.494	77.12
277.726	87.12
277.957	79.12
278.189	88.12
278.421	89.12
278.652	78.12
278.884	84.12
279.115	78.12
279.347	91.12
279.579	90.12
279.81	75.12
280.042	90.12
280.273	74.12
280.505	78.12
280.736	94.12
280.968	83.12
281.199	76.12
281.431	72.12
281.662	81.12
281.894	84.12
282.125	83.12
282.356	77.12
282.588	76.12
282.819	87.12
283.051	74.12
283.282	84.12
283.513	97.12
283.745	96.12
283.976	78.12
284.207	91.12
284.439	89.12
284.67	99.12
284.901	89.12
285.132	102.12
285.364	80.12
285.595	80.12
285.826	89.12
286.057	91.12
286.288	78.12
286.52	80.12
286.751	92.12
286.982	84.12
287.213	86.12
287.444	72.12
287.675	87.12
287.906	91.12
288.138	94.12
288.369	88.12
288.6	70.12
288.831	90.12
289.062	87.12
289.293	95.12
289.524	67.12
289.755	82.12
289.986	86.12
290.217	83.12
290.448	79.12
290.679	89.12
290.91	98.12
291.141	82.12
291.371	74.12
291.602	101.12
291.833	84.12
292.064	86.12
292.295	91.12
292.526	88.12
292.757	98.12
292.987	87.12
293.218	84.12
293.449	94.12
293.68	78.12
293.91	89.12
294.141	96.12
294.372	94.12
294.603	81.12
294.833	76.12
295.064	79.12
295.295	80.12
295.525	88.12
295.756	90.12
295.987	95.12
296.217	88.12
296.448	71.12
296.679	81.12
296.909	74.12
297.14	77.12
297.37	100.12
297.601	79.12
297.831	93.12
298.062	88.12
298.292	97.12
298.523	105.12
298.753	82.12
298.984	93.12
299.214	83.12
299.445	94.12
299.675	86.12
299.905	80.12
300.136	87.12
300.366	102.12
300.597	81.12
300.827	99.12
301.057	84.12
301.288	85.12
301.518	91.12
301.748	97.12
301.979	85.12
302.209	98.12
302.439	86.12
302.669	79.12
302.9	98.12
303.13	92.12
303.36	84.12
303.59	92.12
303.82	85.12
304.051	87.12
304.281	93.12
304.511	94.12
304.741	89.12
304.971	79.12
305.201	91.12
305.431	98.12
305.661	100.12
305.891	88.12
306.121	99.12
306.352	91.12
306.582	93.12
306.812	90.12
307.042	72.12
307.272	86.12
307.502	74.12
307.731	103.12
307.961	86.12
308.191	87.12
308.421	92.12
308.651	98.12
308.881	75.12
309.111	86.12
309.341	84.12
309.571	90.12
309.8	93.12
310.03	94.12
310.26	90.12
310.49	83.12
310.72	92.12
310.949	82.12
311.179	89.12
311.409	91.12
311.639	68.12
311.868	97.12
312.098	89.12
312.328	78.12
312.557	82.12
312.787	83.12
313.017	94.12
313.246	81.12
313.476	83.12
313.706	84.12
313.935	81.12
314.165	84.12
314.394	83.12
314.624	82.12
314.853	88.12
315.083	96.12
315.312	82.12
315.542	91.12
315.771	83.12
316.001	84.12
316.23	89.12
316.46	88.12
316.689	91.12
316.919	85.12
317.148	81.12
317.377	81.12
317.607	87.12
317.836	81.12
318.065	100.12
318.295	89.12
318.524	80.12
318.753	88.12
318.983	82.12
319.212	89.12
319.441	99.12
319.67	78.12
319.9	95.12
320.129	81.12
320.358	95.12
320.587	91.12
320.816	92.12
321.046	81.12
321.275	90.12
321.504	87.12
321.733	74.12
321.962	87.12
322.191	89.12
322.42	82.12
322.649	74.12
322.878	65.12
323.108	77.12
323.337	90.12
323.566	76.12
323.795	78.12
324.024	85.12
324.253	77.12
324.482	90.12
324.71	101.12
324.939	93.12
325.168	108.12
325.397	95.12
325.626	84.12
325.855	85.12
326.084	85.12
326.313	93.12
326.542	84.12
326.77	82.12
326.999	75.12
327.228	86.12
327.457	87.12
327.686	95.12
327.914	84.12
328.143	93.12
328.372	99.12
328.6	81.12
328.829	89.12
329.058	89.12
329.287	79.12
329.515	84.12
329.744	100.12
329.972	89.12
330.201	80.12
330.43	82.12
330.658	86.12
330.887	88.12
331.115	93.12
331.344	86.12
331.572	92.12
331.801	75.12
332.03	81.12
332.258	90.12
332.486	88.12
332.715	97.12
332.943	84.12
333.172	80.12
333.4	76.12
333.629	88.12
333.857	89.12
334.085	86.12
334.314	80.12
334.542	89.12
334.771	74.12
334.999	80.12
335.227	80.12
335.455	82.12
335.684	93.12
335.912	92.12
336.14	75.12
336.369	82.12
336.597	90.12
336.825	86.12
337.053	88.12
337.281	82.12
337.51	88.12
337.738	80.12
337.966	84.12
338.194	86.12
338.422	79.12
338.65	80.12
338.878	87.12
339.106	93.12
339.334	96.12
339.562	94.12
339.79	87.12
340.018	95.12
340.246	83.12
340.474	93.12
340.702	96.12
340.93	92.12
341.158	97.12
341.386	83.12
341.614	67.12
341.842	82.12
342.07	82.12
342.298	85.12
342.526	93.12
342.754	85.12
342.981	94.12
343.209	86.12
343.437	99.12
343.665	70.12
343.893	83.12
344.12	89.12
344.348	81.12
344.576	78.12
344.804	83.12
345.031	74.12
345.259	88.12
345.487	73.12
345.714	78.12
345.942	89.12
346.17	87.12
346.397	85.12
346.625	88.12
346.853	88.12
347.08	95.12
347.308	84.12
347.535	75.12
347.763	90.12
347.99	84.12
348.218	87.12
348.445	95.12
348.673	97.12
348.9	91.12
349.128	78.12
349.355	81.12
349.583	95.12
349.81	93.12
350.037	93.12
350.265	83.12
350.492	89.12
350.72	90.12
350.947	86.12
351.174	92.12
351.402	100.12
351.629	76.12
351.856	65.12
352.083	93.12
352.311	81.12
352.538	83.12
352.765	87.12
352.992	74.12
353.22	76.12
353.447	85.12
353.674	83.12
353.901	84.12
354.128	76.12
354.355	87.12
354.583	78.12
354.81	82.12
355.037	91.12
355.264	77.12
355.491	82.12
355.718	77.12
355.945	92.12
356.172	89.12
356.399	86.12
356.626	83.12
356.853	70.12
357.08	77.12
357.307	84.12
357.534	83.12
357.761	88.12
357.988	88.12
358.215	87.12
358.441	85.12
358.668	78.12
358.895	98.12
359.122	86.12
359.349	85.12
359.576	94.12
359.802	85.12
360.029	84.12
360.256	84.12
360.483	81.12
360.709	91.12
360.936	101.12
361.163	84.12
361.39	82.12
361.616	94.12
361.843	87.12
362.07	79.12
362.296	73.12
362.523	83.12
362.749	76.12
362.976	84.12
363.203	75.12
363.429	66.12
363.656	67.12
363.882	89.12
364.109	91.12
364.335	85.12
364.562	80.12
364.788	77.12
365.015	85.12
365.241	87.12
365.468	71.12
365.694	76.12
365.92	92.12
366.147	81.12
366.373	82.12
366.599	84.12
366.826	92.12
367.052	88.12
367.278	98.12
367.505	86.12
367.731	104.12
367.957	98.12
368.184	85.12
368.41	99.12
368.636	93.12
368.862	80.12
369.089	95.12
369.315	84.12
369.541	95.12
369.767	93.12
369.993	97.12
370.219	104.12
370.445	98.12
370.672	84.12
370.898	82.12
371.124	81.12
371.35	88.12
371.576	96.12
371.802	94.12
372.028	96.12
372.254	78.12
372.48	84.12
372.706	96.12
372.932	101.12
373.158	82.12
373.384	94.12
373.61	100.12
373.835	96.12
374.061	84.12
374.287	82.12
374.513	102.12
374.739	92.12
374.965	107.12
375.191	88.12
375.416	95.12
375.642	106.12
375.868	103.12
376.094	98.12
376.319	84.12
376.545	96.12
376.771	91.12
376.997	104.12
377.222	87.12
377.448	107.12
377.674	86.12
377.899	87.12
378.125	99.12
378.35	93.12
378.576	91.12
378.802	94.12
379.027	83.12
379.253	92.12
379.478	88.12
379.704	96.12
379.929	91.12
380.155	105.12
380.38	97.12
380.606	107.12
380.831	96.12
381.057	101.12
381.282	93.12
381.507	97.12
381.733	89.12
381.958	93.12
382.184	91.12
382.409	107.12
382.634	99.12
382.86	90.12
383.085	93.12
383.31	95.12
383.535	89.12
383.761	102.12
383.986	104.12
384.211	91.12
384.436	105.12
384.662	107.12
384.887	101.12
385.112	104.12
385.337	93.12
385.562	92.12
385.787	97.12
386.013	96.12
386.238	89.12
386.463	90.12
386.688	107.12
386.913	92.12
387.138	88.12
387.363	96.12
387.588	115.12
387.813	110.12
388.038	82.12
388.263	110.12
388.488	106.12
388.713	111.12
388.938	109.12
389.163	99.12
389.387	108.12
389.612	115.12
389.837	118.12
390.062	105.12
390.287	95.12
390.512	92.12
390.736	91.12
390.961	99.12
391.186	109.12
391.411	102.12
391.636	113.12
391.86	92.12
392.085	98.12
392.31	94.12
392.534	111.12
392.759	109.12
392.984	102.12
393.208	113.12
393.433	91.12
393.658	116.12
393.882	116.12
394.107	104.12
394.331	101.12
394.556	109.12
394.78	105.12
395.005	92.12
395.229	94.12
395.454	104.12
395.678	109.12
395.903	118.12
396.127	109.12
396.352	106.12
396.576	101.12
396.801	110.12
397.025	98.12
397.249	116.12
397.474	107.12
397.698	110.12
397.922	97.12
398.147	102.12
398.371	112.12
398.595	100.12
398.82	118.12
399.044	112.12
399.268	112.12
399.492	113.12
399.717	101.12
399.941	99.12
400.165	128.12
400.389	112.12
400.613	110.12
400.837	112.12
401.062	105.12
401.286	108.12
401.51	106.12
401.734	105.12
401.958	123.12
402.182	120.12
402.406	112.12
402.63	101.12
402.854	103.12
403.078	104.12
403.302	114.12
403.526	121.12
403.75	122.12
403.974	99.12
404.198	112.12
404.422	116.12
404.645	109.12
404.869	123.12
405.093	118.12
405.317	108.12
405.541	101.12
405.765	119.12
405.988	124.12
406.212	119.12
406.436	126.12
406.66	124.12
406.883	127.12
407.107	128.12
407.331	106.12
407.555	106.12
407.778	116.12
408.002	112.12
408.226	120.12
408.449	124.12
408.673	130.12
408.896	114.12
409.12	115.12
409.344	118.12
409.567	125.12
409.791	122.12
410.014	122.12
410.238	121.12
410.461	116.12
410.685	123.12
410.908	126.12
411.132	110.12
411.355	125.12
411.578	136.12
411.802	109.12
412.025	122.12
412.249	126.12
412.472	112.12
412.695	132.12
412.919	138.12
413.142	119.12
413.365	120.12
413.589	123.12
413.812	128.12
414.035	136.12
414.258	124.12
414.482	114.12
414.705	126.12
414.928	121.12
415.151	130.12
415.374	120.12
415.597	114.12
415.821	133.12
416.044	109.12
416.267	120.12
416.49	126.12
416.713	129.12
416.936	125.12
417.159	123.12
417.382	120.12
417.605	113.12
417.828	126.12
418.051	130.12
418.274	145.12
418.497	139.12
418.72	140.12
418.943	121.12
419.166	115.12
419.389	149.12
419.611	138.12
419.834	124.12
420.057	128.12
420.28	128.12
420.503	132.12
420.726	125.12
420.948	128.12
421.171	137.12
421.394	125.12
421.617	134.12
421.839	139.12
422.062	140.12
422.285	128.12
422.507	141.12
422.73	126.12
422.953	127.12
423.175	108.12
423.398	133.12
423.621	126.12
423.843	113.12
424.066	127.12
424.288	136.12
424.511	146.12
424.733	134.12
424.956	153.12
425.178	127.12
425.401	146.12
425.623	126.12
425.846	138.12
426.068	122.12
426.291	120.12
426.513	124.12
426.735	134.12
426.958	137.12
427.18	133.12
427.402	130.12
427.625	137.12
427.847	109.12
428.069	122.12
428.292	118.12
428.514	116.12
428.736	121.12
428.958	128.12
429.181	125.12
429.403	130.12
429.625	143.12
429.847	120.12
430.069	141.12
430.292	135.12
430.514	131.12
430.736	122.12
430.958	133.12
431.18	135.12
431.402	119.12
431.624	123.12
431.846	118.12
432.068	98.12
432.29	88.12
432.512	110.12
432.734	124.12
432.956	136.12
433.178	143.12
433.4	129.12
433.622	136.12
433.844	128.12
434.066	129.12
434.287	89.12
434.509	109.12
434.731	110.12
434.953	105.12
435.175	122.12
435.397	120.12
435.618	114.12
435.84	110.12
436.062	100.12
436.284	132.12
436.505	140.12
436.727	122.12
436.949	129.12
437.17	137.12
437.392	136.12
437.614	130.12
437.835	122.12
438.057	117.12
438.278	106.12
438.5	123.12
438.721	136.12
438.943	134.12
439.165	144.12
439.386	130.12
439.608	144.12
439.829	152.12
440.05	142.12
440.272	136.12
440.493	149.12
440.715	138.12
440.936	138.12
441.158	149.12
441.379	135.12
441.6	144.12
441.822	141.12
442.043	139.12
442.264	136.12
442.486	151.12
442.707	133.12
442.928	146.12
443.149	124.12
443.371	127.12
443.592	128.12
443.813	134.12
444.034	141.12
444.255	132.12
444.476	129.12
444.698	148.12
444.919	138.12
445.14	286.12
445.361	213.12
445.582	158.12
445.803	141.12
446.024	147.12
446.245	165.12
446.466	168.12
446.687	150.12
446.908	148.12
447.129	166.12
447.35	161.12
447.571	145.12
447.792	160.12
448.013	156.12
448.234	139.12
448.455	147.12
448.675	154.12
448.896	148.12
449.117	142.12
449.338	142.12
449.559	130.12
449.779	126.12
450	142.12
450.221	133.12
450.442	128.12
450.662	138.12
450.883	142.12
451.104	137.12
451.324	133.12
451.545	147.12
451.766	143.12
451.986	134.12
452.207	142.12
452.428	126.12
452.648	121.12
452.869	113.12
453.089	127.12
453.31	110.12
453.53	124.12
453.751	108.12
453.971	97.12
454.192	98.12
454.412	106.12
454.633	128.12
454.853	123.12
455.073	113.12
455.294	126.12
455.514	119.12
455.734	116.12
455.955	98.12
456.175	110.12
456.395	114.12
456.616	115.12
456.836	104.12
457.056	112.12
457.276	108.12
457.497	111.12
457.717	118.12
457.937	109.12
458.157	120.12
458.377	88.12
458.598	101.12
458.818	104.12
459.038	98.12
459.258	92.12
459.478	96.12
459.698	84.12
459.918	105.12
460.138	103.12
460.358	111.12
460.578	119.12
460.798	114.12
461.018	118.12
461.238	124.12
461.458	126.12
461.678	129.12
461.898	118.12
462.118	105.12
462.338	111.12
462.558	101.12
462.777	120.12
462.997	122.12
463.217	113.12
463.437	105.12
463.657	108.12
463.876	109.12
464.096	111.12
464.316	114.12
464.536	120.12
464.755	120.12
464.975	117.12
465.195	119.12
465.414	104.12
465.634	121.12
465.854	102.12
466.073	114.12
466.293	124.12
466.512	120.12
466.732	132.12
466.951	132.12
467.171	144.12
467.391	138.12
467.61	137.12
467.829	128.12
468.049	133.12
468.268	149.12
468.488	134.12
468.707	134.12
468.927	133.12
469.146	139.12
469.365	131.12
469.585	145.12
469.804	144.12
470.023	130.12
470.243	124.12
470.462	149.12
470.681	136.12
470.901	134.12
471.12	140.12
471.339	140.12
471.558	136.12
471.777	139.12
471.997	142.12
472.216	138.12
472.435	118.12
472.654	118.12
472.873	110.12
473.092	126.12
473.311	118.12
473.53	132.12
473.749	143.12
473.968	126.12
474.187	124.12
474.406	133.12
474.625	133.12
474.844	142.12
475.063	140.12
475.282	122.12
475.501	116.12
475.72	102.12
475.939	124.12
476.158	118.12
476.377	116.12
476.596	118.12
476.814	130.12
477.033	112.12
477.252	112.12
477.471	135.12
477.69	123.12
477.908	126.12
478.127	136.12
478.346	122.12
478.564	135.12
478.783	137.12
479.002	148.12
479.22	142.12
479.439	134.12
479.658	120.12
479.876	107.12
480.095	112.12
480.313	116.12
480.532	126.12
480.751	104.12
480.969	107.12
481.188	96.12
481.406	97.12
481.624	110.12
481.843	102.12
482.061	91.12
482.28	102.12
482.498	134.12
482.717	107.12
482.935	122.12
483.153	132.12
483.372	137.12
483.59	160.12
483.808	131.12
484.027	147.12
484.245	155.12
484.463	159.12
484.681	174.12
484.9	155.12
485.118	152.12
485.336	130.12
485.554	118.12
485.772	105.12
485.99	105.12
486.209	118.12
486.427	121.12
486.645	121.12
486.863	144.12
487.081	154.12
487.299	125.12
487.517	134.12
487.735	168.12
487.953	186.12
488.171	189.12
488.389	189.12
488.607	158.12
488.825	160.12
489.043	151.12
489.261	143.12
489.479	131.12
489.696	132.12
489.914	139.12
490.132	141.12
490.35	151.12
490.568	159.12
490.786	165.12
491.003	171.12
491.221	180.12
491.439	164.12
491.657	184.12
491.874	212.12
492.092	233.12
492.31	250.12
492.527	219.12
492.745	205.12
492.963	183.12
493.18	198.12
493.398	187.12
493.615	188.12
493.833	177.12
494.05	176.12
494.268	167.12
494.485	179.12
494.703	179.12
494.92	180.12
495.138	170.12
495.355	168.12
495.573	180.12
495.79	162.12
496.008	168.12
496.225	155.12
496.442	178.12
496.66	169.12
496.877	157.12
497.094	153.12
497.312	154.12
497.529	159.12
497.746	151.12
497.963	142.12
498.181	137.12
498.398	109.12
498.615	118.12
498.832	118.12
499.049	127.12
499.267	109.12
499.484	128.12
499.701	128.12
499.918	143.12
500.135	139.12
500.352	148.12
500.569	124.12
500.786	159.12
501.003	146.12
501.22	141.12
501.437	134.12
501.654	128.12
501.871	125.12
502.088	138.12
502.305	135.12
502.522	143.12
502.739	145.12
502.956	135.12
503.172	125.12
503.389	122.12
503.606	126.12
503.823	120.12
504.04	111.12
504.256	129.12
504.473	122.12
504.69	117.12
504.907	130.12
505.123	125.12
505.34	126.12
505.557	122.12
505.773	132.12
505.99	118.12
506.207	129.12
506.423	125.12
506.64	125.12
506.856	117.12
507.073	114.12
507.289	123.12
507.506	128.12
507.722	122.12
507.939	102.12
508.155	125.12
508.372	123.12
508.588	106.12
508.805	109.12
509.021	110.12
509.238	115.12
509.454	103.12
509.67	101.12
509.887	93.12
510.103	112.12
510.319	91.12
510.536	86.12
510.752	97.12
510.968	93.12
511.184	89.12
511.401	97.12
