Data from Location4.07152019.Energy5.Lamp.07192019.3%Agarose_HRD10591_16-18-41-925.txt Node
Date: Fri Jul 19 16:18:41 EDT 2019
User: cochatt
Spectrometer: HR+D1059
Trigger mode: 1
Integration Time (sec): 1.000000E-1
Scans to average: 1
Electric dark correction enabled: true
Nonlinearity correction enabled: false
Boxcar width: 0
XAxis mode: Wavelengths
Number of Pixels in Spectrum: 2048
>>>>>Begin Spectral Data<<<<<
223.165	-0.56
223.4	-0.56
223.635	-0.56
223.869	-17.56
224.104	-23.56
224.338	-22.56
224.573	2.44
224.808	-21.56
225.042	-7.56
225.277	-3.56
225.511	-5.56
225.746	9.44
225.98	5.44
226.215	10.44
226.449	8.44
226.683	21.44
226.918	20.44
227.152	24.44
227.387	19.44
227.621	30.44
227.856	50.44
228.09	41.44
228.324	42.44
228.559	67.44
228.793	60.44
229.027	50.44
229.262	64.44
229.496	69.44
229.73	58.44
229.964	69.44
230.199	81.44
230.433	83.44
230.667	65.44
230.901	84.44
231.136	74.44
231.37	80.44
231.604	80.44
231.838	88.44
232.072	72.44
232.306	74.44
232.541	79.44
232.775	90.44
233.009	75.44
233.243	81.44
233.477	80.44
233.711	63.44
233.945	59.44
234.179	84.44
234.413	77.44
234.647	74.44
234.881	82.44
235.115	79.44
235.349	76.44
235.583	81.44
235.817	71.44
236.051	73.44
236.285	89.44
236.519	76.44
236.753	75.44
236.987	81.44
237.221	88.44
237.455	81.44
237.689	60.44
237.922	70.44
238.156	77.44
238.39	74.44
238.624	72.44
238.858	67.44
239.091	77.44
239.325	75.44
239.559	73.44
239.793	94.44
240.027	82.44
240.26	67.44
240.494	72.44
240.728	74.44
240.961	80.44
241.195	81.44
241.429	70.44
241.662	63.44
241.896	83.44
242.13	86.44
242.363	91.44
242.597	83.44
242.83	71.44
243.064	71.44
243.298	76.44
243.531	71.44
243.765	85.44
243.998	74.44
244.232	80.44
244.465	67.44
244.699	76.44
244.932	80.44
245.166	66.44
245.399	73.44
245.633	88.44
245.866	71.44
246.099	72.44
246.333	79.44
246.566	62.44
246.8	73.44
247.033	70.44
247.266	93.44
247.5	90.44
247.733	77.44
247.966	78.44
248.2	68.44
248.433	72.44
248.666	80.44
248.899	77.44
249.133	87.44
249.366	95.44
249.599	83.44
249.832	69.44
250.066	92.44
250.299	87.44
250.532	80.44
250.765	76.44
250.998	79.44
251.231	73.44
251.465	62.44
251.698	78.44
251.931	73.44
252.164	76.44
252.397	80.44
252.63	86.44
252.863	80.44
253.096	92.44
253.329	83.44
253.562	82.44
253.795	78.44
254.028	84.44
254.261	74.44
254.494	81.44
254.727	75.44
254.96	85.44
255.193	65.44
255.426	88.44
255.659	75.44
255.892	84.44
256.124	72.44
256.357	87.44
256.59	64.44
256.823	75.44
257.056	89.44
257.289	80.44
257.521	84.44
257.754	76.44
257.987	93.44
258.22	94.44
258.452	79.44
258.685	88.44
258.918	76.44
259.151	67.44
259.383	80.44
259.616	83.44
259.849	86.44
260.081	80.44
260.314	92.44
260.547	74.44
260.779	79.44
261.012	79.44
261.244	69.44
261.477	94.44
261.71	69.44
261.942	81.44
262.175	75.44
262.407	74.44
262.64	84.44
262.872	83.44
263.105	73.44
263.337	83.44
263.57	79.44
263.802	82.44
264.035	96.44
264.267	88.44
264.499	76.44
264.732	79.44
264.964	78.44
265.197	90.44
265.429	79.44
265.661	80.44
265.894	76.44
266.126	97.44
266.358	76.44
266.591	71.44
266.823	59.44
267.055	86.44
267.287	69.44
267.52	76.44
267.752	93.44
267.984	83.44
268.216	83.44
268.448	78.44
268.681	66.44
268.913	92.44
269.145	81.44
269.377	89.44
269.609	74.44
269.841	74.44
270.073	81.44
270.306	77.44
270.538	84.44
270.77	75.44
271.002	80.44
271.234	74.44
271.466	80.44
271.698	78.44
271.93	82.44
272.162	79.44
272.394	67.44
272.626	61.44
272.858	78.44
273.09	82.44
273.322	81.44
273.553	80.44
273.785	82.44
274.017	77.44
274.249	75.44
274.481	102.44
274.713	85.44
274.945	90.44
275.176	70.44
275.408	88.44
275.64	89.44
275.872	82.44
276.104	91.44
276.335	70.44
276.567	82.44
276.799	81.44
277.031	82.44
277.262	87.44
277.494	86.44
277.726	79.44
277.957	84.44
278.189	83.44
278.421	87.44
278.652	77.44
278.884	73.44
279.115	95.44
279.347	90.44
279.579	94.44
279.81	75.44
280.042	80.44
280.273	94.44
280.505	87.44
280.736	87.44
280.968	83.44
281.199	82.44
281.431	96.44
281.662	86.44
281.894	67.44
282.125	74.44
282.356	87.44
282.588	88.44
282.819	92.44
283.051	80.44
283.282	82.44
283.513	83.44
283.745	88.44
283.976	75.44
284.207	77.44
284.439	65.44
284.67	103.44
284.901	92.44
285.132	84.44
285.364	86.44
285.595	92.44
285.826	78.44
286.057	77.44
286.288	90.44
286.52	70.44
286.751	86.44
286.982	92.44
287.213	72.44
287.444	76.44
287.675	94.44
287.906	83.44
288.138	83.44
288.369	57.44
288.6	83.44
288.831	84.44
289.062	79.44
289.293	83.44
289.524	81.44
289.755	75.44
289.986	90.44
290.217	76.44
290.448	89.44
290.679	89.44
290.91	79.44
291.141	80.44
291.371	95.44
291.602	94.44
291.833	75.44
292.064	86.44
292.295	75.44
292.526	79.44
292.757	75.44
292.987	84.44
293.218	80.44
293.449	92.44
293.68	74.44
293.91	89.44
294.141	81.44
294.372	82.44
294.603	89.44
294.833	77.44
295.064	80.44
295.295	70.44
295.525	87.44
295.756	80.44
295.987	80.44
296.217	79.44
296.448	80.44
296.679	75.44
296.909	94.44
297.14	92.44
297.37	89.44
297.601	86.44
297.831	70.44
298.062	80.44
298.292	67.44
298.523	81.44
298.753	79.44
298.984	80.44
299.214	92.44
299.445	87.44
299.675	74.44
299.905	88.44
300.136	102.44
300.366	76.44
300.597	86.44
300.827	89.44
301.057	88.44
301.288	98.44
301.518	89.44
301.748	71.44
301.979	66.44
302.209	76.44
302.439	70.44
302.669	75.44
302.9	85.44
303.13	86.44
303.36	79.44
303.59	85.44
303.82	69.44
304.051	80.44
304.281	78.44
304.511	80.44
304.741	89.44
304.971	78.44
305.201	82.44
305.431	87.44
305.661	84.44
305.891	87.44
306.121	82.44
306.352	80.44
306.582	102.44
306.812	100.44
307.042	84.44
307.272	68.44
307.502	84.44
307.731	76.44
307.961	83.44
308.191	69.44
308.421	85.44
308.651	89.44
308.881	86.44
309.111	86.44
309.341	85.44
309.571	58.44
309.8	82.44
310.03	85.44
310.26	80.44
310.49	86.44
310.72	94.44
310.949	95.44
311.179	86.44
311.409	90.44
311.639	81.44
311.868	101.44
312.098	77.44
312.328	84.44
312.557	78.44
312.787	84.44
313.017	77.44
313.246	70.44
313.476	80.44
313.706	80.44
313.935	88.44
314.165	95.44
314.394	87.44
314.624	83.44
314.853	88.44
315.083	72.44
315.312	85.44
315.542	82.44
315.771	86.44
316.001	73.44
316.23	88.44
316.46	82.44
316.689	91.44
316.919	85.44
317.148	92.44
317.377	72.44
317.607	68.44
317.836	86.44
318.065	81.44
318.295	86.44
318.524	73.44
318.753	74.44
318.983	89.44
319.212	82.44
319.441	92.44
319.67	73.44
319.9	82.44
320.129	75.44
320.358	91.44
320.587	76.44
320.816	80.44
321.046	91.44
321.275	92.44
321.504	84.44
321.733	76.44
321.962	82.44
322.191	98.44
322.42	93.44
322.649	86.44
322.878	84.44
323.108	80.44
323.337	67.44
323.566	91.44
323.795	78.44
324.024	80.44
324.253	83.44
324.482	80.44
324.71	74.44
324.939	88.44
325.168	94.44
325.397	85.44
325.626	81.44
325.855	74.44
326.084	81.44
326.313	83.44
326.542	91.44
326.77	92.44
326.999	83.44
327.228	83.44
327.457	75.44
327.686	95.44
327.914	90.44
328.143	96.44
328.372	84.44
328.6	75.44
328.829	73.44
329.058	87.44
329.287	86.44
329.515	86.44
329.744	98.44
329.972	94.44
330.201	82.44
330.43	73.44
330.658	74.44
330.887	85.44
331.115	90.44
331.344	81.44
331.572	90.44
331.801	84.44
332.03	87.44
332.258	79.44
332.486	74.44
332.715	78.44
332.943	78.44
333.172	93.44
333.4	75.44
333.629	99.44
333.857	83.44
334.085	84.44
334.314	81.44
334.542	85.44
334.771	85.44
334.999	79.44
335.227	75.44
335.455	91.44
335.684	68.44
335.912	98.44
336.14	88.44
336.369	86.44
336.597	80.44
336.825	87.44
337.053	87.44
337.281	93.44
337.51	81.44
337.738	82.44
337.966	87.44
338.194	74.44
338.422	84.44
338.65	83.44
338.878	76.44
339.106	73.44
339.334	85.44
339.562	78.44
339.79	76.44
340.018	71.44
340.246	78.44
340.474	73.44
340.702	84.44
340.93	88.44
341.158	71.44
341.386	78.44
341.614	85.44
341.842	86.44
342.07	80.44
342.298	91.44
342.526	84.44
342.754	84.44
342.981	96.44
343.209	87.44
343.437	102.44
343.665	74.44
343.893	86.44
344.12	97.44
344.348	79.44
344.576	82.44
344.804	73.44
345.031	77.44
345.259	82.44
345.487	73.44
345.714	74.44
345.942	84.44
346.17	87.44
346.397	89.44
346.625	90.44
346.853	87.44
347.08	76.44
347.308	65.44
347.535	90.44
347.763	98.44
347.99	83.44
348.218	79.44
348.445	82.44
348.673	72.44
348.9	84.44
349.128	90.44
349.355	90.44
349.583	79.44
349.81	85.44
350.037	68.44
350.265	84.44
350.492	79.44
350.72	81.44
350.947	77.44
351.174	98.44
351.402	70.44
351.629	82.44
351.856	81.44
352.083	80.44
352.311	83.44
352.538	92.44
352.765	66.44
352.992	71.44
353.22	83.44
353.447	71.44
353.674	81.44
353.901	95.44
354.128	78.44
354.355	83.44
354.583	67.44
354.81	83.44
355.037	87.44
355.264	81.44
355.491	98.44
355.718	90.44
355.945	74.44
356.172	82.44
356.399	77.44
356.626	81.44
356.853	72.44
357.08	83.44
357.307	84.44
357.534	91.44
357.761	83.44
357.988	86.44
358.215	88.44
358.441	81.44
358.668	82.44
358.895	70.44
359.122	74.44
359.349	73.44
359.576	81.44
359.802	88.44
360.029	75.44
360.256	70.44
360.483	90.44
360.709	87.44
360.936	95.44
361.163	78.44
361.39	88.44
361.616	88.44
361.843	83.44
362.07	79.44
362.296	89.44
362.523	82.44
362.749	79.44
362.976	84.44
363.203	89.44
363.429	71.44
363.656	71.44
363.882	83.44
364.109	83.44
364.335	73.44
364.562	80.44
364.788	75.44
365.015	85.44
365.241	98.44
365.468	88.44
365.694	84.44
365.92	75.44
366.147	87.44
366.373	92.44
366.599	79.44
366.826	79.44
367.052	84.44
367.278	89.44
367.505	75.44
367.731	82.44
367.957	71.44
368.184	87.44
368.41	89.44
368.636	92.44
368.862	106.44
369.089	91.44
369.315	86.44
369.541	81.44
369.767	95.44
369.993	81.44
370.219	89.44
370.445	90.44
370.672	83.44
370.898	88.44
371.124	94.44
371.35	99.44
371.576	88.44
371.802	100.44
372.028	104.44
372.254	92.44
372.48	85.44
372.706	82.44
372.932	87.44
373.158	76.44
373.384	100.44
373.61	103.44
373.835	85.44
374.061	95.44
374.287	87.44
374.513	96.44
374.739	102.44
374.965	95.44
375.191	82.44
375.416	98.44
375.642	100.44
375.868	107.44
376.094	91.44
376.319	90.44
376.545	88.44
376.771	107.44
376.997	85.44
377.222	102.44
377.448	94.44
377.674	92.44
377.899	93.44
378.125	92.44
378.35	81.44
378.576	93.44
378.802	83.44
379.027	88.44
379.253	98.44
379.478	84.44
379.704	80.44
379.929	89.44
380.155	83.44
380.38	98.44
380.606	105.44
380.831	98.44
381.057	112.44
381.282	91.44
381.507	85.44
381.733	107.44
381.958	88.44
382.184	100.44
382.409	106.44
382.634	112.44
382.86	100.44
383.085	97.44
383.31	96.44
383.535	102.44
383.761	107.44
383.986	95.44
384.211	102.44
384.436	92.44
384.662	96.44
384.887	100.44
385.112	107.44
385.337	87.44
385.562	103.44
385.787	94.44
386.013	88.44
386.238	103.44
386.463	105.44
386.688	76.44
386.913	99.44
387.138	108.44
387.363	97.44
387.588	100.44
387.813	80.44
388.038	108.44
388.263	93.44
388.488	108.44
388.713	91.44
388.938	93.44
389.163	95.44
389.387	82.44
389.612	83.44
389.837	105.44
390.062	107.44
390.287	104.44
390.512	97.44
390.736	101.44
390.961	95.44
391.186	105.44
391.411	112.44
391.636	105.44
391.86	100.44
392.085	104.44
392.31	107.44
392.534	103.44
392.759	108.44
392.984	91.44
393.208	110.44
393.433	102.44
393.658	97.44
393.882	98.44
394.107	111.44
394.331	117.44
394.556	99.44
394.78	100.44
395.005	91.44
395.229	98.44
395.454	105.44
395.678	111.44
395.903	99.44
396.127	101.44
396.352	103.44
396.576	93.44
396.801	110.44
397.025	106.44
397.249	104.44
397.474	110.44
397.698	104.44
397.922	102.44
398.147	113.44
398.371	111.44
398.595	117.44
398.82	113.44
399.044	92.44
399.268	110.44
399.492	86.44
399.717	108.44
399.941	106.44
400.165	103.44
400.389	112.44
400.613	110.44
400.837	106.44
401.062	116.44
401.286	116.44
401.51	107.44
401.734	111.44
401.958	101.44
402.182	95.44
402.406	113.44
402.63	124.44
402.854	105.44
403.078	108.44
403.302	91.44
403.526	115.44
403.75	122.44
403.974	105.44
404.198	116.44
404.422	108.44
404.645	102.44
404.869	130.44
405.093	120.44
405.317	120.44
405.541	123.44
405.765	112.44
405.988	119.44
406.212	105.44
406.436	115.44
406.66	115.44
406.883	120.44
407.107	125.44
407.331	132.44
407.555	128.44
407.778	116.44
408.002	118.44
408.226	110.44
408.449	118.44
408.673	108.44
408.896	107.44
409.12	105.44
409.344	119.44
409.567	118.44
409.791	118.44
410.014	123.44
410.238	109.44
410.461	114.44
410.685	108.44
410.908	120.44
411.132	120.44
411.355	112.44
411.578	122.44
411.802	110.44
412.025	117.44
412.249	120.44
412.472	120.44
412.695	113.44
412.919	114.44
413.142	122.44
413.365	115.44
413.589	133.44
413.812	128.44
414.035	141.44
414.258	124.44
414.482	128.44
414.705	116.44
414.928	122.44
415.151	119.44
415.374	123.44
415.597	129.44
415.821	125.44
416.044	119.44
416.267	115.44
416.49	134.44
416.713	125.44
416.936	116.44
417.159	130.44
417.382	110.44
417.605	120.44
417.828	122.44
418.051	118.44
418.274	120.44
418.497	132.44
418.72	134.44
418.943	136.44
419.166	129.44
419.389	137.44
419.611	131.44
419.834	132.44
420.057	129.44
420.28	135.44
420.503	130.44
420.726	128.44
420.948	123.44
421.171	130.44
421.394	137.44
421.617	155.44
421.839	135.44
422.062	155.44
422.285	132.44
422.507	144.44
422.73	126.44
422.953	127.44
423.175	137.44
423.398	129.44
423.621	121.44
423.843	132.44
424.066	145.44
424.288	122.44
424.511	148.44
424.733	143.44
424.956	134.44
425.178	126.44
425.401	139.44
425.623	138.44
425.846	130.44
426.068	135.44
426.291	115.44
426.513	131.44
426.735	134.44
426.958	135.44
427.18	122.44
427.402	123.44
427.625	116.44
427.847	133.44
428.069	144.44
428.292	130.44
428.514	122.44
428.736	134.44
428.958	131.44
429.181	122.44
429.403	123.44
429.625	141.44
429.847	114.44
430.069	124.44
430.292	136.44
430.514	128.44
430.736	128.44
430.958	147.44
431.18	119.44
431.402	134.44
431.624	112.44
431.846	120.44
432.068	98.44
432.29	105.44
432.512	110.44
432.734	121.44
432.956	121.44
433.178	135.44
433.4	144.44
433.622	144.44
433.844	128.44
434.066	117.44
434.287	119.44
434.509	114.44
434.731	105.44
434.953	111.44
435.175	130.44
435.397	122.44
435.618	115.44
435.84	113.44
436.062	117.44
436.284	140.44
436.505	143.44
436.727	122.44
436.949	124.44
437.17	135.44
437.392	112.44
437.614	104.44
437.835	110.44
438.057	103.44
438.278	123.44
438.5	128.44
438.721	138.44
438.943	157.44
439.165	114.44
439.386	150.44
439.608	144.44
439.829	132.44
440.05	144.44
440.272	147.44
440.493	129.44
440.715	146.44
440.936	149.44
441.158	148.44
441.379	138.44
441.6	146.44
441.822	132.44
442.043	146.44
442.264	129.44
442.486	136.44
442.707	134.44
442.928	138.44
443.149	127.44
443.371	126.44
443.592	127.44
443.813	130.44
444.034	132.44
444.255	145.44
444.476	148.44
444.698	131.44
444.919	141.44
445.14	266.44
445.361	200.44
445.582	154.44
445.803	146.44
446.024	141.44
446.245	159.44
446.466	144.44
446.687	144.44
446.908	153.44
447.129	156.44
447.35	132.44
447.571	146.44
447.792	140.44
448.013	134.44
448.234	136.44
448.455	144.44
448.675	148.44
448.896	134.44
449.117	152.44
449.338	139.44
449.559	136.44
449.779	132.44
450	143.44
450.221	141.44
450.442	140.44
450.662	126.44
450.883	126.44
451.104	136.44
451.324	124.44
451.545	118.44
451.766	137.44
451.986	134.44
452.207	122.44
452.428	129.44
452.648	112.44
452.869	118.44
453.089	115.44
453.31	119.44
453.53	116.44
453.751	100.44
453.971	116.44
454.192	113.44
454.412	116.44
454.633	129.44
454.853	116.44
455.073	124.44
455.294	123.44
455.514	124.44
455.734	130.44
455.955	117.44
456.175	103.44
456.395	110.44
456.616	116.44
456.836	104.44
457.056	105.44
457.276	105.44
457.497	98.44
457.717	113.44
457.937	107.44
458.157	119.44
458.377	107.44
458.598	96.44
458.818	86.44
459.038	88.44
459.258	75.44
459.478	74.44
459.698	88.44
459.918	101.44
460.138	120.44
460.358	117.44
460.578	104.44
460.798	100.44
461.018	108.44
461.238	118.44
461.458	107.44
461.678	102.44
461.898	110.44
462.118	106.44
462.338	118.44
462.558	110.44
462.777	115.44
462.997	115.44
463.217	106.44
463.437	110.44
463.657	109.44
463.876	110.44
464.096	91.44
464.316	124.44
464.536	104.44
464.755	112.44
464.975	119.44
465.195	122.44
465.414	133.44
465.634	121.44
465.854	131.44
466.073	122.44
466.293	108.44
466.512	126.44
466.732	130.44
466.951	123.44
467.171	130.44
467.391	119.44
467.61	124.44
467.829	141.44
468.049	131.44
468.268	132.44
468.488	118.44
468.707	141.44
468.927	127.44
469.146	136.44
469.365	144.44
469.585	130.44
469.804	139.44
470.023	126.44
470.243	140.44
470.462	152.44
470.681	140.44
470.901	133.44
471.12	158.44
471.339	130.44
471.558	144.44
471.777	140.44
471.997	139.44
472.216	129.44
472.435	114.44
472.654	111.44
472.873	122.44
473.092	129.44
473.311	116.44
473.53	125.44
473.749	120.44
473.968	121.44
474.187	120.44
474.406	122.44
474.625	132.44
474.844	121.44
475.063	133.44
475.282	113.44
475.501	103.44
475.72	126.44
475.939	122.44
476.158	120.44
476.377	123.44
476.596	118.44
476.814	115.44
477.033	102.44
477.252	116.44
477.471	111.44
477.69	144.44
477.908	136.44
478.127	152.44
478.346	149.44
478.564	127.44
478.783	123.44
479.002	129.44
479.22	150.44
479.439	139.44
479.658	119.44
479.876	120.44
480.095	124.44
480.313	113.44
480.532	116.44
480.751	94.44
480.969	91.44
481.188	91.44
481.406	93.44
481.624	94.44
481.843	103.44
482.061	113.44
482.28	128.44
482.498	118.44
482.717	103.44
482.935	118.44
483.153	140.44
483.372	138.44
483.59	143.44
483.808	134.44
484.027	134.44
484.245	123.44
484.463	148.44
484.681	143.44
484.9	153.44
485.118	138.44
485.336	116.44
485.554	111.44
485.772	98.44
485.99	94.44
486.209	105.44
486.427	118.44
486.645	112.44
486.863	126.44
487.081	149.44
487.299	126.44
487.517	149.44
487.735	164.44
487.953	167.44
488.171	165.44
488.389	167.44
488.607	160.44
488.825	138.44
489.043	122.44
489.261	128.44
489.479	127.44
489.696	140.44
489.914	146.44
490.132	140.44
490.35	138.44
490.568	164.44
490.786	157.44
491.003	171.44
491.221	167.44
491.439	165.44
491.657	181.44
491.874	211.44
492.092	218.44
492.31	241.44
492.527	231.44
492.745	205.44
492.963	195.44
493.18	174.44
493.398	165.44
493.615	174.44
493.833	177.44
494.05	182.44
494.268	182.44
494.485	157.44
494.703	166.44
494.92	175.44
495.138	181.44
495.355	164.44
495.573	157.44
495.79	156.44
496.008	175.44
496.225	169.44
496.442	169.44
496.66	164.44
496.877	152.44
497.094	175.44
497.312	160.44
497.529	158.44
497.746	143.44
497.963	150.44
498.181	122.44
498.398	124.44
498.615	137.44
498.832	114.44
499.049	120.44
499.267	126.44
499.484	127.44
499.701	117.44
499.918	134.44
500.135	135.44
500.352	139.44
500.569	133.44
500.786	145.44
501.003	138.44
501.22	146.44
501.437	134.44
501.654	159.44
501.871	130.44
502.088	125.44
502.305	122.44
502.522	126.44
502.739	143.44
502.956	127.44
503.172	138.44
503.389	128.44
503.606	122.44
503.823	110.44
504.04	114.44
504.256	124.44
504.473	104.44
504.69	120.44
504.907	120.44
505.123	127.44
505.34	130.44
505.557	124.44
505.773	119.44
505.99	123.44
506.207	132.44
506.423	122.44
506.64	119.44
506.856	121.44
507.073	115.44
507.289	119.44
507.506	116.44
507.722	114.44
507.939	135.44
508.155	112.44
508.372	118.44
508.588	111.44
508.805	103.44
509.021	98.44
509.238	117.44
509.454	99.44
509.67	102.44
509.887	75.44
510.103	114.44
510.319	95.44
510.536	90.44
510.752	83.44
510.968	76.44
511.184	79.44
511.401	85.44
511.617	101.44
