Data from Location4.07152019.Energy5.Lamp.07192019.3%Agarose_HRD10591_16-18-37-924.txt Node
Date: Fri Jul 19 16:18:37 EDT 2019
User: cochatt
Spectrometer: HR+D1059
Trigger mode: 1
Integration Time (sec): 1.000000E-1
Scans to average: 1
Electric dark correction enabled: true
Nonlinearity correction enabled: false
Boxcar width: 0
XAxis mode: Wavelengths
Number of Pixels in Spectrum: 2048
>>>>>Begin Spectral Data<<<<<
223.165	-20.5
223.4	-20.5
223.635	-20.5
223.869	-11.5
224.104	-16.5
224.338	-20.5
224.573	-10.5
224.808	-26.5
225.042	1.5
225.277	0.5
225.511	-14.5
225.746	3.5
225.98	6.5
226.215	17.5
226.449	11.5
226.683	19.5
226.918	27.5
227.152	32.5
227.387	33.5
227.621	35.5
227.856	41.5
228.09	47.5
228.324	51.5
228.559	61.5
228.793	54.5
229.027	65.5
229.262	71.5
229.496	62.5
229.73	76.5
229.964	67.5
230.199	79.5
230.433	74.5
230.667	78.5
230.901	79.5
231.136	68.5
231.37	66.5
231.604	72.5
231.838	72.5
232.072	92.5
232.306	104.5
232.541	88.5
232.775	94.5
233.009	84.5
233.243	93.5
233.477	74.5
233.711	79.5
233.945	85.5
234.179	86.5
234.413	85.5
234.647	84.5
234.881	64.5
235.115	76.5
235.349	86.5
235.583	76.5
235.817	82.5
236.051	78.5
236.285	85.5
236.519	76.5
236.753	71.5
236.987	72.5
237.221	91.5
237.455	92.5
237.689	79.5
237.922	93.5
238.156	73.5
238.39	79.5
238.624	75.5
238.858	79.5
239.091	79.5
239.325	64.5
239.559	91.5
239.793	83.5
240.027	94.5
240.26	70.5
240.494	63.5
240.728	81.5
240.961	77.5
241.195	84.5
241.429	93.5
241.662	72.5
241.896	81.5
242.13	87.5
242.363	84.5
242.597	81.5
242.83	81.5
243.064	91.5
243.298	82.5
243.531	71.5
243.765	87.5
243.998	91.5
244.232	92.5
244.465	79.5
244.699	78.5
244.932	91.5
245.166	80.5
245.399	88.5
245.633	85.5
245.866	67.5
246.099	85.5
246.333	83.5
246.566	83.5
246.8	76.5
247.033	73.5
247.266	77.5
247.5	75.5
247.733	88.5
247.966	67.5
248.2	74.5
248.433	66.5
248.666	80.5
248.899	90.5
249.133	92.5
249.366	84.5
249.599	78.5
249.832	75.5
250.066	89.5
250.299	88.5
250.532	78.5
250.765	95.5
250.998	88.5
251.231	80.5
251.465	87.5
251.698	91.5
251.931	70.5
252.164	89.5
252.397	85.5
252.63	85.5
252.863	94.5
253.096	87.5
253.329	80.5
253.562	91.5
253.795	87.5
254.028	73.5
254.261	91.5
254.494	79.5
254.727	78.5
254.96	84.5
255.193	82.5
255.426	74.5
255.659	77.5
255.892	95.5
256.124	88.5
256.357	72.5
256.59	82.5
256.823	80.5
257.056	88.5
257.289	85.5
257.521	88.5
257.754	90.5
257.987	81.5
258.22	86.5
258.452	89.5
258.685	79.5
258.918	95.5
259.151	93.5
259.383	68.5
259.616	91.5
259.849	93.5
260.081	101.5
260.314	74.5
260.547	83.5
260.779	86.5
261.012	87.5
261.244	79.5
261.477	86.5
261.71	86.5
261.942	78.5
262.175	90.5
262.407	86.5
262.64	73.5
262.872	74.5
263.105	96.5
263.337	84.5
263.57	83.5
263.802	90.5
264.035	79.5
264.267	93.5
264.499	68.5
264.732	94.5
264.964	74.5
265.197	89.5
265.429	97.5
265.661	92.5
265.894	83.5
266.126	90.5
266.358	92.5
266.591	85.5
266.823	81.5
267.055	82.5
267.287	84.5
267.52	83.5
267.752	85.5
267.984	86.5
268.216	68.5
268.448	69.5
268.681	75.5
268.913	87.5
269.145	74.5
269.377	95.5
269.609	79.5
269.841	70.5
270.073	70.5
270.306	79.5
270.538	70.5
270.77	81.5
271.002	86.5
271.234	86.5
271.466	96.5
271.698	95.5
271.93	93.5
272.162	87.5
272.394	88.5
272.626	89.5
272.858	89.5
273.09	82.5
273.322	94.5
273.553	80.5
273.785	93.5
274.017	90.5
274.249	92.5
274.481	77.5
274.713	84.5
274.945	71.5
275.176	73.5
275.408	91.5
275.64	93.5
275.872	92.5
276.104	86.5
276.335	71.5
276.567	98.5
276.799	87.5
277.031	81.5
277.262	73.5
277.494	93.5
277.726	75.5
277.957	89.5
278.189	89.5
278.421	91.5
278.652	93.5
278.884	78.5
279.115	85.5
279.347	86.5
279.579	83.5
279.81	74.5
280.042	82.5
280.273	82.5
280.505	85.5
280.736	89.5
280.968	86.5
281.199	86.5
281.431	108.5
281.662	87.5
281.894	84.5
282.125	81.5
282.356	93.5
282.588	93.5
282.819	78.5
283.051	76.5
283.282	100.5
283.513	101.5
283.745	91.5
283.976	91.5
284.207	78.5
284.439	84.5
284.67	81.5
284.901	88.5
285.132	90.5
285.364	89.5
285.595	87.5
285.826	84.5
286.057	95.5
286.288	87.5
286.52	80.5
286.751	83.5
286.982	93.5
287.213	93.5
287.444	87.5
287.675	78.5
287.906	103.5
288.138	71.5
288.369	84.5
288.6	88.5
288.831	85.5
289.062	86.5
289.293	91.5
289.524	79.5
289.755	89.5
289.986	92.5
290.217	99.5
290.448	85.5
290.679	77.5
290.91	84.5
291.141	71.5
291.371	89.5
291.602	82.5
291.833	90.5
292.064	89.5
292.295	96.5
292.526	103.5
292.757	85.5
292.987	88.5
293.218	76.5
293.449	100.5
293.68	89.5
293.91	74.5
294.141	93.5
294.372	83.5
294.603	85.5
294.833	81.5
295.064	84.5
295.295	71.5
295.525	73.5
295.756	88.5
295.987	101.5
296.217	92.5
296.448	88.5
296.679	81.5
296.909	95.5
297.14	86.5
297.37	94.5
297.601	90.5
297.831	86.5
298.062	81.5
298.292	91.5
298.523	81.5
298.753	100.5
298.984	86.5
299.214	92.5
299.445	89.5
299.675	81.5
299.905	81.5
300.136	85.5
300.366	90.5
300.597	91.5
300.827	92.5
301.057	92.5
301.288	91.5
301.518	85.5
301.748	95.5
301.979	94.5
302.209	84.5
302.439	86.5
302.669	78.5
302.9	83.5
303.13	102.5
303.36	86.5
303.59	92.5
303.82	98.5
304.051	97.5
304.281	94.5
304.511	93.5
304.741	92.5
304.971	98.5
305.201	99.5
305.431	94.5
305.661	83.5
305.891	90.5
306.121	102.5
306.352	91.5
306.582	84.5
306.812	77.5
307.042	80.5
307.272	86.5
307.502	80.5
307.731	82.5
307.961	83.5
308.191	78.5
308.421	81.5
308.651	91.5
308.881	98.5
309.111	81.5
309.341	83.5
309.571	80.5
309.8	78.5
310.03	86.5
310.26	87.5
310.49	101.5
310.72	80.5
310.949	80.5
311.179	86.5
311.409	96.5
311.639	87.5
311.868	86.5
312.098	96.5
312.328	81.5
312.557	93.5
312.787	85.5
313.017	93.5
313.246	92.5
313.476	77.5
313.706	79.5
313.935	85.5
314.165	69.5
314.394	89.5
314.624	87.5
314.853	97.5
315.083	84.5
315.312	94.5
315.542	90.5
315.771	80.5
316.001	86.5
316.23	85.5
316.46	96.5
316.689	76.5
316.919	85.5
317.148	96.5
317.377	79.5
317.607	96.5
317.836	96.5
318.065	95.5
318.295	76.5
318.524	79.5
318.753	91.5
318.983	85.5
319.212	75.5
319.441	78.5
319.67	100.5
319.9	92.5
320.129	86.5
320.358	78.5
320.587	95.5
320.816	93.5
321.046	94.5
321.275	87.5
321.504	86.5
321.733	96.5
321.962	88.5
322.191	86.5
322.42	80.5
322.649	79.5
322.878	72.5
323.108	84.5
323.337	86.5
323.566	90.5
323.795	86.5
324.024	83.5
324.253	88.5
324.482	94.5
324.71	85.5
324.939	89.5
325.168	82.5
325.397	104.5
325.626	95.5
325.855	74.5
326.084	93.5
326.313	73.5
326.542	89.5
326.77	85.5
326.999	80.5
327.228	86.5
327.457	86.5
327.686	64.5
327.914	87.5
328.143	83.5
328.372	84.5
328.6	67.5
328.829	88.5
329.058	85.5
329.287	100.5
329.515	76.5
329.744	88.5
329.972	105.5
330.201	89.5
330.43	102.5
330.658	75.5
330.887	84.5
331.115	96.5
331.344	89.5
331.572	96.5
331.801	90.5
332.03	78.5
332.258	97.5
332.486	93.5
332.715	87.5
332.943	88.5
333.172	91.5
333.4	77.5
333.629	86.5
333.857	96.5
334.085	85.5
334.314	88.5
334.542	79.5
334.771	92.5
334.999	93.5
335.227	91.5
335.455	97.5
335.684	107.5
335.912	96.5
336.14	103.5
336.369	67.5
336.597	88.5
336.825	96.5
337.053	87.5
337.281	88.5
337.51	104.5
337.738	82.5
337.966	92.5
338.194	100.5
338.422	87.5
338.65	81.5
338.878	95.5
339.106	92.5
339.334	80.5
339.562	91.5
339.79	90.5
340.018	84.5
340.246	95.5
340.474	95.5
340.702	92.5
340.93	86.5
341.158	87.5
341.386	84.5
341.614	97.5
341.842	87.5
342.07	95.5
342.298	93.5
342.526	87.5
342.754	99.5
342.981	87.5
343.209	91.5
343.437	95.5
343.665	93.5
343.893	96.5
344.12	92.5
344.348	82.5
344.576	91.5
344.804	83.5
345.031	87.5
345.259	80.5
345.487	104.5
345.714	96.5
345.942	88.5
346.17	87.5
346.397	96.5
346.625	79.5
346.853	96.5
347.08	94.5
347.308	90.5
347.535	100.5
347.763	86.5
347.99	86.5
348.218	93.5
348.445	89.5
348.673	88.5
348.9	81.5
349.128	91.5
349.355	92.5
349.583	95.5
349.81	94.5
350.037	81.5
350.265	90.5
350.492	100.5
350.72	78.5
350.947	82.5
351.174	106.5
351.402	87.5
351.629	73.5
351.856	79.5
352.083	84.5
352.311	92.5
352.538	86.5
352.765	88.5
352.992	88.5
353.22	90.5
353.447	84.5
353.674	84.5
353.901	95.5
354.128	102.5
354.355	91.5
354.583	94.5
354.81	85.5
355.037	94.5
355.264	92.5
355.491	79.5
355.718	75.5
355.945	88.5
356.172	85.5
356.399	86.5
356.626	95.5
356.853	74.5
357.08	92.5
357.307	83.5
357.534	90.5
357.761	83.5
357.988	90.5
358.215	72.5
358.441	87.5
358.668	83.5
358.895	87.5
359.122	68.5
359.349	92.5
359.576	91.5
359.802	73.5
360.029	96.5
360.256	83.5
360.483	81.5
360.709	87.5
360.936	94.5
361.163	74.5
361.39	86.5
361.616	99.5
361.843	86.5
362.07	87.5
362.296	115.5
362.523	79.5
362.749	91.5
362.976	89.5
363.203	91.5
363.429	81.5
363.656	80.5
363.882	83.5
364.109	91.5
364.335	88.5
364.562	91.5
364.788	85.5
365.015	86.5
365.241	91.5
365.468	89.5
365.694	96.5
365.92	92.5
366.147	102.5
366.373	91.5
366.599	80.5
366.826	91.5
367.052	91.5
367.278	80.5
367.505	95.5
367.731	97.5
367.957	92.5
368.184	93.5
368.41	81.5
368.636	95.5
368.862	97.5
369.089	96.5
369.315	90.5
369.541	109.5
369.767	96.5
369.993	88.5
370.219	108.5
370.445	99.5
370.672	120.5
370.898	90.5
371.124	90.5
371.35	88.5
371.576	101.5
371.802	97.5
372.028	100.5
372.254	101.5
372.48	86.5
372.706	101.5
372.932	99.5
373.158	91.5
373.384	95.5
373.61	97.5
373.835	84.5
374.061	88.5
374.287	103.5
374.513	89.5
374.739	100.5
374.965	89.5
375.191	97.5
375.416	107.5
375.642	99.5
375.868	80.5
376.094	93.5
376.319	100.5
376.545	76.5
376.771	94.5
376.997	92.5
377.222	93.5
377.448	97.5
377.674	94.5
377.899	94.5
378.125	95.5
378.35	83.5
378.576	89.5
378.802	105.5
379.027	96.5
379.253	103.5
379.478	107.5
379.704	99.5
379.929	106.5
380.155	92.5
380.38	118.5
380.606	93.5
380.831	95.5
381.057	102.5
381.282	88.5
381.507	95.5
381.733	101.5
381.958	88.5
382.184	97.5
382.409	96.5
382.634	93.5
382.86	108.5
383.085	109.5
383.31	93.5
383.535	93.5
383.761	98.5
383.986	106.5
384.211	108.5
384.436	101.5
384.662	86.5
384.887	111.5
385.112	96.5
385.337	111.5
385.562	104.5
385.787	102.5
386.013	105.5
386.238	110.5
386.463	95.5
386.688	102.5
386.913	97.5
387.138	94.5
387.363	101.5
387.588	108.5
387.813	112.5
388.038	113.5
388.263	100.5
388.488	103.5
388.713	98.5
388.938	101.5
389.163	90.5
389.387	95.5
389.612	101.5
389.837	110.5
390.062	108.5
390.287	101.5
390.512	104.5
390.736	123.5
390.961	110.5
391.186	123.5
391.411	107.5
391.636	103.5
391.86	93.5
392.085	98.5
392.31	109.5
392.534	102.5
392.759	102.5
392.984	116.5
393.208	110.5
393.433	97.5
393.658	98.5
393.882	112.5
394.107	103.5
394.331	104.5
394.556	98.5
394.78	115.5
395.005	101.5
395.229	105.5
395.454	104.5
395.678	115.5
395.903	106.5
396.127	105.5
396.352	111.5
396.576	96.5
396.801	109.5
397.025	108.5
397.249	123.5
397.474	123.5
397.698	101.5
397.922	116.5
398.147	105.5
398.371	103.5
398.595	125.5
398.82	97.5
399.044	106.5
399.268	131.5
399.492	112.5
399.717	115.5
399.941	131.5
400.165	127.5
400.389	119.5
400.613	125.5
400.837	109.5
401.062	115.5
401.286	120.5
401.51	93.5
401.734	127.5
401.958	109.5
402.182	108.5
402.406	121.5
402.63	119.5
402.854	117.5
403.078	125.5
403.302	132.5
403.526	125.5
403.75	115.5
403.974	107.5
404.198	112.5
404.422	121.5
404.645	119.5
404.869	121.5
405.093	126.5
405.317	125.5
405.541	120.5
405.765	137.5
405.988	112.5
406.212	119.5
406.436	115.5
406.66	141.5
406.883	118.5
407.107	119.5
407.331	127.5
407.555	128.5
407.778	111.5
408.002	131.5
408.226	119.5
408.449	126.5
408.673	131.5
408.896	128.5
409.12	127.5
409.344	125.5
409.567	135.5
409.791	125.5
410.014	117.5
410.238	115.5
410.461	124.5
410.685	131.5
410.908	121.5
411.132	126.5
411.355	131.5
411.578	129.5
411.802	116.5
412.025	122.5
412.249	109.5
412.472	110.5
412.695	121.5
412.919	100.5
413.142	119.5
413.365	119.5
413.589	124.5
413.812	131.5
414.035	135.5
414.258	122.5
414.482	122.5
414.705	140.5
414.928	107.5
415.151	119.5
415.374	131.5
415.597	119.5
415.821	131.5
416.044	121.5
416.267	126.5
416.49	127.5
416.713	130.5
416.936	139.5
417.159	128.5
417.382	129.5
417.605	127.5
417.828	135.5
418.051	133.5
418.274	133.5
418.497	136.5
418.72	125.5
418.943	127.5
419.166	125.5
419.389	133.5
419.611	137.5
419.834	115.5
420.057	127.5
420.28	128.5
420.503	127.5
420.726	130.5
420.948	141.5
421.171	143.5
421.394	141.5
421.617	139.5
421.839	125.5
422.062	145.5
422.285	126.5
422.507	139.5
422.73	136.5
422.953	132.5
423.175	136.5
423.398	125.5
423.621	145.5
423.843	120.5
424.066	139.5
424.288	138.5
424.511	140.5
424.733	138.5
424.956	134.5
425.178	127.5
425.401	119.5
425.623	133.5
425.846	137.5
426.068	142.5
426.291	131.5
426.513	134.5
426.735	141.5
426.958	122.5
427.18	139.5
427.402	133.5
427.625	127.5
427.847	135.5
428.069	134.5
428.292	126.5
428.514	128.5
428.736	144.5
428.958	130.5
429.181	143.5
429.403	127.5
429.625	136.5
429.847	124.5
430.069	138.5
430.292	142.5
430.514	133.5
430.736	139.5
430.958	131.5
431.18	130.5
431.402	148.5
431.624	127.5
431.846	120.5
432.068	105.5
432.29	104.5
432.512	107.5
432.734	119.5
432.956	142.5
433.178	131.5
433.4	162.5
433.622	140.5
433.844	142.5
434.066	116.5
434.287	119.5
434.509	110.5
434.731	110.5
434.953	123.5
435.175	138.5
435.397	134.5
435.618	120.5
435.84	96.5
436.062	123.5
436.284	116.5
436.505	129.5
436.727	123.5
436.949	125.5
437.17	152.5
437.392	125.5
437.614	116.5
437.835	112.5
438.057	113.5
438.278	126.5
438.5	126.5
438.721	141.5
438.943	129.5
439.165	129.5
439.386	139.5
439.608	144.5
439.829	143.5
440.05	147.5
440.272	143.5
440.493	139.5
440.715	138.5
440.936	153.5
441.158	158.5
441.379	144.5
441.6	163.5
441.822	143.5
442.043	137.5
442.264	143.5
442.486	162.5
442.707	133.5
442.928	145.5
443.149	139.5
443.371	143.5
443.592	137.5
443.813	144.5
444.034	132.5
444.255	140.5
444.476	151.5
444.698	129.5
444.919	137.5
445.14	288.5
445.361	208.5
445.582	155.5
445.803	144.5
446.024	151.5
446.245	159.5
446.466	156.5
446.687	159.5
446.908	159.5
447.129	159.5
447.35	157.5
447.571	149.5
447.792	144.5
448.013	151.5
448.234	144.5
448.455	147.5
448.675	148.5
448.896	131.5
449.117	129.5
449.338	129.5
449.559	134.5
449.779	144.5
450	143.5
450.221	149.5
450.442	140.5
450.662	112.5
450.883	133.5
451.104	148.5
451.324	135.5
451.545	136.5
451.766	129.5
451.986	121.5
452.207	126.5
452.428	143.5
452.648	119.5
452.869	118.5
453.089	111.5
453.31	122.5
453.53	107.5
453.751	104.5
453.971	122.5
454.192	117.5
454.412	106.5
454.633	119.5
454.853	136.5
455.073	129.5
455.294	116.5
455.514	136.5
455.734	135.5
455.955	120.5
456.175	131.5
456.395	107.5
456.616	119.5
456.836	121.5
457.056	108.5
457.276	111.5
457.497	122.5
457.717	115.5
457.937	110.5
458.157	116.5
458.377	98.5
458.598	95.5
458.818	98.5
459.038	91.5
459.258	88.5
459.478	93.5
459.698	96.5
459.918	105.5
460.138	100.5
460.358	120.5
460.578	129.5
460.798	115.5
461.018	122.5
461.238	122.5
461.458	120.5
461.678	115.5
461.898	115.5
462.118	110.5
462.338	128.5
462.558	129.5
462.777	113.5
462.997	124.5
463.217	103.5
463.437	112.5
463.657	108.5
463.876	123.5
464.096	115.5
464.316	107.5
464.536	106.5
464.755	113.5
464.975	109.5
465.195	129.5
465.414	131.5
465.634	128.5
465.854	113.5
466.073	131.5
466.293	125.5
466.512	129.5
466.732	142.5
466.951	138.5
467.171	137.5
467.391	152.5
467.61	131.5
467.829	141.5
468.049	146.5
468.268	132.5
468.488	119.5
468.707	127.5
468.927	135.5
469.146	151.5
469.365	142.5
469.585	149.5
469.804	136.5
470.023	138.5
470.243	142.5
470.462	145.5
470.681	139.5
470.901	157.5
471.12	157.5
471.339	141.5
471.558	153.5
471.777	140.5
471.997	130.5
472.216	132.5
472.435	126.5
472.654	123.5
472.873	103.5
473.092	123.5
473.311	115.5
473.53	119.5
473.749	138.5
473.968	137.5
474.187	118.5
474.406	111.5
474.625	110.5
474.844	138.5
475.063	133.5
475.282	131.5
475.501	130.5
475.72	127.5
475.939	125.5
476.158	139.5
476.377	128.5
476.596	133.5
476.814	118.5
477.033	105.5
477.252	113.5
477.471	129.5
477.69	150.5
477.908	142.5
478.127	142.5
478.346	122.5
478.564	129.5
478.783	157.5
479.002	140.5
479.22	138.5
479.439	135.5
479.658	121.5
479.876	117.5
480.095	122.5
480.313	122.5
480.532	116.5
480.751	111.5
480.969	93.5
481.188	98.5
481.406	84.5
481.624	96.5
481.843	94.5
482.061	93.5
482.28	126.5
482.498	112.5
482.717	110.5
482.935	122.5
483.153	140.5
483.372	149.5
483.59	148.5
483.808	132.5
484.027	143.5
484.245	147.5
484.463	146.5
484.681	160.5
484.9	154.5
485.118	148.5
485.336	122.5
485.554	111.5
485.772	108.5
485.99	104.5
486.209	118.5
486.427	112.5
486.645	129.5
486.863	157.5
487.081	145.5
487.299	140.5
487.517	132.5
487.735	180.5
487.953	183.5
488.171	172.5
488.389	153.5
488.607	158.5
488.825	149.5
489.043	120.5
489.261	143.5
489.479	142.5
489.696	134.5
489.914	135.5
490.132	143.5
490.35	145.5
490.568	151.5
490.786	164.5
491.003	168.5
491.221	176.5
491.439	168.5
491.657	209.5
491.874	203.5
492.092	222.5
492.31	233.5
492.527	230.5
492.745	207.5
492.963	196.5
493.18	191.5
493.398	186.5
493.615	176.5
493.833	185.5
494.05	177.5
494.268	173.5
494.485	186.5
494.703	181.5
494.92	174.5
495.138	172.5
495.355	192.5
495.573	183.5
495.79	153.5
496.008	168.5
496.225	144.5
496.442	176.5
496.66	165.5
496.877	169.5
497.094	173.5
497.312	153.5
497.529	163.5
497.746	152.5
497.963	141.5
498.181	139.5
498.398	120.5
498.615	133.5
498.832	131.5
499.049	123.5
499.267	131.5
499.484	123.5
499.701	132.5
499.918	153.5
500.135	140.5
500.352	141.5
500.569	137.5
500.786	135.5
501.003	127.5
501.22	151.5
501.437	143.5
501.654	141.5
501.871	140.5
502.088	127.5
502.305	125.5
502.522	133.5
502.739	144.5
502.956	130.5
503.172	118.5
503.389	133.5
503.606	118.5
503.823	139.5
504.04	121.5
504.256	125.5
504.473	128.5
504.69	120.5
504.907	128.5
505.123	121.5
505.34	133.5
505.557	136.5
505.773	128.5
505.99	125.5
506.207	132.5
506.423	123.5
506.64	132.5
506.856	119.5
507.073	112.5
507.289	142.5
507.506	120.5
507.722	128.5
507.939	125.5
508.155	111.5
508.372	128.5
508.588	110.5
508.805	128.5
509.021	104.5
509.238	126.5
509.454	92.5
509.67	105.5
509.887	90.5
510.103	91.5
510.319	100.5
510.536	79.5
510.752	62.5
510.968	90.5
511.184	89.5
511.401	88.5
511.617	80.5
511.833	102.5
512.049	80.5
512.265	91.5
512.481	95.5
512.698	103.5
512.914	96.5
513.13	103.5
513.346	96.5
513.562	85.5
513.778	105.5
513.994	95.5
514.21	97.5
514.426	85.5
514.642	97.5
514.858	101.5
515.074	90.5
515.29	104.5
515.506	92.5
515.721	84.5
515.937	94.5
516.153	100.5
516.369	97.5
516.585	95.5
516.801	102.5
517.016	104.5
517.232	93.5
517.448	90.5
517.664	98.5
517.879	117.5
518.095	104.5
518.311	102.5
518.527	100.5
518.742	100.5
518.958	113.5
519.173	115.5
519.389	108.5
519.605	106.5
519.82	85.5
520.036	104.5
520.251	106.5
520.467	111.5
520.682	91.5
520.898	97.5
521.113	106.5
521.329	93.5
521.544	87.5
521.76	101.5
521.975	96.5
522.19	99.5
522.406	116.5
522.621	105.5
522.836	101.5
523.052	96.5
523.267	118.5
523.482	118.5
523.698	109.5
523.913	107.5
524.128	119.5
524.343	115.5
524.559	128.5
524.774	115.5
524.989	115.5
525.204	120.5
525.419	122.5
525.634	110.5
525.849	109.5
526.064	93.5
526.28	103.5
526.495	107.5
526.71	93.5
526.925	86.5
527.14	93.5
527.355	79.5
527.57	99.5
527.785	99.5
527.999	84.5
528.214	107.5
528.429	123.5
528.644	127.5
528.859	132.5
529.074	147.5
529.289	160.5
529.503	164.5
529.718	150.5
529.933	127.5
