Data from Location4.07152019.Energy5.Lamp.07192019.3%Agarose_HRD10591_16-20-53-926.txt Node
Date: Fri Jul 19 16:20:53 EDT 2019
User: cochatt
Spectrometer: HR+D1059
Trigger mode: 1
Integration Time (sec): 1.000000E-1
Scans to average: 1
Electric dark correction enabled: true
Nonlinearity correction enabled: false
Boxcar width: 0
XAxis mode: Wavelengths
Number of Pixels in Spectrum: 2048
>>>>>Begin Spectral Data<<<<<
223.165	-2.88
223.4	-2.88
223.635	-2.88
223.869	-16.88
224.104	-11.88
224.338	-17.88
224.573	-11.88
224.808	-2.88
225.042	-0.88
225.277	-10.88
225.511	-10.88
225.746	3.12
225.98	7.12
226.215	9.12
226.449	21.12
226.683	15.12
226.918	8.12
227.152	23.12
227.387	31.12
227.621	27.12
227.856	41.12
228.09	45.12
228.324	26.12
228.559	53.12
228.793	59.12
229.027	59.12
229.262	65.12
229.496	71.12
229.73	65.12
229.964	68.12
230.199	58.12
230.433	57.12
230.667	74.12
230.901	78.12
231.136	70.12
231.37	80.12
231.604	91.12
231.838	74.12
232.072	81.12
232.306	78.12
232.541	62.12
232.775	83.12
233.009	90.12
233.243	75.12
233.477	84.12
233.711	85.12
233.945	74.12
234.179	72.12
234.413	85.12
234.647	77.12
234.881	78.12
235.115	86.12
235.349	68.12
235.583	76.12
235.817	82.12
236.051	89.12
236.285	72.12
236.519	73.12
236.753	72.12
236.987	67.12
237.221	59.12
237.455	89.12
237.689	64.12
237.922	63.12
238.156	77.12
238.39	88.12
238.624	84.12
238.858	83.12
239.091	84.12
239.325	82.12
239.559	86.12
239.793	72.12
240.027	74.12
240.26	76.12
240.494	71.12
240.728	77.12
240.961	69.12
241.195	66.12
241.429	75.12
241.662	80.12
241.896	77.12
242.13	74.12
242.363	81.12
242.597	78.12
242.83	65.12
243.064	65.12
243.298	87.12
243.531	77.12
243.765	66.12
243.998	90.12
244.232	78.12
244.465	66.12
244.699	90.12
244.932	82.12
245.166	71.12
245.399	80.12
245.633	94.12
245.866	78.12
246.099	74.12
246.333	83.12
246.566	85.12
246.8	68.12
247.033	80.12
247.266	67.12
247.5	73.12
247.733	65.12
247.966	74.12
248.2	75.12
248.433	73.12
248.666	62.12
248.899	74.12
249.133	77.12
249.366	76.12
249.599	89.12
249.832	77.12
250.066	75.12
250.299	95.12
250.532	94.12
250.765	74.12
250.998	64.12
251.231	70.12
251.465	89.12
251.698	77.12
251.931	64.12
252.164	80.12
252.397	71.12
252.63	66.12
252.863	87.12
253.096	74.12
253.329	79.12
253.562	82.12
253.795	80.12
254.028	79.12
254.261	62.12
254.494	66.12
254.727	80.12
254.96	80.12
255.193	79.12
255.426	88.12
255.659	88.12
255.892	85.12
256.124	72.12
256.357	64.12
256.59	64.12
256.823	72.12
257.056	64.12
257.289	71.12
257.521	91.12
257.754	77.12
257.987	77.12
258.22	61.12
258.452	76.12
258.685	83.12
258.918	77.12
259.151	87.12
259.383	78.12
259.616	74.12
259.849	72.12
260.081	92.12
260.314	73.12
260.547	77.12
260.779	90.12
261.012	87.12
261.244	75.12
261.477	88.12
261.71	81.12
261.942	75.12
262.175	69.12
262.407	77.12
262.64	70.12
262.872	91.12
263.105	77.12
263.337	84.12
263.57	82.12
263.802	89.12
264.035	82.12
264.267	79.12
264.499	74.12
264.732	87.12
264.964	101.12
265.197	81.12
265.429	88.12
265.661	86.12
265.894	78.12
266.126	75.12
266.358	81.12
266.591	88.12
266.823	87.12
267.055	74.12
267.287	77.12
267.52	70.12
267.752	92.12
267.984	88.12
268.216	82.12
268.448	73.12
268.681	87.12
268.913	87.12
269.145	86.12
269.377	83.12
269.609	69.12
269.841	81.12
270.073	77.12
270.306	83.12
270.538	83.12
270.77	83.12
271.002	80.12
271.234	84.12
271.466	76.12
271.698	94.12
271.93	70.12
272.162	90.12
272.394	73.12
272.626	79.12
272.858	92.12
273.09	90.12
273.322	89.12
273.553	69.12
273.785	93.12
274.017	72.12
274.249	86.12
274.481	80.12
274.713	78.12
274.945	94.12
275.176	75.12
275.408	73.12
275.64	84.12
275.872	70.12
276.104	90.12
276.335	77.12
276.567	78.12
276.799	88.12
277.031	75.12
277.262	66.12
277.494	79.12
277.726	83.12
277.957	80.12
278.189	83.12
278.421	83.12
278.652	76.12
278.884	87.12
279.115	85.12
279.347	78.12
279.579	88.12
279.81	82.12
280.042	73.12
280.273	69.12
280.505	84.12
280.736	90.12
280.968	81.12
281.199	65.12
281.431	80.12
281.662	82.12
281.894	76.12
282.125	89.12
282.356	84.12
282.588	82.12
282.819	85.12
283.051	86.12
283.282	75.12
283.513	83.12
283.745	94.12
283.976	77.12
284.207	76.12
284.439	74.12
284.67	82.12
284.901	67.12
285.132	81.12
285.364	92.12
285.595	79.12
285.826	66.12
286.057	79.12
286.288	90.12
286.52	79.12
286.751	83.12
286.982	88.12
287.213	80.12
287.444	77.12
287.675	69.12
287.906	74.12
288.138	73.12
288.369	86.12
288.6	85.12
288.831	81.12
289.062	90.12
289.293	79.12
289.524	86.12
289.755	77.12
289.986	73.12
290.217	85.12
290.448	87.12
290.679	84.12
290.91	83.12
291.141	85.12
291.371	86.12
291.602	82.12
291.833	94.12
292.064	74.12
292.295	93.12
292.526	81.12
292.757	93.12
292.987	75.12
293.218	93.12
293.449	81.12
293.68	72.12
293.91	85.12
294.141	70.12
294.372	79.12
294.603	90.12
294.833	98.12
295.064	78.12
295.295	72.12
295.525	85.12
295.756	77.12
295.987	98.12
296.217	100.12
296.448	100.12
296.679	82.12
296.909	78.12
297.14	98.12
297.37	77.12
297.601	88.12
297.831	91.12
298.062	82.12
298.292	89.12
298.523	99.12
298.753	81.12
298.984	73.12
299.214	80.12
299.445	100.12
299.675	102.12
299.905	90.12
300.136	73.12
300.366	75.12
300.597	70.12
300.827	91.12
301.057	83.12
301.288	98.12
301.518	90.12
301.748	82.12
301.979	81.12
302.209	79.12
302.439	87.12
302.669	73.12
302.9	84.12
303.13	76.12
303.36	73.12
303.59	73.12
303.82	90.12
304.051	83.12
304.281	83.12
304.511	83.12
304.741	81.12
304.971	80.12
305.201	94.12
305.431	97.12
305.661	87.12
305.891	82.12
306.121	79.12
306.352	91.12
306.582	69.12
306.812	81.12
307.042	88.12
307.272	85.12
307.502	78.12
307.731	82.12
307.961	80.12
308.191	87.12
308.421	76.12
308.651	90.12
308.881	71.12
309.111	74.12
309.341	86.12
309.571	60.12
309.8	84.12
310.03	83.12
310.26	78.12
310.49	87.12
310.72	80.12
310.949	78.12
311.179	93.12
311.409	81.12
311.639	90.12
311.868	70.12
312.098	68.12
312.328	91.12
312.557	77.12
312.787	81.12
313.017	81.12
313.246	79.12
313.476	77.12
313.706	76.12
313.935	97.12
314.165	83.12
314.394	77.12
314.624	86.12
314.853	77.12
315.083	86.12
315.312	101.12
315.542	83.12
315.771	85.12
316.001	78.12
316.23	77.12
316.46	85.12
316.689	93.12
316.919	82.12
317.148	86.12
317.377	85.12
317.607	75.12
317.836	87.12
318.065	68.12
318.295	86.12
318.524	82.12
318.753	79.12
318.983	82.12
319.212	79.12
319.441	88.12
319.67	72.12
319.9	80.12
320.129	94.12
320.358	79.12
320.587	70.12
320.816	70.12
321.046	93.12
321.275	85.12
321.504	83.12
321.733	95.12
321.962	98.12
322.191	87.12
322.42	93.12
322.649	83.12
322.878	105.12
323.108	84.12
323.337	88.12
323.566	78.12
323.795	92.12
324.024	80.12
324.253	89.12
324.482	80.12
324.71	89.12
324.939	80.12
325.168	67.12
325.397	84.12
325.626	83.12
325.855	94.12
326.084	88.12
326.313	85.12
326.542	69.12
326.77	90.12
326.999	77.12
327.228	75.12
327.457	78.12
327.686	80.12
327.914	87.12
328.143	86.12
328.372	77.12
328.6	75.12
328.829	95.12
329.058	75.12
329.287	77.12
329.515	82.12
329.744	91.12
329.972	80.12
330.201	85.12
330.43	87.12
330.658	86.12
330.887	98.12
331.115	96.12
331.344	98.12
331.572	101.12
331.801	80.12
332.03	87.12
332.258	90.12
332.486	80.12
332.715	68.12
332.943	88.12
333.172	75.12
333.4	74.12
333.629	85.12
333.857	88.12
334.085	85.12
334.314	79.12
334.542	77.12
334.771	78.12
334.999	95.12
335.227	81.12
335.455	81.12
335.684	79.12
335.912	90.12
336.14	80.12
336.369	89.12
336.597	78.12
336.825	103.12
337.053	74.12
337.281	80.12
337.51	82.12
337.738	65.12
337.966	66.12
338.194	89.12
338.422	76.12
338.65	77.12
338.878	92.12
339.106	81.12
339.334	86.12
339.562	85.12
339.79	78.12
340.018	82.12
340.246	90.12
340.474	78.12
340.702	86.12
340.93	71.12
341.158	78.12
341.386	74.12
341.614	77.12
341.842	86.12
342.07	81.12
342.298	81.12
342.526	86.12
342.754	86.12
342.981	82.12
343.209	73.12
343.437	82.12
343.665	79.12
343.893	86.12
344.12	82.12
344.348	82.12
344.576	82.12
344.804	74.12
345.031	81.12
345.259	79.12
345.487	86.12
345.714	83.12
345.942	92.12
346.17	87.12
346.397	87.12
346.625	89.12
346.853	94.12
347.08	85.12
347.308	88.12
347.535	87.12
347.763	65.12
347.99	74.12
348.218	84.12
348.445	91.12
348.673	88.12
348.9	88.12
349.128	83.12
349.355	93.12
349.583	89.12
349.81	85.12
350.037	86.12
350.265	79.12
350.492	78.12
350.72	83.12
350.947	93.12
351.174	75.12
351.402	76.12
351.629	93.12
351.856	95.12
352.083	90.12
352.311	88.12
352.538	78.12
352.765	85.12
352.992	84.12
353.22	99.12
353.447	83.12
353.674	92.12
353.901	89.12
354.128	88.12
354.355	75.12
354.583	93.12
354.81	77.12
355.037	93.12
355.264	82.12
355.491	68.12
355.718	75.12
355.945	78.12
356.172	97.12
356.399	83.12
356.626	85.12
356.853	90.12
357.08	89.12
357.307	88.12
357.534	78.12
357.761	89.12
357.988	86.12
358.215	90.12
358.441	89.12
358.668	88.12
358.895	74.12
359.122	85.12
359.349	85.12
359.576	75.12
359.802	69.12
360.029	80.12
360.256	75.12
360.483	82.12
360.709	86.12
360.936	95.12
361.163	84.12
361.39	89.12
361.616	84.12
361.843	103.12
362.07	92.12
362.296	93.12
362.523	85.12
362.749	75.12
362.976	75.12
363.203	97.12
363.429	75.12
363.656	88.12
363.882	93.12
364.109	85.12
364.335	84.12
364.562	101.12
364.788	72.12
365.015	87.12
365.241	86.12
365.468	91.12
365.694	79.12
365.92	85.12
366.147	80.12
366.373	78.12
366.599	88.12
366.826	81.12
367.052	73.12
367.278	71.12
367.505	87.12
367.731	86.12
367.957	80.12
368.184	87.12
368.41	90.12
368.636	88.12
368.862	85.12
369.089	87.12
369.315	97.12
369.541	82.12
369.767	94.12
369.993	86.12
370.219	84.12
370.445	88.12
370.672	77.12
370.898	89.12
371.124	69.12
371.35	70.12
371.576	88.12
371.802	103.12
372.028	90.12
372.254	84.12
372.48	87.12
372.706	93.12
372.932	93.12
373.158	91.12
373.384	94.12
373.61	87.12
373.835	92.12
374.061	104.12
374.287	99.12
374.513	69.12
374.739	83.12
374.965	96.12
375.191	95.12
375.416	92.12
375.642	91.12
375.868	87.12
376.094	94.12
376.319	93.12
376.545	79.12
376.771	98.12
376.997	93.12
377.222	89.12
377.448	102.12
377.674	88.12
377.899	99.12
378.125	82.12
378.35	85.12
378.576	87.12
378.802	83.12
379.027	90.12
379.253	109.12
379.478	89.12
379.704	86.12
379.929	91.12
380.155	83.12
380.38	85.12
380.606	94.12
380.831	96.12
381.057	98.12
381.282	103.12
381.507	93.12
381.733	88.12
381.958	91.12
382.184	98.12
382.409	90.12
382.634	94.12
382.86	91.12
383.085	100.12
383.31	104.12
383.535	90.12
383.761	107.12
383.986	95.12
384.211	82.12
384.436	94.12
384.662	97.12
384.887	90.12
385.112	90.12
385.337	78.12
385.562	112.12
385.787	95.12
386.013	96.12
386.238	109.12
386.463	96.12
386.688	100.12
386.913	92.12
387.138	105.12
387.363	109.12
387.588	97.12
387.813	91.12
388.038	106.12
388.263	94.12
388.488	95.12
388.713	92.12
388.938	106.12
389.163	79.12
389.387	101.12
389.612	111.12
389.837	101.12
390.062	101.12
390.287	96.12
390.512	96.12
390.736	97.12
390.961	98.12
391.186	102.12
391.411	99.12
391.636	106.12
391.86	101.12
392.085	103.12
392.31	94.12
392.534	110.12
392.759	121.12
392.984	100.12
393.208	105.12
393.433	114.12
393.658	98.12
393.882	102.12
394.107	105.12
394.331	120.12
394.556	106.12
394.78	97.12
395.005	96.12
395.229	116.12
395.454	97.12
395.678	94.12
395.903	101.12
396.127	119.12
396.352	113.12
396.576	118.12
396.801	91.12
397.025	83.12
397.249	117.12
397.474	105.12
397.698	111.12
397.922	110.12
398.147	97.12
398.371	103.12
398.595	117.12
398.82	112.12
399.044	115.12
399.268	105.12
399.492	119.12
399.717	104.12
399.941	111.12
400.165	115.12
400.389	105.12
400.613	104.12
400.837	94.12
401.062	113.12
401.286	110.12
401.51	97.12
401.734	103.12
401.958	106.12
402.182	112.12
402.406	112.12
402.63	107.12
402.854	106.12
403.078	104.12
403.302	118.12
403.526	117.12
403.75	118.12
403.974	116.12
404.198	112.12
404.422	114.12
404.645	98.12
404.869	104.12
405.093	109.12
405.317	114.12
405.541	110.12
405.765	105.12
405.988	96.12
406.212	114.12
406.436	121.12
406.66	123.12
406.883	111.12
407.107	129.12
407.331	109.12
407.555	114.12
407.778	118.12
408.002	118.12
408.226	117.12
408.449	110.12
408.673	115.12
408.896	111.12
409.12	115.12
409.344	98.12
409.567	118.12
409.791	114.12
410.014	115.12
410.238	114.12
410.461	114.12
410.685	119.12
410.908	119.12
411.132	127.12
411.355	117.12
411.578	117.12
411.802	118.12
412.025	122.12
412.249	108.12
412.472	124.12
412.695	120.12
412.919	113.12
413.142	130.12
413.365	122.12
413.589	114.12
413.812	118.12
414.035	125.12
414.258	102.12
414.482	122.12
414.705	127.12
414.928	121.12
415.151	102.12
415.374	113.12
415.597	115.12
415.821	122.12
416.044	130.12
416.267	123.12
416.49	115.12
416.713	130.12
416.936	106.12
417.159	126.12
417.382	120.12
417.605	115.12
417.828	128.12
418.051	127.12
418.274	138.12
418.497	131.12
418.72	123.12
418.943	128.12
419.166	130.12
419.389	127.12
419.611	112.12
419.834	129.12
420.057	116.12
420.28	125.12
420.503	130.12
420.726	129.12
420.948	131.12
421.171	129.12
421.394	131.12
421.617	125.12
421.839	127.12
422.062	128.12
422.285	133.12
422.507	131.12
422.73	115.12
422.953	112.12
423.175	111.12
423.398	130.12
423.621	129.12
423.843	127.12
424.066	129.12
424.288	141.12
424.511	130.12
424.733	137.12
424.956	149.12
425.178	131.12
425.401	134.12
425.623	129.12
425.846	141.12
426.068	131.12
426.291	142.12
426.513	132.12
426.735	117.12
426.958	112.12
427.18	130.12
427.402	129.12
427.625	135.12
427.847	129.12
428.069	121.12
428.292	127.12
428.514	113.12
428.736	132.12
428.958	127.12
429.181	126.12
429.403	127.12
429.625	143.12
429.847	127.12
430.069	143.12
430.292	125.12
430.514	128.12
430.736	132.12
430.958	145.12
431.18	123.12
431.402	125.12
431.624	121.12
431.846	126.12
432.068	97.12
432.29	85.12
432.512	112.12
432.734	129.12
432.956	124.12
433.178	135.12
433.4	142.12
433.622	141.12
433.844	137.12
434.066	122.12
434.287	106.12
434.509	89.12
434.731	101.12
434.953	109.12
435.175	114.12
435.397	129.12
435.618	115.12
435.84	107.12
436.062	118.12
436.284	126.12
436.505	125.12
436.727	120.12
436.949	118.12
437.17	128.12
437.392	123.12
437.614	118.12
437.835	113.12
438.057	101.12
438.278	139.12
438.5	121.12
438.721	130.12
438.943	143.12
439.165	124.12
439.386	132.12
439.608	140.12
439.829	143.12
440.05	130.12
440.272	166.12
440.493	154.12
440.715	134.12
440.936	130.12
441.158	129.12
441.379	122.12
441.6	134.12
441.822	129.12
442.043	143.12
442.264	126.12
442.486	131.12
442.707	133.12
442.928	151.12
443.149	125.12
443.371	137.12
443.592	122.12
443.813	152.12
444.034	131.12
444.255	136.12
444.476	134.12
444.698	145.12
444.919	124.12
445.14	277.12
445.361	202.12
445.582	139.12
445.803	132.12
446.024	127.12
446.245	150.12
446.466	157.12
446.687	164.12
446.908	157.12
447.129	160.12
447.35	146.12
447.571	132.12
447.792	138.12
448.013	118.12
448.234	136.12
448.455	125.12
448.675	137.12
448.896	130.12
449.117	130.12
449.338	124.12
449.559	138.12
449.779	121.12
450	132.12
450.221	124.12
450.442	144.12
450.662	135.12
450.883	125.12
451.104	120.12
451.324	126.12
451.545	131.12
451.766	123.12
451.986	129.12
452.207	121.12
452.428	122.12
452.648	121.12
452.869	127.12
453.089	120.12
453.31	102.12
453.53	106.12
453.751	109.12
453.971	93.12
454.192	102.12
454.412	112.12
454.633	101.12
454.853	123.12
455.073	118.12
455.294	106.12
455.514	113.12
455.734	111.12
455.955	121.12
456.175	103.12
456.395	101.12
456.616	99.12
456.836	122.12
457.056	103.12
457.276	111.12
457.497	104.12
457.717	97.12
457.937	113.12
458.157	114.12
458.377	107.12
458.598	112.12
458.818	95.12
459.038	87.12
459.258	87.12
459.478	90.12
459.698	98.12
459.918	114.12
460.138	114.12
460.358	97.12
460.578	110.12
460.798	99.12
461.018	120.12
461.238	113.12
461.458	121.12
461.678	103.12
461.898	105.12
462.118	104.12
462.338	111.12
462.558	114.12
462.777	104.12
462.997	102.12
463.217	93.12
463.437	104.12
463.657	111.12
463.876	115.12
464.096	107.12
464.316	104.12
464.536	100.12
464.755	115.12
464.975	121.12
465.195	106.12
465.414	109.12
465.634	118.12
465.854	103.12
466.073	114.12
466.293	118.12
466.512	123.12
466.732	134.12
466.951	122.12
467.171	121.12
467.391	127.12
467.61	129.12
467.829	120.12
468.049	131.12
468.268	141.12
468.488	120.12
468.707	131.12
468.927	145.12
469.146	131.12
469.365	118.12
469.585	142.12
469.804	138.12
470.023	131.12
470.243	119.12
470.462	143.12
470.681	136.12
470.901	125.12
471.12	134.12
471.339	131.12
471.558	137.12
471.777	129.12
471.997	122.12
472.216	110.12
472.435	121.12
472.654	111.12
472.873	118.12
473.092	114.12
473.311	118.12
473.53	114.12
473.749	115.12
473.968	114.12
474.187	124.12
474.406	117.12
474.625	129.12
474.844	125.12
475.063	126.12
475.282	125.12
475.501	126.12
475.72	116.12
475.939	122.12
476.158	113.12
476.377	121.12
476.596	120.12
476.814	117.12
477.033	99.12
477.252	115.12
477.471	115.12
477.69	130.12
477.908	127.12
478.127	130.12
478.346	121.12
478.564	130.12
478.783	140.12
479.002	131.12
479.22	139.12
479.439	135.12
479.658	120.12
479.876	109.12
480.095	103.12
480.313	116.12
480.532	117.12
480.751	117.12
480.969	97.12
481.188	87.12
481.406	96.12
481.624	86.12
481.843	92.12
482.061	110.12
482.28	104.12
482.498	112.12
482.717	116.12
482.935	133.12
483.153	130.12
483.372	137.12
483.59	139.12
483.808	137.12
484.027	141.12
484.245	132.12
484.463	145.12
484.681	139.12
484.9	130.12
485.118	143.12
485.336	129.12
485.554	104.12
485.772	106.12
485.99	105.12
486.209	107.12
486.427	104.12
486.645	117.12
486.863	133.12
487.081	139.12
487.299	133.12
487.517	138.12
487.735	163.12
487.953	165.12
488.171	180.12
488.389	175.12
488.607	149.12
488.825	130.12
489.043	116.12
489.261	127.12
489.479	139.12
489.696	129.12
489.914	128.12
490.132	139.12
490.35	146.12
490.568	175.12
490.786	156.12
491.003	171.12
491.221	159.12
491.439	175.12
491.657	185.12
491.874	194.12
492.092	214.12
492.31	240.12
492.527	218.12
492.745	202.12
492.963	176.12
493.18	169.12
493.398	190.12
493.615	169.12
493.833	157.12
494.05	167.12
494.268	180.12
494.485	165.12
494.703	160.12
494.92	163.12
495.138	181.12
495.355	174.12
495.573	154.12
495.79	162.12
496.008	161.12
496.225	169.12
496.442	181.12
496.66	170.12
496.877	162.12
497.094	144.12
497.312	150.12
497.529	133.12
497.746	142.12
497.963	144.12
498.181	138.12
498.398	125.12
498.615	119.12
498.832	106.12
499.049	116.12
499.267	109.12
499.484	121.12
499.701	129.12
499.918	135.12
500.135	135.12
500.352	139.12
500.569	132.12
500.786	135.12
501.003	137.12
501.22	141.12
501.437	130.12
501.654	138.12
501.871	127.12
502.088	137.12
502.305	135.12
502.522	118.12
502.739	119.12
502.956	131.12
503.172	128.12
503.389	120.12
503.606	110.12
503.823	115.12
504.04	115.12
504.256	123.12
504.473	106.12
504.69	117.12
504.907	110.12
505.123	125.12
505.34	117.12
505.557	128.12
505.773	113.12
505.99	124.12
506.207	103.12
506.423	114.12
506.64	127.12
506.856	116.12
507.073	117.12
507.289	105.12
507.506	107.12
507.722	108.12
507.939	119.12
508.155	111.12
508.372	98.12
508.588	108.12
508.805	109.12
509.021	114.12
509.238	115.12
509.454	106.12
509.67	92.12
509.887	92.12
510.103	99.12
510.319	94.12
510.536	92.12
510.752	100.12
510.968	95.12
511.184	86.12
511.401	89.12
511.617	94.12
511.833	97.12
