Data from Location4.07152019.Energy5.Lamp.07192019.3%Agarose_HRD10591_16-20-42-925.txt Node
Date: Fri Jul 19 16:20:42 EDT 2019
User: cochatt
Spectrometer: HR+D1059
Trigger mode: 1
Integration Time (sec): 1.000000E-1
Scans to average: 1
Electric dark correction enabled: true
Nonlinearity correction enabled: false
Boxcar width: 0
XAxis mode: Wavelengths
Number of Pixels in Spectrum: 2048
>>>>>Begin Spectral Data<<<<<
223.165	-9.75
223.4	-9.75
223.635	-9.75
223.869	-13.75
224.104	-27.75
224.338	1.25
224.573	-9.75
224.808	-23.75
225.042	-13.75
225.277	-7.75
225.511	7.25
225.746	13.25
225.98	2.25
226.215	1.25
226.449	11.25
226.683	18.25
226.918	24.25
227.152	27.25
227.387	26.25
227.621	46.25
227.856	50.25
228.09	40.25
228.324	52.25
228.559	58.25
228.793	58.25
229.027	66.25
229.262	55.25
229.496	76.25
229.73	64.25
229.964	62.25
230.199	76.25
230.433	68.25
230.667	70.25
230.901	75.25
231.136	73.25
231.37	73.25
231.604	67.25
231.838	83.25
232.072	79.25
232.306	94.25
232.541	79.25
232.775	77.25
233.009	97.25
233.243	72.25
233.477	84.25
233.711	97.25
233.945	84.25
234.179	81.25
234.413	87.25
234.647	93.25
234.881	82.25
235.115	78.25
235.349	79.25
235.583	81.25
235.817	80.25
236.051	78.25
236.285	68.25
236.519	86.25
236.753	77.25
236.987	68.25
237.221	82.25
237.455	84.25
237.689	77.25
237.922	75.25
238.156	72.25
238.39	81.25
238.624	75.25
238.858	89.25
239.091	83.25
239.325	69.25
239.559	72.25
239.793	74.25
240.027	88.25
240.26	74.25
240.494	75.25
240.728	76.25
240.961	64.25
241.195	74.25
241.429	55.25
241.662	81.25
241.896	76.25
242.13	75.25
242.363	66.25
242.597	71.25
242.83	63.25
243.064	86.25
243.298	75.25
243.531	80.25
243.765	80.25
243.998	79.25
244.232	77.25
244.465	80.25
244.699	84.25
244.932	74.25
245.166	91.25
245.399	69.25
245.633	79.25
245.866	75.25
246.099	75.25
246.333	64.25
246.566	81.25
246.8	85.25
247.033	80.25
247.266	80.25
247.5	70.25
247.733	85.25
247.966	68.25
248.2	76.25
248.433	78.25
248.666	85.25
248.899	76.25
249.133	77.25
249.366	86.25
249.599	68.25
249.832	52.25
250.066	80.25
250.299	79.25
250.532	74.25
250.765	80.25
250.998	74.25
251.231	96.25
251.465	82.25
251.698	75.25
251.931	65.25
252.164	70.25
252.397	86.25
252.63	73.25
252.863	82.25
253.096	73.25
253.329	89.25
253.562	90.25
253.795	77.25
254.028	80.25
254.261	69.25
254.494	61.25
254.727	86.25
254.96	65.25
255.193	78.25
255.426	76.25
255.659	83.25
255.892	87.25
256.124	74.25
256.357	69.25
256.59	64.25
256.823	78.25
257.056	85.25
257.289	85.25
257.521	67.25
257.754	86.25
257.987	95.25
258.22	71.25
258.452	79.25
258.685	80.25
258.918	92.25
259.151	78.25
259.383	81.25
259.616	62.25
259.849	62.25
260.081	70.25
260.314	87.25
260.547	80.25
260.779	80.25
261.012	84.25
261.244	87.25
261.477	78.25
261.71	88.25
261.942	85.25
262.175	82.25
262.407	84.25
262.64	87.25
262.872	83.25
263.105	97.25
263.337	92.25
263.57	68.25
263.802	77.25
264.035	76.25
264.267	91.25
264.499	80.25
264.732	87.25
264.964	71.25
265.197	73.25
265.429	94.25
265.661	85.25
265.894	81.25
266.126	78.25
266.358	72.25
266.591	84.25
266.823	84.25
267.055	75.25
267.287	87.25
267.52	67.25
267.752	76.25
267.984	91.25
268.216	80.25
268.448	76.25
268.681	91.25
268.913	75.25
269.145	81.25
269.377	76.25
269.609	76.25
269.841	62.25
270.073	73.25
270.306	75.25
270.538	79.25
270.77	78.25
271.002	73.25
271.234	87.25
271.466	86.25
271.698	74.25
271.93	67.25
272.162	85.25
272.394	68.25
272.626	82.25
272.858	64.25
273.09	76.25
273.322	75.25
273.553	83.25
273.785	82.25
274.017	89.25
274.249	82.25
274.481	72.25
274.713	78.25
274.945	84.25
275.176	88.25
275.408	78.25
275.64	77.25
275.872	90.25
276.104	86.25
276.335	71.25
276.567	71.25
276.799	86.25
277.031	85.25
277.262	83.25
277.494	83.25
277.726	75.25
277.957	76.25
278.189	71.25
278.421	82.25
278.652	87.25
278.884	75.25
279.115	84.25
279.347	84.25
279.579	75.25
279.81	78.25
280.042	74.25
280.273	67.25
280.505	77.25
280.736	85.25
280.968	91.25
281.199	92.25
281.431	84.25
281.662	78.25
281.894	79.25
282.125	88.25
282.356	81.25
282.588	81.25
282.819	75.25
283.051	86.25
283.282	80.25
283.513	79.25
283.745	66.25
283.976	97.25
284.207	73.25
284.439	71.25
284.67	88.25
284.901	84.25
285.132	76.25
285.364	83.25
285.595	91.25
285.826	86.25
286.057	85.25
286.288	80.25
286.52	83.25
286.751	82.25
286.982	76.25
287.213	64.25
287.444	87.25
287.675	78.25
287.906	79.25
288.138	91.25
288.369	94.25
288.6	82.25
288.831	78.25
289.062	82.25
289.293	97.25
289.524	69.25
289.755	84.25
289.986	93.25
290.217	74.25
290.448	89.25
290.679	82.25
290.91	87.25
291.141	97.25
291.371	102.25
291.602	81.25
291.833	89.25
292.064	88.25
292.295	87.25
292.526	83.25
292.757	102.25
292.987	83.25
293.218	76.25
293.449	70.25
293.68	83.25
293.91	84.25
294.141	81.25
294.372	75.25
294.603	89.25
294.833	80.25
295.064	80.25
295.295	82.25
295.525	77.25
295.756	83.25
295.987	82.25
296.217	83.25
296.448	84.25
296.679	79.25
296.909	82.25
297.14	71.25
297.37	76.25
297.601	87.25
297.831	78.25
298.062	81.25
298.292	93.25
298.523	81.25
298.753	83.25
298.984	94.25
299.214	74.25
299.445	82.25
299.675	79.25
299.905	90.25
300.136	82.25
300.366	87.25
300.597	76.25
300.827	79.25
301.057	84.25
301.288	92.25
301.518	88.25
301.748	76.25
301.979	68.25
302.209	96.25
302.439	75.25
302.669	75.25
302.9	87.25
303.13	91.25
303.36	74.25
303.59	83.25
303.82	91.25
304.051	81.25
304.281	85.25
304.511	89.25
304.741	68.25
304.971	78.25
305.201	75.25
305.431	82.25
305.661	77.25
305.891	88.25
306.121	82.25
306.352	77.25
306.582	68.25
306.812	88.25
307.042	73.25
307.272	79.25
307.502	89.25
307.731	76.25
307.961	92.25
308.191	90.25
308.421	84.25
308.651	77.25
308.881	80.25
309.111	75.25
309.341	86.25
309.571	88.25
309.8	89.25
310.03	78.25
310.26	72.25
310.49	91.25
310.72	79.25
310.949	94.25
311.179	84.25
311.409	78.25
311.639	83.25
311.868	87.25
312.098	88.25
312.328	89.25
312.557	94.25
312.787	88.25
313.017	76.25
313.246	85.25
313.476	77.25
313.706	94.25
313.935	96.25
314.165	77.25
314.394	72.25
314.624	91.25
314.853	90.25
315.083	80.25
315.312	91.25
315.542	90.25
315.771	103.25
316.001	80.25
316.23	91.25
316.46	78.25
316.689	73.25
316.919	77.25
317.148	85.25
317.377	88.25
317.607	87.25
317.836	85.25
318.065	79.25
318.295	81.25
318.524	82.25
318.753	67.25
318.983	88.25
319.212	88.25
319.441	80.25
319.67	92.25
319.9	83.25
320.129	83.25
320.358	87.25
320.587	95.25
320.816	76.25
321.046	85.25
321.275	89.25
321.504	81.25
321.733	82.25
321.962	74.25
322.191	82.25
322.42	82.25
322.649	86.25
322.878	72.25
323.108	86.25
323.337	79.25
323.566	65.25
323.795	90.25
324.024	92.25
324.253	74.25
324.482	73.25
324.71	64.25
324.939	88.25
325.168	83.25
325.397	89.25
325.626	75.25
325.855	82.25
326.084	80.25
326.313	86.25
326.542	74.25
326.77	76.25
326.999	84.25
327.228	83.25
327.457	98.25
327.686	76.25
327.914	73.25
328.143	91.25
328.372	74.25
328.6	78.25
328.829	72.25
329.058	84.25
329.287	76.25
329.515	75.25
329.744	81.25
329.972	94.25
330.201	89.25
330.43	80.25
330.658	85.25
330.887	82.25
331.115	73.25
331.344	76.25
331.572	91.25
331.801	80.25
332.03	90.25
332.258	82.25
332.486	79.25
332.715	88.25
332.943	92.25
333.172	81.25
333.4	79.25
333.629	85.25
333.857	98.25
334.085	74.25
334.314	70.25
334.542	77.25
334.771	81.25
334.999	83.25
335.227	94.25
335.455	90.25
335.684	75.25
335.912	82.25
336.14	74.25
336.369	99.25
336.597	82.25
336.825	76.25
337.053	75.25
337.281	91.25
337.51	92.25
337.738	80.25
337.966	80.25
338.194	80.25
338.422	77.25
338.65	74.25
338.878	77.25
339.106	89.25
339.334	83.25
339.562	80.25
339.79	85.25
340.018	87.25
340.246	81.25
340.474	83.25
340.702	75.25
340.93	85.25
341.158	89.25
341.386	63.25
341.614	76.25
341.842	94.25
342.07	88.25
342.298	74.25
342.526	79.25
342.754	78.25
342.981	71.25
343.209	76.25
343.437	80.25
343.665	76.25
343.893	75.25
344.12	79.25
344.348	92.25
344.576	92.25
344.804	83.25
345.031	98.25
345.259	82.25
345.487	86.25
345.714	73.25
345.942	80.25
346.17	56.25
346.397	68.25
346.625	75.25
346.853	89.25
347.08	87.25
347.308	85.25
347.535	89.25
347.763	72.25
347.99	79.25
348.218	82.25
348.445	80.25
348.673	78.25
348.9	73.25
349.128	103.25
349.355	85.25
349.583	101.25
349.81	91.25
350.037	75.25
350.265	81.25
350.492	74.25
350.72	87.25
350.947	92.25
351.174	64.25
351.402	85.25
351.629	84.25
351.856	72.25
352.083	83.25
352.311	81.25
352.538	75.25
352.765	66.25
352.992	81.25
353.22	89.25
353.447	71.25
353.674	83.25
353.901	86.25
354.128	80.25
354.355	89.25
354.583	70.25
354.81	79.25
355.037	88.25
355.264	77.25
355.491	87.25
355.718	73.25
355.945	75.25
356.172	86.25
356.399	78.25
356.626	81.25
356.853	82.25
357.08	85.25
357.307	94.25
357.534	87.25
357.761	77.25
357.988	79.25
358.215	82.25
358.441	76.25
358.668	75.25
358.895	91.25
359.122	88.25
359.349	83.25
359.576	79.25
359.802	86.25
360.029	82.25
360.256	79.25
360.483	92.25
360.709	85.25
360.936	72.25
361.163	85.25
361.39	73.25
361.616	85.25
361.843	81.25
362.07	86.25
362.296	79.25
362.523	90.25
362.749	82.25
362.976	84.25
363.203	90.25
363.429	87.25
363.656	100.25
363.882	70.25
364.109	78.25
364.335	85.25
364.562	71.25
364.788	85.25
365.015	86.25
365.241	76.25
365.468	100.25
365.694	91.25
365.92	71.25
366.147	80.25
366.373	76.25
366.599	77.25
366.826	83.25
367.052	74.25
367.278	78.25
367.505	87.25
367.731	89.25
367.957	87.25
368.184	94.25
368.41	86.25
368.636	84.25
368.862	90.25
369.089	83.25
369.315	84.25
369.541	90.25
369.767	79.25
369.993	83.25
370.219	93.25
370.445	93.25
370.672	98.25
370.898	79.25
371.124	95.25
371.35	96.25
371.576	78.25
371.802	82.25
372.028	82.25
372.254	90.25
372.48	97.25
372.706	83.25
372.932	73.25
373.158	76.25
373.384	89.25
373.61	89.25
373.835	86.25
374.061	85.25
374.287	74.25
374.513	78.25
374.739	76.25
374.965	91.25
375.191	100.25
375.416	82.25
375.642	87.25
375.868	93.25
376.094	84.25
376.319	91.25
376.545	91.25
376.771	99.25
376.997	97.25
377.222	100.25
377.448	83.25
377.674	83.25
377.899	80.25
378.125	91.25
378.35	96.25
378.576	91.25
378.802	71.25
379.027	91.25
379.253	90.25
379.478	85.25
379.704	91.25
379.929	92.25
380.155	86.25
380.38	82.25
380.606	86.25
380.831	87.25
381.057	100.25
381.282	98.25
381.507	108.25
381.733	108.25
381.958	90.25
382.184	87.25
382.409	92.25
382.634	111.25
382.86	112.25
383.085	91.25
383.31	86.25
383.535	91.25
383.761	98.25
383.986	80.25
384.211	94.25
384.436	90.25
384.662	94.25
384.887	104.25
385.112	94.25
385.337	99.25
385.562	101.25
385.787	87.25
386.013	101.25
386.238	106.25
386.463	92.25
386.688	102.25
386.913	94.25
387.138	93.25
387.363	92.25
387.588	105.25
387.813	94.25
388.038	101.25
388.263	105.25
388.488	84.25
388.713	95.25
388.938	100.25
389.163	71.25
389.387	95.25
389.612	84.25
389.837	72.25
390.062	91.25
390.287	104.25
390.512	100.25
390.736	89.25
390.961	100.25
391.186	109.25
391.411	95.25
391.636	107.25
391.86	99.25
392.085	97.25
392.31	116.25
392.534	97.25
392.759	103.25
392.984	102.25
393.208	104.25
393.433	103.25
393.658	105.25
393.882	107.25
394.107	110.25
394.331	107.25
394.556	105.25
394.78	113.25
395.005	115.25
395.229	99.25
395.454	93.25
395.678	83.25
395.903	99.25
396.127	103.25
396.352	105.25
396.576	103.25
396.801	91.25
397.025	108.25
397.249	112.25
397.474	95.25
397.698	113.25
397.922	91.25
398.147	101.25
398.371	114.25
398.595	116.25
398.82	98.25
399.044	114.25
399.268	124.25
399.492	103.25
399.717	92.25
399.941	98.25
400.165	94.25
400.389	98.25
400.613	95.25
400.837	109.25
401.062	115.25
401.286	105.25
401.51	102.25
401.734	98.25
401.958	113.25
402.182	104.25
402.406	114.25
402.63	112.25
402.854	97.25
403.078	118.25
403.302	104.25
403.526	108.25
403.75	118.25
403.974	89.25
404.198	107.25
404.422	111.25
404.645	105.25
404.869	115.25
405.093	109.25
405.317	115.25
405.541	109.25
405.765	112.25
405.988	134.25
406.212	112.25
406.436	105.25
406.66	102.25
406.883	112.25
407.107	119.25
407.331	117.25
407.555	100.25
407.778	112.25
408.002	115.25
408.226	115.25
408.449	126.25
408.673	114.25
408.896	109.25
409.12	108.25
409.344	108.25
409.567	112.25
409.791	112.25
410.014	116.25
410.238	126.25
410.461	107.25
410.685	113.25
410.908	118.25
411.132	114.25
411.355	118.25
411.578	120.25
411.802	130.25
412.025	116.25
412.249	118.25
412.472	128.25
412.695	120.25
412.919	119.25
413.142	137.25
413.365	114.25
413.589	117.25
413.812	127.25
414.035	122.25
414.258	111.25
414.482	119.25
414.705	127.25
414.928	119.25
415.151	118.25
415.374	107.25
415.597	110.25
415.821	118.25
416.044	116.25
416.267	123.25
416.49	125.25
416.713	103.25
416.936	125.25
417.159	128.25
417.382	114.25
417.605	124.25
417.828	122.25
418.051	114.25
418.274	133.25
418.497	129.25
418.72	127.25
418.943	126.25
419.166	123.25
419.389	130.25
419.611	128.25
419.834	124.25
420.057	121.25
420.28	113.25
420.503	145.25
420.726	128.25
420.948	112.25
421.171	128.25
421.394	128.25
421.617	125.25
421.839	127.25
422.062	131.25
422.285	118.25
422.507	138.25
422.73	132.25
422.953	123.25
423.175	127.25
423.398	120.25
423.621	116.25
423.843	128.25
424.066	132.25
424.288	139.25
424.511	140.25
424.733	137.25
424.956	122.25
425.178	140.25
425.401	125.25
425.623	138.25
425.846	130.25
426.068	140.25
426.291	129.25
426.513	118.25
426.735	138.25
426.958	120.25
427.18	122.25
427.402	122.25
427.625	129.25
427.847	122.25
428.069	133.25
428.292	120.25
428.514	113.25
428.736	122.25
428.958	133.25
429.181	125.25
429.403	133.25
429.625	120.25
429.847	140.25
430.069	127.25
430.292	135.25
430.514	116.25
430.736	129.25
430.958	138.25
431.18	113.25
431.402	127.25
431.624	106.25
431.846	96.25
432.068	98.25
432.29	91.25
432.512	107.25
432.734	118.25
432.956	128.25
433.178	138.25
433.4	131.25
433.622	141.25
433.844	130.25
434.066	129.25
434.287	102.25
434.509	89.25
434.731	90.25
434.953	106.25
435.175	108.25
435.397	112.25
435.618	104.25
435.84	114.25
436.062	107.25
436.284	104.25
436.505	114.25
436.727	127.25
436.949	112.25
437.17	119.25
437.392	119.25
437.614	104.25
437.835	112.25
438.057	111.25
438.278	115.25
438.5	129.25
438.721	127.25
438.943	144.25
439.165	122.25
439.386	121.25
439.608	130.25
439.829	144.25
440.05	146.25
440.272	143.25
440.493	144.25
440.715	138.25
440.936	134.25
441.158	144.25
441.379	138.25
441.6	146.25
441.822	134.25
442.043	134.25
442.264	130.25
442.486	144.25
442.707	138.25
442.928	144.25
443.149	144.25
443.371	133.25
443.592	140.25
443.813	140.25
444.034	138.25
444.255	119.25
444.476	147.25
444.698	130.25
444.919	123.25
445.14	259.25
445.361	208.25
445.582	148.25
445.803	134.25
446.024	135.25
446.245	146.25
446.466	146.25
446.687	152.25
446.908	151.25
447.129	143.25
447.35	141.25
447.571	139.25
447.792	144.25
448.013	131.25
448.234	136.25
448.455	144.25
448.675	121.25
448.896	128.25
449.117	130.25
449.338	120.25
449.559	147.25
449.779	122.25
450	121.25
450.221	133.25
450.442	130.25
450.662	134.25
450.883	141.25
451.104	122.25
451.324	126.25
451.545	138.25
451.766	126.25
451.986	124.25
452.207	126.25
452.428	125.25
452.648	146.25
452.869	110.25
453.089	120.25
453.31	99.25
453.53	106.25
453.751	111.25
453.971	97.25
454.192	101.25
454.412	105.25
454.633	114.25
454.853	106.25
455.073	105.25
455.294	117.25
455.514	124.25
455.734	118.25
455.955	122.25
456.175	110.25
456.395	114.25
456.616	120.25
456.836	104.25
457.056	98.25
457.276	112.25
457.497	113.25
457.717	117.25
457.937	108.25
458.157	112.25
458.377	110.25
458.598	91.25
458.818	92.25
459.038	94.25
459.258	94.25
459.478	83.25
459.698	95.25
459.918	89.25
460.138	112.25
460.358	109.25
460.578	105.25
460.798	124.25
461.018	107.25
461.238	105.25
461.458	115.25
461.678	113.25
461.898	103.25
462.118	121.25
462.338	117.25
462.558	98.25
462.777	118.25
462.997	108.25
463.217	108.25
463.437	102.25
463.657	91.25
463.876	103.25
464.096	106.25
464.316	111.25
464.536	113.25
464.755	103.25
464.975	119.25
465.195	117.25
465.414	143.25
465.634	111.25
465.854	113.25
466.073	118.25
466.293	118.25
466.512	119.25
466.732	137.25
466.951	140.25
467.171	122.25
467.391	128.25
467.61	138.25
467.829	129.25
468.049	128.25
468.268	126.25
468.488	136.25
468.707	127.25
468.927	135.25
469.146	136.25
469.365	135.25
469.585	146.25
469.804	130.25
470.023	129.25
470.243	128.25
470.462	125.25
470.681	154.25
470.901	148.25
471.12	126.25
471.339	134.25
471.558	131.25
471.777	153.25
471.997	136.25
472.216	135.25
472.435	116.25
472.654	117.25
472.873	120.25
473.092	113.25
473.311	115.25
473.53	129.25
473.749	126.25
473.968	121.25
474.187	122.25
474.406	109.25
474.625	122.25
474.844	130.25
475.063	130.25
475.282	127.25
475.501	125.25
475.72	128.25
475.939	121.25
476.158	105.25
476.377	116.25
476.596	100.25
476.814	116.25
477.033	111.25
477.252	114.25
477.471	124.25
477.69	128.25
477.908	126.25
478.127	134.25
478.346	137.25
478.564	123.25
478.783	139.25
479.002	138.25
479.22	140.25
479.439	113.25
479.658	117.25
479.876	102.25
480.095	130.25
480.313	120.25
480.532	117.25
480.751	131.25
480.969	93.25
481.188	87.25
481.406	93.25
481.624	97.25
481.843	95.25
482.061	82.25
482.28	111.25
482.498	110.25
482.717	127.25
482.935	110.25
483.153	139.25
483.372	142.25
483.59	150.25
483.808	141.25
484.027	138.25
484.245	142.25
484.463	146.25
484.681	163.25
484.9	146.25
485.118	115.25
485.336	128.25
485.554	102.25
485.772	112.25
485.99	99.25
486.209	114.25
486.427	113.25
486.645	122.25
486.863	135.25
487.081	138.25
487.299	140.25
487.517	136.25
487.735	180.25
487.953	177.25
488.171	171.25
488.389	166.25
488.607	164.25
488.825	137.25
489.043	136.25
489.261	127.25
489.479	140.25
489.696	131.25
489.914	137.25
490.132	130.25
490.35	148.25
490.568	150.25
490.786	158.25
491.003	170.25
491.221	169.25
491.439	178.25
491.657	194.25
491.874	205.25
492.092	205.25
492.31	240.25
492.527	231.25
492.745	200.25
492.963	200.25
493.18	185.25
493.398	171.25
493.615	167.25
493.833	182.25
494.05	167.25
494.268	161.25
494.485	146.25
494.703	170.25
494.92	187.25
495.138	158.25
495.355	155.25
495.573	163.25
495.79	169.25
496.008	186.25
496.225	159.25
496.442	158.25
496.66	168.25
496.877	163.25
497.094	162.25
497.312	146.25
497.529	131.25
497.746	126.25
497.963	134.25
498.181	116.25
498.398	110.25
498.615	125.25
498.832	122.25
499.049	113.25
499.267	118.25
499.484	134.25
499.701	122.25
499.918	131.25
500.135	131.25
500.352	133.25
500.569	134.25
500.786	162.25
501.003	147.25
501.22	133.25
501.437	130.25
501.654	135.25
501.871	135.25
502.088	126.25
502.305	134.25
502.522	139.25
502.739	136.25
502.956	128.25
503.172	125.25
503.389	113.25
503.606	117.25
503.823	110.25
504.04	120.25
504.256	122.25
504.473	122.25
504.69	100.25
504.907	127.25
505.123	122.25
505.34	122.25
505.557	110.25
505.773	127.25
505.99	131.25
506.207	114.25
506.423	114.25
506.64	119.25
506.856	120.25
507.073	112.25
507.289	122.25
507.506	109.25
507.722	98.25
507.939	115.25
508.155	127.25
508.372	100.25
508.588	99.25
508.805	95.25
509.021	114.25
509.238	113.25
509.454	100.25
509.67	95.25
509.887	79.25
510.103	100.25
510.319	102.25
510.536	95.25
510.752	92.25
510.968	85.25
511.184	88.25
511.401	94.25
511.617	107.25
511.833	90.25
512.049	85.25
