Data from Location4.07152019.Energy5.Lamp.07192019.3%Agarose_HRD10591_16-19-29-925.txt Node
Date: Fri Jul 19 16:19:29 EDT 2019
User: cochatt
Spectrometer: HR+D1059
Trigger mode: 1
Integration Time (sec): 1.000000E-1
Scans to average: 1
Electric dark correction enabled: true
Nonlinearity correction enabled: false
Boxcar width: 0
XAxis mode: Wavelengths
Number of Pixels in Spectrum: 2048
>>>>>Begin Spectral Data<<<<<
223.165	-14.19
223.4	-14.19
223.635	-14.19
223.869	-7.19
224.104	-18.19
224.338	-19.19
224.573	-8.19
224.808	-14.19
225.042	-5.19
225.277	-14.19
225.511	-4.19
225.746	-4.19
225.98	4.81
226.215	16.81
226.449	7.81
226.683	18.81
226.918	28.81
227.152	31.81
227.387	34.81
227.621	43.81
227.856	32.81
228.09	43.81
228.324	60.81
228.559	59.81
228.793	66.81
229.027	58.81
229.262	62.81
229.496	70.81
229.73	67.81
229.964	70.81
230.199	73.81
230.433	65.81
230.667	83.81
230.901	71.81
231.136	70.81
231.37	80.81
231.604	86.81
231.838	86.81
232.072	74.81
232.306	82.81
232.541	77.81
232.775	70.81
233.009	70.81
233.243	87.81
233.477	95.81
233.711	83.81
233.945	90.81
234.179	74.81
234.413	82.81
234.647	92.81
234.881	76.81
235.115	79.81
235.349	78.81
235.583	83.81
235.817	71.81
236.051	88.81
236.285	73.81
236.519	84.81
236.753	83.81
236.987	91.81
237.221	86.81
237.455	97.81
237.689	69.81
237.922	75.81
238.156	76.81
238.39	55.81
238.624	72.81
238.858	73.81
239.091	75.81
239.325	78.81
239.559	79.81
239.793	79.81
240.027	74.81
240.26	72.81
240.494	72.81
240.728	81.81
240.961	91.81
241.195	80.81
241.429	70.81
241.662	90.81
241.896	70.81
242.13	71.81
242.363	68.81
242.597	74.81
242.83	82.81
243.064	74.81
243.298	71.81
243.531	62.81
243.765	83.81
243.998	85.81
244.232	80.81
244.465	80.81
244.699	85.81
244.932	76.81
245.166	79.81
245.399	78.81
245.633	68.81
245.866	74.81
246.099	94.81
246.333	79.81
246.566	71.81
246.8	88.81
247.033	75.81
247.266	80.81
247.5	79.81
247.733	83.81
247.966	76.81
248.2	78.81
248.433	88.81
248.666	84.81
248.899	76.81
249.133	84.81
249.366	102.81
249.599	75.81
249.832	82.81
250.066	76.81
250.299	70.81
250.532	96.81
250.765	94.81
250.998	81.81
251.231	71.81
251.465	81.81
251.698	84.81
251.931	83.81
252.164	74.81
252.397	91.81
252.63	79.81
252.863	89.81
253.096	84.81
253.329	89.81
253.562	98.81
253.795	97.81
254.028	77.81
254.261	87.81
254.494	77.81
254.727	83.81
254.96	80.81
255.193	88.81
255.426	93.81
255.659	80.81
255.892	86.81
256.124	87.81
256.357	78.81
256.59	83.81
256.823	90.81
257.056	84.81
257.289	82.81
257.521	81.81
257.754	77.81
257.987	79.81
258.22	95.81
258.452	78.81
258.685	84.81
258.918	83.81
259.151	88.81
259.383	87.81
259.616	79.81
259.849	87.81
260.081	88.81
260.314	84.81
260.547	87.81
260.779	79.81
261.012	71.81
261.244	86.81
261.477	87.81
261.71	76.81
261.942	82.81
262.175	80.81
262.407	83.81
262.64	80.81
262.872	100.81
263.105	80.81
263.337	85.81
263.57	90.81
263.802	73.81
264.035	81.81
264.267	95.81
264.499	90.81
264.732	84.81
264.964	74.81
265.197	98.81
265.429	89.81
265.661	87.81
265.894	81.81
266.126	77.81
266.358	94.81
266.591	90.81
266.823	92.81
267.055	75.81
267.287	86.81
267.52	79.81
267.752	81.81
267.984	74.81
268.216	83.81
268.448	88.81
268.681	97.81
268.913	70.81
269.145	74.81
269.377	90.81
269.609	78.81
269.841	75.81
270.073	88.81
270.306	77.81
270.538	81.81
270.77	96.81
271.002	88.81
271.234	94.81
271.466	93.81
271.698	78.81
271.93	90.81
272.162	79.81
272.394	84.81
272.626	87.81
272.858	77.81
273.09	82.81
273.322	77.81
273.553	82.81
273.785	93.81
274.017	82.81
274.249	72.81
274.481	73.81
274.713	82.81
274.945	78.81
275.176	79.81
275.408	80.81
275.64	89.81
275.872	94.81
276.104	96.81
276.335	87.81
276.567	77.81
276.799	80.81
277.031	76.81
277.262	81.81
277.494	86.81
277.726	84.81
277.957	92.81
278.189	95.81
278.421	79.81
278.652	80.81
278.884	98.81
279.115	92.81
279.347	89.81
279.579	84.81
279.81	90.81
280.042	90.81
280.273	85.81
280.505	74.81
280.736	88.81
280.968	82.81
281.199	82.81
281.431	72.81
281.662	76.81
281.894	75.81
282.125	83.81
282.356	86.81
282.588	82.81
282.819	92.81
283.051	81.81
283.282	74.81
283.513	85.81
283.745	85.81
283.976	90.81
284.207	83.81
284.439	90.81
284.67	91.81
284.901	103.81
285.132	83.81
285.364	85.81
285.595	89.81
285.826	68.81
286.057	79.81
286.288	88.81
286.52	92.81
286.751	81.81
286.982	79.81
287.213	80.81
287.444	93.81
287.675	93.81
287.906	98.81
288.138	79.81
288.369	76.81
288.6	84.81
288.831	79.81
289.062	77.81
289.293	79.81
289.524	83.81
289.755	82.81
289.986	85.81
290.217	82.81
290.448	90.81
290.679	82.81
290.91	79.81
291.141	75.81
291.371	79.81
291.602	89.81
291.833	78.81
292.064	88.81
292.295	72.81
292.526	89.81
292.757	78.81
292.987	99.81
293.218	90.81
293.449	76.81
293.68	90.81
293.91	95.81
294.141	87.81
294.372	82.81
294.603	75.81
294.833	80.81
295.064	94.81
295.295	74.81
295.525	83.81
295.756	80.81
295.987	90.81
296.217	88.81
296.448	77.81
296.679	73.81
296.909	87.81
297.14	95.81
297.37	71.81
297.601	90.81
297.831	79.81
298.062	82.81
298.292	88.81
298.523	81.81
298.753	92.81
298.984	84.81
299.214	76.81
299.445	95.81
299.675	84.81
299.905	81.81
300.136	80.81
300.366	76.81
300.597	86.81
300.827	80.81
301.057	113.81
301.288	103.81
301.518	94.81
301.748	85.81
301.979	105.81
302.209	98.81
302.439	94.81
302.669	83.81
302.9	79.81
303.13	77.81
303.36	91.81
303.59	87.81
303.82	89.81
304.051	83.81
304.281	85.81
304.511	79.81
304.741	83.81
304.971	83.81
305.201	88.81
305.431	92.81
305.661	83.81
305.891	89.81
306.121	81.81
306.352	88.81
306.582	93.81
306.812	97.81
307.042	80.81
307.272	73.81
307.502	90.81
307.731	86.81
307.961	73.81
308.191	72.81
308.421	90.81
308.651	91.81
308.881	89.81
309.111	77.81
309.341	85.81
309.571	83.81
309.8	103.81
310.03	86.81
310.26	83.81
310.49	105.81
310.72	94.81
310.949	90.81
311.179	64.81
311.409	80.81
311.639	98.81
311.868	98.81
312.098	112.81
312.328	80.81
312.557	96.81
312.787	89.81
313.017	72.81
313.246	86.81
313.476	87.81
313.706	82.81
313.935	84.81
314.165	78.81
314.394	85.81
314.624	86.81
314.853	73.81
315.083	92.81
315.312	95.81
315.542	95.81
315.771	75.81
316.001	82.81
316.23	88.81
316.46	94.81
316.689	76.81
316.919	89.81
317.148	74.81
317.377	79.81
317.607	94.81
317.836	74.81
318.065	80.81
318.295	75.81
318.524	98.81
318.753	90.81
318.983	93.81
319.212	91.81
319.441	74.81
319.67	76.81
319.9	102.81
320.129	80.81
320.358	78.81
320.587	76.81
320.816	85.81
321.046	106.81
321.275	89.81
321.504	74.81
321.733	93.81
321.962	94.81
322.191	97.81
322.42	84.81
322.649	91.81
322.878	95.81
323.108	80.81
323.337	79.81
323.566	97.81
323.795	89.81
324.024	71.81
324.253	91.81
324.482	84.81
324.71	70.81
324.939	86.81
325.168	94.81
325.397	107.81
325.626	85.81
325.855	97.81
326.084	88.81
326.313	89.81
326.542	95.81
326.77	68.81
326.999	89.81
327.228	71.81
327.457	74.81
327.686	76.81
327.914	84.81
328.143	87.81
328.372	93.81
328.6	87.81
328.829	107.81
329.058	81.81
329.287	71.81
329.515	97.81
329.744	95.81
329.972	85.81
330.201	87.81
330.43	96.81
330.658	83.81
330.887	82.81
331.115	89.81
331.344	79.81
331.572	90.81
331.801	100.81
332.03	87.81
332.258	70.81
332.486	91.81
332.715	82.81
332.943	96.81
333.172	81.81
333.4	75.81
333.629	84.81
333.857	97.81
334.085	80.81
334.314	92.81
334.542	87.81
334.771	86.81
334.999	86.81
335.227	85.81
335.455	88.81
335.684	75.81
335.912	93.81
336.14	82.81
336.369	75.81
336.597	88.81
336.825	95.81
337.053	98.81
337.281	85.81
337.51	86.81
337.738	89.81
337.966	82.81
338.194	71.81
338.422	82.81
338.65	88.81
338.878	86.81
339.106	92.81
339.334	87.81
339.562	95.81
339.79	81.81
340.018	86.81
340.246	79.81
340.474	84.81
340.702	92.81
340.93	88.81
341.158	80.81
341.386	82.81
341.614	88.81
341.842	79.81
342.07	74.81
342.298	90.81
342.526	93.81
342.754	88.81
342.981	97.81
343.209	82.81
343.437	91.81
343.665	82.81
343.893	82.81
344.12	95.81
344.348	72.81
344.576	95.81
344.804	90.81
345.031	75.81
345.259	79.81
345.487	76.81
345.714	93.81
345.942	91.81
346.17	70.81
346.397	81.81
346.625	85.81
346.853	84.81
347.08	92.81
347.308	102.81
347.535	74.81
347.763	85.81
347.99	99.81
348.218	100.81
348.445	70.81
348.673	103.81
348.9	87.81
349.128	87.81
349.355	85.81
349.583	91.81
349.81	87.81
350.037	83.81
350.265	83.81
350.492	90.81
350.72	76.81
350.947	81.81
351.174	86.81
351.402	86.81
351.629	67.81
351.856	82.81
352.083	70.81
352.311	88.81
352.538	84.81
352.765	86.81
352.992	91.81
353.22	91.81
353.447	76.81
353.674	84.81
353.901	84.81
354.128	74.81
354.355	87.81
354.583	87.81
354.81	86.81
355.037	93.81
355.264	92.81
355.491	76.81
355.718	91.81
355.945	88.81
356.172	78.81
356.399	97.81
356.626	87.81
356.853	78.81
357.08	106.81
357.307	105.81
357.534	88.81
357.761	94.81
357.988	68.81
358.215	98.81
358.441	85.81
358.668	74.81
358.895	87.81
359.122	101.81
359.349	75.81
359.576	94.81
359.802	87.81
360.029	74.81
360.256	78.81
360.483	76.81
360.709	71.81
360.936	87.81
361.163	81.81
361.39	96.81
361.616	78.81
361.843	90.81
362.07	79.81
362.296	74.81
362.523	87.81
362.749	85.81
362.976	76.81
363.203	96.81
363.429	89.81
363.656	84.81
363.882	81.81
364.109	79.81
364.335	83.81
364.562	83.81
364.788	92.81
365.015	88.81
365.241	68.81
365.468	85.81
365.694	95.81
365.92	98.81
366.147	96.81
366.373	91.81
366.599	90.81
366.826	90.81
367.052	83.81
367.278	90.81
367.505	96.81
367.731	90.81
367.957	83.81
368.184	83.81
368.41	97.81
368.636	78.81
368.862	100.81
369.089	92.81
369.315	82.81
369.541	86.81
369.767	81.81
369.993	80.81
370.219	88.81
370.445	98.81
370.672	104.81
370.898	94.81
371.124	85.81
371.35	88.81
371.576	98.81
371.802	93.81
372.028	119.81
372.254	100.81
372.48	90.81
372.706	93.81
372.932	98.81
373.158	99.81
373.384	104.81
373.61	94.81
373.835	89.81
374.061	101.81
374.287	80.81
374.513	93.81
374.739	84.81
374.965	101.81
375.191	98.81
375.416	80.81
375.642	84.81
375.868	101.81
376.094	96.81
376.319	89.81
376.545	87.81
376.771	80.81
376.997	88.81
377.222	86.81
377.448	89.81
377.674	99.81
377.899	94.81
378.125	100.81
378.35	103.81
378.576	93.81
378.802	95.81
379.027	84.81
379.253	95.81
379.478	88.81
379.704	88.81
379.929	94.81
380.155	98.81
380.38	94.81
380.606	92.81
380.831	87.81
381.057	103.81
381.282	100.81
381.507	87.81
381.733	106.81
381.958	104.81
382.184	94.81
382.409	99.81
382.634	100.81
382.86	82.81
383.085	102.81
383.31	90.81
383.535	112.81
383.761	102.81
383.986	105.81
384.211	94.81
384.436	79.81
384.662	100.81
384.887	103.81
385.112	98.81
385.337	90.81
385.562	88.81
385.787	89.81
386.013	96.81
386.238	112.81
386.463	105.81
386.688	90.81
386.913	93.81
387.138	108.81
387.363	86.81
387.588	103.81
387.813	98.81
388.038	98.81
388.263	114.81
388.488	105.81
388.713	91.81
388.938	103.81
389.163	86.81
389.387	92.81
389.612	97.81
389.837	103.81
390.062	94.81
390.287	95.81
390.512	97.81
390.736	96.81
390.961	99.81
391.186	103.81
391.411	105.81
391.636	104.81
391.86	93.81
392.085	96.81
392.31	111.81
392.534	110.81
392.759	112.81
392.984	100.81
393.208	102.81
393.433	102.81
393.658	95.81
393.882	106.81
394.107	105.81
394.331	99.81
394.556	96.81
394.78	92.81
395.005	107.81
395.229	111.81
395.454	116.81
395.678	103.81
395.903	107.81
396.127	101.81
396.352	109.81
396.576	112.81
396.801	96.81
397.025	102.81
397.249	113.81
397.474	94.81
397.698	94.81
397.922	119.81
398.147	104.81
398.371	100.81
398.595	104.81
398.82	114.81
399.044	116.81
399.268	103.81
399.492	121.81
399.717	110.81
399.941	100.81
400.165	102.81
400.389	106.81
400.613	94.81
400.837	102.81
401.062	103.81
401.286	97.81
401.51	106.81
401.734	110.81
401.958	108.81
402.182	115.81
402.406	120.81
402.63	126.81
402.854	126.81
403.078	112.81
403.302	109.81
403.526	96.81
403.75	123.81
403.974	106.81
404.198	108.81
404.422	96.81
404.645	112.81
404.869	120.81
405.093	116.81
405.317	106.81
405.541	120.81
405.765	119.81
405.988	107.81
406.212	122.81
406.436	121.81
406.66	134.81
406.883	126.81
407.107	117.81
407.331	114.81
407.555	112.81
407.778	107.81
408.002	131.81
408.226	112.81
408.449	90.81
408.673	105.81
408.896	105.81
409.12	119.81
409.344	126.81
409.567	117.81
409.791	116.81
410.014	122.81
410.238	122.81
410.461	123.81
410.685	115.81
410.908	114.81
411.132	114.81
411.355	112.81
411.578	134.81
411.802	104.81
412.025	122.81
412.249	126.81
412.472	102.81
412.695	137.81
412.919	123.81
413.142	121.81
413.365	119.81
413.589	124.81
413.812	105.81
414.035	123.81
414.258	128.81
414.482	116.81
414.705	115.81
414.928	140.81
415.151	121.81
415.374	119.81
415.597	120.81
415.821	131.81
416.044	119.81
416.267	103.81
416.49	117.81
416.713	126.81
416.936	125.81
417.159	114.81
417.382	124.81
417.605	120.81
417.828	136.81
418.051	127.81
418.274	120.81
418.497	126.81
418.72	135.81
418.943	120.81
419.166	133.81
419.389	127.81
419.611	147.81
419.834	137.81
420.057	134.81
420.28	133.81
420.503	139.81
420.726	143.81
420.948	134.81
421.171	123.81
421.394	128.81
421.617	126.81
421.839	145.81
422.062	139.81
422.285	128.81
422.507	115.81
422.73	136.81
422.953	125.81
423.175	132.81
423.398	128.81
423.621	143.81
423.843	122.81
424.066	116.81
424.288	140.81
424.511	143.81
424.733	126.81
424.956	136.81
425.178	134.81
425.401	125.81
425.623	134.81
425.846	135.81
426.068	138.81
426.291	121.81
426.513	139.81
426.735	117.81
426.958	137.81
427.18	130.81
427.402	137.81
427.625	124.81
427.847	128.81
428.069	129.81
428.292	119.81
428.514	118.81
428.736	121.81
428.958	117.81
429.181	116.81
429.403	130.81
429.625	120.81
429.847	124.81
430.069	137.81
430.292	138.81
430.514	124.81
430.736	122.81
430.958	133.81
431.18	133.81
431.402	135.81
431.624	120.81
431.846	103.81
432.068	90.81
432.29	96.81
432.512	107.81
432.734	124.81
432.956	107.81
433.178	144.81
433.4	126.81
433.622	134.81
433.844	130.81
434.066	120.81
434.287	103.81
434.509	88.81
434.731	100.81
434.953	127.81
435.175	108.81
435.397	112.81
435.618	116.81
435.84	99.81
436.062	99.81
436.284	104.81
436.505	129.81
436.727	126.81
436.949	124.81
437.17	119.81
437.392	127.81
437.614	125.81
437.835	107.81
438.057	98.81
438.278	112.81
438.5	130.81
438.721	126.81
438.943	137.81
439.165	137.81
439.386	135.81
439.608	127.81
439.829	143.81
440.05	151.81
440.272	132.81
440.493	122.81
440.715	159.81
440.936	144.81
441.158	141.81
441.379	138.81
441.6	150.81
441.822	124.81
442.043	140.81
442.264	126.81
442.486	132.81
442.707	138.81
442.928	156.81
443.149	146.81
443.371	130.81
443.592	146.81
443.813	126.81
444.034	136.81
444.255	154.81
444.476	138.81
444.698	148.81
444.919	142.81
445.14	271.81
445.361	196.81
445.582	134.81
445.803	144.81
446.024	141.81
446.245	146.81
446.466	163.81
446.687	158.81
446.908	145.81
447.129	159.81
447.35	165.81
447.571	145.81
447.792	153.81
448.013	147.81
448.234	132.81
448.455	131.81
448.675	138.81
448.896	138.81
449.117	145.81
449.338	132.81
449.559	123.81
449.779	117.81
450	132.81
450.221	123.81
450.442	128.81
450.662	127.81
450.883	119.81
451.104	130.81
451.324	126.81
451.545	125.81
451.766	131.81
451.986	144.81
452.207	130.81
452.428	115.81
452.648	144.81
452.869	126.81
453.089	122.81
453.31	116.81
453.53	102.81
453.751	104.81
453.971	119.81
454.192	104.81
454.412	117.81
454.633	116.81
454.853	123.81
455.073	127.81
455.294	119.81
455.514	116.81
455.734	105.81
455.955	116.81
456.175	120.81
456.395	112.81
456.616	106.81
456.836	114.81
457.056	96.81
457.276	119.81
457.497	110.81
457.717	113.81
457.937	108.81
458.157	102.81
458.377	103.81
458.598	95.81
458.818	86.81
459.038	90.81
459.258	96.81
459.478	85.81
459.698	99.81
459.918	99.81
460.138	94.81
460.358	114.81
460.578	118.81
460.798	104.81
461.018	110.81
461.238	118.81
461.458	124.81
461.678	127.81
461.898	101.81
462.118	111.81
462.338	115.81
462.558	123.81
462.777	108.81
462.997	120.81
463.217	117.81
463.437	99.81
463.657	114.81
463.876	101.81
464.096	105.81
464.316	118.81
464.536	126.81
464.755	107.81
464.975	122.81
465.195	123.81
465.414	103.81
465.634	122.81
465.854	104.81
466.073	110.81
466.293	118.81
466.512	118.81
466.732	121.81
466.951	124.81
467.171	130.81
467.391	130.81
467.61	140.81
467.829	135.81
468.049	136.81
468.268	130.81
468.488	124.81
468.707	131.81
468.927	143.81
469.146	118.81
469.365	130.81
469.585	123.81
469.804	128.81
470.023	124.81
470.243	139.81
470.462	156.81
470.681	133.81
470.901	122.81
471.12	127.81
471.339	148.81
471.558	130.81
471.777	139.81
471.997	134.81
472.216	121.81
472.435	137.81
472.654	113.81
472.873	99.81
473.092	126.81
473.311	134.81
473.53	131.81
473.749	138.81
473.968	128.81
474.187	117.81
474.406	123.81
474.625	128.81
474.844	133.81
475.063	134.81
475.282	119.81
475.501	117.81
475.72	122.81
475.939	93.81
476.158	122.81
476.377	136.81
476.596	121.81
476.814	114.81
477.033	114.81
477.252	117.81
477.471	129.81
477.69	133.81
477.908	142.81
478.127	143.81
478.346	124.81
478.564	133.81
478.783	131.81
479.002	139.81
479.22	140.81
479.439	123.81
479.658	120.81
479.876	115.81
480.095	124.81
480.313	127.81
480.532	126.81
480.751	114.81
480.969	78.81
481.188	82.81
481.406	82.81
481.624	98.81
481.843	90.81
482.061	87.81
482.28	111.81
482.498	106.81
482.717	114.81
482.935	136.81
483.153	150.81
483.372	146.81
483.59	133.81
483.808	136.81
484.027	134.81
484.245	136.81
484.463	150.81
484.681	153.81
484.9	144.81
485.118	141.81
485.336	124.81
485.554	104.81
485.772	103.81
485.99	108.81
486.209	108.81
486.427	115.81
486.645	131.81
486.863	134.81
487.081	132.81
487.299	136.81
487.517	123.81
487.735	162.81
487.953	178.81
488.171	173.81
488.389	158.81
488.607	148.81
488.825	153.81
489.043	127.81
489.261	136.81
489.479	135.81
489.696	142.81
489.914	139.81
490.132	127.81
490.35	146.81
490.568	171.81
490.786	165.81
491.003	166.81
491.221	170.81
491.439	179.81
491.657	185.81
491.874	185.81
492.092	208.81
492.31	237.81
492.527	226.81
492.745	193.81
492.963	187.81
493.18	188.81
493.398	188.81
493.615	166.81
493.833	171.81
494.05	166.81
494.268	170.81
494.485	164.81
494.703	162.81
494.92	185.81
495.138	172.81
495.355	181.81
495.573	166.81
495.79	174.81
496.008	157.81
496.225	166.81
496.442	155.81
496.66	164.81
496.877	159.81
497.094	152.81
497.312	170.81
497.529	148.81
497.746	150.81
497.963	136.81
498.181	129.81
498.398	116.81
498.615	136.81
498.832	128.81
499.049	131.81
499.267	126.81
499.484	127.81
499.701	116.81
499.918	134.81
500.135	126.81
500.352	137.81
500.569	137.81
500.786	153.81
501.003	151.81
501.22	138.81
501.437	147.81
501.654	142.81
501.871	140.81
502.088	118.81
502.305	130.81
502.522	136.81
502.739	136.81
502.956	123.81
503.172	133.81
503.389	120.81
503.606	122.81
503.823	119.81
504.04	119.81
504.256	113.81
504.473	109.81
504.69	118.81
504.907	123.81
505.123	121.81
505.34	107.81
505.557	128.81
505.773	119.81
505.99	128.81
506.207	118.81
506.423	133.81
506.64	118.81
506.856	112.81
507.073	130.81
507.289	113.81
507.506	111.81
507.722	119.81
507.939	101.81
508.155	136.81
508.372	112.81
508.588	119.81
508.805	107.81
509.021	102.81
509.238	103.81
509.454	114.81
509.67	88.81
509.887	92.81
510.103	97.81
510.319	103.81
510.536	94.81
510.752	85.81
510.968	72.81
511.184	94.81
511.401	83.81
511.617	99.81
