Data from Location4.07152019.Energy5.Lamp.07192019.3%Agarose_HRD10591_16-20-02-926.txt Node
Date: Fri Jul 19 16:20:02 EDT 2019
User: cochatt
Spectrometer: HR+D1059
Trigger mode: 1
Integration Time (sec): 1.000000E-1
Scans to average: 1
Electric dark correction enabled: true
Nonlinearity correction enabled: false
Boxcar width: 0
XAxis mode: Wavelengths
Number of Pixels in Spectrum: 2048
>>>>>Begin Spectral Data<<<<<
223.165	-17
223.4	-17
223.635	-17
223.869	-12
224.104	-15
224.338	-19
224.573	-9
224.808	-23
225.042	-13
225.277	-6
225.511	-12
225.746	9
225.98	7
226.215	12
226.449	14
226.683	19
226.918	32
227.152	33
227.387	41
227.621	41
227.856	47
228.09	34
228.324	41
228.559	56
228.793	44
229.027	59
229.262	65
229.496	68
229.73	71
229.964	53
230.199	64
230.433	70
230.667	72
230.901	81
231.136	92
231.37	64
231.604	79
231.838	67
232.072	64
232.306	80
232.541	82
232.775	83
233.009	76
233.243	84
233.477	85
233.711	91
233.945	83
234.179	77
234.413	82
234.647	79
234.881	81
235.115	86
235.349	67
235.583	71
235.817	72
236.051	77
236.285	77
236.519	85
236.753	77
236.987	78
237.221	77
237.455	70
237.689	80
237.922	81
238.156	79
238.39	74
238.624	78
238.858	71
239.091	76
239.325	85
239.559	89
239.793	71
240.027	73
240.26	74
240.494	83
240.728	74
240.961	68
241.195	81
241.429	85
241.662	86
241.896	87
242.13	87
242.363	83
242.597	84
242.83	74
243.064	67
243.298	68
243.531	80
243.765	72
243.998	85
244.232	69
244.465	70
244.699	89
244.932	60
245.166	85
245.399	74
245.633	80
245.866	87
246.099	82
246.333	80
246.566	76
246.8	90
247.033	79
247.266	65
247.5	78
247.733	82
247.966	82
248.2	77
248.433	88
248.666	86
248.899	89
249.133	72
249.366	71
249.599	69
249.832	79
250.066	80
250.299	90
250.532	72
250.765	76
250.998	68
251.231	70
251.465	78
251.698	59
251.931	84
252.164	90
252.397	85
252.63	92
252.863	79
253.096	73
253.329	82
253.562	80
253.795	59
254.028	90
254.261	68
254.494	80
254.727	82
254.96	67
255.193	88
255.426	84
255.659	72
255.892	87
256.124	71
256.357	75
256.59	68
256.823	73
257.056	88
257.289	72
257.521	78
257.754	74
257.987	84
258.22	85
258.452	83
258.685	65
258.918	72
259.151	74
259.383	93
259.616	76
259.849	83
260.081	81
260.314	80
260.547	89
260.779	83
261.012	74
261.244	83
261.477	82
261.71	77
261.942	83
262.175	80
262.407	86
262.64	73
262.872	65
263.105	88
263.337	77
263.57	70
263.802	82
264.035	66
264.267	61
264.499	83
264.732	78
264.964	84
265.197	80
265.429	74
265.661	86
265.894	80
266.126	75
266.358	65
266.591	89
266.823	81
267.055	81
267.287	82
267.52	85
267.752	80
267.984	85
268.216	70
268.448	78
268.681	71
268.913	80
269.145	93
269.377	80
269.609	75
269.841	84
270.073	79
270.306	72
270.538	95
270.77	89
271.002	84
271.234	88
271.466	83
271.698	86
271.93	86
272.162	75
272.394	81
272.626	76
272.858	70
273.09	86
273.322	89
273.553	79
273.785	67
274.017	79
274.249	76
274.481	85
274.713	80
274.945	80
275.176	95
275.408	84
275.64	64
275.872	90
276.104	79
276.335	96
276.567	92
276.799	81
277.031	67
277.262	74
277.494	92
277.726	75
277.957	76
278.189	78
278.421	85
278.652	94
278.884	76
279.115	82
279.347	81
279.579	74
279.81	80
280.042	87
280.273	78
280.505	82
280.736	85
280.968	85
281.199	58
281.431	71
281.662	85
281.894	87
282.125	82
282.356	85
282.588	92
282.819	82
283.051	86
283.282	89
283.513	80
283.745	84
283.976	78
284.207	101
284.439	82
284.67	86
284.901	92
285.132	64
285.364	84
285.595	82
285.826	87
286.057	80
286.288	82
286.52	88
286.751	65
286.982	84
287.213	91
287.444	79
287.675	77
287.906	93
288.138	87
288.369	88
288.6	89
288.831	81
289.062	67
289.293	95
289.524	92
289.755	82
289.986	84
290.217	95
290.448	75
290.679	87
290.91	88
291.141	83
291.371	77
291.602	70
291.833	79
292.064	67
292.295	75
292.526	87
292.757	78
292.987	73
293.218	89
293.449	84
293.68	75
293.91	74
294.141	88
294.372	79
294.603	78
294.833	83
295.064	99
295.295	87
295.525	81
295.756	88
295.987	88
296.217	84
296.448	82
296.679	79
296.909	67
297.14	79
297.37	90
297.601	86
297.831	76
298.062	70
298.292	81
298.523	90
298.753	83
298.984	89
299.214	82
299.445	82
299.675	81
299.905	79
300.136	73
300.366	81
300.597	77
300.827	70
301.057	84
301.288	94
301.518	93
301.748	78
301.979	87
302.209	74
302.439	88
302.669	80
302.9	72
303.13	79
303.36	81
303.59	72
303.82	90
304.051	82
304.281	83
304.511	90
304.741	103
304.971	85
305.201	79
305.431	70
305.661	88
305.891	80
306.121	84
306.352	82
306.582	89
306.812	90
307.042	86
307.272	84
307.502	77
307.731	69
307.961	85
308.191	96
308.421	76
308.651	90
308.881	72
309.111	90
309.341	75
309.571	73
309.8	89
310.03	89
310.26	81
310.49	79
310.72	77
310.949	96
311.179	70
311.409	81
311.639	91
311.868	82
312.098	77
312.328	93
312.557	87
312.787	92
313.017	99
313.246	86
313.476	69
313.706	75
313.935	73
314.165	71
314.394	68
314.624	83
314.853	84
315.083	67
315.312	85
315.542	73
315.771	92
316.001	80
316.23	73
316.46	67
316.689	72
316.919	67
317.148	86
317.377	92
317.607	86
317.836	67
318.065	63
318.295	90
318.524	80
318.753	60
318.983	87
319.212	95
319.441	88
319.67	93
319.9	89
320.129	74
320.358	76
320.587	94
320.816	84
321.046	88
321.275	85
321.504	74
321.733	85
321.962	77
322.191	74
322.42	74
322.649	75
322.878	72
323.108	80
323.337	86
323.566	73
323.795	82
324.024	90
324.253	74
324.482	81
324.71	74
324.939	88
325.168	78
325.397	86
325.626	88
325.855	75
326.084	90
326.313	83
326.542	79
326.77	73
326.999	80
327.228	84
327.457	80
327.686	102
327.914	79
328.143	86
328.372	69
328.6	85
328.829	88
329.058	78
329.287	78
329.515	87
329.744	80
329.972	73
330.201	83
330.43	73
330.658	79
330.887	87
331.115	99
331.344	86
331.572	81
331.801	89
332.03	84
332.258	80
332.486	73
332.715	73
332.943	80
333.172	82
333.4	79
333.629	84
333.857	83
334.085	93
334.314	94
334.542	85
334.771	89
334.999	89
335.227	75
335.455	68
335.684	88
335.912	89
336.14	84
336.369	80
336.597	88
336.825	81
337.053	85
337.281	80
337.51	100
337.738	78
337.966	79
338.194	82
338.422	83
338.65	86
338.878	86
339.106	79
339.334	66
339.562	80
339.79	80
340.018	93
340.246	73
340.474	73
340.702	85
340.93	75
341.158	89
341.386	79
341.614	88
341.842	84
342.07	70
342.298	78
342.526	78
342.754	101
342.981	85
343.209	77
343.437	90
343.665	92
343.893	99
344.12	98
344.348	76
344.576	89
344.804	80
345.031	85
345.259	70
345.487	83
345.714	79
345.942	69
346.17	68
346.397	87
346.625	83
346.853	77
347.08	78
347.308	80
347.535	85
347.763	87
347.99	92
348.218	60
348.445	84
348.673	80
348.9	93
349.128	80
349.355	96
349.583	79
349.81	89
350.037	74
350.265	85
350.492	74
350.72	80
350.947	98
351.174	83
351.402	87
351.629	91
351.856	79
352.083	71
352.311	83
352.538	90
352.765	81
352.992	85
353.22	85
353.447	81
353.674	83
353.901	90
354.128	79
354.355	95
354.583	84
354.81	83
355.037	78
355.264	89
355.491	80
355.718	77
355.945	81
356.172	97
356.399	89
356.626	72
356.853	93
357.08	81
357.307	77
357.534	83
357.761	68
357.988	95
358.215	79
358.441	85
358.668	74
358.895	90
359.122	81
359.349	79
359.576	95
359.802	85
360.029	79
360.256	89
360.483	80
360.709	93
360.936	100
361.163	84
361.39	89
361.616	84
361.843	77
362.07	89
362.296	81
362.523	77
362.749	88
362.976	85
363.203	76
363.429	83
363.656	77
363.882	79
364.109	82
364.335	80
364.562	73
364.788	85
365.015	86
365.241	78
365.468	78
365.694	79
365.92	82
366.147	72
366.373	81
366.599	87
366.826	88
367.052	73
367.278	87
367.505	85
367.731	93
367.957	88
368.184	73
368.41	83
368.636	84
368.862	84
369.089	86
369.315	88
369.541	96
369.767	82
369.993	101
370.219	93
370.445	77
370.672	86
370.898	74
371.124	98
371.35	87
371.576	100
371.802	84
372.028	101
372.254	99
372.48	99
372.706	88
372.932	74
373.158	76
373.384	76
373.61	93
373.835	90
374.061	92
374.287	84
374.513	90
374.739	77
374.965	93
375.191	99
375.416	91
375.642	90
375.868	84
376.094	93
376.319	84
376.545	92
376.771	73
376.997	89
377.222	89
377.448	89
377.674	89
377.899	89
378.125	81
378.35	83
378.576	95
378.802	92
379.027	99
379.253	97
379.478	79
379.704	95
379.929	88
380.155	79
380.38	108
380.606	90
380.831	78
381.057	89
381.282	103
381.507	97
381.733	94
381.958	85
382.184	102
382.409	85
382.634	87
382.86	96
383.085	89
383.31	94
383.535	94
383.761	105
383.986	86
384.211	103
384.436	102
384.662	93
384.887	83
385.112	96
385.337	85
385.562	85
385.787	90
386.013	102
386.238	108
386.463	95
386.688	103
386.913	95
387.138	102
387.363	94
387.588	89
387.813	97
388.038	85
388.263	110
388.488	79
388.713	97
388.938	97
389.163	93
389.387	84
389.612	93
389.837	102
390.062	102
390.287	109
390.512	114
390.736	102
390.961	98
391.186	103
391.411	89
391.636	102
391.86	92
392.085	103
392.31	91
392.534	97
392.759	97
392.984	96
393.208	100
393.433	106
393.658	103
393.882	113
394.107	105
394.331	108
394.556	104
394.78	106
395.005	87
395.229	92
395.454	108
395.678	94
395.903	95
396.127	98
396.352	104
396.576	110
396.801	105
397.025	111
397.249	113
397.474	110
397.698	90
397.922	109
398.147	109
398.371	102
398.595	101
398.82	108
399.044	110
399.268	105
399.492	107
399.717	104
399.941	109
400.165	105
400.389	108
400.613	108
400.837	109
401.062	119
401.286	109
401.51	99
401.734	118
401.958	108
402.182	108
402.406	101
402.63	116
402.854	100
403.078	102
403.302	109
403.526	107
403.75	124
403.974	98
404.198	100
404.422	116
404.645	118
404.869	113
405.093	119
405.317	110
405.541	118
405.765	114
405.988	98
406.212	126
406.436	105
406.66	105
406.883	126
407.107	105
407.331	116
407.555	124
407.778	99
408.002	102
408.226	128
408.449	127
408.673	119
408.896	131
409.12	130
409.344	100
409.567	110
409.791	118
410.014	118
410.238	116
410.461	136
410.685	122
410.908	100
411.132	120
411.355	109
411.578	125
411.802	113
412.025	125
412.249	121
412.472	107
412.695	112
412.919	107
413.142	120
413.365	122
413.589	103
413.812	132
414.035	124
414.258	112
414.482	116
414.705	115
414.928	131
415.151	118
415.374	122
415.597	107
415.821	112
416.044	124
416.267	116
416.49	127
416.713	120
416.936	125
417.159	124
417.382	106
417.605	126
417.828	141
418.051	126
418.274	127
418.497	119
418.72	127
418.943	133
419.166	134
419.389	132
419.611	122
419.834	125
420.057	128
420.28	139
420.503	122
420.726	149
420.948	123
421.171	120
421.394	118
421.617	141
421.839	124
422.062	116
422.285	129
422.507	134
422.73	127
422.953	133
423.175	111
423.398	124
423.621	138
423.843	140
424.066	127
424.288	130
424.511	145
424.733	148
424.956	129
425.178	132
425.401	133
425.623	137
425.846	125
426.068	138
426.291	124
426.513	125
426.735	132
426.958	122
427.18	133
427.402	138
427.625	113
427.847	125
428.069	110
428.292	122
428.514	122
428.736	105
428.958	121
429.181	118
429.403	121
429.625	122
429.847	141
430.069	133
430.292	144
430.514	128
430.736	122
430.958	132
431.18	122
431.402	123
431.624	111
431.846	104
432.068	108
432.29	94
432.512	119
432.734	117
432.956	129
433.178	128
433.4	127
433.622	150
433.844	132
434.066	122
434.287	120
434.509	98
434.731	87
434.953	89
435.175	117
435.397	110
435.618	109
435.84	115
436.062	102
436.284	118
436.505	124
436.727	117
436.949	132
437.17	129
437.392	116
437.614	115
437.835	121
438.057	99
438.278	111
438.5	116
438.721	139
438.943	132
439.165	132
439.386	130
439.608	141
439.829	144
440.05	156
440.272	144
440.493	139
440.715	143
440.936	124
441.158	149
441.379	136
441.6	142
441.822	142
442.043	137
442.264	138
442.486	145
442.707	159
442.928	138
443.149	135
443.371	126
443.592	124
443.813	139
444.034	133
444.255	125
444.476	141
444.698	132
444.919	149
445.14	264
445.361	192
445.582	152
445.803	139
446.024	145
446.245	142
446.466	150
446.687	162
446.908	150
447.129	143
447.35	153
447.571	151
447.792	132
448.013	124
448.234	143
448.455	136
448.675	149
448.896	122
449.117	144
449.338	126
449.559	142
449.779	126
450	143
450.221	138
450.442	134
450.662	130
450.883	134
451.104	125
451.324	122
451.545	131
451.766	116
451.986	130
452.207	118
452.428	111
452.648	124
452.869	122
453.089	114
453.31	104
453.53	114
453.751	94
453.971	95
454.192	114
454.412	106
454.633	114
454.853	114
455.073	122
455.294	125
455.514	128
455.734	128
455.955	126
456.175	112
456.395	112
456.616	117
456.836	106
457.056	115
457.276	108
457.497	94
457.717	100
457.937	100
458.157	118
458.377	115
458.598	109
458.818	99
459.038	92
459.258	92
459.478	82
459.698	87
459.918	91
460.138	96
460.358	103
460.578	110
460.798	103
461.018	109
461.238	105
461.458	108
461.678	97
461.898	116
462.118	124
462.338	104
462.558	103
462.777	103
462.997	111
463.217	95
463.437	105
463.657	107
463.876	108
464.096	127
464.316	96
464.536	98
464.755	115
464.975	112
465.195	115
465.414	120
465.634	100
465.854	102
466.073	121
466.293	120
466.512	117
466.732	120
466.951	122
467.171	121
467.391	113
467.61	119
467.829	111
468.049	130
468.268	137
468.488	133
468.707	135
468.927	122
469.146	142
469.365	149
469.585	145
469.804	135
470.023	128
470.243	135
470.462	138
470.681	134
470.901	146
471.12	144
471.339	132
471.558	134
471.777	132
471.997	118
472.216	122
472.435	104
472.654	110
472.873	109
473.092	119
473.311	124
473.53	113
473.749	124
473.968	124
474.187	129
474.406	109
474.625	120
474.844	126
475.063	126
475.282	115
475.501	116
475.72	120
475.939	115
476.158	138
476.377	122
476.596	102
476.814	101
477.033	101
477.252	116
477.471	130
477.69	122
477.908	133
478.127	133
478.346	126
478.564	128
478.783	123
479.002	141
479.22	135
479.439	116
479.658	101
479.876	122
480.095	108
480.313	105
480.532	101
480.751	94
480.969	102
481.188	87
481.406	78
481.624	78
481.843	87
482.061	109
482.28	101
482.498	116
482.717	88
482.935	119
483.153	126
483.372	146
483.59	128
483.808	144
484.027	122
484.245	125
484.463	161
484.681	164
484.9	147
485.118	134
485.336	124
485.554	114
485.772	108
485.99	102
486.209	105
486.427	111
486.645	104
486.863	130
487.081	132
487.299	129
487.517	126
487.735	162
487.953	193
488.171	184
488.389	174
488.607	169
488.825	142
489.043	129
489.261	120
489.479	126
489.696	133
489.914	133
490.132	141
490.35	145
490.568	164
490.786	160
491.003	168
491.221	169
491.439	180
491.657	184
491.874	189
492.092	214
492.31	219
492.527	221
492.745	196
492.963	191
493.18	201
493.398	178
493.615	170
493.833	183
494.05	194
494.268	178
494.485	157
494.703	170
494.92	165
495.138	149
495.355	160
495.573	163
495.79	149
496.008	160
496.225	170
496.442	161
496.66	150
496.877	169
497.094	153
497.312	147
497.529	141
497.746	139
497.963	132
498.181	124
498.398	119
498.615	118
498.832	120
499.049	111
499.267	117
499.484	106
499.701	128
499.918	131
500.135	133
500.352	142
500.569	132
500.786	138
501.003	122
501.22	137
501.437	153
501.654	139
501.871	124
502.088	114
502.305	130
502.522	126
502.739	119
502.956	105
503.172	128
503.389	128
503.606	118
503.823	118
504.04	125
504.256	115
504.473	113
504.69	111
504.907	112
505.123	128
505.34	114
505.557	126
505.773	111
505.99	116
506.207	117
506.423	133
506.64	127
506.856	115
507.073	121
507.289	117
507.506	111
507.722	124
507.939	123
508.155	124
508.372	112
508.588	123
508.805	105
509.021	97
509.238	110
509.454	103
509.67	89
509.887	96
510.103	103
510.319	93
510.536	89
510.752	77
510.968	83
511.184	93
511.401	81
511.617	90
511.833	89
512.049	96
512.265	86
512.481	101
512.698	82
512.914	100
513.13	82
513.346	89
513.562	85
513.778	95
513.994	93
514.21	78
514.426	92
514.642	81
514.858	96
515.074	87
515.29	93
515.506	94
515.721	93
515.937	95
516.153	81
516.369	82
516.585	83
516.801	77
517.016	93
517.232	77
517.448	90
517.664	110
517.879	90
518.095	97
518.311	94
518.527	89
518.742	88
518.958	99
519.173	104
519.389	85
519.605	98
519.82	95
520.036	102
520.251	104
520.467	97
520.682	100
520.898	87
521.113	83
521.329	98
521.544	87
521.76	101
521.975	93
522.19	95
522.406	82
522.621	96
522.836	100
523.052	97
523.267	103
523.482	104
523.698	100
523.913	120
524.128	103
524.343	110
524.559	126
524.774	119
524.989	116
525.204	112
525.419	108
525.634	117
525.849	110
526.064	113
526.28	98
526.495	92
526.71	86
526.925	77
527.14	82
527.355	83
527.57	89
527.785	87
527.999	96
528.214	94
528.429	106
528.644	125
528.859	143
529.074	154
529.289	178
529.503	149
529.718	144
529.933	112
530.148	97
530.363	89
530.577	79
530.792	81
531.007	79
531.221	79
531.436	72
531.651	94
531.865	96
532.08	76
532.295	92
532.509	80
532.724	104
532.938	94
533.153	106
533.367	116
533.582	112
533.796	130
534.011	125
534.225	100
534.44	79
534.654	97
534.868	101
535.083	81
535.297	98
535.511	105
535.726	94
535.94	98
536.154	67
536.369	84
536.583	81
536.797	92
537.011	93
537.225	82
537.44	81
537.654	97
537.868	88
538.082	76
538.296	97
538.51	92
538.724	106
538.938	104
539.153	121
539.367	120
539.581	106
539.795	90
540.009	96
540.222	95
540.436	112
540.65	106
540.864	118
541.078	138
541.292	152
541.506	159
541.72	165
541.934	186
542.147	188
542.361	164
542.575	181
542.789	140
543.002	150
543.216	132
543.43	127
543.644	135
543.857	151
544.071	146
544.285	169
544.498	159
544.712	145
544.925	130
545.139	147
545.352	156
545.566	164
545.779	162
545.993	150
546.206	174
546.42	151
546.633	157
546.847	154
547.06	163
547.274	156
547.487	184
547.7	161
547.914	174
548.127	162
548.34	161
548.554	146
548.767	158
548.98	154
549.193	142
549.407	164
549.62	150
549.833	137
550.046	142
550.259	137
550.473	159
550.686	139
550.899	138
551.112	131
551.325	137
551.538	132
551.751	131
551.964	134
552.177	133
552.39	135
552.603	136
552.816	147
553.029	137
553.242	158
553.455	160
553.667	168
553.88	158
554.093	151
554.306	130
554.519	126
554.732	148
554.944	125
555.157	134
555.37	137
555.583	146
555.795	137
556.008	121
556.221	134
556.433	148
556.646	114
556.859	122
557.071	128
557.284	124
557.496	129
557.709	138
557.921	133
558.134	132
558.346	130
558.559	132
558.771	137
558.984	143
559.196	138
559.409	105
559.621	124
559.833	134
560.046	124
560.258	127
560.47	132
560.683	122
560.895	132
561.107	133
561.32	124
561.532	120
561.744	134
561.956	132
562.168	106
562.381	121
562.593	115
562.805	135
563.017	128
563.229	123
563.441	121
563.653	124
563.865	115
564.077	113
564.289	120
564.501	124
564.713	124
564.925	118
565.137	114
565.349	109
565.561	98
565.773	108
565.985	116
566.197	115
566.408	118
566.62	117
566.832	114
567.044	116
567.255	116
567.467	113
567.679	112
567.891	114
568.102	92
568.314	96
568.526	92
568.737	93
568.949	90
569.161	89
569.372	62
569.584	79
569.795	74
570.007	90
570.218	79
570.43	79
570.641	94
570.853	100
571.064	93
571.276	106
571.487	101
571.698	93
571.91	87
572.121	96
572.333	104
572.544	97
572.755	87
572.966	81
573.178	88
573.389	89
573.6	74
573.811	73
574.023	92
574.234	70
574.445	96
574.656	77
574.867	87
575.078	96
575.289	97
575.501	101
575.712	104
575.923	93
576.134	81
576.345	92
576.556	121
576.767	97
576.978	106
577.188	106
577.399	93
577.61	88
