Data from Location4.07152019.Energy5.Lamp.07192019.3%Agarose_HRD10591_16-20-20-926.txt Node
Date: Fri Jul 19 16:20:20 EDT 2019
User: cochatt
Spectrometer: HR+D1059
Trigger mode: 1
Integration Time (sec): 1.000000E-1
Scans to average: 1
Electric dark correction enabled: true
Nonlinearity correction enabled: false
Boxcar width: 0
XAxis mode: Wavelengths
Number of Pixels in Spectrum: 2048
>>>>>Begin Spectral Data<<<<<
223.165	-10.94
223.4	-10.94
223.635	-10.94
223.869	-23.94
224.104	-17.94
224.338	-3.94
224.573	-14.94
224.808	-16.94
225.042	-5.94
225.277	-8.94
225.511	4.06
225.746	2.06
225.98	7.06
226.215	20.06
226.449	18.06
226.683	-0.94
226.918	26.06
227.152	27.06
227.387	46.06
227.621	43.06
227.856	56.06
228.09	45.06
228.324	74.06
228.559	71.06
228.793	57.06
229.027	65.06
229.262	55.06
229.496	57.06
229.73	60.06
229.964	69.06
230.199	60.06
230.433	75.06
230.667	61.06
230.901	63.06
231.136	72.06
231.37	73.06
231.604	70.06
231.838	77.06
232.072	85.06
232.306	90.06
232.541	82.06
232.775	73.06
233.009	88.06
233.243	78.06
233.477	84.06
233.711	77.06
233.945	100.06
234.179	83.06
234.413	85.06
234.647	81.06
234.881	82.06
235.115	81.06
235.349	86.06
235.583	91.06
235.817	79.06
236.051	81.06
236.285	69.06
236.519	86.06
236.753	73.06
236.987	67.06
237.221	70.06
237.455	78.06
237.689	73.06
237.922	73.06
238.156	79.06
238.39	72.06
238.624	93.06
238.858	63.06
239.091	77.06
239.325	65.06
239.559	76.06
239.793	92.06
240.027	77.06
240.26	86.06
240.494	88.06
240.728	83.06
240.961	81.06
241.195	90.06
241.429	73.06
241.662	78.06
241.896	83.06
242.13	71.06
242.363	65.06
242.597	74.06
242.83	71.06
243.064	91.06
243.298	72.06
243.531	94.06
243.765	86.06
243.998	88.06
244.232	73.06
244.465	78.06
244.699	80.06
244.932	84.06
245.166	83.06
245.399	73.06
245.633	74.06
245.866	81.06
246.099	77.06
246.333	69.06
246.566	85.06
246.8	76.06
247.033	81.06
247.266	81.06
247.5	76.06
247.733	77.06
247.966	83.06
248.2	76.06
248.433	70.06
248.666	77.06
248.899	84.06
249.133	87.06
249.366	77.06
249.599	63.06
249.832	82.06
250.066	82.06
250.299	71.06
250.532	85.06
250.765	79.06
250.998	85.06
251.231	77.06
251.465	88.06
251.698	81.06
251.931	67.06
252.164	75.06
252.397	70.06
252.63	74.06
252.863	82.06
253.096	78.06
253.329	73.06
253.562	69.06
253.795	81.06
254.028	85.06
254.261	71.06
254.494	83.06
254.727	72.06
254.96	88.06
255.193	79.06
255.426	71.06
255.659	68.06
255.892	85.06
256.124	77.06
256.357	90.06
256.59	87.06
256.823	82.06
257.056	79.06
257.289	75.06
257.521	81.06
257.754	95.06
257.987	80.06
258.22	87.06
258.452	88.06
258.685	79.06
258.918	84.06
259.151	79.06
259.383	79.06
259.616	86.06
259.849	97.06
260.081	77.06
260.314	86.06
260.547	70.06
260.779	73.06
261.012	79.06
261.244	81.06
261.477	93.06
261.71	76.06
261.942	80.06
262.175	87.06
262.407	78.06
262.64	97.06
262.872	85.06
263.105	84.06
263.337	88.06
263.57	86.06
263.802	83.06
264.035	78.06
264.267	93.06
264.499	80.06
264.732	91.06
264.964	70.06
265.197	85.06
265.429	72.06
265.661	86.06
265.894	85.06
266.126	82.06
266.358	85.06
266.591	80.06
266.823	83.06
267.055	74.06
267.287	82.06
267.52	90.06
267.752	82.06
267.984	79.06
268.216	73.06
268.448	78.06
268.681	70.06
268.913	85.06
269.145	87.06
269.377	95.06
269.609	81.06
269.841	81.06
270.073	90.06
270.306	84.06
270.538	85.06
270.77	90.06
271.002	79.06
271.234	81.06
271.466	89.06
271.698	81.06
271.93	95.06
272.162	92.06
272.394	87.06
272.626	93.06
272.858	80.06
273.09	85.06
273.322	78.06
273.553	70.06
273.785	82.06
274.017	83.06
274.249	89.06
274.481	86.06
274.713	79.06
274.945	85.06
275.176	78.06
275.408	97.06
275.64	91.06
275.872	86.06
276.104	81.06
276.335	79.06
276.567	76.06
276.799	83.06
277.031	85.06
277.262	79.06
277.494	83.06
277.726	77.06
277.957	69.06
278.189	78.06
278.421	92.06
278.652	82.06
278.884	83.06
279.115	72.06
279.347	74.06
279.579	77.06
279.81	79.06
280.042	89.06
280.273	72.06
280.505	85.06
280.736	84.06
280.968	86.06
281.199	87.06
281.431	78.06
281.662	72.06
281.894	60.06
282.125	83.06
282.356	99.06
282.588	80.06
282.819	94.06
283.051	85.06
283.282	83.06
283.513	77.06
283.745	84.06
283.976	84.06
284.207	102.06
284.439	85.06
284.67	81.06
284.901	88.06
285.132	88.06
285.364	73.06
285.595	84.06
285.826	77.06
286.057	89.06
286.288	90.06
286.52	93.06
286.751	79.06
286.982	86.06
287.213	77.06
287.444	78.06
287.675	99.06
287.906	96.06
288.138	80.06
288.369	92.06
288.6	77.06
288.831	94.06
289.062	74.06
289.293	79.06
289.524	88.06
289.755	96.06
289.986	73.06
290.217	71.06
290.448	90.06
290.679	85.06
290.91	94.06
291.141	83.06
291.371	84.06
291.602	90.06
291.833	75.06
292.064	81.06
292.295	71.06
292.526	80.06
292.757	87.06
292.987	85.06
293.218	78.06
293.449	81.06
293.68	78.06
293.91	77.06
294.141	84.06
294.372	85.06
294.603	71.06
294.833	77.06
295.064	95.06
295.295	81.06
295.525	77.06
295.756	79.06
295.987	97.06
296.217	97.06
296.448	70.06
296.679	78.06
296.909	96.06
297.14	71.06
297.37	93.06
297.601	78.06
297.831	77.06
298.062	93.06
298.292	94.06
298.523	85.06
298.753	82.06
298.984	89.06
299.214	78.06
299.445	97.06
299.675	80.06
299.905	88.06
300.136	80.06
300.366	89.06
300.597	84.06
300.827	85.06
301.057	73.06
301.288	73.06
301.518	77.06
301.748	84.06
301.979	82.06
302.209	79.06
302.439	77.06
302.669	64.06
302.9	82.06
303.13	76.06
303.36	85.06
303.59	86.06
303.82	84.06
304.051	83.06
304.281	84.06
304.511	87.06
304.741	86.06
304.971	85.06
305.201	83.06
305.431	89.06
305.661	78.06
305.891	89.06
306.121	97.06
306.352	89.06
306.582	82.06
306.812	86.06
307.042	82.06
307.272	73.06
307.502	66.06
307.731	92.06
307.961	83.06
308.191	83.06
308.421	80.06
308.651	87.06
308.881	88.06
309.111	81.06
309.341	65.06
309.571	76.06
309.8	70.06
310.03	112.06
310.26	106.06
310.49	93.06
310.72	79.06
310.949	78.06
311.179	91.06
311.409	81.06
311.639	84.06
311.868	79.06
312.098	74.06
312.328	71.06
312.557	90.06
312.787	79.06
313.017	86.06
313.246	82.06
313.476	91.06
313.706	71.06
313.935	85.06
314.165	97.06
314.394	75.06
314.624	79.06
314.853	85.06
315.083	97.06
315.312	86.06
315.542	89.06
315.771	93.06
316.001	79.06
316.23	82.06
316.46	81.06
316.689	85.06
316.919	94.06
317.148	82.06
317.377	83.06
317.607	85.06
317.836	75.06
318.065	73.06
318.295	93.06
318.524	71.06
318.753	82.06
318.983	85.06
319.212	74.06
319.441	92.06
319.67	78.06
319.9	83.06
320.129	87.06
320.358	88.06
320.587	95.06
320.816	85.06
321.046	103.06
321.275	83.06
321.504	86.06
321.733	82.06
321.962	93.06
322.191	81.06
322.42	82.06
322.649	93.06
322.878	78.06
323.108	87.06
323.337	82.06
323.566	90.06
323.795	84.06
324.024	83.06
324.253	72.06
324.482	78.06
324.71	82.06
324.939	81.06
325.168	86.06
325.397	79.06
325.626	90.06
325.855	64.06
326.084	89.06
326.313	83.06
326.542	82.06
326.77	102.06
326.999	101.06
327.228	92.06
327.457	81.06
327.686	74.06
327.914	82.06
328.143	82.06
328.372	79.06
328.6	86.06
328.829	79.06
329.058	85.06
329.287	91.06
329.515	86.06
329.744	80.06
329.972	94.06
330.201	79.06
330.43	75.06
330.658	92.06
330.887	78.06
331.115	86.06
331.344	98.06
331.572	97.06
331.801	84.06
332.03	82.06
332.258	80.06
332.486	83.06
332.715	101.06
332.943	85.06
333.172	79.06
333.4	85.06
333.629	78.06
333.857	93.06
334.085	100.06
334.314	82.06
334.542	84.06
334.771	85.06
334.999	83.06
335.227	76.06
335.455	91.06
335.684	89.06
335.912	86.06
336.14	92.06
336.369	81.06
336.597	86.06
336.825	81.06
337.053	85.06
337.281	85.06
337.51	70.06
337.738	91.06
337.966	94.06
338.194	80.06
338.422	81.06
338.65	84.06
338.878	84.06
339.106	82.06
339.334	85.06
339.562	103.06
339.79	80.06
340.018	92.06
340.246	92.06
340.474	85.06
340.702	75.06
340.93	84.06
341.158	83.06
341.386	83.06
341.614	70.06
341.842	83.06
342.07	83.06
342.298	83.06
342.526	86.06
342.754	86.06
342.981	84.06
343.209	78.06
343.437	90.06
343.665	80.06
343.893	90.06
344.12	91.06
344.348	88.06
344.576	94.06
344.804	89.06
345.031	76.06
345.259	90.06
345.487	75.06
345.714	85.06
345.942	83.06
346.17	98.06
346.397	79.06
346.625	90.06
346.853	88.06
347.08	82.06
347.308	87.06
347.535	84.06
347.763	85.06
347.99	85.06
348.218	93.06
348.445	86.06
348.673	94.06
348.9	97.06
349.128	108.06
349.355	89.06
349.583	85.06
349.81	79.06
350.037	74.06
350.265	80.06
350.492	83.06
350.72	81.06
350.947	92.06
351.174	89.06
351.402	87.06
351.629	74.06
351.856	77.06
352.083	84.06
352.311	85.06
352.538	83.06
352.765	69.06
352.992	90.06
353.22	83.06
353.447	83.06
353.674	76.06
353.901	89.06
354.128	100.06
354.355	89.06
354.583	87.06
354.81	68.06
355.037	85.06
355.264	85.06
355.491	99.06
355.718	83.06
355.945	89.06
356.172	88.06
356.399	93.06
356.626	77.06
356.853	73.06
357.08	78.06
357.307	91.06
357.534	78.06
357.761	84.06
357.988	81.06
358.215	79.06
358.441	83.06
358.668	87.06
358.895	92.06
359.122	69.06
359.349	77.06
359.576	85.06
359.802	73.06
360.029	79.06
360.256	87.06
360.483	82.06
360.709	79.06
360.936	91.06
361.163	88.06
361.39	94.06
361.616	80.06
361.843	84.06
362.07	81.06
362.296	77.06
362.523	72.06
362.749	91.06
362.976	84.06
363.203	99.06
363.429	87.06
363.656	92.06
363.882	81.06
364.109	94.06
364.335	75.06
364.562	77.06
364.788	85.06
365.015	83.06
365.241	87.06
365.468	82.06
365.694	80.06
365.92	76.06
366.147	81.06
366.373	95.06
366.599	92.06
366.826	82.06
367.052	90.06
367.278	102.06
367.505	99.06
367.731	87.06
367.957	93.06
368.184	87.06
368.41	95.06
368.636	98.06
368.862	104.06
369.089	107.06
369.315	82.06
369.541	94.06
369.767	98.06
369.993	89.06
370.219	86.06
370.445	89.06
370.672	84.06
370.898	90.06
371.124	96.06
371.35	86.06
371.576	100.06
371.802	108.06
372.028	85.06
372.254	86.06
372.48	90.06
372.706	98.06
372.932	112.06
373.158	89.06
373.384	95.06
373.61	92.06
373.835	101.06
374.061	86.06
374.287	103.06
374.513	95.06
374.739	85.06
374.965	100.06
375.191	96.06
375.416	104.06
375.642	98.06
375.868	100.06
376.094	95.06
376.319	99.06
376.545	91.06
376.771	96.06
376.997	103.06
377.222	107.06
377.448	78.06
377.674	101.06
377.899	89.06
378.125	95.06
378.35	110.06
378.576	89.06
378.802	69.06
379.027	91.06
379.253	85.06
379.478	106.06
379.704	104.06
379.929	91.06
380.155	103.06
380.38	88.06
380.606	109.06
380.831	110.06
381.057	104.06
381.282	100.06
381.507	99.06
381.733	99.06
381.958	96.06
382.184	100.06
382.409	106.06
382.634	100.06
382.86	110.06
383.085	109.06
383.31	102.06
383.535	93.06
383.761	96.06
383.986	90.06
384.211	105.06
384.436	109.06
384.662	108.06
384.887	105.06
385.112	91.06
385.337	93.06
385.562	95.06
385.787	89.06
386.013	117.06
386.238	92.06
386.463	99.06
386.688	98.06
386.913	93.06
387.138	106.06
387.363	96.06
387.588	92.06
387.813	96.06
388.038	106.06
388.263	101.06
388.488	101.06
388.713	103.06
388.938	98.06
389.163	97.06
389.387	103.06
389.612	107.06
389.837	97.06
390.062	115.06
390.287	110.06
390.512	97.06
390.736	101.06
390.961	105.06
391.186	105.06
391.411	90.06
391.636	110.06
391.86	117.06
392.085	87.06
392.31	98.06
392.534	110.06
392.759	115.06
392.984	105.06
393.208	104.06
393.433	98.06
393.658	100.06
393.882	105.06
394.107	104.06
394.331	104.06
394.556	110.06
394.78	101.06
395.005	105.06
395.229	116.06
395.454	119.06
395.678	101.06
395.903	120.06
396.127	120.06
396.352	88.06
396.576	123.06
396.801	116.06
397.025	106.06
397.249	97.06
397.474	92.06
397.698	107.06
397.922	130.06
398.147	107.06
398.371	115.06
398.595	104.06
398.82	98.06
399.044	105.06
399.268	106.06
399.492	110.06
399.717	108.06
399.941	102.06
400.165	107.06
400.389	116.06
400.613	125.06
400.837	110.06
401.062	98.06
401.286	109.06
401.51	102.06
401.734	113.06
401.958	122.06
402.182	100.06
402.406	116.06
402.63	102.06
402.854	109.06
403.078	115.06
403.302	115.06
403.526	117.06
403.75	121.06
403.974	108.06
404.198	96.06
404.422	111.06
404.645	125.06
404.869	139.06
405.093	129.06
405.317	113.06
405.541	116.06
405.765	127.06
405.988	122.06
406.212	116.06
406.436	121.06
406.66	115.06
406.883	118.06
407.107	126.06
407.331	111.06
407.555	123.06
407.778	127.06
408.002	119.06
408.226	107.06
408.449	116.06
408.673	117.06
408.896	118.06
409.12	117.06
409.344	125.06
409.567	121.06
409.791	110.06
410.014	120.06
410.238	121.06
410.461	133.06
410.685	125.06
410.908	111.06
411.132	113.06
411.355	121.06
411.578	127.06
411.802	113.06
412.025	126.06
412.249	115.06
412.472	118.06
412.695	123.06
412.919	124.06
413.142	106.06
413.365	122.06
413.589	133.06
413.812	112.06
414.035	125.06
414.258	131.06
414.482	113.06
414.705	114.06
414.928	130.06
415.151	127.06
415.374	123.06
415.597	128.06
415.821	126.06
416.044	122.06
416.267	116.06
416.49	131.06
416.713	139.06
416.936	116.06
417.159	110.06
417.382	106.06
417.605	121.06
417.828	133.06
418.051	130.06
418.274	125.06
418.497	127.06
418.72	140.06
418.943	133.06
419.166	134.06
419.389	147.06
419.611	145.06
419.834	116.06
420.057	139.06
420.28	147.06
420.503	139.06
420.726	138.06
420.948	120.06
421.171	141.06
421.394	152.06
421.617	133.06
421.839	139.06
422.062	141.06
422.285	121.06
422.507	127.06
422.73	144.06
422.953	131.06
423.175	121.06
423.398	136.06
423.621	117.06
423.843	119.06
424.066	134.06
424.288	133.06
424.511	134.06
424.733	146.06
424.956	145.06
425.178	141.06
425.401	142.06
425.623	146.06
425.846	140.06
426.068	129.06
426.291	121.06
426.513	117.06
426.735	118.06
426.958	132.06
427.18	125.06
427.402	126.06
427.625	144.06
427.847	126.06
428.069	119.06
428.292	120.06
428.514	128.06
428.736	126.06
428.958	118.06
429.181	129.06
429.403	131.06
429.625	126.06
429.847	135.06
430.069	131.06
430.292	120.06
430.514	126.06
430.736	129.06
430.958	116.06
431.18	129.06
431.402	123.06
431.624	129.06
431.846	110.06
432.068	98.06
432.29	91.06
432.512	96.06
432.734	120.06
432.956	126.06
433.178	128.06
433.4	139.06
433.622	148.06
433.844	131.06
434.066	123.06
434.287	120.06
434.509	106.06
434.731	100.06
434.953	120.06
435.175	123.06
435.397	124.06
435.618	121.06
435.84	110.06
436.062	120.06
436.284	113.06
436.505	121.06
436.727	118.06
436.949	122.06
437.17	141.06
437.392	117.06
437.614	131.06
437.835	101.06
438.057	115.06
438.278	113.06
438.5	124.06
438.721	123.06
438.943	124.06
439.165	132.06
439.386	140.06
439.608	151.06
439.829	149.06
440.05	137.06
440.272	129.06
440.493	158.06
440.715	143.06
440.936	140.06
441.158	139.06
441.379	140.06
441.6	139.06
441.822	140.06
442.043	147.06
442.264	137.06
442.486	142.06
442.707	149.06
442.928	159.06
443.149	155.06
443.371	136.06
443.592	144.06
443.813	127.06
444.034	127.06
444.255	138.06
444.476	126.06
444.698	127.06
444.919	147.06
445.14	262.06
445.361	208.06
445.582	161.06
445.803	148.06
446.024	148.06
446.245	144.06
446.466	142.06
446.687	133.06
446.908	141.06
447.129	148.06
447.35	151.06
447.571	147.06
447.792	130.06
448.013	137.06
448.234	147.06
448.455	136.06
448.675	128.06
448.896	131.06
449.117	141.06
449.338	134.06
449.559	137.06
449.779	130.06
450	140.06
450.221	122.06
450.442	135.06
450.662	127.06
450.883	134.06
451.104	138.06
451.324	140.06
451.545	125.06
451.766	131.06
451.986	139.06
452.207	128.06
452.428	130.06
452.648	116.06
452.869	130.06
453.089	113.06
453.31	130.06
453.53	107.06
453.751	107.06
453.971	101.06
454.192	98.06
454.412	109.06
454.633	105.06
454.853	113.06
455.073	117.06
455.294	109.06
455.514	113.06
455.734	117.06
455.955	107.06
456.175	114.06
456.395	108.06
456.616	94.06
456.836	118.06
457.056	116.06
457.276	116.06
457.497	110.06
457.717	108.06
457.937	120.06
458.157	113.06
458.377	110.06
458.598	100.06
458.818	86.06
459.038	89.06
459.258	86.06
459.478	75.06
459.698	101.06
459.918	101.06
460.138	112.06
460.358	108.06
460.578	113.06
460.798	122.06
461.018	109.06
461.238	115.06
461.458	129.06
461.678	119.06
461.898	105.06
462.118	109.06
462.338	115.06
462.558	107.06
462.777	98.06
462.997	104.06
463.217	121.06
463.437	108.06
463.657	116.06
463.876	100.06
464.096	102.06
464.316	106.06
464.536	94.06
464.755	107.06
464.975	106.06
465.195	109.06
465.414	120.06
465.634	114.06
465.854	120.06
466.073	118.06
466.293	126.06
466.512	124.06
466.732	126.06
466.951	138.06
467.171	127.06
467.391	127.06
467.61	119.06
467.829	125.06
468.049	127.06
468.268	141.06
468.488	148.06
468.707	135.06
468.927	143.06
469.146	132.06
469.365	139.06
469.585	135.06
469.804	144.06
470.023	126.06
470.243	124.06
470.462	134.06
470.681	134.06
470.901	137.06
471.12	142.06
471.339	130.06
471.558	141.06
471.777	139.06
471.997	128.06
472.216	131.06
472.435	129.06
472.654	109.06
472.873	102.06
473.092	103.06
473.311	125.06
473.53	127.06
473.749	134.06
473.968	140.06
474.187	126.06
474.406	123.06
474.625	125.06
474.844	140.06
475.063	128.06
475.282	123.06
475.501	108.06
475.72	120.06
475.939	121.06
476.158	124.06
476.377	116.06
476.596	109.06
476.814	125.06
477.033	109.06
477.252	115.06
477.471	133.06
477.69	144.06
477.908	131.06
478.127	127.06
478.346	125.06
478.564	122.06
478.783	125.06
479.002	138.06
479.22	126.06
479.439	131.06
479.658	129.06
479.876	122.06
480.095	127.06
480.313	99.06
480.532	125.06
480.751	106.06
480.969	84.06
481.188	81.06
481.406	93.06
481.624	90.06
481.843	84.06
482.061	93.06
482.28	109.06
482.498	106.06
482.717	118.06
482.935	116.06
483.153	135.06
483.372	162.06
483.59	150.06
483.808	130.06
484.027	124.06
484.245	121.06
484.463	134.06
484.681	174.06
484.9	142.06
485.118	142.06
485.336	136.06
485.554	113.06
485.772	114.06
485.99	118.06
486.209	106.06
486.427	110.06
486.645	109.06
486.863	134.06
487.081	134.06
487.299	137.06
487.517	131.06
487.735	158.06
487.953	179.06
488.171	177.06
488.389	178.06
488.607	162.06
488.825	138.06
489.043	133.06
489.261	115.06
489.479	127.06
489.696	132.06
489.914	139.06
490.132	149.06
490.35	158.06
490.568	154.06
490.786	164.06
491.003	160.06
491.221	174.06
491.439	194.06
491.657	207.06
491.874	206.06
492.092	216.06
492.31	218.06
492.527	227.06
492.745	221.06
492.963	187.06
493.18	190.06
493.398	192.06
493.615	183.06
493.833	163.06
494.05	172.06
494.268	162.06
494.485	151.06
494.703	165.06
494.92	158.06
495.138	172.06
495.355	162.06
495.573	146.06
495.79	166.06
496.008	184.06
496.225	167.06
496.442	153.06
496.66	181.06
496.877	169.06
497.094	169.06
497.312	154.06
497.529	143.06
497.746	151.06
497.963	130.06
498.181	148.06
498.398	122.06
498.615	124.06
498.832	129.06
499.049	125.06
499.267	117.06
499.484	123.06
499.701	125.06
499.918	131.06
500.135	139.06
500.352	151.06
500.569	149.06
500.786	156.06
501.003	138.06
501.22	151.06
501.437	132.06
501.654	124.06
501.871	131.06
502.088	126.06
502.305	125.06
502.522	124.06
502.739	137.06
502.956	130.06
503.172	122.06
503.389	106.06
503.606	112.06
503.823	113.06
504.04	118.06
504.256	123.06
504.473	126.06
504.69	111.06
504.907	123.06
505.123	125.06
505.34	117.06
505.557	110.06
505.773	122.06
505.99	129.06
506.207	113.06
506.423	126.06
506.64	118.06
506.856	113.06
507.073	122.06
507.289	131.06
507.506	129.06
507.722	111.06
507.939	91.06
508.155	116.06
508.372	101.06
508.588	103.06
508.805	113.06
509.021	111.06
509.238	112.06
509.454	103.06
509.67	105.06
509.887	102.06
510.103	108.06
510.319	108.06
510.536	84.06
510.752	95.06
510.968	105.06
511.184	72.06
511.401	79.06
