Data from Location4.07152019.Energy5.Lamp.07192019.3%Agarose_HRD10591_16-18-38-925.txt Node
Date: Fri Jul 19 16:18:38 EDT 2019
User: cochatt
Spectrometer: HR+D1059
Trigger mode: 1
Integration Time (sec): 1.000000E-1
Scans to average: 1
Electric dark correction enabled: true
Nonlinearity correction enabled: false
Boxcar width: 0
XAxis mode: Wavelengths
Number of Pixels in Spectrum: 2048
>>>>>Begin Spectral Data<<<<<
223.165	-16.5
223.4	-16.5
223.635	-16.5
223.869	-25.5
224.104	-20.5
224.338	-1.5
224.573	-1.5
224.808	2.5
225.042	-10.5
225.277	-4.5
225.511	-14.5
225.746	7.5
225.98	3.5
226.215	9.5
226.449	8.5
226.683	12.5
226.918	31.5
227.152	19.5
227.387	41.5
227.621	39.5
227.856	49.5
228.09	44.5
228.324	50.5
228.559	64.5
228.793	57.5
229.027	66.5
229.262	63.5
229.496	82.5
229.73	71.5
229.964	61.5
230.199	71.5
230.433	71.5
230.667	74.5
230.901	69.5
231.136	74.5
231.37	70.5
231.604	86.5
231.838	92.5
232.072	75.5
232.306	78.5
232.541	78.5
232.775	84.5
233.009	78.5
233.243	68.5
233.477	88.5
233.711	89.5
233.945	81.5
234.179	94.5
234.413	75.5
234.647	90.5
234.881	77.5
235.115	86.5
235.349	93.5
235.583	82.5
235.817	80.5
236.051	87.5
236.285	87.5
236.519	76.5
236.753	79.5
236.987	70.5
237.221	74.5
237.455	89.5
237.689	87.5
237.922	79.5
238.156	69.5
238.39	70.5
238.624	75.5
238.858	73.5
239.091	86.5
239.325	87.5
239.559	90.5
239.793	86.5
240.027	82.5
240.26	65.5
240.494	87.5
240.728	74.5
240.961	74.5
241.195	78.5
241.429	74.5
241.662	76.5
241.896	68.5
242.13	64.5
242.363	76.5
242.597	77.5
242.83	67.5
243.064	78.5
243.298	88.5
243.531	73.5
243.765	77.5
243.998	74.5
244.232	75.5
244.465	65.5
244.699	78.5
244.932	73.5
245.166	81.5
245.399	82.5
245.633	62.5
245.866	69.5
246.099	70.5
246.333	72.5
246.566	82.5
246.8	79.5
247.033	71.5
247.266	82.5
247.5	76.5
247.733	81.5
247.966	85.5
248.2	72.5
248.433	62.5
248.666	84.5
248.899	84.5
249.133	86.5
249.366	82.5
249.599	82.5
249.832	79.5
250.066	85.5
250.299	76.5
250.532	81.5
250.765	89.5
250.998	82.5
251.231	77.5
251.465	88.5
251.698	75.5
251.931	89.5
252.164	85.5
252.397	83.5
252.63	74.5
252.863	71.5
253.096	72.5
253.329	77.5
253.562	83.5
253.795	76.5
254.028	86.5
254.261	82.5
254.494	87.5
254.727	70.5
254.96	86.5
255.193	86.5
255.426	79.5
255.659	78.5
255.892	77.5
256.124	75.5
256.357	71.5
256.59	64.5
256.823	64.5
257.056	87.5
257.289	69.5
257.521	69.5
257.754	94.5
257.987	73.5
258.22	97.5
258.452	81.5
258.685	75.5
258.918	77.5
259.151	87.5
259.383	73.5
259.616	79.5
259.849	82.5
260.081	73.5
260.314	85.5
260.547	88.5
260.779	80.5
261.012	79.5
261.244	81.5
261.477	86.5
261.71	93.5
261.942	87.5
262.175	89.5
262.407	86.5
262.64	85.5
262.872	89.5
263.105	72.5
263.337	82.5
263.57	74.5
263.802	83.5
264.035	70.5
264.267	73.5
264.499	88.5
264.732	73.5
264.964	66.5
265.197	73.5
265.429	86.5
265.661	109.5
265.894	81.5
266.126	73.5
266.358	86.5
266.591	79.5
266.823	82.5
267.055	78.5
267.287	89.5
267.52	86.5
267.752	83.5
267.984	96.5
268.216	69.5
268.448	92.5
268.681	75.5
268.913	88.5
269.145	89.5
269.377	85.5
269.609	84.5
269.841	81.5
270.073	77.5
270.306	82.5
270.538	78.5
270.77	89.5
271.002	90.5
271.234	85.5
271.466	69.5
271.698	77.5
271.93	78.5
272.162	71.5
272.394	72.5
272.626	72.5
272.858	65.5
273.09	90.5
273.322	75.5
273.553	82.5
273.785	87.5
274.017	86.5
274.249	74.5
274.481	88.5
274.713	80.5
274.945	83.5
275.176	77.5
275.408	79.5
275.64	81.5
275.872	95.5
276.104	73.5
276.335	84.5
276.567	82.5
276.799	91.5
277.031	87.5
277.262	87.5
277.494	95.5
277.726	81.5
277.957	87.5
278.189	74.5
278.421	82.5
278.652	61.5
278.884	86.5
279.115	88.5
279.347	82.5
279.579	75.5
279.81	80.5
280.042	87.5
280.273	82.5
280.505	91.5
280.736	93.5
280.968	78.5
281.199	87.5
281.431	85.5
281.662	88.5
281.894	69.5
282.125	85.5
282.356	95.5
282.588	75.5
282.819	88.5
283.051	79.5
283.282	70.5
283.513	95.5
283.745	70.5
283.976	79.5
284.207	98.5
284.439	83.5
284.67	70.5
284.901	76.5
285.132	75.5
285.364	78.5
285.595	82.5
285.826	70.5
286.057	74.5
286.288	84.5
286.52	95.5
286.751	91.5
286.982	90.5
287.213	62.5
287.444	72.5
287.675	84.5
287.906	90.5
288.138	87.5
288.369	87.5
288.6	102.5
288.831	94.5
289.062	86.5
289.293	86.5
289.524	82.5
289.755	86.5
289.986	75.5
290.217	79.5
290.448	78.5
290.679	95.5
290.91	96.5
291.141	70.5
291.371	67.5
291.602	86.5
291.833	82.5
292.064	73.5
292.295	73.5
292.526	74.5
292.757	73.5
292.987	90.5
293.218	66.5
293.449	80.5
293.68	77.5
293.91	82.5
294.141	85.5
294.372	78.5
294.603	80.5
294.833	80.5
295.064	76.5
295.295	83.5
295.525	75.5
295.756	78.5
295.987	75.5
296.217	93.5
296.448	71.5
296.679	82.5
296.909	80.5
297.14	73.5
297.37	85.5
297.601	83.5
297.831	87.5
298.062	71.5
298.292	85.5
298.523	90.5
298.753	76.5
298.984	74.5
299.214	70.5
299.445	75.5
299.675	84.5
299.905	74.5
300.136	65.5
300.366	90.5
300.597	89.5
300.827	88.5
301.057	82.5
301.288	76.5
301.518	92.5
301.748	79.5
301.979	68.5
302.209	85.5
302.439	66.5
302.669	83.5
302.9	96.5
303.13	87.5
303.36	78.5
303.59	82.5
303.82	88.5
304.051	91.5
304.281	93.5
304.511	99.5
304.741	69.5
304.971	84.5
305.201	86.5
305.431	77.5
305.661	83.5
305.891	90.5
306.121	69.5
306.352	85.5
306.582	94.5
306.812	83.5
307.042	84.5
307.272	77.5
307.502	74.5
307.731	79.5
307.961	80.5
308.191	80.5
308.421	77.5
308.651	81.5
308.881	64.5
309.111	85.5
309.341	90.5
309.571	80.5
309.8	92.5
310.03	69.5
310.26	81.5
310.49	73.5
310.72	97.5
310.949	93.5
311.179	76.5
311.409	91.5
311.639	95.5
311.868	89.5
312.098	92.5
312.328	90.5
312.557	92.5
312.787	92.5
313.017	80.5
313.246	85.5
313.476	81.5
313.706	87.5
313.935	84.5
314.165	95.5
314.394	88.5
314.624	79.5
314.853	69.5
315.083	74.5
315.312	106.5
315.542	88.5
315.771	93.5
316.001	85.5
316.23	87.5
316.46	86.5
316.689	74.5
316.919	73.5
317.148	89.5
317.377	81.5
317.607	78.5
317.836	91.5
318.065	77.5
318.295	79.5
318.524	90.5
318.753	85.5
318.983	73.5
319.212	88.5
319.441	72.5
319.67	97.5
319.9	85.5
320.129	82.5
320.358	93.5
320.587	86.5
320.816	82.5
321.046	81.5
321.275	93.5
321.504	78.5
321.733	78.5
321.962	95.5
322.191	76.5
322.42	79.5
322.649	86.5
322.878	75.5
323.108	79.5
323.337	74.5
323.566	86.5
323.795	91.5
324.024	85.5
324.253	76.5
324.482	67.5
324.71	83.5
324.939	78.5
325.168	90.5
325.397	79.5
325.626	78.5
325.855	95.5
326.084	82.5
326.313	74.5
326.542	79.5
326.77	80.5
326.999	72.5
327.228	82.5
327.457	86.5
327.686	75.5
327.914	91.5
328.143	91.5
328.372	75.5
328.6	74.5
328.829	76.5
329.058	83.5
329.287	74.5
329.515	77.5
329.744	87.5
329.972	91.5
330.201	86.5
330.43	83.5
330.658	85.5
330.887	94.5
331.115	77.5
331.344	85.5
331.572	85.5
331.801	87.5
332.03	90.5
332.258	89.5
332.486	92.5
332.715	78.5
332.943	94.5
333.172	88.5
333.4	82.5
333.629	98.5
333.857	87.5
334.085	74.5
334.314	79.5
334.542	82.5
334.771	88.5
334.999	90.5
335.227	84.5
335.455	75.5
335.684	91.5
335.912	78.5
336.14	80.5
336.369	86.5
336.597	79.5
336.825	74.5
337.053	89.5
337.281	94.5
337.51	79.5
337.738	98.5
337.966	68.5
338.194	80.5
338.422	68.5
338.65	74.5
338.878	88.5
339.106	93.5
339.334	88.5
339.562	88.5
339.79	90.5
340.018	74.5
340.246	73.5
340.474	95.5
340.702	66.5
340.93	82.5
341.158	82.5
341.386	90.5
341.614	89.5
341.842	86.5
342.07	93.5
342.298	80.5
342.526	78.5
342.754	86.5
342.981	81.5
343.209	86.5
343.437	78.5
343.665	78.5
343.893	81.5
344.12	94.5
344.348	69.5
344.576	89.5
344.804	90.5
345.031	85.5
345.259	62.5
345.487	89.5
345.714	84.5
345.942	76.5
346.17	73.5
346.397	78.5
346.625	77.5
346.853	78.5
347.08	85.5
347.308	86.5
347.535	75.5
347.763	75.5
347.99	80.5
348.218	86.5
348.445	98.5
348.673	89.5
348.9	93.5
349.128	95.5
349.355	86.5
349.583	71.5
349.81	82.5
350.037	75.5
350.265	88.5
350.492	82.5
350.72	76.5
350.947	85.5
351.174	72.5
351.402	76.5
351.629	92.5
351.856	84.5
352.083	91.5
352.311	99.5
352.538	80.5
352.765	90.5
352.992	76.5
353.22	72.5
353.447	75.5
353.674	67.5
353.901	73.5
354.128	80.5
354.355	86.5
354.583	88.5
354.81	82.5
355.037	73.5
355.264	82.5
355.491	73.5
355.718	83.5
355.945	86.5
356.172	73.5
356.399	78.5
356.626	71.5
356.853	87.5
357.08	91.5
357.307	78.5
357.534	79.5
357.761	71.5
357.988	97.5
358.215	81.5
358.441	75.5
358.668	82.5
358.895	73.5
359.122	88.5
359.349	76.5
359.576	96.5
359.802	85.5
360.029	82.5
360.256	74.5
360.483	86.5
360.709	72.5
360.936	91.5
361.163	86.5
361.39	80.5
361.616	83.5
361.843	93.5
362.07	92.5
362.296	90.5
362.523	87.5
362.749	73.5
362.976	75.5
363.203	88.5
363.429	74.5
363.656	73.5
363.882	85.5
364.109	85.5
364.335	84.5
364.562	72.5
364.788	88.5
365.015	88.5
365.241	99.5
365.468	90.5
365.694	89.5
365.92	79.5
366.147	82.5
366.373	85.5
366.599	90.5
366.826	101.5
367.052	91.5
367.278	79.5
367.505	80.5
367.731	80.5
367.957	85.5
368.184	96.5
368.41	100.5
368.636	79.5
368.862	94.5
369.089	87.5
369.315	78.5
369.541	85.5
369.767	86.5
369.993	86.5
370.219	78.5
370.445	79.5
370.672	92.5
370.898	92.5
371.124	93.5
371.35	79.5
371.576	79.5
371.802	80.5
372.028	105.5
372.254	93.5
372.48	101.5
372.706	95.5
372.932	101.5
373.158	94.5
373.384	94.5
373.61	82.5
373.835	97.5
374.061	84.5
374.287	80.5
374.513	90.5
374.739	96.5
374.965	89.5
375.191	77.5
375.416	79.5
375.642	99.5
375.868	98.5
376.094	84.5
376.319	94.5
376.545	106.5
376.771	106.5
376.997	96.5
377.222	97.5
377.448	94.5
377.674	90.5
377.899	83.5
378.125	90.5
378.35	88.5
378.576	104.5
378.802	90.5
379.027	70.5
379.253	87.5
379.478	97.5
379.704	99.5
379.929	93.5
380.155	97.5
380.38	88.5
380.606	97.5
380.831	83.5
381.057	86.5
381.282	88.5
381.507	98.5
381.733	96.5
381.958	86.5
382.184	96.5
382.409	87.5
382.634	101.5
382.86	94.5
383.085	86.5
383.31	91.5
383.535	90.5
383.761	88.5
383.986	105.5
384.211	97.5
384.436	99.5
384.662	96.5
384.887	93.5
385.112	88.5
385.337	92.5
385.562	84.5
385.787	90.5
386.013	106.5
386.238	103.5
386.463	109.5
386.688	88.5
386.913	88.5
387.138	116.5
387.363	102.5
387.588	110.5
387.813	102.5
388.038	90.5
388.263	93.5
388.488	95.5
388.713	85.5
388.938	90.5
389.163	99.5
389.387	106.5
389.612	81.5
389.837	102.5
390.062	97.5
390.287	99.5
390.512	100.5
390.736	91.5
390.961	103.5
391.186	112.5
391.411	98.5
391.636	93.5
391.86	104.5
392.085	100.5
392.31	98.5
392.534	110.5
392.759	101.5
392.984	121.5
393.208	98.5
393.433	97.5
393.658	101.5
393.882	102.5
394.107	95.5
394.331	110.5
394.556	80.5
394.78	89.5
395.005	120.5
395.229	100.5
395.454	95.5
395.678	110.5
395.903	100.5
396.127	102.5
396.352	96.5
396.576	102.5
396.801	102.5
397.025	100.5
397.249	98.5
397.474	112.5
397.698	120.5
397.922	112.5
398.147	90.5
398.371	88.5
398.595	98.5
398.82	98.5
399.044	103.5
399.268	105.5
399.492	94.5
399.717	105.5
399.941	116.5
400.165	105.5
400.389	113.5
400.613	107.5
400.837	112.5
401.062	98.5
401.286	123.5
401.51	114.5
401.734	98.5
401.958	91.5
402.182	97.5
402.406	127.5
402.63	119.5
402.854	116.5
403.078	113.5
403.302	102.5
403.526	112.5
403.75	115.5
403.974	108.5
404.198	118.5
404.422	104.5
404.645	120.5
404.869	106.5
405.093	111.5
405.317	113.5
405.541	100.5
405.765	104.5
405.988	110.5
406.212	117.5
406.436	112.5
406.66	123.5
406.883	114.5
407.107	105.5
407.331	103.5
407.555	107.5
407.778	113.5
408.002	113.5
408.226	112.5
408.449	122.5
408.673	114.5
408.896	110.5
409.12	114.5
409.344	124.5
409.567	123.5
409.791	117.5
410.014	112.5
410.238	129.5
410.461	128.5
410.685	119.5
410.908	105.5
411.132	117.5
411.355	120.5
411.578	134.5
411.802	117.5
412.025	105.5
412.249	113.5
412.472	112.5
412.695	107.5
412.919	105.5
413.142	122.5
413.365	106.5
413.589	113.5
413.812	105.5
414.035	132.5
414.258	113.5
414.482	117.5
414.705	114.5
414.928	122.5
415.151	111.5
415.374	112.5
415.597	102.5
415.821	129.5
416.044	109.5
416.267	136.5
416.49	113.5
416.713	117.5
416.936	121.5
417.159	126.5
417.382	121.5
417.605	106.5
417.828	120.5
418.051	120.5
418.274	122.5
418.497	125.5
418.72	149.5
418.943	125.5
419.166	125.5
419.389	130.5
419.611	121.5
419.834	135.5
420.057	135.5
420.28	123.5
420.503	126.5
420.726	135.5
420.948	125.5
421.171	125.5
421.394	132.5
421.617	140.5
421.839	135.5
422.062	135.5
422.285	126.5
422.507	129.5
422.73	118.5
422.953	123.5
423.175	124.5
423.398	127.5
423.621	125.5
423.843	120.5
424.066	133.5
424.288	142.5
424.511	149.5
424.733	135.5
424.956	144.5
425.178	154.5
425.401	134.5
425.623	142.5
425.846	127.5
426.068	129.5
426.291	124.5
426.513	134.5
426.735	123.5
426.958	125.5
427.18	136.5
427.402	133.5
427.625	136.5
427.847	114.5
428.069	135.5
428.292	124.5
428.514	122.5
428.736	129.5
428.958	123.5
429.181	109.5
429.403	138.5
429.625	136.5
429.847	126.5
430.069	114.5
430.292	133.5
430.514	124.5
430.736	118.5
430.958	122.5
431.18	122.5
431.402	115.5
431.624	115.5
431.846	110.5
432.068	110.5
432.29	99.5
432.512	114.5
432.734	125.5
432.956	125.5
433.178	131.5
433.4	134.5
433.622	123.5
433.844	125.5
434.066	131.5
434.287	95.5
434.509	85.5
434.731	108.5
434.953	99.5
435.175	127.5
435.397	125.5
435.618	125.5
435.84	117.5
436.062	114.5
436.284	123.5
436.505	120.5
436.727	120.5
436.949	115.5
437.17	113.5
437.392	132.5
437.614	121.5
437.835	104.5
438.057	111.5
438.278	117.5
438.5	125.5
438.721	105.5
438.943	146.5
439.165	138.5
439.386	140.5
439.608	147.5
439.829	136.5
440.05	152.5
440.272	139.5
440.493	122.5
440.715	129.5
440.936	137.5
441.158	136.5
441.379	139.5
441.6	159.5
441.822	152.5
442.043	118.5
442.264	138.5
442.486	134.5
442.707	136.5
442.928	127.5
443.149	135.5
443.371	136.5
443.592	128.5
443.813	132.5
444.034	142.5
444.255	131.5
444.476	130.5
444.698	138.5
444.919	143.5
445.14	266.5
445.361	194.5
445.582	132.5
445.803	126.5
446.024	142.5
446.245	152.5
446.466	160.5
446.687	147.5
446.908	152.5
447.129	149.5
447.35	139.5
447.571	138.5
447.792	135.5
448.013	129.5
448.234	126.5
448.455	143.5
448.675	147.5
448.896	122.5
449.117	134.5
449.338	127.5
449.559	128.5
449.779	133.5
450	122.5
450.221	125.5
450.442	141.5
450.662	134.5
450.883	132.5
451.104	113.5
451.324	133.5
451.545	145.5
451.766	140.5
451.986	128.5
452.207	129.5
452.428	135.5
452.648	108.5
452.869	121.5
453.089	119.5
453.31	100.5
453.53	91.5
453.751	115.5
453.971	112.5
454.192	94.5
454.412	98.5
454.633	109.5
454.853	129.5
455.073	121.5
455.294	118.5
455.514	104.5
455.734	110.5
455.955	118.5
456.175	93.5
456.395	109.5
456.616	118.5
456.836	114.5
457.056	110.5
457.276	95.5
457.497	105.5
457.717	111.5
457.937	117.5
458.157	100.5
458.377	102.5
458.598	97.5
458.818	85.5
459.038	82.5
459.258	95.5
459.478	88.5
459.698	86.5
459.918	97.5
460.138	109.5
460.358	114.5
460.578	126.5
460.798	114.5
461.018	117.5
461.238	125.5
461.458	111.5
461.678	100.5
461.898	108.5
462.118	111.5
462.338	110.5
462.558	116.5
462.777	115.5
462.997	119.5
463.217	115.5
463.437	98.5
463.657	105.5
463.876	109.5
464.096	105.5
464.316	104.5
464.536	102.5
464.755	115.5
464.975	114.5
465.195	116.5
465.414	110.5
465.634	105.5
465.854	107.5
466.073	127.5
466.293	127.5
466.512	127.5
466.732	129.5
466.951	128.5
467.171	118.5
467.391	140.5
467.61	134.5
467.829	142.5
468.049	135.5
468.268	141.5
468.488	130.5
468.707	124.5
468.927	127.5
469.146	128.5
469.365	116.5
469.585	134.5
469.804	128.5
470.023	135.5
470.243	146.5
470.462	151.5
470.681	130.5
470.901	128.5
471.12	142.5
471.339	145.5
471.558	139.5
471.777	135.5
471.997	134.5
472.216	129.5
472.435	125.5
472.654	104.5
472.873	104.5
473.092	122.5
473.311	117.5
473.53	131.5
473.749	134.5
473.968	137.5
474.187	120.5
474.406	121.5
474.625	107.5
474.844	123.5
475.063	121.5
475.282	124.5
475.501	125.5
475.72	116.5
475.939	114.5
476.158	117.5
476.377	117.5
476.596	131.5
476.814	113.5
477.033	110.5
477.252	101.5
477.471	121.5
477.69	133.5
477.908	136.5
478.127	131.5
478.346	128.5
478.564	114.5
478.783	131.5
479.002	131.5
479.22	156.5
479.439	124.5
479.658	120.5
479.876	116.5
480.095	105.5
480.313	109.5
480.532	123.5
480.751	118.5
480.969	88.5
481.188	90.5
481.406	95.5
481.624	81.5
481.843	84.5
482.061	95.5
482.28	102.5
482.498	104.5
482.717	106.5
482.935	134.5
483.153	157.5
483.372	143.5
483.59	145.5
483.808	125.5
484.027	125.5
484.245	143.5
484.463	151.5
484.681	155.5
484.9	142.5
485.118	118.5
485.336	120.5
485.554	114.5
485.772	108.5
485.99	113.5
486.209	105.5
486.427	106.5
486.645	106.5
486.863	123.5
487.081	143.5
487.299	130.5
487.517	125.5
487.735	173.5
487.953	181.5
488.171	185.5
488.389	158.5
488.607	168.5
488.825	145.5
489.043	134.5
489.261	133.5
489.479	127.5
489.696	138.5
489.914	132.5
490.132	122.5
490.35	150.5
490.568	147.5
490.786	169.5
491.003	162.5
491.221	167.5
491.439	180.5
491.657	190.5
491.874	206.5
492.092	212.5
492.31	238.5
492.527	224.5
492.745	210.5
492.963	174.5
493.18	190.5
493.398	184.5
493.615	181.5
493.833	168.5
494.05	175.5
494.268	146.5
494.485	189.5
494.703	166.5
494.92	179.5
495.138	166.5
495.355	178.5
495.573	168.5
495.79	159.5
496.008	158.5
496.225	171.5
496.442	154.5
496.66	187.5
496.877	165.5
497.094	168.5
497.312	158.5
497.529	153.5
497.746	161.5
497.963	145.5
498.181	116.5
498.398	115.5
498.615	112.5
498.832	113.5
499.049	127.5
499.267	128.5
499.484	122.5
499.701	130.5
499.918	136.5
500.135	132.5
500.352	131.5
500.569	139.5
500.786	145.5
501.003	133.5
501.22	141.5
501.437	127.5
501.654	126.5
501.871	118.5
502.088	127.5
502.305	133.5
502.522	139.5
502.739	129.5
502.956	129.5
503.172	124.5
503.389	117.5
503.606	126.5
503.823	111.5
504.04	121.5
504.256	99.5
504.473	113.5
504.69	124.5
504.907	115.5
505.123	117.5
505.34	121.5
505.557	111.5
505.773	119.5
505.99	119.5
506.207	96.5
506.423	120.5
506.64	112.5
506.856	120.5
507.073	109.5
507.289	120.5
507.506	119.5
507.722	122.5
507.939	113.5
508.155	129.5
508.372	126.5
508.588	101.5
508.805	95.5
509.021	114.5
509.238	113.5
509.454	98.5
509.67	109.5
509.887	102.5
510.103	98.5
510.319	93.5
510.536	90.5
510.752	85.5
510.968	98.5
511.184	92.5
511.401	83.5
511.617	87.5
511.833	89.5
512.049	106.5
512.265	104.5
512.481	104.5
512.698	101.5
512.914	86.5
513.13	104.5
513.346	86.5
513.562	89.5
513.778	93.5
513.994	93.5
514.21	97.5
514.426	86.5
514.642	91.5
514.858	96.5
515.074	89.5
515.29	83.5
515.506	79.5
515.721	89.5
515.937	77.5
516.153	85.5
516.369	83.5
516.585	81.5
516.801	85.5
517.016	79.5
517.232	98.5
517.448	91.5
517.664	92.5
517.879	104.5
518.095	111.5
518.311	78.5
518.527	80.5
518.742	92.5
518.958	93.5
519.173	113.5
519.389	103.5
519.605	117.5
519.82	109.5
520.036	118.5
520.251	103.5
520.467	105.5
520.682	97.5
520.898	94.5
521.113	94.5
521.329	104.5
521.544	93.5
521.76	97.5
521.975	90.5
522.19	108.5
522.406	89.5
522.621	96.5
522.836	102.5
523.052	103.5
523.267	105.5
523.482	108.5
523.698	107.5
523.913	111.5
524.128	114.5
524.343	117.5
524.559	98.5
524.774	121.5
524.989	123.5
525.204	132.5
525.419	117.5
525.634	112.5
525.849	123.5
526.064	119.5
526.28	111.5
526.495	92.5
526.71	99.5
526.925	94.5
527.14	71.5
527.355	87.5
527.57	97.5
527.785	85.5
527.999	110.5
528.214	103.5
528.429	105.5
528.644	119.5
528.859	115.5
529.074	147.5
529.289	160.5
529.503	160.5
529.718	132.5
529.933	122.5
530.148	116.5
530.363	106.5
530.577	88.5
530.792	81.5
531.007	74.5
531.221	84.5
