Data from Location4.07152019.Energy5.Lamp.07192019.3%Agarose_HRD10591_16-20-31-926.txt Node
Date: Fri Jul 19 16:20:31 EDT 2019
User: cochatt
Spectrometer: HR+D1059
Trigger mode: 1
Integration Time (sec): 1.000000E-1
Scans to average: 1
Electric dark correction enabled: true
Nonlinearity correction enabled: false
Boxcar width: 0
XAxis mode: Wavelengths
Number of Pixels in Spectrum: 2048
>>>>>Begin Spectral Data<<<<<
223.165	-24.19
223.4	-24.19
223.635	-24.19
223.869	-34.19
224.104	-10.19
224.338	-22.19
224.573	-18.19
224.808	-14.19
225.042	0.81
225.277	2.81
225.511	-7.19
225.746	1.81
225.98	13.81
226.215	4.81
226.449	21.81
226.683	22.81
226.918	24.81
227.152	36.81
227.387	33.81
227.621	30.81
227.856	43.81
228.09	41.81
228.324	46.81
228.559	63.81
228.793	60.81
229.027	76.81
229.262	72.81
229.496	55.81
229.73	66.81
229.964	71.81
230.199	77.81
230.433	85.81
230.667	72.81
230.901	81.81
231.136	74.81
231.37	87.81
231.604	75.81
231.838	81.81
232.072	66.81
232.306	86.81
232.541	78.81
232.775	60.81
233.009	76.81
233.243	83.81
233.477	76.81
233.711	85.81
233.945	84.81
234.179	87.81
234.413	76.81
234.647	83.81
234.881	71.81
235.115	78.81
235.349	71.81
235.583	91.81
235.817	79.81
236.051	71.81
236.285	73.81
236.519	86.81
236.753	71.81
236.987	70.81
237.221	77.81
237.455	63.81
237.689	66.81
237.922	63.81
238.156	73.81
238.39	72.81
238.624	83.81
238.858	67.81
239.091	71.81
239.325	77.81
239.559	84.81
239.793	62.81
240.027	58.81
240.26	65.81
240.494	85.81
240.728	76.81
240.961	79.81
241.195	84.81
241.429	71.81
241.662	69.81
241.896	73.81
242.13	71.81
242.363	66.81
242.597	72.81
242.83	71.81
243.064	69.81
243.298	84.81
243.531	81.81
243.765	80.81
243.998	79.81
244.232	69.81
244.465	72.81
244.699	60.81
244.932	74.81
245.166	74.81
245.399	75.81
245.633	81.81
245.866	86.81
246.099	77.81
246.333	84.81
246.566	75.81
246.8	61.81
247.033	78.81
247.266	77.81
247.5	84.81
247.733	82.81
247.966	67.81
248.2	74.81
248.433	79.81
248.666	76.81
248.899	77.81
249.133	77.81
249.366	84.81
249.599	82.81
249.832	82.81
250.066	76.81
250.299	80.81
250.532	74.81
250.765	75.81
250.998	81.81
251.231	83.81
251.465	70.81
251.698	72.81
251.931	68.81
252.164	64.81
252.397	95.81
252.63	83.81
252.863	89.81
253.096	74.81
253.329	65.81
253.562	63.81
253.795	83.81
254.028	82.81
254.261	84.81
254.494	73.81
254.727	75.81
254.96	95.81
255.193	79.81
255.426	80.81
255.659	77.81
255.892	71.81
256.124	73.81
256.357	76.81
256.59	73.81
256.823	82.81
257.056	89.81
257.289	98.81
257.521	81.81
257.754	72.81
257.987	66.81
258.22	85.81
258.452	77.81
258.685	76.81
258.918	85.81
259.151	75.81
259.383	85.81
259.616	74.81
259.849	72.81
260.081	91.81
260.314	88.81
260.547	87.81
260.779	76.81
261.012	88.81
261.244	83.81
261.477	77.81
261.71	79.81
261.942	87.81
262.175	76.81
262.407	93.81
262.64	88.81
262.872	80.81
263.105	77.81
263.337	86.81
263.57	79.81
263.802	82.81
264.035	78.81
264.267	84.81
264.499	83.81
264.732	82.81
264.964	76.81
265.197	86.81
265.429	79.81
265.661	85.81
265.894	84.81
266.126	83.81
266.358	83.81
266.591	78.81
266.823	80.81
267.055	89.81
267.287	89.81
267.52	80.81
267.752	89.81
267.984	96.81
268.216	89.81
268.448	85.81
268.681	79.81
268.913	85.81
269.145	72.81
269.377	91.81
269.609	63.81
269.841	64.81
270.073	74.81
270.306	77.81
270.538	83.81
270.77	93.81
271.002	96.81
271.234	85.81
271.466	67.81
271.698	73.81
271.93	100.81
272.162	98.81
272.394	87.81
272.626	73.81
272.858	80.81
273.09	84.81
273.322	81.81
273.553	76.81
273.785	82.81
274.017	92.81
274.249	82.81
274.481	81.81
274.713	73.81
274.945	76.81
275.176	85.81
275.408	85.81
275.64	89.81
275.872	95.81
276.104	66.81
276.335	80.81
276.567	91.81
276.799	77.81
277.031	93.81
277.262	91.81
277.494	88.81
277.726	85.81
277.957	87.81
278.189	89.81
278.421	93.81
278.652	88.81
278.884	78.81
279.115	75.81
279.347	80.81
279.579	71.81
279.81	78.81
280.042	70.81
280.273	85.81
280.505	74.81
280.736	72.81
280.968	77.81
281.199	75.81
281.431	69.81
281.662	96.81
281.894	88.81
282.125	89.81
282.356	89.81
282.588	80.81
282.819	85.81
283.051	84.81
283.282	82.81
283.513	70.81
283.745	93.81
283.976	68.81
284.207	83.81
284.439	77.81
284.67	101.81
284.901	85.81
285.132	84.81
285.364	79.81
285.595	91.81
285.826	84.81
286.057	81.81
286.288	92.81
286.52	86.81
286.751	83.81
286.982	84.81
287.213	97.81
287.444	82.81
287.675	77.81
287.906	87.81
288.138	77.81
288.369	75.81
288.6	88.81
288.831	80.81
289.062	87.81
289.293	82.81
289.524	85.81
289.755	81.81
289.986	84.81
290.217	68.81
290.448	91.81
290.679	77.81
290.91	88.81
291.141	92.81
291.371	98.81
291.602	74.81
291.833	87.81
292.064	88.81
292.295	75.81
292.526	102.81
292.757	94.81
292.987	85.81
293.218	66.81
293.449	76.81
293.68	88.81
293.91	87.81
294.141	92.81
294.372	88.81
294.603	82.81
294.833	71.81
295.064	78.81
295.295	92.81
295.525	77.81
295.756	77.81
295.987	80.81
296.217	77.81
296.448	82.81
296.679	86.81
296.909	83.81
297.14	87.81
297.37	79.81
297.601	79.81
297.831	77.81
298.062	75.81
298.292	88.81
298.523	92.81
298.753	79.81
298.984	73.81
299.214	76.81
299.445	71.81
299.675	81.81
299.905	81.81
300.136	94.81
300.366	69.81
300.597	81.81
300.827	107.81
301.057	88.81
301.288	84.81
301.518	66.81
301.748	63.81
301.979	74.81
302.209	84.81
302.439	91.81
302.669	83.81
302.9	84.81
303.13	101.81
303.36	90.81
303.59	101.81
303.82	81.81
304.051	88.81
304.281	90.81
304.511	84.81
304.741	94.81
304.971	84.81
305.201	81.81
305.431	75.81
305.661	81.81
305.891	89.81
306.121	72.81
306.352	105.81
306.582	76.81
306.812	67.81
307.042	95.81
307.272	94.81
307.502	86.81
307.731	81.81
307.961	95.81
308.191	73.81
308.421	68.81
308.651	87.81
308.881	85.81
309.111	85.81
309.341	86.81
309.571	74.81
309.8	88.81
310.03	86.81
310.26	76.81
310.49	88.81
310.72	69.81
310.949	99.81
311.179	83.81
311.409	85.81
311.639	85.81
311.868	86.81
312.098	80.81
312.328	96.81
312.557	76.81
312.787	89.81
313.017	79.81
313.246	82.81
313.476	91.81
313.706	76.81
313.935	93.81
314.165	83.81
314.394	74.81
314.624	87.81
314.853	87.81
315.083	86.81
315.312	80.81
315.542	78.81
315.771	83.81
316.001	85.81
316.23	77.81
316.46	72.81
316.689	90.81
316.919	95.81
317.148	78.81
317.377	86.81
317.607	86.81
317.836	90.81
318.065	84.81
318.295	91.81
318.524	83.81
318.753	72.81
318.983	87.81
319.212	87.81
319.441	84.81
319.67	89.81
319.9	85.81
320.129	93.81
320.358	75.81
320.587	93.81
320.816	80.81
321.046	74.81
321.275	88.81
321.504	89.81
321.733	96.81
321.962	74.81
322.191	82.81
322.42	65.81
322.649	91.81
322.878	81.81
323.108	87.81
323.337	93.81
323.566	89.81
323.795	73.81
324.024	85.81
324.253	78.81
324.482	84.81
324.71	89.81
324.939	82.81
325.168	86.81
325.397	88.81
325.626	77.81
325.855	81.81
326.084	80.81
326.313	75.81
326.542	87.81
326.77	88.81
326.999	75.81
327.228	81.81
327.457	81.81
327.686	76.81
327.914	90.81
328.143	93.81
328.372	83.81
328.6	90.81
328.829	78.81
329.058	83.81
329.287	70.81
329.515	91.81
329.744	77.81
329.972	80.81
330.201	92.81
330.43	87.81
330.658	91.81
330.887	94.81
331.115	83.81
331.344	78.81
331.572	81.81
331.801	77.81
332.03	87.81
332.258	89.81
332.486	89.81
332.715	80.81
332.943	88.81
333.172	88.81
333.4	79.81
333.629	82.81
333.857	86.81
334.085	92.81
334.314	86.81
334.542	73.81
334.771	92.81
334.999	86.81
335.227	88.81
335.455	83.81
335.684	72.81
335.912	80.81
336.14	85.81
336.369	88.81
336.597	76.81
336.825	77.81
337.053	76.81
337.281	86.81
337.51	89.81
337.738	84.81
337.966	95.81
338.194	88.81
338.422	86.81
338.65	97.81
338.878	95.81
339.106	82.81
339.334	88.81
339.562	72.81
339.79	96.81
340.018	84.81
340.246	67.81
340.474	79.81
340.702	80.81
340.93	93.81
341.158	84.81
341.386	88.81
341.614	80.81
341.842	94.81
342.07	80.81
342.298	76.81
342.526	82.81
342.754	89.81
342.981	94.81
343.209	82.81
343.437	91.81
343.665	72.81
343.893	91.81
344.12	80.81
344.348	89.81
344.576	82.81
344.804	86.81
345.031	89.81
345.259	87.81
345.487	76.81
345.714	86.81
345.942	77.81
346.17	87.81
346.397	86.81
346.625	78.81
346.853	101.81
347.08	90.81
347.308	77.81
347.535	89.81
347.763	75.81
347.99	86.81
348.218	94.81
348.445	91.81
348.673	81.81
348.9	64.81
349.128	81.81
349.355	96.81
349.583	85.81
349.81	85.81
350.037	88.81
350.265	86.81
350.492	87.81
350.72	92.81
350.947	74.81
351.174	90.81
351.402	76.81
351.629	78.81
351.856	85.81
352.083	86.81
352.311	92.81
352.538	91.81
352.765	75.81
352.992	85.81
353.22	90.81
353.447	86.81
353.674	86.81
353.901	80.81
354.128	81.81
354.355	75.81
354.583	100.81
354.81	73.81
355.037	73.81
355.264	66.81
355.491	69.81
355.718	92.81
355.945	78.81
356.172	95.81
356.399	88.81
356.626	84.81
356.853	88.81
357.08	86.81
357.307	94.81
357.534	70.81
357.761	76.81
357.988	77.81
358.215	83.81
358.441	92.81
358.668	85.81
358.895	87.81
359.122	82.81
359.349	93.81
359.576	101.81
359.802	90.81
360.029	75.81
360.256	81.81
360.483	75.81
360.709	85.81
360.936	87.81
361.163	74.81
361.39	87.81
361.616	86.81
361.843	78.81
362.07	88.81
362.296	74.81
362.523	75.81
362.749	87.81
362.976	86.81
363.203	85.81
363.429	72.81
363.656	88.81
363.882	89.81
364.109	76.81
364.335	95.81
364.562	80.81
364.788	80.81
365.015	78.81
365.241	87.81
365.468	88.81
365.694	71.81
365.92	83.81
366.147	83.81
366.373	82.81
366.599	96.81
366.826	88.81
367.052	79.81
367.278	83.81
367.505	98.81
367.731	88.81
367.957	99.81
368.184	76.81
368.41	76.81
368.636	97.81
368.862	92.81
369.089	91.81
369.315	90.81
369.541	83.81
369.767	102.81
369.993	93.81
370.219	91.81
370.445	78.81
370.672	85.81
370.898	103.81
371.124	96.81
371.35	92.81
371.576	87.81
371.802	101.81
372.028	83.81
372.254	88.81
372.48	90.81
372.706	80.81
372.932	90.81
373.158	95.81
373.384	93.81
373.61	101.81
373.835	104.81
374.061	96.81
374.287	90.81
374.513	88.81
374.739	88.81
374.965	87.81
375.191	88.81
375.416	94.81
375.642	104.81
375.868	86.81
376.094	89.81
376.319	97.81
376.545	85.81
376.771	92.81
376.997	92.81
377.222	85.81
377.448	91.81
377.674	103.81
377.899	87.81
378.125	100.81
378.35	97.81
378.576	98.81
378.802	99.81
379.027	101.81
379.253	112.81
379.478	84.81
379.704	87.81
379.929	95.81
380.155	95.81
380.38	91.81
380.606	99.81
380.831	95.81
381.057	100.81
381.282	90.81
381.507	85.81
381.733	88.81
381.958	99.81
382.184	102.81
382.409	96.81
382.634	105.81
382.86	101.81
383.085	106.81
383.31	105.81
383.535	93.81
383.761	94.81
383.986	99.81
384.211	95.81
384.436	92.81
384.662	76.81
384.887	93.81
385.112	98.81
385.337	88.81
385.562	105.81
385.787	93.81
386.013	87.81
386.238	97.81
386.463	94.81
386.688	97.81
386.913	98.81
387.138	94.81
387.363	96.81
387.588	96.81
387.813	85.81
388.038	97.81
388.263	95.81
388.488	113.81
388.713	103.81
388.938	90.81
389.163	100.81
389.387	99.81
389.612	78.81
389.837	99.81
390.062	123.81
390.287	100.81
390.512	101.81
390.736	81.81
390.961	107.81
391.186	91.81
391.411	97.81
391.636	99.81
391.86	99.81
392.085	94.81
392.31	93.81
392.534	90.81
392.759	94.81
392.984	113.81
393.208	103.81
393.433	97.81
393.658	93.81
393.882	103.81
394.107	99.81
394.331	89.81
394.556	106.81
394.78	97.81
395.005	93.81
395.229	110.81
395.454	104.81
395.678	108.81
395.903	105.81
396.127	100.81
396.352	98.81
396.576	99.81
396.801	100.81
397.025	106.81
397.249	108.81
397.474	98.81
397.698	107.81
397.922	105.81
398.147	101.81
398.371	108.81
398.595	105.81
398.82	115.81
399.044	107.81
399.268	107.81
399.492	105.81
399.717	125.81
399.941	116.81
400.165	104.81
400.389	114.81
400.613	97.81
400.837	117.81
401.062	114.81
401.286	112.81
401.51	111.81
401.734	94.81
401.958	109.81
402.182	92.81
402.406	114.81
402.63	117.81
402.854	116.81
403.078	119.81
403.302	103.81
403.526	108.81
403.75	109.81
403.974	113.81
404.198	121.81
404.422	118.81
404.645	118.81
404.869	117.81
405.093	115.81
405.317	112.81
405.541	113.81
405.765	107.81
405.988	114.81
406.212	119.81
406.436	126.81
406.66	128.81
406.883	119.81
407.107	124.81
407.331	133.81
407.555	124.81
407.778	114.81
408.002	117.81
408.226	117.81
408.449	109.81
408.673	117.81
408.896	122.81
409.12	119.81
409.344	127.81
409.567	122.81
409.791	111.81
410.014	106.81
410.238	117.81
410.461	127.81
410.685	114.81
410.908	115.81
411.132	114.81
411.355	103.81
411.578	112.81
411.802	115.81
412.025	118.81
412.249	117.81
412.472	121.81
412.695	133.81
412.919	107.81
413.142	116.81
413.365	111.81
413.589	108.81
413.812	123.81
414.035	111.81
414.258	120.81
414.482	131.81
414.705	121.81
414.928	118.81
415.151	124.81
415.374	115.81
415.597	119.81
415.821	128.81
416.044	114.81
416.267	120.81
416.49	122.81
416.713	107.81
416.936	131.81
417.159	121.81
417.382	111.81
417.605	132.81
417.828	123.81
418.051	117.81
418.274	124.81
418.497	129.81
418.72	118.81
418.943	131.81
419.166	148.81
419.389	120.81
419.611	125.81
419.834	122.81
420.057	129.81
420.28	136.81
420.503	122.81
420.726	129.81
420.948	127.81
421.171	130.81
421.394	131.81
421.617	132.81
421.839	144.81
422.062	136.81
422.285	123.81
422.507	121.81
422.73	124.81
422.953	119.81
423.175	114.81
423.398	131.81
423.621	120.81
423.843	137.81
424.066	144.81
424.288	135.81
424.511	151.81
424.733	145.81
424.956	139.81
425.178	143.81
425.401	120.81
425.623	125.81
425.846	134.81
426.068	114.81
426.291	113.81
426.513	125.81
426.735	112.81
426.958	115.81
427.18	134.81
427.402	133.81
427.625	116.81
427.847	129.81
428.069	117.81
428.292	135.81
428.514	129.81
428.736	132.81
428.958	117.81
429.181	133.81
429.403	108.81
429.625	130.81
429.847	127.81
430.069	122.81
430.292	132.81
430.514	122.81
430.736	131.81
430.958	131.81
431.18	139.81
431.402	97.81
431.624	127.81
431.846	97.81
432.068	91.81
432.29	93.81
432.512	119.81
432.734	120.81
432.956	131.81
433.178	131.81
433.4	144.81
433.622	131.81
433.844	128.81
434.066	115.81
434.287	112.81
434.509	106.81
434.731	108.81
434.953	112.81
435.175	121.81
435.397	120.81
435.618	120.81
435.84	115.81
436.062	122.81
436.284	129.81
436.505	124.81
436.727	136.81
436.949	130.81
437.17	137.81
437.392	133.81
437.614	130.81
437.835	105.81
438.057	113.81
438.278	125.81
438.5	112.81
438.721	143.81
438.943	124.81
439.165	123.81
439.386	131.81
439.608	131.81
439.829	126.81
440.05	147.81
440.272	123.81
440.493	140.81
440.715	156.81
440.936	144.81
441.158	145.81
441.379	140.81
441.6	137.81
441.822	148.81
442.043	138.81
442.264	133.81
442.486	137.81
442.707	136.81
442.928	137.81
443.149	137.81
443.371	143.81
443.592	134.81
443.813	131.81
444.034	128.81
444.255	122.81
444.476	141.81
444.698	145.81
444.919	141.81
445.14	277.81
445.361	193.81
445.582	136.81
445.803	155.81
446.024	161.81
446.245	145.81
446.466	147.81
446.687	123.81
446.908	158.81
447.129	147.81
447.35	164.81
447.571	140.81
447.792	135.81
448.013	127.81
448.234	142.81
448.455	149.81
448.675	144.81
448.896	147.81
449.117	146.81
449.338	129.81
449.559	142.81
449.779	139.81
450	155.81
450.221	129.81
450.442	128.81
450.662	121.81
450.883	137.81
451.104	137.81
451.324	126.81
451.545	145.81
451.766	113.81
451.986	121.81
452.207	121.81
452.428	143.81
452.648	121.81
452.869	114.81
453.089	124.81
453.31	122.81
453.53	104.81
453.751	107.81
453.971	98.81
454.192	90.81
454.412	97.81
454.633	111.81
454.853	108.81
455.073	135.81
455.294	123.81
455.514	123.81
455.734	134.81
455.955	122.81
456.175	119.81
456.395	118.81
456.616	112.81
456.836	114.81
457.056	113.81
457.276	86.81
457.497	115.81
457.717	117.81
457.937	100.81
458.157	101.81
458.377	114.81
458.598	98.81
458.818	103.81
459.038	90.81
459.258	82.81
459.478	74.81
459.698	90.81
459.918	103.81
460.138	103.81
460.358	117.81
460.578	119.81
460.798	135.81
461.018	112.81
461.238	119.81
461.458	112.81
461.678	118.81
461.898	106.81
462.118	109.81
462.338	97.81
462.558	123.81
462.777	103.81
462.997	102.81
463.217	109.81
463.437	114.81
463.657	114.81
463.876	115.81
464.096	106.81
464.316	99.81
464.536	102.81
464.755	103.81
464.975	118.81
465.195	113.81
465.414	121.81
465.634	112.81
465.854	110.81
466.073	125.81
466.293	119.81
466.512	122.81
466.732	128.81
466.951	125.81
467.171	134.81
467.391	123.81
467.61	130.81
467.829	123.81
468.049	125.81
468.268	126.81
468.488	124.81
468.707	111.81
468.927	141.81
469.146	122.81
469.365	125.81
469.585	130.81
469.804	133.81
470.023	126.81
470.243	139.81
470.462	145.81
470.681	133.81
470.901	133.81
471.12	142.81
471.339	135.81
471.558	134.81
471.777	126.81
471.997	136.81
472.216	121.81
472.435	120.81
472.654	105.81
472.873	113.81
473.092	111.81
473.311	133.81
473.53	137.81
473.749	120.81
473.968	120.81
474.187	123.81
474.406	133.81
474.625	118.81
474.844	123.81
475.063	128.81
475.282	125.81
475.501	116.81
475.72	130.81
475.939	125.81
476.158	131.81
476.377	133.81
476.596	127.81
476.814	125.81
477.033	106.81
477.252	99.81
477.471	132.81
477.69	125.81
477.908	131.81
478.127	125.81
478.346	123.81
478.564	139.81
478.783	130.81
479.002	133.81
479.22	125.81
479.439	116.81
479.658	114.81
479.876	106.81
480.095	109.81
480.313	119.81
480.532	119.81
480.751	104.81
480.969	94.81
481.188	78.81
481.406	93.81
481.624	82.81
481.843	84.81
482.061	88.81
482.28	105.81
482.498	116.81
482.717	115.81
482.935	132.81
483.153	141.81
483.372	143.81
483.59	165.81
483.808	147.81
484.027	142.81
484.245	129.81
484.463	131.81
484.681	165.81
484.9	131.81
485.118	157.81
485.336	128.81
485.554	132.81
485.772	97.81
485.99	102.81
486.209	111.81
486.427	116.81
486.645	123.81
486.863	131.81
487.081	131.81
487.299	127.81
487.517	150.81
487.735	167.81
487.953	185.81
488.171	172.81
488.389	173.81
488.607	163.81
488.825	152.81
489.043	134.81
489.261	142.81
489.479	142.81
489.696	138.81
489.914	149.81
490.132	126.81
490.35	136.81
490.568	160.81
490.786	166.81
491.003	172.81
491.221	177.81
491.439	183.81
491.657	194.81
491.874	197.81
492.092	195.81
492.31	230.81
492.527	226.81
492.745	200.81
492.963	187.81
493.18	183.81
493.398	169.81
493.615	175.81
493.833	184.81
494.05	161.81
494.268	181.81
494.485	159.81
494.703	162.81
494.92	173.81
495.138	163.81
495.355	166.81
495.573	164.81
495.79	157.81
496.008	164.81
496.225	147.81
496.442	154.81
496.66	159.81
496.877	171.81
497.094	145.81
497.312	170.81
497.529	143.81
497.746	150.81
497.963	122.81
498.181	131.81
498.398	105.81
498.615	115.81
498.832	110.81
499.049	107.81
499.267	131.81
499.484	111.81
499.701	132.81
499.918	145.81
500.135	131.81
500.352	142.81
500.569	145.81
500.786	142.81
501.003	133.81
501.22	135.81
501.437	130.81
501.654	136.81
501.871	120.81
502.088	124.81
502.305	134.81
502.522	123.81
502.739	117.81
502.956	136.81
503.172	122.81
503.389	115.81
503.606	115.81
503.823	122.81
504.04	127.81
504.256	120.81
504.473	126.81
504.69	125.81
504.907	133.81
505.123	105.81
505.34	131.81
505.557	121.81
505.773	115.81
505.99	138.81
506.207	139.81
506.423	127.81
506.64	108.81
506.856	113.81
507.073	106.81
507.289	113.81
507.506	119.81
507.722	124.81
507.939	106.81
508.155	131.81
508.372	103.81
508.588	109.81
508.805	110.81
509.021	109.81
509.238	124.81
509.454	96.81
509.67	91.81
509.887	83.81
510.103	93.81
510.319	104.81
510.536	85.81
510.752	67.81
510.968	91.81
511.184	87.81
511.401	82.81
511.617	87.81
511.833	84.81
