Data from Location4.07152019.Energy5.Lamp.07192019.3%Agarose_HRD10591_16-20-46-926.txt Node
Date: Fri Jul 19 16:20:46 EDT 2019
User: cochatt
Spectrometer: HR+D1059
Trigger mode: 1
Integration Time (sec): 1.000000E-1
Scans to average: 1
Electric dark correction enabled: true
Nonlinearity correction enabled: false
Boxcar width: 0
XAxis mode: Wavelengths
Number of Pixels in Spectrum: 2048
>>>>>Begin Spectral Data<<<<<
223.165	-19.75
223.4	-19.75
223.635	-19.75
223.869	-8.75
224.104	-14.75
224.338	-18.75
224.573	-28.75
224.808	-22.75
225.042	-3.75
225.277	-6.75
225.511	-2.75
225.746	11.25
225.98	7.25
226.215	7.25
226.449	17.25
226.683	21.25
226.918	18.25
227.152	44.25
227.387	29.25
227.621	31.25
227.856	38.25
228.09	34.25
228.324	52.25
228.559	48.25
228.793	53.25
229.027	69.25
229.262	76.25
229.496	63.25
229.73	48.25
229.964	61.25
230.199	69.25
230.433	59.25
230.667	79.25
230.901	79.25
231.136	84.25
231.37	84.25
231.604	79.25
231.838	93.25
232.072	75.25
232.306	79.25
232.541	80.25
232.775	76.25
233.009	81.25
233.243	68.25
233.477	79.25
233.711	75.25
233.945	64.25
234.179	73.25
234.413	96.25
234.647	89.25
234.881	79.25
235.115	80.25
235.349	83.25
235.583	82.25
235.817	82.25
236.051	78.25
236.285	75.25
236.519	66.25
236.753	84.25
236.987	63.25
237.221	73.25
237.455	68.25
237.689	76.25
237.922	79.25
238.156	84.25
238.39	74.25
238.624	65.25
238.858	73.25
239.091	69.25
239.325	87.25
239.559	79.25
239.793	72.25
240.027	72.25
240.26	68.25
240.494	69.25
240.728	76.25
240.961	66.25
241.195	77.25
241.429	81.25
241.662	77.25
241.896	67.25
242.13	75.25
242.363	54.25
242.597	72.25
242.83	78.25
243.064	92.25
243.298	66.25
243.531	72.25
243.765	63.25
243.998	66.25
244.232	66.25
244.465	76.25
244.699	75.25
244.932	83.25
245.166	73.25
245.399	85.25
245.633	67.25
245.866	80.25
246.099	91.25
246.333	69.25
246.566	81.25
246.8	64.25
247.033	75.25
247.266	70.25
247.5	66.25
247.733	74.25
247.966	85.25
248.2	67.25
248.433	83.25
248.666	84.25
248.899	76.25
249.133	69.25
249.366	78.25
249.599	84.25
249.832	81.25
250.066	80.25
250.299	66.25
250.532	79.25
250.765	69.25
250.998	63.25
251.231	82.25
251.465	72.25
251.698	91.25
251.931	83.25
252.164	76.25
252.397	70.25
252.63	90.25
252.863	78.25
253.096	80.25
253.329	82.25
253.562	77.25
253.795	70.25
254.028	75.25
254.261	77.25
254.494	78.25
254.727	79.25
254.96	78.25
255.193	83.25
255.426	73.25
255.659	78.25
255.892	79.25
256.124	80.25
256.357	89.25
256.59	77.25
256.823	69.25
257.056	80.25
257.289	76.25
257.521	85.25
257.754	79.25
257.987	86.25
258.22	78.25
258.452	83.25
258.685	76.25
258.918	70.25
259.151	67.25
259.383	77.25
259.616	64.25
259.849	77.25
260.081	79.25
260.314	81.25
260.547	89.25
260.779	69.25
261.012	86.25
261.244	81.25
261.477	74.25
261.71	91.25
261.942	78.25
262.175	78.25
262.407	79.25
262.64	83.25
262.872	69.25
263.105	84.25
263.337	70.25
263.57	79.25
263.802	73.25
264.035	79.25
264.267	80.25
264.499	85.25
264.732	75.25
264.964	63.25
265.197	86.25
265.429	80.25
265.661	86.25
265.894	77.25
266.126	77.25
266.358	71.25
266.591	76.25
266.823	90.25
267.055	80.25
267.287	71.25
267.52	80.25
267.752	80.25
267.984	96.25
268.216	72.25
268.448	80.25
268.681	86.25
268.913	81.25
269.145	79.25
269.377	78.25
269.609	85.25
269.841	83.25
270.073	83.25
270.306	70.25
270.538	80.25
270.77	87.25
271.002	93.25
271.234	79.25
271.466	83.25
271.698	77.25
271.93	80.25
272.162	87.25
272.394	76.25
272.626	83.25
272.858	81.25
273.09	88.25
273.322	84.25
273.553	85.25
273.785	70.25
274.017	78.25
274.249	88.25
274.481	77.25
274.713	79.25
274.945	89.25
275.176	88.25
275.408	85.25
275.64	69.25
275.872	81.25
276.104	79.25
276.335	78.25
276.567	85.25
276.799	94.25
277.031	72.25
277.262	83.25
277.494	81.25
277.726	72.25
277.957	96.25
278.189	72.25
278.421	68.25
278.652	76.25
278.884	72.25
279.115	90.25
279.347	75.25
279.579	86.25
279.81	77.25
280.042	73.25
280.273	86.25
280.505	78.25
280.736	80.25
280.968	91.25
281.199	79.25
281.431	71.25
281.662	73.25
281.894	74.25
282.125	89.25
282.356	92.25
282.588	84.25
282.819	84.25
283.051	70.25
283.282	75.25
283.513	81.25
283.745	87.25
283.976	71.25
284.207	77.25
284.439	67.25
284.67	88.25
284.901	72.25
285.132	77.25
285.364	84.25
285.595	85.25
285.826	73.25
286.057	72.25
286.288	75.25
286.52	87.25
286.751	88.25
286.982	80.25
287.213	91.25
287.444	92.25
287.675	75.25
287.906	86.25
288.138	80.25
288.369	94.25
288.6	88.25
288.831	83.25
289.062	73.25
289.293	75.25
289.524	87.25
289.755	88.25
289.986	88.25
290.217	80.25
290.448	81.25
290.679	71.25
290.91	89.25
291.141	82.25
291.371	100.25
291.602	81.25
291.833	83.25
292.064	83.25
292.295	89.25
292.526	89.25
292.757	80.25
292.987	79.25
293.218	99.25
293.449	81.25
293.68	80.25
293.91	79.25
294.141	87.25
294.372	77.25
294.603	88.25
294.833	88.25
295.064	80.25
295.295	81.25
295.525	73.25
295.756	93.25
295.987	75.25
296.217	91.25
296.448	79.25
296.679	83.25
296.909	76.25
297.14	69.25
297.37	75.25
297.601	79.25
297.831	82.25
298.062	63.25
298.292	80.25
298.523	85.25
298.753	81.25
298.984	94.25
299.214	88.25
299.445	73.25
299.675	75.25
299.905	81.25
300.136	84.25
300.366	74.25
300.597	79.25
300.827	82.25
301.057	87.25
301.288	93.25
301.518	73.25
301.748	89.25
301.979	72.25
302.209	71.25
302.439	93.25
302.669	86.25
302.9	83.25
303.13	84.25
303.36	87.25
303.59	80.25
303.82	84.25
304.051	76.25
304.281	89.25
304.511	68.25
304.741	85.25
304.971	81.25
305.201	80.25
305.431	73.25
305.661	95.25
305.891	79.25
306.121	68.25
306.352	82.25
306.582	83.25
306.812	78.25
307.042	74.25
307.272	74.25
307.502	89.25
307.731	82.25
307.961	67.25
308.191	95.25
308.421	83.25
308.651	88.25
308.881	78.25
309.111	91.25
309.341	76.25
309.571	100.25
309.8	92.25
310.03	80.25
310.26	75.25
310.49	67.25
310.72	79.25
310.949	84.25
311.179	81.25
311.409	61.25
311.639	91.25
311.868	101.25
312.098	79.25
312.328	78.25
312.557	79.25
312.787	73.25
313.017	82.25
313.246	69.25
313.476	79.25
313.706	80.25
313.935	87.25
314.165	94.25
314.394	93.25
314.624	94.25
314.853	80.25
315.083	88.25
315.312	77.25
315.542	82.25
315.771	95.25
316.001	78.25
316.23	84.25
316.46	88.25
316.689	77.25
316.919	78.25
317.148	85.25
317.377	83.25
317.607	84.25
317.836	80.25
318.065	85.25
318.295	81.25
318.524	87.25
318.753	79.25
318.983	71.25
319.212	92.25
319.441	77.25
319.67	78.25
319.9	74.25
320.129	72.25
320.358	85.25
320.587	84.25
320.816	71.25
321.046	91.25
321.275	95.25
321.504	93.25
321.733	89.25
321.962	72.25
322.191	73.25
322.42	76.25
322.649	88.25
322.878	86.25
323.108	84.25
323.337	86.25
323.566	100.25
323.795	94.25
324.024	85.25
324.253	85.25
324.482	75.25
324.71	80.25
324.939	92.25
325.168	85.25
325.397	91.25
325.626	79.25
325.855	85.25
326.084	90.25
326.313	67.25
326.542	75.25
326.77	90.25
326.999	71.25
327.228	82.25
327.457	83.25
327.686	71.25
327.914	83.25
328.143	108.25
328.372	79.25
328.6	87.25
328.829	88.25
329.058	88.25
329.287	78.25
329.515	77.25
329.744	70.25
329.972	83.25
330.201	93.25
330.43	87.25
330.658	82.25
330.887	75.25
331.115	65.25
331.344	77.25
331.572	74.25
331.801	71.25
332.03	81.25
332.258	86.25
332.486	81.25
332.715	98.25
332.943	83.25
333.172	90.25
333.4	69.25
333.629	82.25
333.857	69.25
334.085	86.25
334.314	88.25
334.542	75.25
334.771	91.25
334.999	85.25
335.227	80.25
335.455	100.25
335.684	72.25
335.912	82.25
336.14	90.25
336.369	85.25
336.597	85.25
336.825	91.25
337.053	73.25
337.281	84.25
337.51	73.25
337.738	88.25
337.966	80.25
338.194	77.25
338.422	98.25
338.65	78.25
338.878	77.25
339.106	80.25
339.334	78.25
339.562	83.25
339.79	79.25
340.018	79.25
340.246	78.25
340.474	73.25
340.702	72.25
340.93	89.25
341.158	92.25
341.386	87.25
341.614	77.25
341.842	81.25
342.07	67.25
342.298	78.25
342.526	84.25
342.754	100.25
342.981	78.25
343.209	88.25
343.437	82.25
343.665	86.25
343.893	90.25
344.12	84.25
344.348	88.25
344.576	82.25
344.804	82.25
345.031	79.25
345.259	97.25
345.487	79.25
345.714	80.25
345.942	81.25
346.17	83.25
346.397	85.25
346.625	68.25
346.853	73.25
347.08	75.25
347.308	79.25
347.535	77.25
347.763	78.25
347.99	75.25
348.218	83.25
348.445	93.25
348.673	88.25
348.9	77.25
349.128	82.25
349.355	77.25
349.583	83.25
349.81	76.25
350.037	84.25
350.265	90.25
350.492	73.25
350.72	69.25
350.947	76.25
351.174	91.25
351.402	72.25
351.629	75.25
351.856	82.25
352.083	64.25
352.311	84.25
352.538	85.25
352.765	85.25
352.992	91.25
353.22	86.25
353.447	69.25
353.674	69.25
353.901	80.25
354.128	91.25
354.355	86.25
354.583	87.25
354.81	77.25
355.037	77.25
355.264	85.25
355.491	82.25
355.718	81.25
355.945	91.25
356.172	75.25
356.399	77.25
356.626	73.25
356.853	88.25
357.08	76.25
357.307	79.25
357.534	68.25
357.761	77.25
357.988	84.25
358.215	81.25
358.441	74.25
358.668	85.25
358.895	82.25
359.122	87.25
359.349	74.25
359.576	78.25
359.802	81.25
360.029	89.25
360.256	87.25
360.483	85.25
360.709	81.25
360.936	91.25
361.163	83.25
361.39	74.25
361.616	69.25
361.843	94.25
362.07	90.25
362.296	98.25
362.523	71.25
362.749	69.25
362.976	80.25
363.203	76.25
363.429	82.25
363.656	83.25
363.882	83.25
364.109	88.25
364.335	93.25
364.562	83.25
364.788	83.25
365.015	71.25
365.241	75.25
365.468	80.25
365.694	72.25
365.92	91.25
366.147	75.25
366.373	88.25
366.599	88.25
366.826	78.25
367.052	81.25
367.278	93.25
367.505	92.25
367.731	78.25
367.957	94.25
368.184	95.25
368.41	92.25
368.636	80.25
368.862	101.25
369.089	82.25
369.315	80.25
369.541	80.25
369.767	82.25
369.993	94.25
370.219	92.25
370.445	87.25
370.672	92.25
370.898	84.25
371.124	101.25
371.35	73.25
371.576	87.25
371.802	77.25
372.028	85.25
372.254	97.25
372.48	84.25
372.706	100.25
372.932	88.25
373.158	86.25
373.384	95.25
373.61	93.25
373.835	89.25
374.061	92.25
374.287	84.25
374.513	95.25
374.739	77.25
374.965	97.25
375.191	96.25
375.416	88.25
375.642	100.25
375.868	85.25
376.094	77.25
376.319	81.25
376.545	91.25
376.771	82.25
376.997	77.25
377.222	102.25
377.448	86.25
377.674	92.25
377.899	92.25
378.125	80.25
378.35	88.25
378.576	82.25
378.802	108.25
379.027	92.25
379.253	87.25
379.478	85.25
379.704	91.25
379.929	86.25
380.155	89.25
380.38	89.25
380.606	79.25
380.831	84.25
381.057	97.25
381.282	74.25
381.507	105.25
381.733	91.25
381.958	73.25
382.184	88.25
382.409	100.25
382.634	99.25
382.86	86.25
383.085	85.25
383.31	91.25
383.535	118.25
383.761	108.25
383.986	98.25
384.211	100.25
384.436	100.25
384.662	95.25
384.887	85.25
385.112	90.25
385.337	86.25
385.562	99.25
385.787	89.25
386.013	95.25
386.238	94.25
386.463	100.25
386.688	103.25
386.913	91.25
387.138	78.25
387.363	102.25
387.588	82.25
387.813	98.25
388.038	101.25
388.263	101.25
388.488	101.25
388.713	104.25
388.938	102.25
389.163	110.25
389.387	99.25
389.612	88.25
389.837	96.25
390.062	94.25
390.287	97.25
390.512	99.25
390.736	95.25
390.961	82.25
391.186	99.25
391.411	101.25
391.636	94.25
391.86	111.25
392.085	108.25
392.31	107.25
392.534	100.25
392.759	111.25
392.984	100.25
393.208	105.25
393.433	102.25
393.658	95.25
393.882	104.25
394.107	102.25
394.331	94.25
394.556	95.25
394.78	92.25
395.005	101.25
395.229	93.25
395.454	104.25
395.678	98.25
395.903	105.25
396.127	87.25
396.352	102.25
396.576	98.25
396.801	99.25
397.025	97.25
397.249	109.25
397.474	101.25
397.698	111.25
397.922	98.25
398.147	100.25
398.371	94.25
398.595	97.25
398.82	112.25
399.044	107.25
399.268	101.25
399.492	110.25
399.717	96.25
399.941	112.25
400.165	105.25
400.389	96.25
400.613	100.25
400.837	115.25
401.062	100.25
401.286	100.25
401.51	92.25
401.734	95.25
401.958	103.25
402.182	103.25
402.406	118.25
402.63	111.25
402.854	120.25
403.078	115.25
403.302	121.25
403.526	113.25
403.75	118.25
403.974	116.25
404.198	118.25
404.422	117.25
404.645	120.25
404.869	117.25
405.093	104.25
405.317	115.25
405.541	122.25
405.765	109.25
405.988	108.25
406.212	104.25
406.436	113.25
406.66	121.25
406.883	119.25
407.107	94.25
407.331	107.25
407.555	115.25
407.778	97.25
408.002	117.25
408.226	110.25
408.449	102.25
408.673	111.25
408.896	113.25
409.12	109.25
409.344	124.25
409.567	104.25
409.791	101.25
410.014	127.25
410.238	115.25
410.461	114.25
410.685	123.25
410.908	126.25
411.132	131.25
411.355	117.25
411.578	121.25
411.802	114.25
412.025	102.25
412.249	121.25
412.472	118.25
412.695	122.25
412.919	117.25
413.142	123.25
413.365	111.25
413.589	113.25
413.812	111.25
414.035	111.25
414.258	114.25
414.482	114.25
414.705	126.25
414.928	118.25
415.151	107.25
415.374	112.25
415.597	116.25
415.821	122.25
416.044	107.25
416.267	120.25
416.49	123.25
416.713	114.25
416.936	114.25
417.159	115.25
417.382	119.25
417.605	123.25
417.828	115.25
418.051	127.25
418.274	131.25
418.497	115.25
418.72	108.25
418.943	136.25
419.166	124.25
419.389	121.25
419.611	120.25
419.834	119.25
420.057	126.25
420.28	130.25
420.503	116.25
420.726	127.25
420.948	113.25
421.171	134.25
421.394	137.25
421.617	134.25
421.839	133.25
422.062	133.25
422.285	132.25
422.507	116.25
422.73	113.25
422.953	114.25
423.175	115.25
423.398	121.25
423.621	119.25
423.843	121.25
424.066	124.25
424.288	130.25
424.511	141.25
424.733	137.25
424.956	133.25
425.178	146.25
425.401	124.25
425.623	123.25
425.846	122.25
426.068	127.25
426.291	125.25
426.513	120.25
426.735	115.25
426.958	109.25
427.18	125.25
427.402	126.25
427.625	118.25
427.847	128.25
428.069	124.25
428.292	111.25
428.514	123.25
428.736	116.25
428.958	110.25
429.181	123.25
429.403	108.25
429.625	109.25
429.847	108.25
430.069	120.25
430.292	136.25
430.514	111.25
430.736	132.25
430.958	133.25
431.18	121.25
431.402	112.25
431.624	119.25
431.846	110.25
432.068	102.25
432.29	87.25
432.512	115.25
432.734	118.25
432.956	131.25
433.178	134.25
433.4	133.25
433.622	133.25
433.844	132.25
434.066	122.25
434.287	104.25
434.509	97.25
434.731	100.25
434.953	106.25
435.175	115.25
435.397	116.25
435.618	113.25
435.84	103.25
436.062	107.25
436.284	115.25
436.505	134.25
436.727	116.25
436.949	115.25
437.17	123.25
437.392	145.25
437.614	115.25
437.835	98.25
438.057	104.25
438.278	101.25
438.5	120.25
438.721	131.25
438.943	132.25
439.165	139.25
439.386	134.25
439.608	122.25
439.829	141.25
440.05	135.25
440.272	138.25
440.493	149.25
440.715	128.25
440.936	125.25
441.158	136.25
441.379	149.25
441.6	154.25
441.822	141.25
442.043	139.25
442.264	128.25
442.486	143.25
442.707	136.25
442.928	144.25
443.149	125.25
443.371	143.25
443.592	151.25
443.813	133.25
444.034	135.25
444.255	128.25
444.476	138.25
444.698	136.25
444.919	147.25
445.14	289.25
445.361	199.25
445.582	160.25
445.803	129.25
446.024	149.25
446.245	160.25
446.466	145.25
446.687	146.25
446.908	138.25
447.129	149.25
447.35	145.25
447.571	145.25
447.792	145.25
448.013	149.25
448.234	141.25
448.455	147.25
448.675	138.25
448.896	127.25
449.117	133.25
449.338	124.25
449.559	125.25
449.779	133.25
450	129.25
450.221	128.25
450.442	150.25
450.662	123.25
450.883	121.25
451.104	130.25
451.324	125.25
451.545	120.25
451.766	113.25
451.986	125.25
452.207	124.25
452.428	109.25
452.648	119.25
452.869	116.25
453.089	111.25
453.31	110.25
453.53	100.25
453.751	87.25
453.971	109.25
454.192	88.25
454.412	113.25
454.633	117.25
454.853	118.25
455.073	117.25
455.294	114.25
455.514	111.25
455.734	103.25
455.955	111.25
456.175	116.25
456.395	108.25
456.616	114.25
456.836	94.25
457.056	105.25
457.276	101.25
457.497	102.25
457.717	103.25
457.937	108.25
458.157	111.25
458.377	125.25
458.598	108.25
458.818	94.25
459.038	95.25
459.258	79.25
459.478	88.25
459.698	91.25
459.918	106.25
460.138	93.25
460.358	115.25
460.578	112.25
460.798	113.25
461.018	110.25
461.238	110.25
461.458	111.25
461.678	109.25
461.898	105.25
462.118	89.25
462.338	124.25
462.558	116.25
462.777	96.25
462.997	109.25
463.217	116.25
463.437	104.25
463.657	100.25
463.876	96.25
464.096	113.25
464.316	94.25
464.536	105.25
464.755	119.25
464.975	121.25
465.195	97.25
465.414	107.25
465.634	115.25
465.854	124.25
466.073	119.25
466.293	126.25
466.512	122.25
466.732	114.25
466.951	130.25
467.171	129.25
467.391	143.25
467.61	127.25
467.829	135.25
468.049	137.25
468.268	121.25
468.488	142.25
468.707	142.25
468.927	141.25
469.146	133.25
469.365	134.25
469.585	150.25
469.804	143.25
470.023	122.25
470.243	137.25
470.462	148.25
470.681	129.25
470.901	144.25
471.12	137.25
471.339	117.25
471.558	142.25
471.777	128.25
471.997	126.25
472.216	131.25
472.435	105.25
472.654	111.25
472.873	107.25
473.092	112.25
473.311	123.25
473.53	113.25
473.749	126.25
473.968	113.25
474.187	106.25
474.406	112.25
474.625	113.25
474.844	128.25
475.063	113.25
475.282	117.25
475.501	117.25
475.72	119.25
475.939	108.25
476.158	109.25
476.377	121.25
476.596	115.25
476.814	104.25
477.033	98.25
477.252	120.25
477.471	125.25
477.69	127.25
477.908	123.25
478.127	140.25
478.346	124.25
478.564	125.25
478.783	125.25
479.002	143.25
479.22	123.25
479.439	123.25
479.658	119.25
479.876	123.25
480.095	98.25
480.313	117.25
480.532	108.25
480.751	110.25
480.969	86.25
481.188	73.25
481.406	79.25
481.624	96.25
481.843	94.25
482.061	108.25
482.28	109.25
482.498	118.25
482.717	103.25
482.935	106.25
483.153	125.25
483.372	138.25
483.59	141.25
483.808	113.25
484.027	128.25
484.245	134.25
484.463	147.25
484.681	172.25
484.9	141.25
485.118	128.25
485.336	125.25
485.554	114.25
485.772	103.25
485.99	99.25
486.209	102.25
486.427	104.25
486.645	109.25
486.863	132.25
487.081	156.25
487.299	140.25
487.517	135.25
487.735	159.25
487.953	183.25
488.171	160.25
488.389	164.25
488.607	151.25
488.825	136.25
489.043	135.25
489.261	128.25
489.479	126.25
489.696	139.25
489.914	146.25
490.132	121.25
490.35	137.25
490.568	157.25
490.786	163.25
491.003	171.25
491.221	172.25
491.439	158.25
491.657	185.25
491.874	179.25
492.092	203.25
492.31	246.25
492.527	205.25
492.745	195.25
492.963	175.25
493.18	175.25
493.398	188.25
493.615	175.25
493.833	160.25
494.05	160.25
494.268	165.25
494.485	166.25
494.703	168.25
494.92	169.25
495.138	163.25
495.355	171.25
495.573	156.25
495.79	163.25
496.008	164.25
496.225	153.25
496.442	156.25
496.66	169.25
496.877	158.25
497.094	157.25
497.312	151.25
497.529	162.25
497.746	142.25
497.963	129.25
498.181	112.25
498.398	118.25
498.615	110.25
498.832	127.25
499.049	129.25
499.267	113.25
499.484	115.25
499.701	130.25
499.918	123.25
500.135	112.25
500.352	122.25
500.569	136.25
500.786	136.25
501.003	138.25
501.22	139.25
501.437	136.25
501.654	118.25
501.871	130.25
502.088	128.25
502.305	134.25
502.522	108.25
502.739	128.25
502.956	118.25
503.172	122.25
503.389	123.25
503.606	111.25
503.823	119.25
504.04	123.25
504.256	119.25
504.473	123.25
504.69	119.25
504.907	110.25
505.123	112.25
505.34	125.25
505.557	117.25
505.773	121.25
505.99	131.25
506.207	113.25
506.423	117.25
506.64	128.25
506.856	110.25
507.073	119.25
507.289	109.25
507.506	94.25
507.722	117.25
507.939	118.25
508.155	120.25
508.372	102.25
508.588	105.25
508.805	95.25
509.021	112.25
509.238	91.25
509.454	87.25
509.67	103.25
509.887	104.25
510.103	96.25
510.319	103.25
510.536	99.25
510.752	82.25
510.968	84.25
511.184	74.25
511.401	81.25
511.617	82.25
511.833	75.25
512.049	87.25
