Data from Location4.07152019.Energy5.Lamp.07192019.3%Agarose_HRD10591_16-20-59-926.txt Node
Date: Fri Jul 19 16:20:59 EDT 2019
User: cochatt
Spectrometer: HR+D1059
Trigger mode: 1
Integration Time (sec): 1.000000E-1
Scans to average: 1
Electric dark correction enabled: true
Nonlinearity correction enabled: false
Boxcar width: 0
XAxis mode: Wavelengths
Number of Pixels in Spectrum: 2048
>>>>>Begin Spectral Data<<<<<
223.165	-11
223.4	-11
223.635	-11
223.869	-12
224.104	-17
224.338	-11
224.573	-23
224.808	-11
225.042	2
225.277	-13
225.511	-21
225.746	-2
225.98	6
226.215	-3
226.449	28
226.683	33
226.918	29
227.152	26
227.387	38
227.621	44
227.856	39
228.09	37
228.324	55
228.559	50
228.793	52
229.027	68
229.262	62
229.496	64
229.73	64
229.964	51
230.199	86
230.433	82
230.667	71
230.901	77
231.136	86
231.37	84
231.604	67
231.838	68
232.072	87
232.306	82
232.541	80
232.775	86
233.009	81
233.243	91
233.477	65
233.711	82
233.945	80
234.179	75
234.413	98
234.647	67
234.881	79
235.115	69
235.349	77
235.583	79
235.817	77
236.051	75
236.285	78
236.519	84
236.753	76
236.987	75
237.221	95
237.455	84
237.689	79
237.922	76
238.156	78
238.39	79
238.624	71
238.858	76
239.091	64
239.325	83
239.559	86
239.793	81
240.027	73
240.26	75
240.494	74
240.728	73
240.961	72
241.195	76
241.429	59
241.662	80
241.896	74
242.13	68
242.363	80
242.597	72
242.83	79
243.064	75
243.298	70
243.531	78
243.765	73
243.998	75
244.232	74
244.465	82
244.699	80
244.932	81
245.166	82
245.399	73
245.633	74
245.866	74
246.099	83
246.333	96
246.566	74
246.8	74
247.033	60
247.266	82
247.5	76
247.733	76
247.966	85
248.2	77
248.433	64
248.666	83
248.899	82
249.133	89
249.366	81
249.599	77
249.832	72
250.066	65
250.299	76
250.532	76
250.765	80
250.998	80
251.231	78
251.465	75
251.698	71
251.931	72
252.164	72
252.397	58
252.63	87
252.863	73
253.096	69
253.329	83
253.562	65
253.795	78
254.028	90
254.261	82
254.494	79
254.727	69
254.96	81
255.193	64
255.426	70
255.659	68
255.892	94
256.124	82
256.357	87
256.59	91
256.823	83
257.056	83
257.289	81
257.521	81
257.754	81
257.987	81
258.22	85
258.452	77
258.685	84
258.918	80
259.151	87
259.383	86
259.616	74
259.849	64
260.081	90
260.314	86
260.547	82
260.779	76
261.012	77
261.244	72
261.477	82
261.71	62
261.942	76
262.175	80
262.407	86
262.64	79
262.872	73
263.105	81
263.337	86
263.57	74
263.802	86
264.035	79
264.267	77
264.499	89
264.732	86
264.964	69
265.197	76
265.429	68
265.661	79
265.894	82
266.126	86
266.358	74
266.591	70
266.823	79
267.055	78
267.287	83
267.52	86
267.752	95
267.984	78
268.216	75
268.448	78
268.681	92
268.913	90
269.145	89
269.377	76
269.609	91
269.841	74
270.073	89
270.306	74
270.538	81
270.77	83
271.002	78
271.234	91
271.466	97
271.698	87
271.93	81
272.162	100
272.394	78
272.626	84
272.858	82
273.09	84
273.322	76
273.553	82
273.785	79
274.017	86
274.249	76
274.481	102
274.713	88
274.945	83
275.176	65
275.408	91
275.64	94
275.872	74
276.104	67
276.335	75
276.567	82
276.799	79
277.031	79
277.262	84
277.494	88
277.726	82
277.957	82
278.189	74
278.421	76
278.652	82
278.884	88
279.115	94
279.347	84
279.579	81
279.81	73
280.042	86
280.273	99
280.505	70
280.736	84
280.968	80
281.199	94
281.431	92
281.662	67
281.894	76
282.125	63
282.356	80
282.588	81
282.819	87
283.051	76
283.282	85
283.513	97
283.745	70
283.976	88
284.207	82
284.439	88
284.67	95
284.901	92
285.132	94
285.364	85
285.595	82
285.826	84
286.057	76
286.288	90
286.52	93
286.751	76
286.982	83
287.213	77
287.444	86
287.675	69
287.906	95
288.138	83
288.369	89
288.6	70
288.831	66
289.062	87
289.293	75
289.524	83
289.755	68
289.986	91
290.217	96
290.448	84
290.679	87
290.91	91
291.141	77
291.371	81
291.602	94
291.833	83
292.064	83
292.295	79
292.526	74
292.757	82
292.987	72
293.218	71
293.449	88
293.68	77
293.91	72
294.141	93
294.372	79
294.603	84
294.833	96
295.064	75
295.295	90
295.525	77
295.756	81
295.987	83
296.217	85
296.448	83
296.679	89
296.909	88
297.14	84
297.37	89
297.601	65
297.831	75
298.062	80
298.292	96
298.523	81
298.753	80
298.984	68
299.214	74
299.445	90
299.675	79
299.905	91
300.136	95
300.366	96
300.597	80
300.827	91
301.057	96
301.288	81
301.518	88
301.748	84
301.979	79
302.209	90
302.439	100
302.669	80
302.9	81
303.13	87
303.36	86
303.59	80
303.82	98
304.051	75
304.281	74
304.511	72
304.741	85
304.971	80
305.201	80
305.431	83
305.661	67
305.891	74
306.121	107
306.352	100
306.582	89
306.812	94
307.042	87
307.272	98
307.502	91
307.731	91
307.961	81
308.191	73
308.421	86
308.651	85
308.881	88
309.111	73
309.341	89
309.571	84
309.8	80
310.03	84
310.26	84
310.49	88
310.72	82
310.949	75
311.179	83
311.409	82
311.639	95
311.868	79
312.098	75
312.328	86
312.557	86
312.787	94
313.017	90
313.246	79
313.476	78
313.706	68
313.935	88
314.165	81
314.394	91
314.624	87
314.853	90
315.083	86
315.312	86
315.542	96
315.771	94
316.001	83
316.23	81
316.46	92
316.689	88
316.919	81
317.148	86
317.377	99
317.607	86
317.836	101
318.065	70
318.295	87
318.524	85
318.753	80
318.983	74
319.212	80
319.441	73
319.67	92
319.9	82
320.129	88
320.358	71
320.587	82
320.816	78
321.046	82
321.275	92
321.504	77
321.733	81
321.962	85
322.191	93
322.42	85
322.649	86
322.878	84
323.108	97
323.337	89
323.566	86
323.795	83
324.024	76
324.253	84
324.482	78
324.71	88
324.939	83
325.168	87
325.397	84
325.626	82
325.855	81
326.084	80
326.313	71
326.542	80
326.77	77
326.999	86
327.228	80
327.457	85
327.686	86
327.914	81
328.143	96
328.372	94
328.6	80
328.829	69
329.058	86
329.287	86
329.515	89
329.744	83
329.972	84
330.201	83
330.43	86
330.658	73
330.887	80
331.115	84
331.344	86
331.572	89
331.801	74
332.03	72
332.258	74
332.486	83
332.715	83
332.943	79
333.172	80
333.4	73
333.629	88
333.857	76
334.085	87
334.314	83
334.542	81
334.771	67
334.999	89
335.227	88
335.455	90
335.684	101
335.912	88
336.14	94
336.369	95
336.597	88
336.825	80
337.053	76
337.281	79
337.51	82
337.738	75
337.966	80
338.194	65
338.422	87
338.65	82
338.878	87
339.106	88
339.334	90
339.562	93
339.79	72
340.018	70
340.246	75
340.474	85
340.702	85
340.93	75
341.158	87
341.386	78
341.614	90
341.842	74
342.07	82
342.298	75
342.526	76
342.754	89
342.981	87
343.209	69
343.437	90
343.665	80
343.893	91
344.12	99
344.348	83
344.576	75
344.804	73
345.031	85
345.259	96
345.487	84
345.714	91
345.942	75
346.17	83
346.397	83
346.625	94
346.853	80
347.08	75
347.308	77
347.535	96
347.763	85
347.99	80
348.218	75
348.445	82
348.673	78
348.9	78
349.128	82
349.355	74
349.583	91
349.81	84
350.037	74
350.265	89
350.492	89
350.72	82
350.947	79
351.174	72
351.402	77
351.629	62
351.856	89
352.083	93
352.311	84
352.538	93
352.765	86
352.992	73
353.22	85
353.447	78
353.674	91
353.901	80
354.128	72
354.355	80
354.583	83
354.81	104
355.037	88
355.264	78
355.491	77
355.718	76
355.945	88
356.172	94
356.399	102
356.626	96
356.853	71
357.08	78
357.307	77
357.534	73
357.761	91
357.988	89
358.215	84
358.441	69
358.668	62
358.895	78
359.122	84
359.349	86
359.576	82
359.802	93
360.029	87
360.256	87
360.483	82
360.709	76
360.936	92
361.163	89
361.39	68
361.616	80
361.843	93
362.07	90
362.296	71
362.523	78
362.749	80
362.976	87
363.203	90
363.429	76
363.656	81
363.882	82
364.109	76
364.335	85
364.562	88
364.788	87
365.015	85
365.241	103
365.468	86
365.694	66
365.92	91
366.147	74
366.373	74
366.599	79
366.826	89
367.052	93
367.278	78
367.505	94
367.731	96
367.957	94
368.184	79
368.41	94
368.636	97
368.862	87
369.089	101
369.315	84
369.541	93
369.767	90
369.993	83
370.219	87
370.445	106
370.672	84
370.898	88
371.124	99
371.35	67
371.576	86
371.802	93
372.028	79
372.254	86
372.48	79
372.706	86
372.932	97
373.158	88
373.384	75
373.61	81
373.835	96
374.061	85
374.287	94
374.513	86
374.739	84
374.965	78
375.191	90
375.416	87
375.642	85
375.868	84
376.094	84
376.319	90
376.545	78
376.771	103
376.997	83
377.222	98
377.448	86
377.674	93
377.899	83
378.125	88
378.35	103
378.576	87
378.802	89
379.027	94
379.253	100
379.478	87
379.704	96
379.929	94
380.155	110
380.38	91
380.606	97
380.831	101
381.057	101
381.282	85
381.507	109
381.733	118
381.958	89
382.184	93
382.409	107
382.634	99
382.86	98
383.085	87
383.31	94
383.535	78
383.761	86
383.986	99
384.211	102
384.436	96
384.662	106
384.887	95
385.112	98
385.337	99
385.562	100
385.787	90
386.013	89
386.238	98
386.463	82
386.688	98
386.913	95
387.138	91
387.363	102
387.588	100
387.813	102
388.038	83
388.263	101
388.488	91
388.713	97
388.938	97
389.163	99
389.387	96
389.612	98
389.837	114
390.062	116
390.287	95
390.512	88
390.736	96
390.961	91
391.186	102
391.411	105
391.636	98
391.86	110
392.085	119
392.31	114
392.534	98
392.759	100
392.984	107
393.208	88
393.433	97
393.658	101
393.882	102
394.107	114
394.331	103
394.556	90
394.78	101
395.005	103
395.229	115
395.454	91
395.678	102
395.903	100
396.127	90
396.352	114
396.576	110
396.801	97
397.025	97
397.249	112
397.474	103
397.698	116
397.922	102
398.147	105
398.371	108
398.595	94
398.82	101
399.044	88
399.268	102
399.492	110
399.717	116
399.941	94
400.165	107
400.389	116
400.613	103
400.837	112
401.062	110
401.286	108
401.51	115
401.734	125
401.958	99
402.182	102
402.406	109
402.63	86
402.854	101
403.078	116
403.302	112
403.526	107
403.75	105
403.974	115
404.198	102
404.422	117
404.645	97
404.869	107
405.093	108
405.317	124
405.541	106
405.765	120
405.988	116
406.212	127
406.436	116
406.66	121
406.883	114
407.107	115
407.331	122
407.555	105
407.778	115
408.002	106
408.226	119
408.449	123
408.673	103
408.896	116
409.12	110
409.344	110
409.567	123
409.791	113
410.014	138
410.238	116
410.461	120
410.685	123
410.908	119
411.132	112
411.355	118
411.578	111
411.802	123
412.025	115
412.249	115
412.472	111
412.695	117
412.919	115
413.142	114
413.365	117
413.589	107
413.812	117
414.035	122
414.258	117
414.482	114
414.705	114
414.928	113
415.151	120
415.374	124
415.597	119
415.821	105
416.044	116
416.267	126
416.49	125
416.713	136
416.936	110
417.159	123
417.382	124
417.605	116
417.828	127
418.051	126
418.274	130
418.497	129
418.72	111
418.943	125
419.166	131
419.389	118
419.611	139
419.834	124
420.057	139
420.28	120
420.503	134
420.726	134
420.948	115
421.171	126
421.394	128
421.617	145
421.839	138
422.062	136
422.285	130
422.507	122
422.73	121
422.953	127
423.175	139
423.398	131
423.621	128
423.843	119
424.066	147
424.288	134
424.511	129
424.733	149
424.956	140
425.178	122
425.401	126
425.623	117
425.846	138
426.068	130
426.291	105
426.513	135
426.735	130
426.958	135
427.18	124
427.402	149
427.625	114
427.847	121
428.069	110
428.292	126
428.514	122
428.736	125
428.958	116
429.181	127
429.403	135
429.625	122
429.847	121
430.069	110
430.292	115
430.514	130
430.736	126
430.958	133
431.18	127
431.402	120
431.624	110
431.846	94
432.068	96
432.29	105
432.512	125
432.734	106
432.956	119
433.178	114
433.4	119
433.622	125
433.844	107
434.066	137
434.287	110
434.509	99
434.731	105
434.953	112
435.175	106
435.397	113
435.618	108
435.84	96
436.062	127
436.284	123
436.505	115
436.727	115
436.949	116
437.17	116
437.392	131
437.614	129
437.835	101
438.057	101
438.278	96
438.5	115
438.721	123
438.943	128
439.165	131
439.386	141
439.608	150
439.829	127
440.05	150
440.272	129
440.493	134
440.715	126
440.936	139
441.158	141
441.379	140
441.6	143
441.822	129
442.043	149
442.264	113
442.486	130
442.707	128
442.928	150
443.149	149
443.371	128
443.592	134
443.813	128
444.034	122
444.255	137
444.476	148
444.698	134
444.919	124
445.14	269
445.361	216
445.582	136
445.803	143
446.024	128
446.245	142
446.466	150
446.687	133
446.908	152
447.129	147
447.35	151
447.571	152
447.792	139
448.013	138
448.234	135
448.455	140
448.675	148
448.896	137
449.117	140
449.338	130
449.559	143
449.779	144
450	127
450.221	126
450.442	139
450.662	132
450.883	121
451.104	130
451.324	132
451.545	123
451.766	128
451.986	116
452.207	128
452.428	121
452.648	113
452.869	111
453.089	79
453.31	118
453.53	118
453.751	104
453.971	100
454.192	104
454.412	104
454.633	127
454.853	108
455.073	125
455.294	118
455.514	124
455.734	126
455.955	126
456.175	116
456.395	111
456.616	112
456.836	104
457.056	106
457.276	105
457.497	99
457.717	104
457.937	104
458.157	105
458.377	113
458.598	99
458.818	80
459.038	101
459.258	89
459.478	79
459.698	91
459.918	85
460.138	117
460.358	116
460.578	117
460.798	114
461.018	122
461.238	105
461.458	112
461.678	122
461.898	96
462.118	108
462.338	116
462.558	108
462.777	119
462.997	98
463.217	96
463.437	91
463.657	104
463.876	118
464.096	118
464.316	108
464.536	116
464.755	98
464.975	103
465.195	111
465.414	106
465.634	107
465.854	119
466.073	104
466.293	114
466.512	113
466.732	122
466.951	116
467.171	115
467.391	130
467.61	119
467.829	117
468.049	138
468.268	129
468.488	124
468.707	113
468.927	133
469.146	121
469.365	122
469.585	133
469.804	146
470.023	133
470.243	124
470.462	126
470.681	123
470.901	130
471.12	140
471.339	133
471.558	142
471.777	138
471.997	119
472.216	127
472.435	121
472.654	114
472.873	118
473.092	119
473.311	111
473.53	130
473.749	128
473.968	135
474.187	113
474.406	102
474.625	133
474.844	128
475.063	116
475.282	122
475.501	109
475.72	112
475.939	116
476.158	116
476.377	118
476.596	125
476.814	115
477.033	107
477.252	106
477.471	124
477.69	126
477.908	125
478.127	125
478.346	132
478.564	151
478.783	128
479.002	134
479.22	141
479.439	121
479.658	112
479.876	119
480.095	113
480.313	126
480.532	102
480.751	98
480.969	97
481.188	90
481.406	92
481.624	88
481.843	85
482.061	84
482.28	105
482.498	110
482.717	110
482.935	120
483.153	148
483.372	127
483.59	132
483.808	140
484.027	123
484.245	127
484.463	139
484.681	135
484.9	145
485.118	131
485.336	131
485.554	104
485.772	90
485.99	98
486.209	111
486.427	115
486.645	120
486.863	143
487.081	150
487.299	157
487.517	126
487.735	149
487.953	183
488.171	178
488.389	176
488.607	165
488.825	140
489.043	124
489.261	148
489.479	145
489.696	128
489.914	150
490.132	146
490.35	151
490.568	159
490.786	163
491.003	161
491.221	166
491.439	192
491.657	192
491.874	188
492.092	219
492.31	226
492.527	216
492.745	208
492.963	177
493.18	176
493.398	184
493.615	162
493.833	166
494.05	167
494.268	162
494.485	166
494.703	148
494.92	176
495.138	172
495.355	180
495.573	167
495.79	156
496.008	164
496.225	154
496.442	150
496.66	158
496.877	159
497.094	169
497.312	171
497.529	168
497.746	152
497.963	140
498.181	140
498.398	103
498.615	128
498.832	124
499.049	116
499.267	122
499.484	131
499.701	138
499.918	154
500.135	126
500.352	139
500.569	149
500.786	134
501.003	130
501.22	133
501.437	128
501.654	130
501.871	122
502.088	134
502.305	126
502.522	137
502.739	126
502.956	122
503.172	126
503.389	128
503.606	122
503.823	123
504.04	113
504.256	103
504.473	99
504.69	114
504.907	131
505.123	116
505.34	124
505.557	126
505.773	119
505.99	128
506.207	122
506.423	121
506.64	113
506.856	118
507.073	123
507.289	114
507.506	111
507.722	112
507.939	126
508.155	117
508.372	118
508.588	115
508.805	114
509.021	117
509.238	114
509.454	96
509.67	88
509.887	96
510.103	99
510.319	95
510.536	79
510.752	92
510.968	90
511.184	90
511.401	84
511.617	76
511.833	85
512.049	103
512.265	97
512.481	94
512.698	89
512.914	99
513.13	97
513.346	99
513.562	92
513.778	96
513.994	81
514.21	86
514.426	75
514.642	84
514.858	87
515.074	98
515.29	99
515.506	83
515.721	81
515.937	92
516.153	78
516.369	83
516.585	94
516.801	84
517.016	83
517.232	102
517.448	97
517.664	98
517.879	97
518.095	86
518.311	103
518.527	87
518.742	110
518.958	88
519.173	94
519.389	109
519.605	104
519.82	105
520.036	104
520.251	99
520.467	114
520.682	94
520.898	82
521.113	89
521.329	110
521.544	96
521.76	110
521.975	96
522.19	100
522.406	102
522.621	109
522.836	96
523.052	114
523.267	98
523.482	120
523.698	118
523.913	108
524.128	112
524.343	99
524.559	111
524.774	116
524.989	127
525.204	117
525.419	117
525.634	103
525.849	96
526.064	92
526.28	106
526.495	101
526.71	78
526.925	82
527.14	74
527.355	73
527.57	100
527.785	91
527.999	81
528.214	92
528.429	112
528.644	112
528.859	128
529.074	152
529.289	156
529.503	152
529.718	149
529.933	130
530.148	118
530.363	96
530.577	92
530.792	72
531.007	65
531.221	80
531.436	82
531.651	84
531.865	88
532.08	90
532.295	84
532.509	100
532.724	103
532.938	83
533.153	95
533.367	104
533.582	102
533.796	124
534.011	116
534.225	99
534.44	96
534.654	81
534.868	93
535.083	103
535.297	82
535.511	106
535.726	122
535.94	111
536.154	103
536.369	87
536.583	66
536.797	72
537.011	81
537.225	80
537.44	96
537.654	103
537.868	111
538.082	98
538.296	86
538.51	104
538.724	113
538.938	118
539.153	107
539.367	120
539.581	109
539.795	104
540.009	110
540.222	89
540.436	90
540.65	124
540.864	99
541.078	144
541.292	138
541.506	163
541.72	157
541.934	174
542.147	188
542.361	182
542.575	169
542.789	144
543.002	130
543.216	124
543.43	126
543.644	126
543.857	147
544.071	144
544.285	153
544.498	161
544.712	155
544.925	153
545.139	152
545.352	165
545.566	169
545.779	158
545.993	165
546.206	157
546.42	154
546.633	146
546.847	151
547.06	154
547.274	167
547.487	176
547.7	172
547.914	159
548.127	155
548.34	139
548.554	151
548.767	156
548.98	159
549.193	162
549.407	146
549.62	145
549.833	168
550.046	141
550.259	132
550.473	143
550.686	157
550.899	134
551.112	134
551.325	135
551.538	137
551.751	114
551.964	118
552.177	132
552.39	150
552.603	136
552.816	159
553.029	150
553.242	157
553.455	153
553.667	147
553.88	160
554.093	134
554.306	130
554.519	143
554.732	144
554.944	148
555.157	144
555.37	137
555.583	126
555.795	138
556.008	138
556.221	122
556.433	137
556.646	144
556.859	147
557.071	151
557.284	137
557.496	140
557.709	135
557.921	131
558.134	123
558.346	142
558.559	138
558.771	140
558.984	140
559.196	139
559.409	134
559.621	120
559.833	116
560.046	128
560.258	126
560.47	135
560.683	126
560.895	128
561.107	128
561.32	135
561.532	132
561.744	129
561.956	136
562.168	142
562.381	114
562.593	113
562.805	117
563.017	115
563.229	120
563.441	128
563.653	126
563.865	113
564.077	115
564.289	126
564.501	127
564.713	117
564.925	125
565.137	130
565.349	124
565.561	118
565.773	126
565.985	107
566.197	124
566.408	115
566.62	123
566.832	120
567.044	116
567.255	107
567.467	101
567.679	120
567.891	102
568.102	104
568.314	95
568.526	93
568.737	81
568.949	73
569.161	82
569.372	79
569.584	82
569.795	81
570.007	79
570.218	99
570.43	100
570.641	97
570.853	81
571.064	103
571.276	99
571.487	117
571.698	106
571.91	108
572.121	112
572.333	98
572.544	96
572.755	95
572.966	77
573.178	96
573.389	76
573.6	100
573.811	65
574.023	82
574.234	72
574.445	96
574.656	94
574.867	94
575.078	87
575.289	91
575.501	104
575.712	81
575.923	90
576.134	115
576.345	101
576.556	107
576.767	95
576.978	91
577.188	102
577.399	84
