Data from Location4.07152019.Energy5.Lamp.07192019.3%Agarose_HRD10591_16-21-22-926.txt Node
Date: Fri Jul 19 16:21:22 EDT 2019
User: cochatt
Spectrometer: HR+D1059
Trigger mode: 1
Integration Time (sec): 1.000000E-1
Scans to average: 1
Electric dark correction enabled: true
Nonlinearity correction enabled: false
Boxcar width: 0
XAxis mode: Wavelengths
Number of Pixels in Spectrum: 2048
>>>>>Begin Spectral Data<<<<<
223.165	-22.06
223.4	-22.06
223.635	-22.06
223.869	-35.06
224.104	-14.06
224.338	-12.06
224.573	-13.06
224.808	-13.06
225.042	-7.06
225.277	-4.06
225.511	4.94
225.746	3.94
225.98	-3.06
226.215	16.94
226.449	16.94
226.683	16.94
226.918	22.94
227.152	40.94
227.387	16.94
227.621	40.94
227.856	42.94
228.09	32.94
228.324	53.94
228.559	50.94
228.793	57.94
229.027	64.94
229.262	69.94
229.496	73.94
229.73	71.94
229.964	63.94
230.199	85.94
230.433	70.94
230.667	85.94
230.901	81.94
231.136	70.94
231.37	78.94
231.604	86.94
231.838	78.94
232.072	83.94
232.306	83.94
232.541	85.94
232.775	83.94
233.009	78.94
233.243	83.94
233.477	71.94
233.711	92.94
233.945	83.94
234.179	80.94
234.413	79.94
234.647	93.94
234.881	78.94
235.115	86.94
235.349	69.94
235.583	82.94
235.817	70.94
236.051	72.94
236.285	83.94
236.519	84.94
236.753	71.94
236.987	81.94
237.221	80.94
237.455	73.94
237.689	69.94
237.922	69.94
238.156	71.94
238.39	72.94
238.624	77.94
238.858	80.94
239.091	67.94
239.325	77.94
239.559	58.94
239.793	54.94
240.027	73.94
240.26	65.94
240.494	91.94
240.728	67.94
240.961	73.94
241.195	75.94
241.429	67.94
241.662	72.94
241.896	82.94
242.13	82.94
242.363	78.94
242.597	76.94
242.83	88.94
243.064	69.94
243.298	73.94
243.531	72.94
243.765	76.94
243.998	88.94
244.232	86.94
244.465	93.94
244.699	84.94
244.932	87.94
245.166	76.94
245.399	86.94
245.633	78.94
245.866	74.94
246.099	79.94
246.333	71.94
246.566	78.94
246.8	66.94
247.033	61.94
247.266	78.94
247.5	78.94
247.733	72.94
247.966	53.94
248.2	71.94
248.433	82.94
248.666	80.94
248.899	79.94
249.133	71.94
249.366	85.94
249.599	90.94
249.832	71.94
250.066	75.94
250.299	72.94
250.532	87.94
250.765	73.94
250.998	82.94
251.231	72.94
251.465	86.94
251.698	67.94
251.931	80.94
252.164	78.94
252.397	86.94
252.63	87.94
252.863	81.94
253.096	81.94
253.329	73.94
253.562	85.94
253.795	71.94
254.028	88.94
254.261	66.94
254.494	83.94
254.727	75.94
254.96	77.94
255.193	63.94
255.426	85.94
255.659	94.94
255.892	81.94
256.124	83.94
256.357	72.94
256.59	91.94
256.823	72.94
257.056	82.94
257.289	87.94
257.521	72.94
257.754	77.94
257.987	72.94
258.22	97.94
258.452	67.94
258.685	82.94
258.918	85.94
259.151	81.94
259.383	82.94
259.616	96.94
259.849	70.94
260.081	70.94
260.314	85.94
260.547	73.94
260.779	85.94
261.012	80.94
261.244	77.94
261.477	72.94
261.71	82.94
261.942	81.94
262.175	96.94
262.407	95.94
262.64	84.94
262.872	77.94
263.105	84.94
263.337	87.94
263.57	69.94
263.802	76.94
264.035	86.94
264.267	77.94
264.499	79.94
264.732	79.94
264.964	69.94
265.197	81.94
265.429	80.94
265.661	81.94
265.894	85.94
266.126	79.94
266.358	90.94
266.591	78.94
266.823	76.94
267.055	81.94
267.287	78.94
267.52	87.94
267.752	85.94
267.984	75.94
268.216	61.94
268.448	83.94
268.681	85.94
268.913	84.94
269.145	83.94
269.377	82.94
269.609	82.94
269.841	81.94
270.073	86.94
270.306	75.94
270.538	85.94
270.77	88.94
271.002	88.94
271.234	83.94
271.466	94.94
271.698	93.94
271.93	79.94
272.162	79.94
272.394	68.94
272.626	85.94
272.858	78.94
273.09	70.94
273.322	80.94
273.553	93.94
273.785	81.94
274.017	95.94
274.249	87.94
274.481	87.94
274.713	90.94
274.945	90.94
275.176	83.94
275.408	81.94
275.64	82.94
275.872	80.94
276.104	87.94
276.335	94.94
276.567	79.94
276.799	74.94
277.031	88.94
277.262	86.94
277.494	78.94
277.726	90.94
277.957	84.94
278.189	87.94
278.421	85.94
278.652	71.94
278.884	79.94
279.115	75.94
279.347	80.94
279.579	80.94
279.81	65.94
280.042	79.94
280.273	94.94
280.505	82.94
280.736	84.94
280.968	89.94
281.199	87.94
281.431	80.94
281.662	81.94
281.894	88.94
282.125	86.94
282.356	86.94
282.588	86.94
282.819	73.94
283.051	75.94
283.282	81.94
283.513	88.94
283.745	82.94
283.976	90.94
284.207	72.94
284.439	101.94
284.67	95.94
284.901	69.94
285.132	89.94
285.364	82.94
285.595	96.94
285.826	78.94
286.057	79.94
286.288	70.94
286.52	83.94
286.751	88.94
286.982	70.94
287.213	82.94
287.444	91.94
287.675	59.94
287.906	102.94
288.138	84.94
288.369	86.94
288.6	87.94
288.831	66.94
289.062	77.94
289.293	69.94
289.524	90.94
289.755	64.94
289.986	81.94
290.217	91.94
290.448	96.94
290.679	75.94
290.91	95.94
291.141	74.94
291.371	88.94
291.602	73.94
291.833	88.94
292.064	82.94
292.295	78.94
292.526	83.94
292.757	74.94
292.987	83.94
293.218	67.94
293.449	85.94
293.68	83.94
293.91	75.94
294.141	81.94
294.372	75.94
294.603	86.94
294.833	80.94
295.064	80.94
295.295	94.94
295.525	81.94
295.756	102.94
295.987	102.94
296.217	79.94
296.448	90.94
296.679	80.94
296.909	85.94
297.14	87.94
297.37	83.94
297.601	64.94
297.831	85.94
298.062	85.94
298.292	84.94
298.523	89.94
298.753	91.94
298.984	94.94
299.214	82.94
299.445	88.94
299.675	85.94
299.905	81.94
300.136	88.94
300.366	79.94
300.597	85.94
300.827	78.94
301.057	101.94
301.288	97.94
301.518	67.94
301.748	96.94
301.979	75.94
302.209	74.94
302.439	78.94
302.669	79.94
302.9	77.94
303.13	93.94
303.36	80.94
303.59	94.94
303.82	81.94
304.051	83.94
304.281	84.94
304.511	87.94
304.741	82.94
304.971	98.94
305.201	86.94
305.431	82.94
305.661	77.94
305.891	80.94
306.121	89.94
306.352	69.94
306.582	71.94
306.812	68.94
307.042	69.94
307.272	90.94
307.502	83.94
307.731	82.94
307.961	82.94
308.191	87.94
308.421	98.94
308.651	81.94
308.881	76.94
309.111	90.94
309.341	88.94
309.571	78.94
309.8	76.94
310.03	80.94
310.26	78.94
310.49	71.94
310.72	81.94
310.949	78.94
311.179	81.94
311.409	91.94
311.639	84.94
311.868	83.94
312.098	78.94
312.328	81.94
312.557	89.94
312.787	89.94
313.017	82.94
313.246	78.94
313.476	78.94
313.706	72.94
313.935	75.94
314.165	86.94
314.394	87.94
314.624	79.94
314.853	77.94
315.083	86.94
315.312	89.94
315.542	86.94
315.771	85.94
316.001	75.94
316.23	75.94
316.46	82.94
316.689	78.94
316.919	69.94
317.148	83.94
317.377	85.94
317.607	87.94
317.836	69.94
318.065	75.94
318.295	81.94
318.524	84.94
318.753	85.94
318.983	76.94
319.212	69.94
319.441	66.94
319.67	94.94
319.9	78.94
320.129	70.94
320.358	85.94
320.587	79.94
320.816	78.94
321.046	87.94
321.275	84.94
321.504	90.94
321.733	94.94
321.962	82.94
322.191	79.94
322.42	83.94
322.649	72.94
322.878	70.94
323.108	77.94
323.337	84.94
323.566	91.94
323.795	80.94
324.024	79.94
324.253	67.94
324.482	82.94
324.71	74.94
324.939	75.94
325.168	82.94
325.397	76.94
325.626	89.94
325.855	94.94
326.084	90.94
326.313	87.94
326.542	73.94
326.77	85.94
326.999	78.94
327.228	57.94
327.457	85.94
327.686	82.94
327.914	82.94
328.143	88.94
328.372	83.94
328.6	89.94
328.829	88.94
329.058	71.94
329.287	79.94
329.515	95.94
329.744	89.94
329.972	95.94
330.201	70.94
330.43	86.94
330.658	75.94
330.887	77.94
331.115	76.94
331.344	86.94
331.572	81.94
331.801	72.94
332.03	86.94
332.258	77.94
332.486	85.94
332.715	94.94
332.943	76.94
333.172	97.94
333.4	82.94
333.629	85.94
333.857	85.94
334.085	94.94
334.314	83.94
334.542	80.94
334.771	91.94
334.999	80.94
335.227	65.94
335.455	86.94
335.684	90.94
335.912	88.94
336.14	78.94
336.369	81.94
336.597	79.94
336.825	67.94
337.053	73.94
337.281	68.94
337.51	78.94
337.738	87.94
337.966	81.94
338.194	77.94
338.422	89.94
338.65	91.94
338.878	81.94
339.106	94.94
339.334	80.94
339.562	75.94
339.79	83.94
340.018	80.94
340.246	91.94
340.474	86.94
340.702	70.94
340.93	84.94
341.158	84.94
341.386	86.94
341.614	79.94
341.842	88.94
342.07	93.94
342.298	90.94
342.526	90.94
342.754	78.94
342.981	85.94
343.209	83.94
343.437	78.94
343.665	75.94
343.893	96.94
344.12	89.94
344.348	78.94
344.576	85.94
344.804	86.94
345.031	87.94
345.259	76.94
345.487	80.94
345.714	86.94
345.942	81.94
346.17	84.94
346.397	73.94
346.625	85.94
346.853	86.94
347.08	77.94
347.308	86.94
347.535	80.94
347.763	78.94
347.99	77.94
348.218	87.94
348.445	84.94
348.673	83.94
348.9	86.94
349.128	100.94
349.355	89.94
349.583	85.94
349.81	74.94
350.037	76.94
350.265	81.94
350.492	75.94
350.72	84.94
350.947	68.94
351.174	81.94
351.402	79.94
351.629	79.94
351.856	63.94
352.083	70.94
352.311	79.94
352.538	79.94
352.765	74.94
352.992	69.94
353.22	96.94
353.447	87.94
353.674	82.94
353.901	81.94
354.128	77.94
354.355	75.94
354.583	77.94
354.81	83.94
355.037	85.94
355.264	89.94
355.491	94.94
355.718	84.94
355.945	105.94
356.172	82.94
356.399	84.94
356.626	81.94
356.853	82.94
357.08	76.94
357.307	75.94
357.534	72.94
357.761	68.94
357.988	89.94
358.215	81.94
358.441	83.94
358.668	88.94
358.895	89.94
359.122	81.94
359.349	94.94
359.576	85.94
359.802	83.94
360.029	72.94
360.256	76.94
360.483	77.94
360.709	88.94
360.936	91.94
361.163	93.94
361.39	89.94
361.616	82.94
361.843	77.94
362.07	84.94
362.296	77.94
362.523	84.94
362.749	81.94
362.976	87.94
363.203	98.94
363.429	89.94
363.656	80.94
363.882	75.94
364.109	79.94
364.335	102.94
364.562	92.94
364.788	78.94
365.015	74.94
365.241	94.94
365.468	86.94
365.694	92.94
365.92	90.94
366.147	79.94
366.373	82.94
366.599	95.94
366.826	82.94
367.052	85.94
367.278	73.94
367.505	86.94
367.731	80.94
367.957	82.94
368.184	82.94
368.41	78.94
368.636	76.94
368.862	81.94
369.089	95.94
369.315	94.94
369.541	70.94
369.767	84.94
369.993	90.94
370.219	83.94
370.445	86.94
370.672	83.94
370.898	77.94
371.124	94.94
371.35	90.94
371.576	90.94
371.802	87.94
372.028	93.94
372.254	98.94
372.48	102.94
372.706	86.94
372.932	96.94
373.158	90.94
373.384	94.94
373.61	92.94
373.835	96.94
374.061	80.94
374.287	82.94
374.513	84.94
374.739	93.94
374.965	100.94
375.191	85.94
375.416	86.94
375.642	99.94
375.868	92.94
376.094	91.94
376.319	84.94
376.545	82.94
376.771	87.94
376.997	86.94
377.222	79.94
377.448	93.94
377.674	91.94
377.899	96.94
378.125	88.94
378.35	91.94
378.576	89.94
378.802	85.94
379.027	95.94
379.253	89.94
379.478	93.94
379.704	86.94
379.929	88.94
380.155	94.94
380.38	98.94
380.606	109.94
380.831	93.94
381.057	94.94
381.282	94.94
381.507	103.94
381.733	100.94
381.958	105.94
382.184	90.94
382.409	99.94
382.634	90.94
382.86	102.94
383.085	105.94
383.31	91.94
383.535	93.94
383.761	98.94
383.986	97.94
384.211	85.94
384.436	90.94
384.662	93.94
384.887	90.94
385.112	96.94
385.337	74.94
385.562	93.94
385.787	103.94
386.013	101.94
386.238	100.94
386.463	110.94
386.688	105.94
386.913	106.94
387.138	112.94
387.363	96.94
387.588	90.94
387.813	84.94
388.038	91.94
388.263	86.94
388.488	87.94
388.713	100.94
388.938	105.94
389.163	91.94
389.387	107.94
389.612	99.94
389.837	103.94
390.062	96.94
390.287	104.94
390.512	96.94
390.736	100.94
390.961	94.94
391.186	110.94
391.411	114.94
391.636	91.94
391.86	95.94
392.085	108.94
392.31	105.94
392.534	101.94
392.759	83.94
392.984	97.94
393.208	108.94
393.433	104.94
393.658	88.94
393.882	114.94
394.107	97.94
394.331	109.94
394.556	106.94
394.78	113.94
395.005	103.94
395.229	95.94
395.454	89.94
395.678	116.94
395.903	102.94
396.127	106.94
396.352	107.94
396.576	98.94
396.801	105.94
397.025	92.94
397.249	98.94
397.474	115.94
397.698	97.94
397.922	96.94
398.147	100.94
398.371	112.94
398.595	111.94
398.82	102.94
399.044	85.94
399.268	116.94
399.492	106.94
399.717	117.94
399.941	117.94
400.165	96.94
400.389	106.94
400.613	95.94
400.837	96.94
401.062	110.94
401.286	103.94
401.51	103.94
401.734	104.94
401.958	114.94
402.182	110.94
402.406	113.94
402.63	119.94
402.854	117.94
403.078	110.94
403.302	98.94
403.526	113.94
403.75	123.94
403.974	95.94
404.198	115.94
404.422	115.94
404.645	102.94
404.869	105.94
405.093	110.94
405.317	112.94
405.541	117.94
405.765	111.94
405.988	114.94
406.212	109.94
406.436	119.94
406.66	109.94
406.883	119.94
407.107	112.94
407.331	116.94
407.555	120.94
407.778	120.94
408.002	112.94
408.226	122.94
408.449	121.94
408.673	121.94
408.896	111.94
409.12	106.94
409.344	125.94
409.567	135.94
409.791	119.94
410.014	128.94
410.238	117.94
410.461	107.94
410.685	125.94
410.908	118.94
411.132	117.94
411.355	122.94
411.578	128.94
411.802	121.94
412.025	95.94
412.249	114.94
412.472	111.94
412.695	107.94
412.919	109.94
413.142	113.94
413.365	100.94
413.589	108.94
413.812	123.94
414.035	120.94
414.258	120.94
414.482	114.94
414.705	119.94
414.928	106.94
415.151	117.94
415.374	125.94
415.597	122.94
415.821	139.94
416.044	121.94
416.267	131.94
416.49	136.94
416.713	106.94
416.936	125.94
417.159	129.94
417.382	145.94
417.605	126.94
417.828	134.94
418.051	122.94
418.274	129.94
418.497	127.94
418.72	120.94
418.943	114.94
419.166	135.94
419.389	139.94
419.611	132.94
419.834	135.94
420.057	120.94
420.28	127.94
420.503	127.94
420.726	126.94
420.948	111.94
421.171	128.94
421.394	137.94
421.617	130.94
421.839	133.94
422.062	144.94
422.285	134.94
422.507	118.94
422.73	118.94
422.953	124.94
423.175	109.94
423.398	122.94
423.621	125.94
423.843	131.94
424.066	146.94
424.288	128.94
424.511	135.94
424.733	146.94
424.956	127.94
425.178	133.94
425.401	135.94
425.623	128.94
425.846	120.94
426.068	127.94
426.291	118.94
426.513	118.94
426.735	149.94
426.958	115.94
427.18	110.94
427.402	131.94
427.625	120.94
427.847	133.94
428.069	117.94
428.292	116.94
428.514	112.94
428.736	117.94
428.958	122.94
429.181	129.94
429.403	131.94
429.625	112.94
429.847	128.94
430.069	139.94
430.292	129.94
430.514	129.94
430.736	122.94
430.958	130.94
431.18	113.94
431.402	136.94
431.624	118.94
431.846	103.94
432.068	95.94
432.29	101.94
432.512	110.94
432.734	123.94
432.956	134.94
433.178	125.94
433.4	143.94
433.622	144.94
433.844	135.94
434.066	135.94
434.287	86.94
434.509	109.94
434.731	98.94
434.953	103.94
435.175	113.94
435.397	121.94
435.618	104.94
435.84	113.94
436.062	114.94
436.284	131.94
436.505	132.94
436.727	131.94
436.949	122.94
437.17	121.94
437.392	126.94
437.614	122.94
437.835	96.94
438.057	110.94
438.278	115.94
438.5	119.94
438.721	123.94
438.943	139.94
439.165	143.94
439.386	154.94
439.608	133.94
439.829	136.94
440.05	144.94
440.272	138.94
440.493	139.94
440.715	149.94
440.936	146.94
441.158	141.94
441.379	125.94
441.6	136.94
441.822	137.94
442.043	137.94
442.264	140.94
442.486	139.94
442.707	136.94
442.928	129.94
443.149	130.94
443.371	126.94
443.592	120.94
443.813	133.94
444.034	139.94
444.255	150.94
444.476	122.94
444.698	150.94
444.919	135.94
445.14	262.94
445.361	194.94
445.582	154.94
445.803	141.94
446.024	149.94
446.245	145.94
446.466	156.94
446.687	132.94
446.908	149.94
447.129	146.94
447.35	153.94
447.571	159.94
447.792	133.94
448.013	135.94
448.234	137.94
448.455	137.94
448.675	150.94
448.896	139.94
449.117	133.94
449.338	129.94
449.559	139.94
449.779	138.94
450	127.94
450.221	133.94
450.442	139.94
450.662	126.94
450.883	141.94
451.104	130.94
451.324	123.94
451.545	120.94
451.766	125.94
451.986	109.94
452.207	123.94
452.428	119.94
452.648	117.94
452.869	122.94
453.089	109.94
453.31	112.94
453.53	112.94
453.751	114.94
453.971	107.94
454.192	114.94
454.412	115.94
454.633	117.94
454.853	128.94
455.073	109.94
455.294	131.94
455.514	133.94
455.734	106.94
455.955	110.94
456.175	88.94
456.395	111.94
456.616	110.94
456.836	104.94
457.056	114.94
457.276	110.94
457.497	110.94
457.717	115.94
457.937	106.94
458.157	102.94
458.377	96.94
458.598	107.94
458.818	87.94
459.038	101.94
459.258	80.94
459.478	83.94
459.698	72.94
459.918	91.94
460.138	115.94
460.358	114.94
460.578	117.94
460.798	110.94
461.018	115.94
461.238	102.94
461.458	119.94
461.678	113.94
461.898	111.94
462.118	113.94
462.338	122.94
462.558	115.94
462.777	112.94
462.997	118.94
463.217	98.94
463.437	116.94
463.657	101.94
463.876	102.94
464.096	111.94
464.316	103.94
464.536	105.94
464.755	116.94
464.975	119.94
465.195	128.94
465.414	119.94
465.634	128.94
465.854	113.94
466.073	117.94
466.293	134.94
466.512	117.94
466.732	114.94
466.951	120.94
467.171	147.94
467.391	117.94
467.61	125.94
467.829	133.94
468.049	133.94
468.268	128.94
468.488	134.94
468.707	121.94
468.927	137.94
469.146	140.94
469.365	135.94
469.585	138.94
469.804	125.94
470.023	141.94
470.243	153.94
470.462	144.94
470.681	130.94
470.901	127.94
471.12	142.94
471.339	146.94
471.558	134.94
471.777	138.94
471.997	125.94
472.216	117.94
472.435	117.94
472.654	114.94
472.873	124.94
473.092	113.94
473.311	114.94
473.53	138.94
473.749	138.94
473.968	113.94
474.187	111.94
474.406	111.94
474.625	127.94
474.844	129.94
475.063	129.94
475.282	110.94
475.501	120.94
475.72	120.94
475.939	114.94
476.158	121.94
476.377	116.94
476.596	114.94
476.814	122.94
477.033	106.94
477.252	113.94
477.471	118.94
477.69	128.94
477.908	125.94
478.127	150.94
478.346	135.94
478.564	131.94
478.783	127.94
479.002	138.94
479.22	132.94
479.439	129.94
479.658	128.94
479.876	109.94
480.095	109.94
480.313	130.94
480.532	111.94
480.751	96.94
480.969	85.94
481.188	101.94
481.406	86.94
481.624	104.94
481.843	86.94
482.061	85.94
482.28	93.94
482.498	117.94
482.717	101.94
482.935	134.94
483.153	134.94
483.372	153.94
483.59	142.94
483.808	145.94
484.027	118.94
484.245	151.94
484.463	127.94
484.681	158.94
484.9	145.94
485.118	147.94
485.336	134.94
485.554	114.94
485.772	102.94
485.99	105.94
486.209	102.94
486.427	118.94
486.645	124.94
486.863	140.94
487.081	135.94
487.299	136.94
487.517	130.94
487.735	165.94
487.953	179.94
488.171	182.94
488.389	169.94
488.607	177.94
488.825	139.94
489.043	136.94
489.261	122.94
489.479	142.94
489.696	136.94
489.914	129.94
490.132	150.94
490.35	135.94
490.568	163.94
490.786	147.94
491.003	176.94
491.221	167.94
491.439	180.94
491.657	178.94
491.874	191.94
492.092	214.94
492.31	214.94
492.527	223.94
492.745	223.94
492.963	202.94
493.18	194.94
493.398	177.94
493.615	170.94
493.833	177.94
494.05	174.94
494.268	166.94
494.485	175.94
494.703	177.94
494.92	174.94
495.138	170.94
495.355	163.94
495.573	173.94
495.79	157.94
496.008	166.94
496.225	148.94
496.442	170.94
496.66	162.94
496.877	154.94
497.094	146.94
497.312	153.94
497.529	171.94
497.746	146.94
497.963	140.94
498.181	134.94
498.398	122.94
498.615	121.94
498.832	115.94
499.049	109.94
499.267	117.94
499.484	121.94
499.701	134.94
499.918	128.94
500.135	139.94
500.352	127.94
500.569	130.94
500.786	126.94
501.003	134.94
501.22	141.94
501.437	125.94
501.654	121.94
501.871	128.94
502.088	133.94
502.305	123.94
502.522	132.94
502.739	119.94
502.956	140.94
503.172	116.94
503.389	131.94
503.606	107.94
503.823	104.94
504.04	113.94
504.256	123.94
504.473	113.94
504.69	120.94
504.907	123.94
505.123	113.94
505.34	130.94
505.557	107.94
505.773	123.94
505.99	116.94
506.207	113.94
506.423	118.94
506.64	119.94
506.856	119.94
507.073	120.94
507.289	116.94
507.506	99.94
507.722	114.94
507.939	123.94
508.155	118.94
508.372	107.94
508.588	97.94
508.805	97.94
509.021	105.94
509.238	104.94
509.454	95.94
509.67	97.94
509.887	95.94
510.103	85.94
510.319	85.94
510.536	95.94
510.752	80.94
510.968	82.94
511.184	87.94
511.401	81.94
511.617	97.94
511.833	86.94
512.049	81.94
