Data from Location4.07152019.Energy5.Lamp.07192019.3%Agarose_HRD10591_16-19-57-925.txt Node
Date: Fri Jul 19 16:19:57 EDT 2019
User: cochatt
Spectrometer: HR+D1059
Trigger mode: 1
Integration Time (sec): 1.000000E-1
Scans to average: 1
Electric dark correction enabled: true
Nonlinearity correction enabled: false
Boxcar width: 0
XAxis mode: Wavelengths
Number of Pixels in Spectrum: 2048
>>>>>Begin Spectral Data<<<<<
223.165	-19.44
223.4	-19.44
223.635	-19.44
223.869	-19.44
224.104	-14.44
224.338	-5.44
224.573	-4.44
224.808	-15.44
225.042	-11.44
225.277	-2.44
225.511	5.56
225.746	15.56
225.98	5.56
226.215	7.56
226.449	-0.44
226.683	15.56
226.918	22.56
227.152	20.56
227.387	42.56
227.621	36.56
227.856	36.56
228.09	48.56
228.324	46.56
228.559	44.56
228.793	54.56
229.027	57.56
229.262	73.56
229.496	57.56
229.73	70.56
229.964	60.56
230.199	81.56
230.433	70.56
230.667	76.56
230.901	89.56
231.136	81.56
231.37	79.56
231.604	79.56
231.838	81.56
232.072	76.56
232.306	91.56
232.541	89.56
232.775	74.56
233.009	78.56
233.243	72.56
233.477	82.56
233.711	86.56
233.945	81.56
234.179	79.56
234.413	85.56
234.647	69.56
234.881	95.56
235.115	91.56
235.349	86.56
235.583	82.56
235.817	68.56
236.051	87.56
236.285	83.56
236.519	79.56
236.753	90.56
236.987	89.56
237.221	70.56
237.455	74.56
237.689	81.56
237.922	83.56
238.156	86.56
238.39	76.56
238.624	71.56
238.858	81.56
239.091	76.56
239.325	79.56
239.559	58.56
239.793	82.56
240.027	65.56
240.26	79.56
240.494	94.56
240.728	76.56
240.961	74.56
241.195	64.56
241.429	71.56
241.662	72.56
241.896	74.56
242.13	82.56
242.363	79.56
242.597	84.56
242.83	96.56
243.064	84.56
243.298	69.56
243.531	79.56
243.765	71.56
243.998	78.56
244.232	73.56
244.465	81.56
244.699	77.56
244.932	79.56
245.166	79.56
245.399	87.56
245.633	68.56
245.866	69.56
246.099	71.56
246.333	90.56
246.566	87.56
246.8	81.56
247.033	61.56
247.266	76.56
247.5	81.56
247.733	86.56
247.966	69.56
248.2	78.56
248.433	74.56
248.666	65.56
248.899	76.56
249.133	81.56
249.366	97.56
249.599	66.56
249.832	79.56
250.066	74.56
250.299	75.56
250.532	76.56
250.765	82.56
250.998	104.56
251.231	67.56
251.465	92.56
251.698	67.56
251.931	82.56
252.164	73.56
252.397	82.56
252.63	80.56
252.863	81.56
253.096	87.56
253.329	70.56
253.562	83.56
253.795	74.56
254.028	86.56
254.261	76.56
254.494	94.56
254.727	71.56
254.96	79.56
255.193	91.56
255.426	76.56
255.659	74.56
255.892	73.56
256.124	77.56
256.357	78.56
256.59	91.56
256.823	83.56
257.056	76.56
257.289	78.56
257.521	96.56
257.754	87.56
257.987	81.56
258.22	78.56
258.452	75.56
258.685	65.56
258.918	86.56
259.151	84.56
259.383	80.56
259.616	86.56
259.849	78.56
260.081	89.56
260.314	80.56
260.547	71.56
260.779	78.56
261.012	84.56
261.244	76.56
261.477	78.56
261.71	82.56
261.942	86.56
262.175	87.56
262.407	94.56
262.64	67.56
262.872	74.56
263.105	90.56
263.337	76.56
263.57	71.56
263.802	75.56
264.035	85.56
264.267	87.56
264.499	84.56
264.732	78.56
264.964	76.56
265.197	84.56
265.429	87.56
265.661	87.56
265.894	87.56
266.126	87.56
266.358	94.56
266.591	80.56
266.823	88.56
267.055	73.56
267.287	83.56
267.52	82.56
267.752	80.56
267.984	83.56
268.216	62.56
268.448	72.56
268.681	79.56
268.913	84.56
269.145	83.56
269.377	79.56
269.609	76.56
269.841	91.56
270.073	76.56
270.306	75.56
270.538	80.56
270.77	69.56
271.002	72.56
271.234	86.56
271.466	87.56
271.698	90.56
271.93	81.56
272.162	65.56
272.394	87.56
272.626	80.56
272.858	79.56
273.09	80.56
273.322	88.56
273.553	85.56
273.785	81.56
274.017	71.56
274.249	76.56
274.481	77.56
274.713	76.56
274.945	79.56
275.176	83.56
275.408	76.56
275.64	93.56
275.872	87.56
276.104	83.56
276.335	75.56
276.567	73.56
276.799	78.56
277.031	92.56
277.262	80.56
277.494	86.56
277.726	86.56
277.957	84.56
278.189	99.56
278.421	83.56
278.652	93.56
278.884	81.56
279.115	89.56
279.347	87.56
279.579	86.56
279.81	76.56
280.042	83.56
280.273	85.56
280.505	68.56
280.736	75.56
280.968	86.56
281.199	94.56
281.431	84.56
281.662	97.56
281.894	91.56
282.125	84.56
282.356	90.56
282.588	76.56
282.819	76.56
283.051	87.56
283.282	75.56
283.513	89.56
283.745	79.56
283.976	89.56
284.207	70.56
284.439	88.56
284.67	91.56
284.901	91.56
285.132	85.56
285.364	74.56
285.595	85.56
285.826	99.56
286.057	78.56
286.288	89.56
286.52	95.56
286.751	83.56
286.982	85.56
287.213	94.56
287.444	92.56
287.675	80.56
287.906	75.56
288.138	80.56
288.369	87.56
288.6	91.56
288.831	70.56
289.062	84.56
289.293	72.56
289.524	82.56
289.755	94.56
289.986	77.56
290.217	95.56
290.448	90.56
290.679	88.56
290.91	95.56
291.141	84.56
291.371	95.56
291.602	107.56
291.833	91.56
292.064	88.56
292.295	83.56
292.526	80.56
292.757	80.56
292.987	73.56
293.218	63.56
293.449	72.56
293.68	80.56
293.91	90.56
294.141	86.56
294.372	83.56
294.603	83.56
294.833	85.56
295.064	80.56
295.295	79.56
295.525	86.56
295.756	74.56
295.987	88.56
296.217	85.56
296.448	89.56
296.679	91.56
296.909	81.56
297.14	96.56
297.37	70.56
297.601	89.56
297.831	101.56
298.062	92.56
298.292	81.56
298.523	73.56
298.753	79.56
298.984	81.56
299.214	90.56
299.445	95.56
299.675	85.56
299.905	87.56
300.136	85.56
300.366	83.56
300.597	78.56
300.827	77.56
301.057	75.56
301.288	93.56
301.518	74.56
301.748	80.56
301.979	85.56
302.209	89.56
302.439	76.56
302.669	79.56
302.9	92.56
303.13	103.56
303.36	76.56
303.59	82.56
303.82	87.56
304.051	93.56
304.281	103.56
304.511	91.56
304.741	83.56
304.971	81.56
305.201	83.56
305.431	89.56
305.661	92.56
305.891	97.56
306.121	90.56
306.352	76.56
306.582	87.56
306.812	75.56
307.042	84.56
307.272	79.56
307.502	84.56
307.731	67.56
307.961	79.56
308.191	81.56
308.421	69.56
308.651	94.56
308.881	77.56
309.111	91.56
309.341	86.56
309.571	83.56
309.8	95.56
310.03	85.56
310.26	97.56
310.49	83.56
310.72	72.56
310.949	88.56
311.179	94.56
311.409	72.56
311.639	79.56
311.868	101.56
312.098	95.56
312.328	86.56
312.557	86.56
312.787	85.56
313.017	70.56
313.246	87.56
313.476	80.56
313.706	80.56
313.935	83.56
314.165	85.56
314.394	95.56
314.624	85.56
314.853	88.56
315.083	82.56
315.312	90.56
315.542	82.56
315.771	93.56
316.001	81.56
316.23	84.56
316.46	79.56
316.689	91.56
316.919	76.56
317.148	77.56
317.377	95.56
317.607	94.56
317.836	76.56
318.065	82.56
318.295	81.56
318.524	87.56
318.753	90.56
318.983	77.56
319.212	68.56
319.441	80.56
319.67	83.56
319.9	87.56
320.129	81.56
320.358	78.56
320.587	108.56
320.816	82.56
321.046	73.56
321.275	82.56
321.504	67.56
321.733	70.56
321.962	94.56
322.191	91.56
322.42	81.56
322.649	79.56
322.878	84.56
323.108	89.56
323.337	72.56
323.566	87.56
323.795	83.56
324.024	73.56
324.253	78.56
324.482	89.56
324.71	82.56
324.939	73.56
325.168	74.56
325.397	90.56
325.626	89.56
325.855	96.56
326.084	83.56
326.313	95.56
326.542	89.56
326.77	84.56
326.999	91.56
327.228	79.56
327.457	98.56
327.686	76.56
327.914	85.56
328.143	89.56
328.372	70.56
328.6	71.56
328.829	71.56
329.058	84.56
329.287	83.56
329.515	70.56
329.744	94.56
329.972	80.56
330.201	96.56
330.43	92.56
330.658	85.56
330.887	89.56
331.115	84.56
331.344	70.56
331.572	87.56
331.801	77.56
332.03	86.56
332.258	81.56
332.486	92.56
332.715	81.56
332.943	82.56
333.172	96.56
333.4	88.56
333.629	99.56
333.857	79.56
334.085	77.56
334.314	83.56
334.542	73.56
334.771	76.56
334.999	97.56
335.227	83.56
335.455	88.56
335.684	86.56
335.912	86.56
336.14	82.56
336.369	87.56
336.597	86.56
336.825	83.56
337.053	79.56
337.281	64.56
337.51	84.56
337.738	77.56
337.966	78.56
338.194	84.56
338.422	88.56
338.65	84.56
338.878	95.56
339.106	84.56
339.334	88.56
339.562	96.56
339.79	90.56
340.018	77.56
340.246	75.56
340.474	92.56
340.702	83.56
340.93	74.56
341.158	80.56
341.386	81.56
341.614	89.56
341.842	75.56
342.07	83.56
342.298	88.56
342.526	86.56
342.754	82.56
342.981	75.56
343.209	82.56
343.437	79.56
343.665	89.56
343.893	71.56
344.12	68.56
344.348	69.56
344.576	73.56
344.804	77.56
345.031	73.56
345.259	84.56
345.487	82.56
345.714	89.56
345.942	76.56
346.17	88.56
346.397	74.56
346.625	78.56
346.853	79.56
347.08	85.56
347.308	87.56
347.535	87.56
347.763	103.56
347.99	88.56
348.218	92.56
348.445	95.56
348.673	95.56
348.9	90.56
349.128	89.56
349.355	82.56
349.583	100.56
349.81	90.56
350.037	90.56
350.265	91.56
350.492	87.56
350.72	84.56
350.947	93.56
351.174	76.56
351.402	69.56
351.629	88.56
351.856	75.56
352.083	89.56
352.311	91.56
352.538	87.56
352.765	88.56
352.992	92.56
353.22	93.56
353.447	80.56
353.674	68.56
353.901	83.56
354.128	89.56
354.355	90.56
354.583	86.56
354.81	102.56
355.037	73.56
355.264	82.56
355.491	91.56
355.718	78.56
355.945	74.56
356.172	75.56
356.399	86.56
356.626	74.56
356.853	82.56
357.08	78.56
357.307	84.56
357.534	77.56
357.761	89.56
357.988	90.56
358.215	81.56
358.441	94.56
358.668	78.56
358.895	92.56
359.122	72.56
359.349	79.56
359.576	90.56
359.802	74.56
360.029	88.56
360.256	76.56
360.483	88.56
360.709	77.56
360.936	90.56
361.163	87.56
361.39	90.56
361.616	89.56
361.843	83.56
362.07	80.56
362.296	80.56
362.523	83.56
362.749	82.56
362.976	78.56
363.203	87.56
363.429	94.56
363.656	85.56
363.882	77.56
364.109	90.56
364.335	81.56
364.562	102.56
364.788	78.56
365.015	88.56
365.241	78.56
365.468	79.56
365.694	87.56
365.92	88.56
366.147	90.56
366.373	67.56
366.599	89.56
366.826	87.56
367.052	99.56
367.278	84.56
367.505	94.56
367.731	107.56
367.957	94.56
368.184	90.56
368.41	87.56
368.636	91.56
368.862	87.56
369.089	99.56
369.315	68.56
369.541	91.56
369.767	93.56
369.993	96.56
370.219	89.56
370.445	80.56
370.672	93.56
370.898	84.56
371.124	113.56
371.35	82.56
371.576	96.56
371.802	81.56
372.028	86.56
372.254	94.56
372.48	88.56
372.706	83.56
372.932	74.56
373.158	90.56
373.384	83.56
373.61	98.56
373.835	89.56
374.061	79.56
374.287	85.56
374.513	78.56
374.739	91.56
374.965	93.56
375.191	94.56
375.416	108.56
375.642	98.56
375.868	87.56
376.094	87.56
376.319	93.56
376.545	94.56
376.771	90.56
376.997	95.56
377.222	90.56
377.448	97.56
377.674	82.56
377.899	81.56
378.125	87.56
378.35	92.56
378.576	84.56
378.802	95.56
379.027	86.56
379.253	91.56
379.478	89.56
379.704	87.56
379.929	93.56
380.155	89.56
380.38	91.56
380.606	107.56
380.831	97.56
381.057	102.56
381.282	105.56
381.507	92.56
381.733	80.56
381.958	90.56
382.184	95.56
382.409	81.56
382.634	76.56
382.86	91.56
383.085	97.56
383.31	98.56
383.535	99.56
383.761	100.56
383.986	107.56
384.211	88.56
384.436	102.56
384.662	89.56
384.887	65.56
385.112	76.56
385.337	106.56
385.562	96.56
385.787	114.56
386.013	96.56
386.238	91.56
386.463	99.56
386.688	80.56
386.913	88.56
387.138	96.56
387.363	78.56
387.588	95.56
387.813	107.56
388.038	112.56
388.263	97.56
388.488	96.56
388.713	102.56
388.938	98.56
389.163	94.56
389.387	94.56
389.612	98.56
389.837	100.56
390.062	103.56
390.287	108.56
390.512	93.56
390.736	100.56
390.961	108.56
391.186	105.56
391.411	97.56
391.636	100.56
391.86	94.56
392.085	104.56
392.31	102.56
392.534	101.56
392.759	98.56
392.984	105.56
393.208	101.56
393.433	90.56
393.658	98.56
393.882	107.56
394.107	107.56
394.331	96.56
394.556	108.56
394.78	106.56
395.005	122.56
395.229	90.56
395.454	107.56
395.678	107.56
395.903	105.56
396.127	120.56
396.352	107.56
396.576	100.56
396.801	102.56
397.025	120.56
397.249	115.56
397.474	113.56
397.698	107.56
397.922	119.56
398.147	103.56
398.371	83.56
398.595	111.56
398.82	115.56
399.044	116.56
399.268	110.56
399.492	114.56
399.717	106.56
399.941	112.56
400.165	104.56
400.389	92.56
400.613	102.56
400.837	101.56
401.062	118.56
401.286	102.56
401.51	96.56
401.734	110.56
401.958	120.56
402.182	116.56
402.406	115.56
402.63	105.56
402.854	101.56
403.078	100.56
403.302	107.56
403.526	107.56
403.75	127.56
403.974	110.56
404.198	115.56
404.422	119.56
404.645	122.56
404.869	116.56
405.093	113.56
405.317	125.56
405.541	91.56
405.765	128.56
405.988	126.56
406.212	118.56
406.436	115.56
406.66	117.56
406.883	111.56
407.107	113.56
407.331	116.56
407.555	107.56
407.778	122.56
408.002	107.56
408.226	122.56
408.449	113.56
408.673	126.56
408.896	115.56
409.12	108.56
409.344	103.56
409.567	116.56
409.791	124.56
410.014	99.56
410.238	122.56
410.461	118.56
410.685	116.56
410.908	110.56
411.132	119.56
411.355	112.56
411.578	116.56
411.802	128.56
412.025	119.56
412.249	115.56
412.472	118.56
412.695	114.56
412.919	102.56
413.142	116.56
413.365	119.56
413.589	119.56
413.812	133.56
414.035	107.56
414.258	110.56
414.482	106.56
414.705	126.56
414.928	116.56
415.151	119.56
415.374	124.56
415.597	104.56
415.821	110.56
416.044	115.56
416.267	120.56
416.49	128.56
416.713	136.56
416.936	134.56
417.159	138.56
417.382	132.56
417.605	118.56
417.828	141.56
418.051	131.56
418.274	131.56
418.497	130.56
418.72	125.56
418.943	130.56
419.166	143.56
419.389	143.56
419.611	131.56
419.834	140.56
420.057	134.56
420.28	143.56
420.503	128.56
420.726	125.56
420.948	131.56
421.171	122.56
421.394	132.56
421.617	127.56
421.839	147.56
422.062	130.56
422.285	125.56
422.507	115.56
422.73	100.56
422.953	124.56
423.175	123.56
423.398	127.56
423.621	131.56
423.843	127.56
424.066	123.56
424.288	139.56
424.511	123.56
424.733	133.56
424.956	119.56
425.178	134.56
425.401	126.56
425.623	137.56
425.846	119.56
426.068	126.56
426.291	119.56
426.513	113.56
426.735	131.56
426.958	116.56
427.18	104.56
427.402	122.56
427.625	124.56
427.847	112.56
428.069	128.56
428.292	124.56
428.514	132.56
428.736	132.56
428.958	132.56
429.181	125.56
429.403	122.56
429.625	141.56
429.847	133.56
430.069	138.56
430.292	132.56
430.514	139.56
430.736	130.56
430.958	122.56
431.18	128.56
431.402	131.56
431.624	125.56
431.846	107.56
432.068	100.56
432.29	86.56
432.512	106.56
432.734	124.56
432.956	130.56
433.178	135.56
433.4	122.56
433.622	126.56
433.844	114.56
434.066	115.56
434.287	122.56
434.509	107.56
434.731	100.56
434.953	104.56
435.175	108.56
435.397	110.56
435.618	105.56
435.84	114.56
436.062	112.56
436.284	119.56
436.505	143.56
436.727	123.56
436.949	148.56
437.17	140.56
437.392	107.56
437.614	116.56
437.835	113.56
438.057	98.56
438.278	121.56
438.5	117.56
438.721	124.56
438.943	134.56
439.165	148.56
439.386	136.56
439.608	142.56
439.829	132.56
440.05	148.56
440.272	137.56
440.493	152.56
440.715	144.56
440.936	137.56
441.158	140.56
441.379	138.56
441.6	146.56
441.822	138.56
442.043	142.56
442.264	133.56
442.486	131.56
442.707	130.56
442.928	125.56
443.149	139.56
443.371	134.56
443.592	135.56
443.813	128.56
444.034	137.56
444.255	136.56
444.476	134.56
444.698	132.56
444.919	138.56
445.14	284.56
445.361	212.56
445.582	135.56
445.803	147.56
446.024	138.56
446.245	150.56
446.466	144.56
446.687	141.56
446.908	154.56
447.129	158.56
447.35	149.56
447.571	155.56
447.792	140.56
448.013	130.56
448.234	133.56
448.455	148.56
448.675	128.56
448.896	138.56
449.117	139.56
449.338	141.56
449.559	158.56
449.779	136.56
450	127.56
450.221	133.56
450.442	134.56
450.662	130.56
450.883	144.56
451.104	142.56
451.324	126.56
451.545	130.56
451.766	132.56
451.986	131.56
452.207	120.56
452.428	114.56
452.648	128.56
452.869	106.56
453.089	104.56
453.31	117.56
453.53	107.56
453.751	99.56
453.971	102.56
454.192	106.56
454.412	113.56
454.633	114.56
454.853	116.56
455.073	114.56
455.294	123.56
455.514	118.56
455.734	127.56
455.955	107.56
456.175	127.56
456.395	114.56
456.616	95.56
456.836	118.56
457.056	104.56
457.276	114.56
457.497	111.56
457.717	111.56
457.937	106.56
458.157	114.56
458.377	110.56
458.598	101.56
458.818	103.56
459.038	81.56
459.258	86.56
459.478	78.56
459.698	96.56
459.918	99.56
460.138	115.56
460.358	121.56
460.578	122.56
460.798	119.56
461.018	114.56
461.238	120.56
461.458	126.56
461.678	112.56
461.898	103.56
462.118	119.56
462.338	119.56
462.558	112.56
462.777	105.56
462.997	109.56
463.217	119.56
463.437	108.56
463.657	112.56
463.876	119.56
464.096	83.56
464.316	107.56
464.536	117.56
464.755	118.56
464.975	124.56
465.195	119.56
465.414	111.56
465.634	127.56
465.854	107.56
466.073	122.56
466.293	114.56
466.512	127.56
466.732	120.56
466.951	124.56
467.171	138.56
467.391	128.56
467.61	147.56
467.829	126.56
468.049	120.56
468.268	131.56
468.488	130.56
468.707	142.56
468.927	124.56
469.146	123.56
469.365	136.56
469.585	123.56
469.804	135.56
470.023	125.56
470.243	137.56
470.462	122.56
470.681	144.56
470.901	138.56
471.12	142.56
471.339	135.56
471.558	142.56
471.777	130.56
471.997	141.56
472.216	123.56
472.435	111.56
472.654	112.56
472.873	116.56
473.092	119.56
473.311	122.56
473.53	120.56
473.749	128.56
473.968	134.56
474.187	118.56
474.406	119.56
474.625	125.56
474.844	142.56
475.063	121.56
475.282	112.56
475.501	102.56
475.72	111.56
475.939	130.56
476.158	123.56
476.377	122.56
476.596	112.56
476.814	120.56
477.033	114.56
477.252	102.56
477.471	120.56
477.69	118.56
477.908	125.56
478.127	114.56
478.346	140.56
478.564	138.56
478.783	126.56
479.002	139.56
479.22	122.56
479.439	122.56
479.658	111.56
479.876	117.56
480.095	111.56
480.313	118.56
480.532	118.56
480.751	111.56
480.969	96.56
481.188	95.56
481.406	90.56
481.624	83.56
481.843	79.56
482.061	90.56
482.28	123.56
482.498	115.56
482.717	122.56
482.935	119.56
483.153	130.56
483.372	150.56
483.59	143.56
483.808	133.56
484.027	132.56
484.245	140.56
484.463	146.56
484.681	159.56
484.9	145.56
485.118	141.56
485.336	120.56
485.554	113.56
485.772	100.56
485.99	102.56
486.209	102.56
486.427	102.56
486.645	120.56
486.863	140.56
487.081	140.56
487.299	134.56
487.517	127.56
487.735	157.56
487.953	178.56
488.171	178.56
488.389	146.56
488.607	146.56
488.825	148.56
489.043	144.56
489.261	143.56
489.479	152.56
489.696	151.56
489.914	146.56
490.132	141.56
490.35	158.56
490.568	149.56
490.786	174.56
491.003	158.56
491.221	177.56
491.439	190.56
491.657	184.56
491.874	186.56
492.092	230.56
492.31	224.56
492.527	215.56
492.745	198.56
492.963	183.56
493.18	177.56
493.398	190.56
493.615	172.56
493.833	158.56
494.05	167.56
494.268	162.56
494.485	162.56
494.703	171.56
494.92	164.56
495.138	165.56
495.355	167.56
495.573	155.56
495.79	178.56
496.008	161.56
496.225	175.56
496.442	158.56
496.66	148.56
496.877	167.56
497.094	164.56
497.312	177.56
497.529	155.56
497.746	154.56
497.963	139.56
498.181	130.56
498.398	118.56
498.615	117.56
498.832	110.56
499.049	130.56
499.267	122.56
499.484	117.56
499.701	127.56
499.918	140.56
500.135	144.56
500.352	149.56
500.569	123.56
500.786	139.56
501.003	135.56
501.22	150.56
501.437	136.56
501.654	124.56
501.871	130.56
502.088	116.56
502.305	133.56
502.522	111.56
502.739	137.56
502.956	125.56
503.172	130.56
503.389	118.56
503.606	101.56
503.823	136.56
504.04	112.56
504.256	114.56
504.473	115.56
504.69	120.56
504.907	130.56
505.123	122.56
505.34	121.56
505.557	123.56
505.773	108.56
505.99	128.56
506.207	129.56
506.423	122.56
506.64	118.56
506.856	121.56
507.073	120.56
507.289	122.56
507.506	128.56
507.722	122.56
507.939	126.56
508.155	115.56
508.372	119.56
508.588	113.56
508.805	107.56
509.021	95.56
509.238	95.56
509.454	103.56
509.67	112.56
509.887	99.56
510.103	89.56
510.319	99.56
510.536	99.56
510.752	90.56
510.968	84.56
511.184	79.56
511.401	87.56
511.617	78.56
511.833	90.56
