Data from Location4.07152019.Energy5.Lamp.07192019.3%Agarose_HRD10591_16-20-48-926.txt Node
Date: Fri Jul 19 16:20:48 EDT 2019
User: cochatt
Spectrometer: HR+D1059
Trigger mode: 1
Integration Time (sec): 1.000000E-1
Scans to average: 1
Electric dark correction enabled: true
Nonlinearity correction enabled: false
Boxcar width: 0
XAxis mode: Wavelengths
Number of Pixels in Spectrum: 2048
>>>>>Begin Spectral Data<<<<<
223.165	-28.69
223.4	-28.69
223.635	-28.69
223.869	-22.69
224.104	-25.69
224.338	-0.69
224.573	-25.69
224.808	-18.69
225.042	-20.69
225.277	4.31
225.511	8.31
225.746	7.31
225.98	6.31
226.215	12.31
226.449	9.31
226.683	23.31
226.918	28.31
227.152	43.31
227.387	37.31
227.621	44.31
227.856	38.31
228.09	49.31
228.324	48.31
228.559	52.31
228.793	57.31
229.027	64.31
229.262	62.31
229.496	83.31
229.73	75.31
229.964	69.31
230.199	91.31
230.433	74.31
230.667	74.31
230.901	68.31
231.136	80.31
231.37	81.31
231.604	80.31
231.838	76.31
232.072	75.31
232.306	81.31
232.541	98.31
232.775	88.31
233.009	84.31
233.243	88.31
233.477	85.31
233.711	74.31
233.945	78.31
234.179	85.31
234.413	84.31
234.647	89.31
234.881	76.31
235.115	85.31
235.349	80.31
235.583	80.31
235.817	64.31
236.051	70.31
236.285	73.31
236.519	77.31
236.753	65.31
236.987	77.31
237.221	91.31
237.455	73.31
237.689	85.31
237.922	77.31
238.156	64.31
238.39	73.31
238.624	69.31
238.858	71.31
239.091	83.31
239.325	66.31
239.559	77.31
239.793	84.31
240.027	85.31
240.26	69.31
240.494	89.31
240.728	88.31
240.961	82.31
241.195	84.31
241.429	78.31
241.662	75.31
241.896	79.31
242.13	79.31
242.363	72.31
242.597	84.31
242.83	78.31
243.064	82.31
243.298	82.31
243.531	90.31
243.765	88.31
243.998	74.31
244.232	84.31
244.465	85.31
244.699	76.31
244.932	75.31
245.166	71.31
245.399	86.31
245.633	66.31
245.866	92.31
246.099	84.31
246.333	84.31
246.566	81.31
246.8	78.31
247.033	82.31
247.266	72.31
247.5	87.31
247.733	88.31
247.966	77.31
248.2	82.31
248.433	77.31
248.666	73.31
248.899	76.31
249.133	86.31
249.366	88.31
249.599	87.31
249.832	90.31
250.066	80.31
250.299	84.31
250.532	88.31
250.765	84.31
250.998	73.31
251.231	93.31
251.465	88.31
251.698	82.31
251.931	87.31
252.164	86.31
252.397	73.31
252.63	69.31
252.863	74.31
253.096	77.31
253.329	73.31
253.562	85.31
253.795	84.31
254.028	104.31
254.261	87.31
254.494	77.31
254.727	74.31
254.96	67.31
255.193	78.31
255.426	75.31
255.659	87.31
255.892	70.31
256.124	87.31
256.357	74.31
256.59	72.31
256.823	85.31
257.056	73.31
257.289	85.31
257.521	95.31
257.754	99.31
257.987	88.31
258.22	78.31
258.452	82.31
258.685	82.31
258.918	84.31
259.151	100.31
259.383	80.31
259.616	63.31
259.849	74.31
260.081	77.31
260.314	88.31
260.547	78.31
260.779	80.31
261.012	84.31
261.244	71.31
261.477	76.31
261.71	77.31
261.942	80.31
262.175	72.31
262.407	78.31
262.64	85.31
262.872	76.31
263.105	86.31
263.337	92.31
263.57	71.31
263.802	78.31
264.035	88.31
264.267	95.31
264.499	87.31
264.732	86.31
264.964	94.31
265.197	82.31
265.429	87.31
265.661	75.31
265.894	82.31
266.126	72.31
266.358	85.31
266.591	85.31
266.823	84.31
267.055	76.31
267.287	82.31
267.52	79.31
267.752	75.31
267.984	82.31
268.216	89.31
268.448	78.31
268.681	95.31
268.913	73.31
269.145	84.31
269.377	96.31
269.609	87.31
269.841	77.31
270.073	73.31
270.306	84.31
270.538	92.31
270.77	89.31
271.002	84.31
271.234	95.31
271.466	78.31
271.698	80.31
271.93	91.31
272.162	81.31
272.394	85.31
272.626	76.31
272.858	96.31
273.09	66.31
273.322	92.31
273.553	79.31
273.785	86.31
274.017	88.31
274.249	78.31
274.481	80.31
274.713	71.31
274.945	97.31
275.176	80.31
275.408	92.31
275.64	84.31
275.872	76.31
276.104	78.31
276.335	98.31
276.567	92.31
276.799	87.31
277.031	74.31
277.262	74.31
277.494	77.31
277.726	67.31
277.957	77.31
278.189	94.31
278.421	82.31
278.652	96.31
278.884	83.31
279.115	74.31
279.347	90.31
279.579	86.31
279.81	88.31
280.042	88.31
280.273	90.31
280.505	89.31
280.736	82.31
280.968	88.31
281.199	94.31
281.431	89.31
281.662	83.31
281.894	95.31
282.125	80.31
282.356	88.31
282.588	80.31
282.819	80.31
283.051	87.31
283.282	80.31
283.513	84.31
283.745	85.31
283.976	86.31
284.207	84.31
284.439	69.31
284.67	87.31
284.901	84.31
285.132	88.31
285.364	83.31
285.595	86.31
285.826	82.31
286.057	78.31
286.288	82.31
286.52	91.31
286.751	84.31
286.982	83.31
287.213	82.31
287.444	82.31
287.675	76.31
287.906	88.31
288.138	93.31
288.369	98.31
288.6	88.31
288.831	79.31
289.062	81.31
289.293	85.31
289.524	84.31
289.755	80.31
289.986	87.31
290.217	95.31
290.448	92.31
290.679	79.31
290.91	94.31
291.141	101.31
291.371	88.31
291.602	82.31
291.833	92.31
292.064	89.31
292.295	74.31
292.526	73.31
292.757	82.31
292.987	89.31
293.218	82.31
293.449	82.31
293.68	91.31
293.91	101.31
294.141	82.31
294.372	84.31
294.603	80.31
294.833	79.31
295.064	93.31
295.295	77.31
295.525	90.31
295.756	80.31
295.987	82.31
296.217	103.31
296.448	77.31
296.679	84.31
296.909	77.31
297.14	89.31
297.37	91.31
297.601	96.31
297.831	78.31
298.062	77.31
298.292	83.31
298.523	93.31
298.753	86.31
298.984	92.31
299.214	98.31
299.445	90.31
299.675	87.31
299.905	92.31
300.136	80.31
300.366	86.31
300.597	76.31
300.827	83.31
301.057	88.31
301.288	81.31
301.518	76.31
301.748	77.31
301.979	86.31
302.209	76.31
302.439	83.31
302.669	73.31
302.9	86.31
303.13	90.31
303.36	84.31
303.59	80.31
303.82	89.31
304.051	87.31
304.281	80.31
304.511	101.31
304.741	102.31
304.971	80.31
305.201	77.31
305.431	83.31
305.661	80.31
305.891	79.31
306.121	76.31
306.352	96.31
306.582	74.31
306.812	82.31
307.042	94.31
307.272	87.31
307.502	88.31
307.731	98.31
307.961	92.31
308.191	78.31
308.421	99.31
308.651	94.31
308.881	82.31
309.111	81.31
309.341	90.31
309.571	92.31
309.8	87.31
310.03	93.31
310.26	95.31
310.49	74.31
310.72	95.31
310.949	97.31
311.179	98.31
311.409	77.31
311.639	86.31
311.868	89.31
312.098	75.31
312.328	86.31
312.557	81.31
312.787	83.31
313.017	89.31
313.246	90.31
313.476	85.31
313.706	78.31
313.935	79.31
314.165	85.31
314.394	87.31
314.624	96.31
314.853	79.31
315.083	106.31
315.312	93.31
315.542	79.31
315.771	87.31
316.001	83.31
316.23	75.31
316.46	85.31
316.689	85.31
316.919	90.31
317.148	95.31
317.377	86.31
317.607	90.31
317.836	86.31
318.065	90.31
318.295	81.31
318.524	77.31
318.753	67.31
318.983	97.31
319.212	85.31
319.441	87.31
319.67	88.31
319.9	89.31
320.129	96.31
320.358	89.31
320.587	94.31
320.816	97.31
321.046	86.31
321.275	82.31
321.504	84.31
321.733	84.31
321.962	78.31
322.191	77.31
322.42	94.31
322.649	69.31
322.878	75.31
323.108	92.31
323.337	78.31
323.566	78.31
323.795	84.31
324.024	105.31
324.253	89.31
324.482	87.31
324.71	94.31
324.939	86.31
325.168	91.31
325.397	81.31
325.626	93.31
325.855	84.31
326.084	88.31
326.313	93.31
326.542	96.31
326.77	99.31
326.999	94.31
327.228	100.31
327.457	94.31
327.686	90.31
327.914	86.31
328.143	78.31
328.372	84.31
328.6	84.31
328.829	86.31
329.058	82.31
329.287	81.31
329.515	84.31
329.744	93.31
329.972	95.31
330.201	98.31
330.43	93.31
330.658	90.31
330.887	95.31
331.115	74.31
331.344	82.31
331.572	87.31
331.801	93.31
332.03	98.31
332.258	95.31
332.486	85.31
332.715	80.31
332.943	67.31
333.172	81.31
333.4	93.31
333.629	93.31
333.857	84.31
334.085	81.31
334.314	102.31
334.542	98.31
334.771	96.31
334.999	98.31
335.227	80.31
335.455	82.31
335.684	81.31
335.912	86.31
336.14	71.31
336.369	83.31
336.597	83.31
336.825	90.31
337.053	83.31
337.281	76.31
337.51	83.31
337.738	92.31
337.966	77.31
338.194	90.31
338.422	74.31
338.65	106.31
338.878	95.31
339.106	75.31
339.334	83.31
339.562	79.31
339.79	74.31
340.018	92.31
340.246	90.31
340.474	86.31
340.702	82.31
340.93	76.31
341.158	94.31
341.386	72.31
341.614	77.31
341.842	81.31
342.07	86.31
342.298	81.31
342.526	76.31
342.754	78.31
342.981	96.31
343.209	104.31
343.437	105.31
343.665	85.31
343.893	88.31
344.12	94.31
344.348	87.31
344.576	77.31
344.804	96.31
345.031	77.31
345.259	88.31
345.487	83.31
345.714	83.31
345.942	89.31
346.17	86.31
346.397	89.31
346.625	89.31
346.853	83.31
347.08	91.31
347.308	88.31
347.535	93.31
347.763	108.31
347.99	80.31
348.218	80.31
348.445	87.31
348.673	88.31
348.9	69.31
349.128	90.31
349.355	80.31
349.583	84.31
349.81	75.31
350.037	77.31
350.265	92.31
350.492	87.31
350.72	87.31
350.947	88.31
351.174	82.31
351.402	76.31
351.629	71.31
351.856	90.31
352.083	97.31
352.311	85.31
352.538	91.31
352.765	88.31
352.992	84.31
353.22	80.31
353.447	82.31
353.674	78.31
353.901	90.31
354.128	83.31
354.355	87.31
354.583	94.31
354.81	83.31
355.037	82.31
355.264	96.31
355.491	88.31
355.718	84.31
355.945	88.31
356.172	85.31
356.399	90.31
356.626	74.31
356.853	86.31
357.08	78.31
357.307	72.31
357.534	86.31
357.761	80.31
357.988	94.31
358.215	98.31
358.441	83.31
358.668	93.31
358.895	90.31
359.122	77.31
359.349	92.31
359.576	86.31
359.802	83.31
360.029	93.31
360.256	83.31
360.483	90.31
360.709	86.31
360.936	84.31
361.163	85.31
361.39	97.31
361.616	86.31
361.843	90.31
362.07	82.31
362.296	80.31
362.523	88.31
362.749	82.31
362.976	85.31
363.203	77.31
363.429	84.31
363.656	84.31
363.882	97.31
364.109	91.31
364.335	105.31
364.562	82.31
364.788	82.31
365.015	78.31
365.241	81.31
365.468	92.31
365.694	94.31
365.92	86.31
366.147	77.31
366.373	86.31
366.599	89.31
366.826	63.31
367.052	78.31
367.278	94.31
367.505	90.31
367.731	84.31
367.957	88.31
368.184	98.31
368.41	96.31
368.636	89.31
368.862	92.31
369.089	91.31
369.315	91.31
369.541	98.31
369.767	101.31
369.993	91.31
370.219	87.31
370.445	85.31
370.672	92.31
370.898	85.31
371.124	102.31
371.35	95.31
371.576	94.31
371.802	99.31
372.028	93.31
372.254	91.31
372.48	89.31
372.706	97.31
372.932	92.31
373.158	88.31
373.384	97.31
373.61	105.31
373.835	92.31
374.061	95.31
374.287	86.31
374.513	105.31
374.739	84.31
374.965	101.31
375.191	100.31
375.416	86.31
375.642	89.31
375.868	86.31
376.094	90.31
376.319	98.31
376.545	90.31
376.771	94.31
376.997	90.31
377.222	100.31
377.448	83.31
377.674	77.31
377.899	96.31
378.125	97.31
378.35	96.31
378.576	91.31
378.802	85.31
379.027	104.31
379.253	95.31
379.478	82.31
379.704	105.31
379.929	94.31
380.155	93.31
380.38	90.31
380.606	103.31
380.831	103.31
381.057	104.31
381.282	95.31
381.507	103.31
381.733	100.31
381.958	107.31
382.184	104.31
382.409	96.31
382.634	94.31
382.86	98.31
383.085	102.31
383.31	114.31
383.535	105.31
383.761	108.31
383.986	105.31
384.211	84.31
384.436	105.31
384.662	120.31
384.887	102.31
385.112	101.31
385.337	109.31
385.562	102.31
385.787	101.31
386.013	104.31
386.238	110.31
386.463	98.31
386.688	101.31
386.913	100.31
387.138	100.31
387.363	98.31
387.588	105.31
387.813	99.31
388.038	100.31
388.263	112.31
388.488	93.31
388.713	100.31
388.938	105.31
389.163	115.31
389.387	91.31
389.612	99.31
389.837	114.31
390.062	92.31
390.287	104.31
390.512	103.31
390.736	97.31
390.961	86.31
391.186	117.31
391.411	100.31
391.636	101.31
391.86	101.31
392.085	112.31
392.31	95.31
392.534	121.31
392.759	107.31
392.984	97.31
393.208	110.31
393.433	107.31
393.658	92.31
393.882	105.31
394.107	118.31
394.331	95.31
394.556	98.31
394.78	112.31
395.005	97.31
395.229	103.31
395.454	116.31
395.678	111.31
395.903	109.31
396.127	99.31
396.352	107.31
396.576	102.31
396.801	100.31
397.025	100.31
397.249	117.31
397.474	108.31
397.698	96.31
397.922	86.31
398.147	100.31
398.371	108.31
398.595	120.31
398.82	107.31
399.044	113.31
399.268	114.31
399.492	119.31
399.717	104.31
399.941	103.31
400.165	106.31
400.389	117.31
400.613	115.31
400.837	104.31
401.062	111.31
401.286	101.31
401.51	110.31
401.734	114.31
401.958	102.31
402.182	109.31
402.406	119.31
402.63	122.31
402.854	113.31
403.078	105.31
403.302	112.31
403.526	127.31
403.75	113.31
403.974	124.31
404.198	112.31
404.422	115.31
404.645	98.31
404.869	122.31
405.093	119.31
405.317	123.31
405.541	118.31
405.765	115.31
405.988	113.31
406.212	118.31
406.436	117.31
406.66	123.31
406.883	126.31
407.107	124.31
407.331	114.31
407.555	110.31
407.778	115.31
408.002	116.31
408.226	109.31
408.449	108.31
408.673	106.31
408.896	119.31
409.12	113.31
409.344	100.31
409.567	116.31
409.791	114.31
410.014	117.31
410.238	105.31
410.461	114.31
410.685	128.31
410.908	138.31
411.132	120.31
411.355	132.31
411.578	113.31
411.802	122.31
412.025	120.31
412.249	105.31
412.472	114.31
412.695	132.31
412.919	120.31
413.142	132.31
413.365	123.31
413.589	129.31
413.812	122.31
414.035	112.31
414.258	100.31
414.482	134.31
414.705	121.31
414.928	107.31
415.151	119.31
415.374	120.31
415.597	125.31
415.821	126.31
416.044	117.31
416.267	137.31
416.49	119.31
416.713	121.31
416.936	120.31
417.159	137.31
417.382	112.31
417.605	118.31
417.828	122.31
418.051	122.31
418.274	123.31
418.497	121.31
418.72	123.31
418.943	134.31
419.166	132.31
419.389	133.31
419.611	128.31
419.834	131.31
420.057	124.31
420.28	130.31
420.503	118.31
420.726	114.31
420.948	134.31
421.171	124.31
421.394	123.31
421.617	129.31
421.839	141.31
422.062	136.31
422.285	136.31
422.507	133.31
422.73	121.31
422.953	124.31
423.175	122.31
423.398	135.31
423.621	134.31
423.843	133.31
424.066	122.31
424.288	128.31
424.511	126.31
424.733	150.31
424.956	139.31
425.178	154.31
425.401	138.31
425.623	133.31
425.846	125.31
426.068	128.31
426.291	128.31
426.513	124.31
426.735	128.31
426.958	140.31
427.18	121.31
427.402	139.31
427.625	120.31
427.847	132.31
428.069	128.31
428.292	125.31
428.514	116.31
428.736	131.31
428.958	122.31
429.181	124.31
429.403	128.31
429.625	139.31
429.847	127.31
430.069	123.31
430.292	142.31
430.514	133.31
430.736	106.31
430.958	112.31
431.18	132.31
431.402	134.31
431.624	133.31
431.846	93.31
432.068	85.31
432.29	95.31
432.512	109.31
432.734	110.31
432.956	125.31
433.178	130.31
433.4	129.31
433.622	138.31
433.844	135.31
434.066	124.31
434.287	112.31
434.509	117.31
434.731	100.31
434.953	114.31
435.175	121.31
435.397	118.31
435.618	133.31
435.84	108.31
436.062	126.31
436.284	134.31
436.505	137.31
436.727	136.31
436.949	130.31
437.17	123.31
437.392	132.31
437.614	114.31
437.835	109.31
438.057	107.31
438.278	120.31
438.5	120.31
438.721	132.31
438.943	149.31
439.165	135.31
439.386	153.31
439.608	149.31
439.829	144.31
440.05	157.31
440.272	133.31
440.493	152.31
440.715	142.31
440.936	155.31
441.158	142.31
441.379	141.31
441.6	137.31
441.822	153.31
442.043	142.31
442.264	135.31
442.486	141.31
442.707	140.31
442.928	143.31
443.149	137.31
443.371	143.31
443.592	132.31
443.813	131.31
444.034	148.31
444.255	134.31
444.476	125.31
444.698	152.31
444.919	148.31
445.14	262.31
445.361	196.31
445.582	154.31
445.803	146.31
446.024	164.31
446.245	150.31
446.466	146.31
446.687	139.31
446.908	147.31
447.129	150.31
447.35	136.31
447.571	154.31
447.792	135.31
448.013	134.31
448.234	129.31
448.455	140.31
448.675	144.31
448.896	127.31
449.117	142.31
449.338	124.31
449.559	158.31
449.779	142.31
450	139.31
450.221	128.31
450.442	136.31
450.662	124.31
450.883	120.31
451.104	134.31
451.324	142.31
451.545	138.31
451.766	131.31
451.986	124.31
452.207	126.31
452.428	128.31
452.648	115.31
452.869	113.31
453.089	106.31
453.31	120.31
453.53	120.31
453.751	113.31
453.971	115.31
454.192	106.31
454.412	102.31
454.633	111.31
454.853	118.31
455.073	115.31
455.294	127.31
455.514	124.31
455.734	104.31
455.955	118.31
456.175	120.31
456.395	115.31
456.616	93.31
456.836	122.31
457.056	113.31
457.276	110.31
457.497	116.31
457.717	103.31
457.937	107.31
458.157	117.31
458.377	98.31
458.598	103.31
458.818	101.31
459.038	87.31
459.258	98.31
459.478	78.31
459.698	113.31
459.918	93.31
460.138	98.31
460.358	126.31
460.578	136.31
460.798	124.31
461.018	117.31
461.238	109.31
461.458	107.31
461.678	124.31
461.898	122.31
462.118	116.31
462.338	121.31
462.558	140.31
462.777	118.31
462.997	114.31
463.217	114.31
463.437	112.31
463.657	122.31
463.876	116.31
464.096	120.31
464.316	104.31
464.536	105.31
464.755	123.31
464.975	125.31
465.195	124.31
465.414	106.31
465.634	105.31
465.854	106.31
466.073	124.31
466.293	130.31
466.512	118.31
466.732	121.31
466.951	137.31
467.171	122.31
467.391	116.31
467.61	135.31
467.829	148.31
468.049	140.31
468.268	126.31
468.488	139.31
468.707	128.31
468.927	133.31
469.146	139.31
469.365	128.31
469.585	152.31
469.804	155.31
470.023	130.31
470.243	140.31
470.462	136.31
470.681	139.31
470.901	135.31
471.12	147.31
471.339	141.31
471.558	136.31
471.777	133.31
471.997	127.31
472.216	130.31
472.435	111.31
472.654	121.31
472.873	116.31
473.092	126.31
473.311	130.31
473.53	120.31
473.749	129.31
473.968	142.31
474.187	133.31
474.406	128.31
474.625	127.31
474.844	113.31
475.063	155.31
475.282	120.31
475.501	111.31
475.72	123.31
475.939	137.31
476.158	122.31
476.377	115.31
476.596	121.31
476.814	116.31
477.033	109.31
477.252	126.31
477.471	117.31
477.69	132.31
477.908	140.31
478.127	124.31
478.346	149.31
478.564	151.31
478.783	140.31
479.002	123.31
479.22	128.31
479.439	149.31
479.658	137.31
479.876	118.31
480.095	117.31
480.313	110.31
480.532	136.31
480.751	106.31
480.969	109.31
481.188	83.31
481.406	79.31
481.624	90.31
481.843	96.31
482.061	92.31
482.28	101.31
482.498	116.31
482.717	112.31
482.935	139.31
483.153	142.31
483.372	139.31
483.59	131.31
483.808	137.31
484.027	132.31
484.245	122.31
484.463	148.31
484.681	158.31
484.9	164.31
485.118	136.31
485.336	140.31
485.554	110.31
485.772	104.31
485.99	118.31
486.209	100.31
486.427	111.31
486.645	128.31
486.863	146.31
487.081	132.31
487.299	131.31
487.517	142.31
487.735	168.31
487.953	188.31
488.171	183.31
488.389	163.31
488.607	165.31
488.825	151.31
489.043	138.31
489.261	146.31
489.479	130.31
489.696	140.31
489.914	137.31
490.132	142.31
490.35	154.31
490.568	165.31
490.786	163.31
491.003	169.31
491.221	179.31
491.439	178.31
491.657	185.31
491.874	205.31
492.092	215.31
492.31	227.31
492.527	214.31
492.745	211.31
492.963	212.31
493.18	171.31
493.398	168.31
493.615	172.31
493.833	177.31
494.05	167.31
494.268	164.31
494.485	168.31
494.703	158.31
494.92	168.31
495.138	164.31
495.355	174.31
495.573	166.31
495.79	169.31
496.008	181.31
496.225	167.31
496.442	186.31
496.66	168.31
496.877	169.31
497.094	164.31
497.312	164.31
497.529	156.31
497.746	165.31
497.963	152.31
498.181	128.31
498.398	118.31
498.615	129.31
498.832	122.31
499.049	124.31
499.267	136.31
499.484	122.31
499.701	142.31
499.918	138.31
500.135	129.31
500.352	136.31
500.569	131.31
500.786	141.31
501.003	136.31
501.22	132.31
501.437	139.31
501.654	129.31
501.871	130.31
502.088	140.31
502.305	128.31
502.522	125.31
502.739	136.31
502.956	122.31
503.172	120.31
503.389	108.31
503.606	112.31
503.823	121.31
504.04	119.31
504.256	124.31
504.473	100.31
504.69	102.31
504.907	112.31
505.123	120.31
505.34	127.31
505.557	146.31
505.773	124.31
505.99	114.31
506.207	121.31
506.423	125.31
506.64	126.31
506.856	125.31
507.073	140.31
507.289	129.31
507.506	119.31
507.722	130.31
507.939	112.31
508.155	116.31
508.372	109.31
508.588	93.31
508.805	116.31
509.021	102.31
509.238	110.31
509.454	102.31
509.67	87.31
509.887	94.31
510.103	92.31
510.319	93.31
510.536	90.31
510.752	90.31
510.968	79.31
511.184	88.31
511.401	80.31
