Data from Location4.07152019.Energy5.Lamp.07192019.3%Agarose_HRD10591_16-19-48-925.txt Node
Date: Fri Jul 19 16:19:48 EDT 2019
User: cochatt
Spectrometer: HR+D1059
Trigger mode: 1
Integration Time (sec): 1.000000E-1
Scans to average: 1
Electric dark correction enabled: true
Nonlinearity correction enabled: false
Boxcar width: 0
XAxis mode: Wavelengths
Number of Pixels in Spectrum: 2048
>>>>>Begin Spectral Data<<<<<
223.165	-23.12
223.4	-23.12
223.635	-23.12
223.869	-20.12
224.104	-21.12
224.338	-16.12
224.573	-7.12
224.808	-4.12
225.042	2.88
225.277	-6.12
225.511	-9.12
225.746	6.88
225.98	11.88
226.215	14.88
226.449	6.88
226.683	9.88
226.918	21.88
227.152	31.88
227.387	29.88
227.621	51.88
227.856	66.88
228.09	52.88
228.324	56.88
228.559	42.88
228.793	58.88
229.027	53.88
229.262	50.88
229.496	71.88
229.73	66.88
229.964	65.88
230.199	81.88
230.433	75.88
230.667	76.88
230.901	86.88
231.136	72.88
231.37	82.88
231.604	76.88
231.838	79.88
232.072	99.88
232.306	93.88
232.541	75.88
232.775	83.88
233.009	71.88
233.243	81.88
233.477	86.88
233.711	93.88
233.945	79.88
234.179	68.88
234.413	85.88
234.647	89.88
234.881	74.88
235.115	78.88
235.349	69.88
235.583	80.88
235.817	65.88
236.051	76.88
236.285	81.88
236.519	75.88
236.753	92.88
236.987	79.88
237.221	75.88
237.455	87.88
237.689	84.88
237.922	73.88
238.156	79.88
238.39	83.88
238.624	78.88
238.858	67.88
239.091	77.88
239.325	72.88
239.559	69.88
239.793	81.88
240.027	88.88
240.26	90.88
240.494	90.88
240.728	78.88
240.961	79.88
241.195	80.88
241.429	86.88
241.662	77.88
241.896	82.88
242.13	79.88
242.363	79.88
242.597	80.88
242.83	80.88
243.064	74.88
243.298	87.88
243.531	73.88
243.765	78.88
243.998	69.88
244.232	69.88
244.465	76.88
244.699	79.88
244.932	97.88
245.166	90.88
245.399	77.88
245.633	90.88
245.866	79.88
246.099	76.88
246.333	75.88
246.566	79.88
246.8	83.88
247.033	79.88
247.266	76.88
247.5	92.88
247.733	72.88
247.966	89.88
248.2	78.88
248.433	73.88
248.666	83.88
248.899	84.88
249.133	84.88
249.366	87.88
249.599	88.88
249.832	80.88
250.066	93.88
250.299	82.88
250.532	76.88
250.765	68.88
250.998	84.88
251.231	73.88
251.465	64.88
251.698	68.88
251.931	62.88
252.164	69.88
252.397	75.88
252.63	80.88
252.863	72.88
253.096	85.88
253.329	74.88
253.562	68.88
253.795	63.88
254.028	79.88
254.261	74.88
254.494	73.88
254.727	83.88
254.96	73.88
255.193	72.88
255.426	77.88
255.659	80.88
255.892	87.88
256.124	73.88
256.357	75.88
256.59	76.88
256.823	83.88
257.056	79.88
257.289	87.88
257.521	78.88
257.754	84.88
257.987	84.88
258.22	69.88
258.452	66.88
258.685	79.88
258.918	87.88
259.151	77.88
259.383	80.88
259.616	80.88
259.849	86.88
260.081	71.88
260.314	90.88
260.547	77.88
260.779	77.88
261.012	88.88
261.244	81.88
261.477	87.88
261.71	84.88
261.942	76.88
262.175	84.88
262.407	86.88
262.64	77.88
262.872	81.88
263.105	88.88
263.337	96.88
263.57	85.88
263.802	86.88
264.035	77.88
264.267	81.88
264.499	74.88
264.732	68.88
264.964	83.88
265.197	82.88
265.429	84.88
265.661	83.88
265.894	72.88
266.126	84.88
266.358	90.88
266.591	78.88
266.823	85.88
267.055	81.88
267.287	76.88
267.52	77.88
267.752	82.88
267.984	59.88
268.216	85.88
268.448	82.88
268.681	98.88
268.913	80.88
269.145	81.88
269.377	69.88
269.609	87.88
269.841	72.88
270.073	82.88
270.306	77.88
270.538	71.88
270.77	93.88
271.002	84.88
271.234	77.88
271.466	76.88
271.698	102.88
271.93	75.88
272.162	87.88
272.394	94.88
272.626	77.88
272.858	75.88
273.09	85.88
273.322	85.88
273.553	82.88
273.785	97.88
274.017	71.88
274.249	86.88
274.481	76.88
274.713	78.88
274.945	88.88
275.176	76.88
275.408	78.88
275.64	77.88
275.872	78.88
276.104	76.88
276.335	85.88
276.567	76.88
276.799	87.88
277.031	68.88
277.262	73.88
277.494	88.88
277.726	76.88
277.957	115.88
278.189	83.88
278.421	89.88
278.652	83.88
278.884	75.88
279.115	89.88
279.347	72.88
279.579	81.88
279.81	89.88
280.042	91.88
280.273	83.88
280.505	70.88
280.736	80.88
280.968	100.88
281.199	69.88
281.431	81.88
281.662	73.88
281.894	88.88
282.125	95.88
282.356	85.88
282.588	84.88
282.819	77.88
283.051	82.88
283.282	81.88
283.513	102.88
283.745	81.88
283.976	88.88
284.207	73.88
284.439	92.88
284.67	93.88
284.901	98.88
285.132	86.88
285.364	87.88
285.595	93.88
285.826	87.88
286.057	87.88
286.288	88.88
286.52	83.88
286.751	82.88
286.982	89.88
287.213	87.88
287.444	88.88
287.675	83.88
287.906	81.88
288.138	87.88
288.369	66.88
288.6	82.88
288.831	74.88
289.062	81.88
289.293	84.88
289.524	83.88
289.755	80.88
289.986	93.88
290.217	91.88
290.448	81.88
290.679	97.88
290.91	90.88
291.141	76.88
291.371	96.88
291.602	92.88
291.833	88.88
292.064	85.88
292.295	84.88
292.526	75.88
292.757	95.88
292.987	84.88
293.218	92.88
293.449	89.88
293.68	68.88
293.91	76.88
294.141	87.88
294.372	72.88
294.603	75.88
294.833	85.88
295.064	85.88
295.295	73.88
295.525	75.88
295.756	86.88
295.987	82.88
296.217	84.88
296.448	92.88
296.679	88.88
296.909	90.88
297.14	80.88
297.37	87.88
297.601	76.88
297.831	91.88
298.062	85.88
298.292	89.88
298.523	95.88
298.753	88.88
298.984	93.88
299.214	76.88
299.445	86.88
299.675	84.88
299.905	74.88
300.136	111.88
300.366	74.88
300.597	86.88
300.827	89.88
301.057	93.88
301.288	86.88
301.518	108.88
301.748	86.88
301.979	90.88
302.209	92.88
302.439	82.88
302.669	94.88
302.9	78.88
303.13	97.88
303.36	90.88
303.59	94.88
303.82	70.88
304.051	74.88
304.281	95.88
304.511	89.88
304.741	103.88
304.971	87.88
305.201	89.88
305.431	84.88
305.661	79.88
305.891	81.88
306.121	79.88
306.352	80.88
306.582	80.88
306.812	82.88
307.042	95.88
307.272	74.88
307.502	92.88
307.731	74.88
307.961	97.88
308.191	81.88
308.421	92.88
308.651	101.88
308.881	89.88
309.111	84.88
309.341	87.88
309.571	87.88
309.8	92.88
310.03	80.88
310.26	77.88
310.49	87.88
310.72	92.88
310.949	96.88
311.179	89.88
311.409	100.88
311.639	81.88
311.868	75.88
312.098	85.88
312.328	85.88
312.557	93.88
312.787	84.88
313.017	90.88
313.246	88.88
313.476	92.88
313.706	84.88
313.935	84.88
314.165	76.88
314.394	88.88
314.624	90.88
314.853	82.88
315.083	80.88
315.312	92.88
315.542	71.88
315.771	84.88
316.001	81.88
316.23	83.88
316.46	78.88
316.689	85.88
316.919	81.88
317.148	87.88
317.377	92.88
317.607	90.88
317.836	91.88
318.065	85.88
318.295	83.88
318.524	77.88
318.753	87.88
318.983	96.88
319.212	80.88
319.441	77.88
319.67	76.88
319.9	78.88
320.129	95.88
320.358	76.88
320.587	78.88
320.816	97.88
321.046	79.88
321.275	90.88
321.504	75.88
321.733	92.88
321.962	93.88
322.191	92.88
322.42	88.88
322.649	97.88
322.878	89.88
323.108	95.88
323.337	74.88
323.566	98.88
323.795	101.88
324.024	88.88
324.253	82.88
324.482	66.88
324.71	83.88
324.939	87.88
325.168	90.88
325.397	83.88
325.626	79.88
325.855	91.88
326.084	85.88
326.313	82.88
326.542	75.88
326.77	79.88
326.999	90.88
327.228	82.88
327.457	77.88
327.686	86.88
327.914	102.88
328.143	85.88
328.372	79.88
328.6	86.88
328.829	87.88
329.058	89.88
329.287	105.88
329.515	97.88
329.744	89.88
329.972	86.88
330.201	83.88
330.43	82.88
330.658	86.88
330.887	75.88
331.115	87.88
331.344	75.88
331.572	94.88
331.801	84.88
332.03	88.88
332.258	86.88
332.486	87.88
332.715	83.88
332.943	94.88
333.172	100.88
333.4	93.88
333.629	85.88
333.857	92.88
334.085	79.88
334.314	96.88
334.542	86.88
334.771	89.88
334.999	85.88
335.227	80.88
335.455	98.88
335.684	71.88
335.912	85.88
336.14	87.88
336.369	81.88
336.597	79.88
336.825	83.88
337.053	77.88
337.281	89.88
337.51	79.88
337.738	95.88
337.966	87.88
338.194	84.88
338.422	79.88
338.65	79.88
338.878	83.88
339.106	91.88
339.334	80.88
339.562	82.88
339.79	82.88
340.018	88.88
340.246	95.88
340.474	98.88
340.702	92.88
340.93	90.88
341.158	72.88
341.386	88.88
341.614	84.88
341.842	77.88
342.07	93.88
342.298	87.88
342.526	77.88
342.754	89.88
342.981	80.88
343.209	74.88
343.437	79.88
343.665	84.88
343.893	89.88
344.12	94.88
344.348	77.88
344.576	91.88
344.804	87.88
345.031	88.88
345.259	87.88
345.487	91.88
345.714	88.88
345.942	75.88
346.17	96.88
346.397	86.88
346.625	97.88
346.853	89.88
347.08	82.88
347.308	71.88
347.535	81.88
347.763	88.88
347.99	84.88
348.218	75.88
348.445	75.88
348.673	89.88
348.9	88.88
349.128	94.88
349.355	71.88
349.583	77.88
349.81	85.88
350.037	80.88
350.265	76.88
350.492	89.88
350.72	79.88
350.947	86.88
351.174	87.88
351.402	76.88
351.629	82.88
351.856	77.88
352.083	90.88
352.311	74.88
352.538	87.88
352.765	92.88
352.992	89.88
353.22	84.88
353.447	95.88
353.674	87.88
353.901	90.88
354.128	91.88
354.355	77.88
354.583	72.88
354.81	88.88
355.037	79.88
355.264	93.88
355.491	77.88
355.718	90.88
355.945	90.88
356.172	69.88
356.399	79.88
356.626	82.88
356.853	80.88
357.08	85.88
357.307	84.88
357.534	77.88
357.761	89.88
357.988	90.88
358.215	88.88
358.441	68.88
358.668	80.88
358.895	87.88
359.122	82.88
359.349	88.88
359.576	72.88
359.802	74.88
360.029	80.88
360.256	76.88
360.483	81.88
360.709	95.88
360.936	85.88
361.163	88.88
361.39	86.88
361.616	88.88
361.843	77.88
362.07	86.88
362.296	77.88
362.523	91.88
362.749	84.88
362.976	76.88
363.203	73.88
363.429	84.88
363.656	86.88
363.882	86.88
364.109	90.88
364.335	94.88
364.562	84.88
364.788	73.88
365.015	74.88
365.241	81.88
365.468	97.88
365.694	87.88
365.92	80.88
366.147	77.88
366.373	96.88
366.599	84.88
366.826	95.88
367.052	92.88
367.278	99.88
367.505	87.88
367.731	85.88
367.957	76.88
368.184	81.88
368.41	96.88
368.636	84.88
368.862	93.88
369.089	95.88
369.315	93.88
369.541	93.88
369.767	84.88
369.993	100.88
370.219	89.88
370.445	92.88
370.672	76.88
370.898	97.88
371.124	92.88
371.35	92.88
371.576	98.88
371.802	87.88
372.028	88.88
372.254	94.88
372.48	91.88
372.706	97.88
372.932	92.88
373.158	96.88
373.384	105.88
373.61	97.88
373.835	106.88
374.061	88.88
374.287	100.88
374.513	87.88
374.739	87.88
374.965	88.88
375.191	94.88
375.416	95.88
375.642	92.88
375.868	92.88
376.094	103.88
376.319	95.88
376.545	82.88
376.771	104.88
376.997	92.88
377.222	97.88
377.448	90.88
377.674	84.88
377.899	88.88
378.125	99.88
378.35	100.88
378.576	87.88
378.802	92.88
379.027	102.88
379.253	102.88
379.478	96.88
379.704	85.88
379.929	86.88
380.155	98.88
380.38	91.88
380.606	108.88
380.831	106.88
381.057	112.88
381.282	93.88
381.507	79.88
381.733	100.88
381.958	90.88
382.184	100.88
382.409	95.88
382.634	100.88
382.86	112.88
383.085	120.88
383.31	88.88
383.535	98.88
383.761	91.88
383.986	99.88
384.211	95.88
384.436	105.88
384.662	84.88
384.887	95.88
385.112	102.88
385.337	85.88
385.562	97.88
385.787	104.88
386.013	99.88
386.238	89.88
386.463	100.88
386.688	82.88
386.913	110.88
387.138	88.88
387.363	87.88
387.588	105.88
387.813	91.88
388.038	94.88
388.263	105.88
388.488	105.88
388.713	102.88
388.938	94.88
389.163	95.88
389.387	102.88
389.612	104.88
389.837	103.88
390.062	104.88
390.287	104.88
390.512	92.88
390.736	95.88
390.961	104.88
391.186	95.88
391.411	113.88
391.636	100.88
391.86	103.88
392.085	96.88
392.31	90.88
392.534	102.88
392.759	94.88
392.984	99.88
393.208	122.88
393.433	117.88
393.658	111.88
393.882	97.88
394.107	111.88
394.331	111.88
394.556	98.88
394.78	100.88
395.005	105.88
395.229	105.88
395.454	111.88
395.678	104.88
395.903	98.88
396.127	104.88
396.352	91.88
396.576	100.88
396.801	104.88
397.025	91.88
397.249	125.88
397.474	113.88
397.698	109.88
397.922	95.88
398.147	105.88
398.371	102.88
398.595	113.88
398.82	87.88
399.044	91.88
399.268	114.88
399.492	93.88
399.717	101.88
399.941	128.88
400.165	128.88
400.389	114.88
400.613	115.88
400.837	116.88
401.062	104.88
401.286	117.88
401.51	96.88
401.734	95.88
401.958	115.88
402.182	117.88
402.406	117.88
402.63	113.88
402.854	101.88
403.078	125.88
403.302	114.88
403.526	121.88
403.75	131.88
403.974	119.88
404.198	119.88
404.422	113.88
404.645	124.88
404.869	121.88
405.093	121.88
405.317	106.88
405.541	125.88
405.765	99.88
405.988	119.88
406.212	121.88
406.436	123.88
406.66	123.88
406.883	116.88
407.107	107.88
407.331	117.88
407.555	115.88
407.778	124.88
408.002	117.88
408.226	97.88
408.449	116.88
408.673	105.88
408.896	115.88
409.12	115.88
409.344	128.88
409.567	118.88
409.791	129.88
410.014	124.88
410.238	104.88
410.461	116.88
410.685	128.88
410.908	112.88
411.132	121.88
411.355	128.88
411.578	121.88
411.802	122.88
412.025	131.88
412.249	120.88
412.472	115.88
412.695	113.88
412.919	103.88
413.142	128.88
413.365	129.88
413.589	129.88
413.812	135.88
414.035	122.88
414.258	117.88
414.482	126.88
414.705	119.88
414.928	101.88
415.151	124.88
415.374	105.88
415.597	115.88
415.821	121.88
416.044	105.88
416.267	123.88
416.49	125.88
416.713	122.88
416.936	119.88
417.159	141.88
417.382	134.88
417.605	113.88
417.828	123.88
418.051	123.88
418.274	141.88
418.497	137.88
418.72	128.88
418.943	117.88
419.166	129.88
419.389	136.88
419.611	130.88
419.834	118.88
420.057	138.88
420.28	152.88
420.503	123.88
420.726	125.88
420.948	136.88
421.171	130.88
421.394	131.88
421.617	128.88
421.839	141.88
422.062	156.88
422.285	124.88
422.507	118.88
422.73	135.88
422.953	118.88
423.175	123.88
423.398	129.88
423.621	130.88
423.843	129.88
424.066	134.88
424.288	154.88
424.511	140.88
424.733	140.88
424.956	143.88
425.178	151.88
425.401	150.88
425.623	138.88
425.846	120.88
426.068	138.88
426.291	124.88
426.513	124.88
426.735	136.88
426.958	123.88
427.18	117.88
427.402	130.88
427.625	123.88
427.847	124.88
428.069	119.88
428.292	119.88
428.514	118.88
428.736	124.88
428.958	128.88
429.181	130.88
429.403	120.88
429.625	131.88
429.847	116.88
430.069	127.88
430.292	128.88
430.514	123.88
430.736	124.88
430.958	114.88
431.18	125.88
431.402	132.88
431.624	126.88
431.846	117.88
432.068	94.88
432.29	105.88
432.512	108.88
432.734	121.88
432.956	136.88
433.178	121.88
433.4	138.88
433.622	141.88
433.844	135.88
434.066	104.88
434.287	102.88
434.509	107.88
434.731	100.88
434.953	101.88
435.175	129.88
435.397	130.88
435.618	136.88
435.84	126.88
436.062	118.88
436.284	117.88
436.505	112.88
436.727	139.88
436.949	128.88
437.17	131.88
437.392	113.88
437.614	125.88
437.835	119.88
438.057	111.88
438.278	110.88
438.5	131.88
438.721	139.88
438.943	123.88
439.165	131.88
439.386	160.88
439.608	143.88
439.829	145.88
440.05	136.88
440.272	141.88
440.493	144.88
440.715	135.88
440.936	124.88
441.158	127.88
441.379	120.88
441.6	145.88
441.822	126.88
442.043	144.88
442.264	130.88
442.486	140.88
442.707	130.88
442.928	124.88
443.149	131.88
443.371	137.88
443.592	130.88
443.813	127.88
444.034	123.88
444.255	136.88
444.476	153.88
444.698	159.88
444.919	129.88
445.14	279.88
445.361	200.88
445.582	135.88
445.803	131.88
446.024	156.88
446.245	148.88
446.466	145.88
446.687	157.88
446.908	156.88
447.129	154.88
447.35	149.88
447.571	141.88
447.792	137.88
448.013	137.88
448.234	129.88
448.455	140.88
448.675	152.88
448.896	127.88
449.117	133.88
449.338	128.88
449.559	138.88
449.779	136.88
450	121.88
450.221	129.88
450.442	132.88
450.662	130.88
450.883	136.88
451.104	139.88
451.324	115.88
451.545	136.88
451.766	135.88
451.986	118.88
452.207	124.88
452.428	130.88
452.648	133.88
452.869	109.88
453.089	123.88
453.31	111.88
453.53	104.88
453.751	96.88
453.971	95.88
454.192	108.88
454.412	114.88
454.633	126.88
454.853	118.88
455.073	127.88
455.294	121.88
455.514	121.88
455.734	118.88
455.955	124.88
456.175	120.88
456.395	100.88
456.616	105.88
456.836	112.88
457.056	109.88
457.276	97.88
457.497	97.88
457.717	103.88
457.937	105.88
458.157	103.88
458.377	108.88
458.598	106.88
458.818	108.88
459.038	101.88
459.258	91.88
459.478	82.88
459.698	99.88
459.918	95.88
460.138	110.88
460.358	118.88
460.578	123.88
460.798	118.88
461.018	114.88
461.238	114.88
461.458	112.88
461.678	114.88
461.898	103.88
462.118	118.88
462.338	138.88
462.558	102.88
462.777	111.88
462.997	111.88
463.217	111.88
463.437	102.88
463.657	92.88
463.876	107.88
464.096	96.88
464.316	112.88
464.536	114.88
464.755	111.88
464.975	120.88
465.195	109.88
465.414	111.88
465.634	119.88
465.854	112.88
466.073	125.88
466.293	115.88
466.512	120.88
466.732	126.88
466.951	144.88
467.171	138.88
467.391	133.88
467.61	140.88
467.829	137.88
468.049	140.88
468.268	133.88
468.488	131.88
468.707	140.88
468.927	127.88
469.146	117.88
469.365	130.88
469.585	124.88
469.804	131.88
470.023	138.88
470.243	152.88
470.462	141.88
470.681	143.88
470.901	135.88
471.12	140.88
471.339	146.88
471.558	139.88
471.777	119.88
471.997	118.88
472.216	130.88
472.435	115.88
472.654	111.88
472.873	114.88
473.092	104.88
473.311	119.88
473.53	125.88
473.749	132.88
473.968	111.88
474.187	123.88
474.406	118.88
474.625	123.88
474.844	128.88
475.063	131.88
475.282	131.88
475.501	117.88
475.72	131.88
475.939	117.88
476.158	121.88
476.377	123.88
476.596	121.88
476.814	138.88
477.033	111.88
477.252	127.88
477.471	119.88
477.69	135.88
477.908	144.88
478.127	131.88
478.346	132.88
478.564	135.88
478.783	122.88
479.002	148.88
479.22	139.88
479.439	137.88
479.658	114.88
479.876	108.88
480.095	103.88
480.313	111.88
480.532	104.88
480.751	118.88
480.969	92.88
481.188	92.88
481.406	88.88
481.624	68.88
481.843	91.88
482.061	91.88
482.28	104.88
482.498	107.88
482.717	108.88
482.935	120.88
483.153	145.88
483.372	145.88
483.59	138.88
483.808	142.88
484.027	135.88
484.245	134.88
484.463	155.88
484.681	155.88
484.9	138.88
485.118	165.88
485.336	130.88
485.554	121.88
485.772	105.88
485.99	104.88
486.209	123.88
486.427	101.88
486.645	101.88
486.863	123.88
487.081	137.88
487.299	139.88
487.517	122.88
487.735	157.88
487.953	170.88
488.171	177.88
488.389	170.88
488.607	169.88
488.825	144.88
489.043	115.88
489.261	125.88
489.479	116.88
489.696	140.88
489.914	131.88
490.132	143.88
490.35	153.88
490.568	166.88
490.786	162.88
491.003	161.88
491.221	182.88
491.439	163.88
491.657	181.88
491.874	187.88
492.092	218.88
492.31	221.88
492.527	227.88
492.745	204.88
492.963	196.88
493.18	160.88
493.398	161.88
493.615	180.88
493.833	176.88
494.05	164.88
494.268	178.88
494.485	181.88
494.703	172.88
494.92	173.88
495.138	160.88
495.355	193.88
495.573	157.88
495.79	159.88
496.008	162.88
496.225	161.88
496.442	155.88
496.66	168.88
496.877	163.88
497.094	173.88
497.312	161.88
497.529	170.88
497.746	145.88
497.963	134.88
498.181	137.88
498.398	130.88
498.615	122.88
498.832	111.88
499.049	129.88
499.267	128.88
499.484	122.88
499.701	121.88
499.918	125.88
500.135	135.88
500.352	140.88
500.569	150.88
500.786	132.88
501.003	138.88
501.22	155.88
501.437	141.88
501.654	131.88
501.871	130.88
502.088	123.88
502.305	148.88
502.522	141.88
502.739	127.88
502.956	120.88
503.172	123.88
503.389	119.88
503.606	101.88
503.823	116.88
504.04	111.88
504.256	121.88
504.473	125.88
504.69	123.88
504.907	129.88
505.123	116.88
505.34	110.88
505.557	129.88
505.773	125.88
505.99	119.88
506.207	115.88
506.423	125.88
506.64	115.88
506.856	125.88
507.073	115.88
507.289	110.88
507.506	122.88
507.722	112.88
507.939	123.88
508.155	106.88
508.372	126.88
508.588	114.88
508.805	117.88
509.021	111.88
509.238	103.88
509.454	91.88
509.67	92.88
509.887	111.88
510.103	108.88
510.319	101.88
510.536	101.88
510.752	97.88
510.968	98.88
511.184	84.88
511.401	86.88
511.617	94.88
