Data from Location4.07152019.Energy5.Lamp.07192019.3%Agarose_HRD10591_16-21-16-926.txt Node
Date: Fri Jul 19 16:21:16 EDT 2019
User: cochatt
Spectrometer: HR+D1059
Trigger mode: 1
Integration Time (sec): 1.000000E-1
Scans to average: 1
Electric dark correction enabled: true
Nonlinearity correction enabled: false
Boxcar width: 0
XAxis mode: Wavelengths
Number of Pixels in Spectrum: 2048
>>>>>Begin Spectral Data<<<<<
223.165	-21.5
223.4	-21.5
223.635	-21.5
223.869	-7.5
224.104	-17.5
224.338	-11.5
224.573	-13.5
224.808	-10.5
225.042	1.5
225.277	-16.5
225.511	-10.5
225.746	-12.5
225.98	10.5
226.215	19.5
226.449	19.5
226.683	17.5
226.918	21.5
227.152	31.5
227.387	21.5
227.621	33.5
227.856	45.5
228.09	49.5
228.324	54.5
228.559	59.5
228.793	55.5
229.027	64.5
229.262	67.5
229.496	69.5
229.73	64.5
229.964	84.5
230.199	68.5
230.433	68.5
230.667	76.5
230.901	84.5
231.136	72.5
231.37	83.5
231.604	74.5
231.838	72.5
232.072	79.5
232.306	77.5
232.541	88.5
232.775	94.5
233.009	78.5
233.243	80.5
233.477	88.5
233.711	95.5
233.945	77.5
234.179	93.5
234.413	77.5
234.647	77.5
234.881	84.5
235.115	84.5
235.349	78.5
235.583	83.5
235.817	80.5
236.051	72.5
236.285	82.5
236.519	83.5
236.753	85.5
236.987	76.5
237.221	81.5
237.455	77.5
237.689	94.5
237.922	85.5
238.156	70.5
238.39	79.5
238.624	72.5
238.858	82.5
239.091	77.5
239.325	83.5
239.559	65.5
239.793	78.5
240.027	81.5
240.26	72.5
240.494	59.5
240.728	80.5
240.961	76.5
241.195	66.5
241.429	75.5
241.662	76.5
241.896	84.5
242.13	83.5
242.363	77.5
242.597	85.5
242.83	72.5
243.064	67.5
243.298	68.5
243.531	77.5
243.765	83.5
243.998	90.5
244.232	78.5
244.465	69.5
244.699	82.5
244.932	60.5
245.166	76.5
245.399	88.5
245.633	89.5
245.866	79.5
246.099	87.5
246.333	86.5
246.566	82.5
246.8	75.5
247.033	74.5
247.266	82.5
247.5	74.5
247.733	80.5
247.966	79.5
248.2	75.5
248.433	86.5
248.666	83.5
248.899	93.5
249.133	87.5
249.366	89.5
249.599	91.5
249.832	72.5
250.066	68.5
250.299	78.5
250.532	79.5
250.765	86.5
250.998	82.5
251.231	79.5
251.465	74.5
251.698	64.5
251.931	76.5
252.164	78.5
252.397	83.5
252.63	80.5
252.863	79.5
253.096	91.5
253.329	79.5
253.562	89.5
253.795	81.5
254.028	90.5
254.261	89.5
254.494	81.5
254.727	81.5
254.96	86.5
255.193	77.5
255.426	61.5
255.659	70.5
255.892	93.5
256.124	86.5
256.357	88.5
256.59	84.5
256.823	71.5
257.056	75.5
257.289	91.5
257.521	82.5
257.754	78.5
257.987	85.5
258.22	91.5
258.452	68.5
258.685	72.5
258.918	76.5
259.151	89.5
259.383	80.5
259.616	96.5
259.849	96.5
260.081	87.5
260.314	76.5
260.547	81.5
260.779	86.5
261.012	92.5
261.244	83.5
261.477	87.5
261.71	86.5
261.942	87.5
262.175	74.5
262.407	93.5
262.64	80.5
262.872	70.5
263.105	85.5
263.337	97.5
263.57	71.5
263.802	85.5
264.035	81.5
264.267	81.5
264.499	84.5
264.732	82.5
264.964	75.5
265.197	82.5
265.429	70.5
265.661	77.5
265.894	79.5
266.126	72.5
266.358	69.5
266.591	76.5
266.823	86.5
267.055	94.5
267.287	79.5
267.52	80.5
267.752	83.5
267.984	97.5
268.216	63.5
268.448	74.5
268.681	75.5
268.913	83.5
269.145	89.5
269.377	82.5
269.609	81.5
269.841	89.5
270.073	90.5
270.306	73.5
270.538	82.5
270.77	76.5
271.002	77.5
271.234	82.5
271.466	91.5
271.698	72.5
271.93	89.5
272.162	86.5
272.394	88.5
272.626	80.5
272.858	83.5
273.09	88.5
273.322	81.5
273.553	84.5
273.785	82.5
274.017	80.5
274.249	78.5
274.481	91.5
274.713	83.5
274.945	84.5
275.176	99.5
275.408	82.5
275.64	80.5
275.872	91.5
276.104	74.5
276.335	95.5
276.567	88.5
276.799	73.5
277.031	74.5
277.262	91.5
277.494	77.5
277.726	78.5
277.957	88.5
278.189	88.5
278.421	75.5
278.652	88.5
278.884	86.5
279.115	75.5
279.347	82.5
279.579	86.5
279.81	86.5
280.042	86.5
280.273	83.5
280.505	82.5
280.736	81.5
280.968	83.5
281.199	94.5
281.431	99.5
281.662	96.5
281.894	98.5
282.125	64.5
282.356	76.5
282.588	87.5
282.819	89.5
283.051	87.5
283.282	87.5
283.513	95.5
283.745	91.5
283.976	79.5
284.207	75.5
284.439	95.5
284.67	88.5
284.901	84.5
285.132	82.5
285.364	97.5
285.595	89.5
285.826	77.5
286.057	71.5
286.288	90.5
286.52	90.5
286.751	96.5
286.982	95.5
287.213	101.5
287.444	77.5
287.675	70.5
287.906	82.5
288.138	82.5
288.369	83.5
288.6	91.5
288.831	75.5
289.062	89.5
289.293	75.5
289.524	91.5
289.755	88.5
289.986	77.5
290.217	90.5
290.448	76.5
290.679	86.5
290.91	94.5
291.141	94.5
291.371	85.5
291.602	82.5
291.833	82.5
292.064	75.5
292.295	84.5
292.526	92.5
292.757	89.5
292.987	95.5
293.218	86.5
293.449	82.5
293.68	83.5
293.91	77.5
294.141	86.5
294.372	81.5
294.603	95.5
294.833	81.5
295.064	82.5
295.295	73.5
295.525	87.5
295.756	88.5
295.987	87.5
296.217	82.5
296.448	82.5
296.679	75.5
296.909	81.5
297.14	80.5
297.37	79.5
297.601	93.5
297.831	76.5
298.062	77.5
298.292	92.5
298.523	94.5
298.753	91.5
298.984	87.5
299.214	90.5
299.445	92.5
299.675	83.5
299.905	77.5
300.136	102.5
300.366	91.5
300.597	92.5
300.827	82.5
301.057	92.5
301.288	88.5
301.518	76.5
301.748	89.5
301.979	91.5
302.209	81.5
302.439	83.5
302.669	76.5
302.9	89.5
303.13	90.5
303.36	87.5
303.59	83.5
303.82	83.5
304.051	88.5
304.281	71.5
304.511	87.5
304.741	69.5
304.971	78.5
305.201	90.5
305.431	82.5
305.661	86.5
305.891	90.5
306.121	93.5
306.352	95.5
306.582	81.5
306.812	83.5
307.042	90.5
307.272	99.5
307.502	77.5
307.731	94.5
307.961	92.5
308.191	79.5
308.421	76.5
308.651	91.5
308.881	92.5
309.111	99.5
309.341	87.5
309.571	83.5
309.8	77.5
310.03	68.5
310.26	84.5
310.49	91.5
310.72	90.5
310.949	82.5
311.179	83.5
311.409	78.5
311.639	87.5
311.868	89.5
312.098	90.5
312.328	85.5
312.557	84.5
312.787	82.5
313.017	84.5
313.246	79.5
313.476	86.5
313.706	71.5
313.935	94.5
314.165	77.5
314.394	89.5
314.624	84.5
314.853	87.5
315.083	92.5
315.312	80.5
315.542	91.5
315.771	89.5
316.001	86.5
316.23	82.5
316.46	79.5
316.689	87.5
316.919	86.5
317.148	77.5
317.377	100.5
317.607	97.5
317.836	99.5
318.065	98.5
318.295	106.5
318.524	90.5
318.753	91.5
318.983	82.5
319.212	81.5
319.441	84.5
319.67	94.5
319.9	76.5
320.129	88.5
320.358	83.5
320.587	79.5
320.816	71.5
321.046	74.5
321.275	84.5
321.504	84.5
321.733	80.5
321.962	79.5
322.191	90.5
322.42	82.5
322.649	89.5
322.878	89.5
323.108	82.5
323.337	86.5
323.566	90.5
323.795	94.5
324.024	89.5
324.253	93.5
324.482	87.5
324.71	84.5
324.939	91.5
325.168	92.5
325.397	70.5
325.626	76.5
325.855	96.5
326.084	89.5
326.313	78.5
326.542	92.5
326.77	89.5
326.999	90.5
327.228	72.5
327.457	90.5
327.686	93.5
327.914	97.5
328.143	85.5
328.372	91.5
328.6	89.5
328.829	89.5
329.058	100.5
329.287	87.5
329.515	89.5
329.744	76.5
329.972	85.5
330.201	95.5
330.43	96.5
330.658	85.5
330.887	83.5
331.115	82.5
331.344	93.5
331.572	84.5
331.801	92.5
332.03	88.5
332.258	74.5
332.486	99.5
332.715	80.5
332.943	91.5
333.172	102.5
333.4	91.5
333.629	87.5
333.857	89.5
334.085	96.5
334.314	87.5
334.542	98.5
334.771	83.5
334.999	76.5
335.227	97.5
335.455	74.5
335.684	87.5
335.912	83.5
336.14	92.5
336.369	96.5
336.597	75.5
336.825	85.5
337.053	101.5
337.281	85.5
337.51	84.5
337.738	83.5
337.966	94.5
338.194	89.5
338.422	72.5
338.65	96.5
338.878	81.5
339.106	83.5
339.334	77.5
339.562	94.5
339.79	86.5
340.018	77.5
340.246	96.5
340.474	73.5
340.702	91.5
340.93	82.5
341.158	86.5
341.386	84.5
341.614	90.5
341.842	89.5
342.07	84.5
342.298	81.5
342.526	88.5
342.754	74.5
342.981	93.5
343.209	78.5
343.437	91.5
343.665	88.5
343.893	87.5
344.12	88.5
344.348	83.5
344.576	88.5
344.804	88.5
345.031	99.5
345.259	79.5
345.487	75.5
345.714	88.5
345.942	83.5
346.17	80.5
346.397	110.5
346.625	73.5
346.853	84.5
347.08	98.5
347.308	78.5
347.535	78.5
347.763	82.5
347.99	104.5
348.218	84.5
348.445	85.5
348.673	75.5
348.9	84.5
349.128	81.5
349.355	78.5
349.583	84.5
349.81	86.5
350.037	106.5
350.265	92.5
350.492	96.5
350.72	84.5
350.947	105.5
351.174	84.5
351.402	73.5
351.629	86.5
351.856	78.5
352.083	72.5
352.311	83.5
352.538	94.5
352.765	78.5
352.992	95.5
353.22	93.5
353.447	89.5
353.674	92.5
353.901	91.5
354.128	84.5
354.355	87.5
354.583	72.5
354.81	93.5
355.037	92.5
355.264	87.5
355.491	91.5
355.718	80.5
355.945	84.5
356.172	97.5
356.399	90.5
356.626	92.5
356.853	82.5
357.08	84.5
357.307	85.5
357.534	74.5
357.761	82.5
357.988	85.5
358.215	88.5
358.441	93.5
358.668	83.5
358.895	101.5
359.122	89.5
359.349	86.5
359.576	69.5
359.802	82.5
360.029	89.5
360.256	81.5
360.483	98.5
360.709	95.5
360.936	89.5
361.163	87.5
361.39	84.5
361.616	82.5
361.843	93.5
362.07	80.5
362.296	73.5
362.523	71.5
362.749	81.5
362.976	78.5
363.203	90.5
363.429	86.5
363.656	77.5
363.882	78.5
364.109	73.5
364.335	83.5
364.562	78.5
364.788	67.5
365.015	88.5
365.241	89.5
365.468	90.5
365.694	75.5
365.92	90.5
366.147	88.5
366.373	84.5
366.599	89.5
366.826	102.5
367.052	103.5
367.278	92.5
367.505	80.5
367.731	94.5
367.957	89.5
368.184	78.5
368.41	96.5
368.636	96.5
368.862	91.5
369.089	84.5
369.315	99.5
369.541	100.5
369.767	92.5
369.993	75.5
370.219	72.5
370.445	75.5
370.672	87.5
370.898	82.5
371.124	87.5
371.35	109.5
371.576	77.5
371.802	98.5
372.028	95.5
372.254	82.5
372.48	74.5
372.706	91.5
372.932	94.5
373.158	86.5
373.384	104.5
373.61	105.5
373.835	97.5
374.061	77.5
374.287	85.5
374.513	104.5
374.739	91.5
374.965	79.5
375.191	71.5
375.416	92.5
375.642	92.5
375.868	101.5
376.094	97.5
376.319	106.5
376.545	77.5
376.771	84.5
376.997	93.5
377.222	78.5
377.448	100.5
377.674	107.5
377.899	88.5
378.125	91.5
378.35	100.5
378.576	106.5
378.802	96.5
379.027	96.5
379.253	85.5
379.478	89.5
379.704	90.5
379.929	101.5
380.155	94.5
380.38	86.5
380.606	80.5
380.831	90.5
381.057	93.5
381.282	96.5
381.507	106.5
381.733	87.5
381.958	112.5
382.184	95.5
382.409	92.5
382.634	104.5
382.86	91.5
383.085	97.5
383.31	83.5
383.535	90.5
383.761	98.5
383.986	107.5
384.211	93.5
384.436	98.5
384.662	97.5
384.887	96.5
385.112	108.5
385.337	112.5
385.562	91.5
385.787	88.5
386.013	97.5
386.238	96.5
386.463	84.5
386.688	95.5
386.913	92.5
387.138	90.5
387.363	93.5
387.588	114.5
387.813	116.5
388.038	118.5
388.263	102.5
388.488	102.5
388.713	95.5
388.938	102.5
389.163	102.5
389.387	96.5
389.612	98.5
389.837	109.5
390.062	99.5
390.287	102.5
390.512	99.5
390.736	106.5
390.961	106.5
391.186	119.5
391.411	94.5
391.636	113.5
391.86	96.5
392.085	94.5
392.31	103.5
392.534	104.5
392.759	110.5
392.984	102.5
393.208	115.5
393.433	108.5
393.658	101.5
393.882	102.5
394.107	116.5
394.331	118.5
394.556	110.5
394.78	87.5
395.005	96.5
395.229	110.5
395.454	103.5
395.678	104.5
395.903	100.5
396.127	106.5
396.352	89.5
396.576	101.5
396.801	121.5
397.025	113.5
397.249	104.5
397.474	100.5
397.698	97.5
397.922	117.5
398.147	107.5
398.371	123.5
398.595	111.5
398.82	96.5
399.044	109.5
399.268	110.5
399.492	107.5
399.717	116.5
399.941	113.5
400.165	118.5
400.389	111.5
400.613	114.5
400.837	119.5
401.062	104.5
401.286	106.5
401.51	107.5
401.734	94.5
401.958	105.5
402.182	104.5
402.406	112.5
402.63	126.5
402.854	103.5
403.078	113.5
403.302	117.5
403.526	116.5
403.75	101.5
403.974	126.5
404.198	108.5
404.422	104.5
404.645	125.5
404.869	110.5
405.093	114.5
405.317	115.5
405.541	114.5
405.765	126.5
405.988	120.5
406.212	122.5
406.436	115.5
406.66	123.5
406.883	125.5
407.107	100.5
407.331	113.5
407.555	116.5
407.778	103.5
408.002	104.5
408.226	118.5
408.449	117.5
408.673	106.5
408.896	104.5
409.12	128.5
409.344	126.5
409.567	118.5
409.791	124.5
410.014	124.5
410.238	122.5
410.461	128.5
410.685	118.5
410.908	129.5
411.132	116.5
411.355	108.5
411.578	127.5
411.802	122.5
412.025	109.5
412.249	125.5
412.472	114.5
412.695	123.5
412.919	117.5
413.142	117.5
413.365	116.5
413.589	141.5
413.812	136.5
414.035	122.5
414.258	115.5
414.482	109.5
414.705	123.5
414.928	116.5
415.151	112.5
415.374	125.5
415.597	128.5
415.821	115.5
416.044	118.5
416.267	115.5
416.49	124.5
416.713	134.5
416.936	140.5
417.159	129.5
417.382	119.5
417.605	135.5
417.828	128.5
418.051	128.5
418.274	125.5
418.497	125.5
418.72	137.5
418.943	114.5
419.166	120.5
419.389	125.5
419.611	134.5
419.834	132.5
420.057	137.5
420.28	138.5
420.503	129.5
420.726	122.5
420.948	131.5
421.171	131.5
421.394	110.5
421.617	146.5
421.839	146.5
422.062	129.5
422.285	128.5
422.507	135.5
422.73	136.5
422.953	130.5
423.175	121.5
423.398	130.5
423.621	122.5
423.843	131.5
424.066	131.5
424.288	141.5
424.511	138.5
424.733	142.5
424.956	125.5
425.178	141.5
425.401	132.5
425.623	114.5
425.846	147.5
426.068	130.5
426.291	128.5
426.513	125.5
426.735	125.5
426.958	117.5
427.18	117.5
427.402	128.5
427.625	132.5
427.847	125.5
428.069	113.5
428.292	134.5
428.514	124.5
428.736	109.5
428.958	123.5
429.181	128.5
429.403	124.5
429.625	133.5
429.847	135.5
430.069	125.5
430.292	123.5
430.514	124.5
430.736	128.5
430.958	133.5
431.18	120.5
431.402	140.5
431.624	134.5
431.846	105.5
432.068	86.5
432.29	102.5
432.512	126.5
432.734	110.5
432.956	127.5
433.178	139.5
433.4	139.5
433.622	114.5
433.844	122.5
434.066	133.5
434.287	102.5
434.509	77.5
434.731	94.5
434.953	124.5
435.175	110.5
435.397	136.5
435.618	113.5
435.84	105.5
436.062	119.5
436.284	121.5
436.505	124.5
436.727	125.5
436.949	133.5
437.17	118.5
437.392	120.5
437.614	134.5
437.835	107.5
438.057	101.5
438.278	100.5
438.5	120.5
438.721	137.5
438.943	133.5
439.165	138.5
439.386	143.5
439.608	128.5
439.829	149.5
440.05	145.5
440.272	140.5
440.493	143.5
440.715	148.5
440.936	125.5
441.158	132.5
441.379	126.5
441.6	139.5
441.822	149.5
442.043	142.5
442.264	149.5
442.486	146.5
442.707	144.5
442.928	127.5
443.149	140.5
443.371	127.5
443.592	131.5
443.813	125.5
444.034	140.5
444.255	152.5
444.476	124.5
444.698	132.5
444.919	140.5
445.14	276.5
445.361	197.5
445.582	150.5
445.803	123.5
446.024	153.5
446.245	157.5
446.466	139.5
446.687	146.5
446.908	181.5
447.129	150.5
447.35	132.5
447.571	130.5
447.792	147.5
448.013	141.5
448.234	142.5
448.455	149.5
448.675	130.5
448.896	132.5
449.117	136.5
449.338	140.5
449.559	137.5
449.779	131.5
450	144.5
450.221	144.5
450.442	134.5
450.662	129.5
450.883	135.5
451.104	133.5
451.324	124.5
451.545	142.5
451.766	124.5
451.986	134.5
452.207	101.5
452.428	136.5
452.648	121.5
452.869	120.5
453.089	106.5
453.31	124.5
453.53	115.5
453.751	112.5
453.971	106.5
454.192	120.5
454.412	114.5
454.633	121.5
454.853	119.5
455.073	111.5
455.294	125.5
455.514	122.5
455.734	103.5
455.955	100.5
456.175	124.5
456.395	114.5
456.616	105.5
456.836	111.5
457.056	131.5
457.276	107.5
457.497	103.5
457.717	107.5
457.937	101.5
458.157	113.5
458.377	101.5
458.598	107.5
458.818	97.5
459.038	86.5
459.258	92.5
459.478	88.5
459.698	87.5
459.918	100.5
460.138	109.5
460.358	109.5
460.578	133.5
460.798	120.5
461.018	122.5
461.238	131.5
461.458	125.5
461.678	126.5
461.898	123.5
462.118	107.5
462.338	115.5
462.558	114.5
462.777	115.5
462.997	115.5
463.217	103.5
463.437	116.5
463.657	102.5
463.876	115.5
464.096	123.5
464.316	107.5
464.536	124.5
464.755	107.5
464.975	119.5
465.195	118.5
465.414	110.5
465.634	114.5
465.854	123.5
466.073	128.5
466.293	128.5
466.512	118.5
466.732	122.5
466.951	129.5
467.171	136.5
467.391	129.5
467.61	123.5
467.829	127.5
468.049	130.5
468.268	122.5
468.488	134.5
468.707	140.5
468.927	142.5
469.146	134.5
469.365	138.5
469.585	128.5
469.804	151.5
470.023	142.5
470.243	136.5
470.462	131.5
470.681	145.5
470.901	144.5
471.12	123.5
471.339	138.5
471.558	149.5
471.777	150.5
471.997	129.5
472.216	120.5
472.435	118.5
472.654	113.5
472.873	109.5
473.092	114.5
473.311	123.5
473.53	116.5
473.749	117.5
473.968	138.5
474.187	109.5
474.406	114.5
474.625	116.5
474.844	133.5
475.063	141.5
475.282	132.5
475.501	112.5
475.72	122.5
475.939	121.5
476.158	108.5
476.377	135.5
476.596	130.5
476.814	123.5
477.033	112.5
477.252	124.5
477.471	140.5
477.69	132.5
477.908	155.5
478.127	130.5
478.346	144.5
478.564	123.5
478.783	136.5
479.002	135.5
479.22	145.5
479.439	136.5
479.658	133.5
479.876	117.5
480.095	121.5
480.313	113.5
480.532	117.5
480.751	119.5
480.969	98.5
481.188	86.5
481.406	83.5
481.624	110.5
481.843	106.5
482.061	93.5
482.28	124.5
482.498	102.5
482.717	112.5
482.935	118.5
483.153	126.5
483.372	150.5
483.59	156.5
483.808	118.5
484.027	129.5
484.245	138.5
484.463	160.5
484.681	163.5
484.9	152.5
485.118	152.5
485.336	123.5
485.554	120.5
485.772	92.5
485.99	97.5
486.209	114.5
486.427	113.5
486.645	128.5
486.863	151.5
487.081	143.5
487.299	157.5
487.517	149.5
487.735	170.5
487.953	191.5
488.171	176.5
488.389	165.5
488.607	163.5
488.825	143.5
489.043	134.5
489.261	124.5
489.479	139.5
489.696	136.5
489.914	132.5
490.132	142.5
490.35	145.5
490.568	152.5
490.786	176.5
491.003	184.5
491.221	166.5
491.439	178.5
491.657	183.5
491.874	211.5
492.092	200.5
492.31	240.5
492.527	224.5
492.745	205.5
492.963	199.5
493.18	188.5
493.398	191.5
493.615	192.5
493.833	166.5
494.05	172.5
494.268	176.5
494.485	171.5
494.703	176.5
494.92	172.5
495.138	175.5
495.355	186.5
495.573	155.5
495.79	172.5
496.008	167.5
496.225	151.5
496.442	177.5
496.66	174.5
496.877	152.5
497.094	148.5
497.312	160.5
497.529	150.5
497.746	151.5
497.963	125.5
498.181	120.5
498.398	124.5
498.615	126.5
498.832	127.5
499.049	113.5
499.267	117.5
499.484	123.5
499.701	133.5
499.918	120.5
500.135	139.5
500.352	154.5
500.569	149.5
500.786	143.5
501.003	151.5
501.22	137.5
501.437	141.5
501.654	133.5
501.871	143.5
502.088	123.5
502.305	137.5
502.522	127.5
502.739	147.5
502.956	126.5
503.172	128.5
503.389	124.5
503.606	121.5
503.823	113.5
504.04	112.5
504.256	122.5
504.473	129.5
504.69	125.5
504.907	126.5
505.123	126.5
505.34	118.5
505.557	124.5
505.773	126.5
505.99	114.5
506.207	103.5
506.423	109.5
506.64	124.5
506.856	121.5
507.073	122.5
507.289	115.5
507.506	124.5
507.722	119.5
507.939	124.5
508.155	106.5
508.372	109.5
508.588	111.5
508.805	124.5
509.021	104.5
509.238	131.5
509.454	97.5
509.67	92.5
509.887	99.5
510.103	97.5
510.319	95.5
510.536	94.5
510.752	92.5
510.968	90.5
511.184	86.5
511.401	88.5
511.617	89.5
511.833	102.5
512.049	92.5
512.265	92.5
512.481	96.5
512.698	100.5
512.914	103.5
513.13	114.5
513.346	97.5
513.562	107.5
513.778	93.5
513.994	88.5
514.21	88.5
514.426	87.5
514.642	88.5
514.858	82.5
515.074	90.5
515.29	75.5
515.506	86.5
515.721	85.5
515.937	104.5
516.153	87.5
516.369	99.5
516.585	98.5
516.801	85.5
517.016	95.5
517.232	89.5
517.448	104.5
517.664	97.5
517.879	98.5
518.095	107.5
518.311	106.5
518.527	87.5
518.742	89.5
518.958	90.5
519.173	104.5
519.389	115.5
519.605	124.5
519.82	113.5
520.036	114.5
520.251	102.5
520.467	111.5
520.682	104.5
520.898	104.5
521.113	95.5
521.329	94.5
521.544	83.5
521.76	93.5
521.975	107.5
522.19	96.5
522.406	105.5
522.621	96.5
522.836	86.5
523.052	114.5
523.267	124.5
523.482	105.5
523.698	113.5
523.913	120.5
524.128	122.5
524.343	125.5
524.559	133.5
524.774	114.5
524.989	120.5
525.204	112.5
525.419	109.5
525.634	121.5
525.849	104.5
526.064	104.5
526.28	102.5
526.495	99.5
526.71	103.5
526.925	87.5
527.14	86.5
527.355	94.5
527.57	93.5
527.785	102.5
527.999	97.5
528.214	111.5
528.429	128.5
528.644	126.5
528.859	133.5
529.074	145.5
529.289	176.5
529.503	151.5
529.718	138.5
529.933	118.5
530.148	102.5
530.363	102.5
530.577	102.5
