Data from Location4.07152019.Energy5.Lamp.07192019.3%Agarose_HRD10591_16-19-50-925.txt Node
Date: Fri Jul 19 16:19:50 EDT 2019
User: cochatt
Spectrometer: HR+D1059
Trigger mode: 1
Integration Time (sec): 1.000000E-1
Scans to average: 1
Electric dark correction enabled: true
Nonlinearity correction enabled: false
Boxcar width: 0
XAxis mode: Wavelengths
Number of Pixels in Spectrum: 2048
>>>>>Begin Spectral Data<<<<<
223.165	-22.69
223.4	-22.69
223.635	-22.69
223.869	-23.69
224.104	-11.69
224.338	-10.69
224.573	-19.69
224.808	-9.69
225.042	-0.69
225.277	-14.69
225.511	-6.69
225.746	-5.69
225.98	0.31
226.215	26.31
226.449	10.31
226.683	25.31
226.918	28.31
227.152	35.31
227.387	38.31
227.621	42.31
227.856	54.31
228.09	35.31
228.324	41.31
228.559	49.31
228.793	51.31
229.027	63.31
229.262	72.31
229.496	63.31
229.73	71.31
229.964	63.31
230.199	64.31
230.433	72.31
230.667	86.31
230.901	86.31
231.136	86.31
231.37	74.31
231.604	79.31
231.838	87.31
232.072	84.31
232.306	90.31
232.541	62.31
232.775	77.31
233.009	81.31
233.243	73.31
233.477	84.31
233.711	82.31
233.945	75.31
234.179	91.31
234.413	73.31
234.647	71.31
234.881	80.31
235.115	94.31
235.349	79.31
235.583	82.31
235.817	86.31
236.051	74.31
236.285	84.31
236.519	77.31
236.753	79.31
236.987	74.31
237.221	76.31
237.455	92.31
237.689	91.31
237.922	77.31
238.156	76.31
238.39	68.31
238.624	73.31
238.858	81.31
239.091	77.31
239.325	70.31
239.559	83.31
239.793	89.31
240.027	76.31
240.26	84.31
240.494	71.31
240.728	77.31
240.961	74.31
241.195	81.31
241.429	70.31
241.662	87.31
241.896	69.31
242.13	73.31
242.363	69.31
242.597	77.31
242.83	86.31
243.064	74.31
243.298	73.31
243.531	81.31
243.765	84.31
243.998	68.31
244.232	78.31
244.465	82.31
244.699	77.31
244.932	72.31
245.166	69.31
245.399	86.31
245.633	72.31
245.866	79.31
246.099	80.31
246.333	67.31
246.566	69.31
246.8	73.31
247.033	71.31
247.266	65.31
247.5	83.31
247.733	74.31
247.966	75.31
248.2	79.31
248.433	86.31
248.666	85.31
248.899	74.31
249.133	79.31
249.366	84.31
249.599	95.31
249.832	78.31
250.066	74.31
250.299	83.31
250.532	79.31
250.765	78.31
250.998	84.31
251.231	75.31
251.465	82.31
251.698	79.31
251.931	76.31
252.164	87.31
252.397	80.31
252.63	96.31
252.863	74.31
253.096	75.31
253.329	72.31
253.562	85.31
253.795	95.31
254.028	82.31
254.261	75.31
254.494	91.31
254.727	90.31
254.96	76.31
255.193	77.31
255.426	78.31
255.659	95.31
255.892	67.31
256.124	80.31
256.357	78.31
256.59	86.31
256.823	77.31
257.056	82.31
257.289	76.31
257.521	83.31
257.754	91.31
257.987	73.31
258.22	77.31
258.452	98.31
258.685	74.31
258.918	83.31
259.151	69.31
259.383	78.31
259.616	92.31
259.849	84.31
260.081	73.31
260.314	70.31
260.547	75.31
260.779	78.31
261.012	81.31
261.244	77.31
261.477	83.31
261.71	86.31
261.942	81.31
262.175	73.31
262.407	86.31
262.64	85.31
262.872	69.31
263.105	89.31
263.337	73.31
263.57	81.31
263.802	67.31
264.035	59.31
264.267	89.31
264.499	79.31
264.732	81.31
264.964	82.31
265.197	80.31
265.429	72.31
265.661	89.31
265.894	85.31
266.126	90.31
266.358	74.31
266.591	86.31
266.823	84.31
267.055	83.31
267.287	73.31
267.52	70.31
267.752	73.31
267.984	83.31
268.216	80.31
268.448	93.31
268.681	79.31
268.913	84.31
269.145	81.31
269.377	83.31
269.609	83.31
269.841	84.31
270.073	70.31
270.306	83.31
270.538	82.31
270.77	89.31
271.002	66.31
271.234	85.31
271.466	90.31
271.698	85.31
271.93	76.31
272.162	77.31
272.394	77.31
272.626	73.31
272.858	73.31
273.09	89.31
273.322	94.31
273.553	86.31
273.785	80.31
274.017	95.31
274.249	83.31
274.481	81.31
274.713	91.31
274.945	94.31
275.176	100.31
275.408	82.31
275.64	85.31
275.872	80.31
276.104	76.31
276.335	91.31
276.567	87.31
276.799	82.31
277.031	71.31
277.262	87.31
277.494	96.31
277.726	80.31
277.957	89.31
278.189	85.31
278.421	89.31
278.652	96.31
278.884	88.31
279.115	85.31
279.347	86.31
279.579	78.31
279.81	84.31
280.042	86.31
280.273	86.31
280.505	69.31
280.736	82.31
280.968	88.31
281.199	73.31
281.431	72.31
281.662	71.31
281.894	81.31
282.125	66.31
282.356	76.31
282.588	91.31
282.819	87.31
283.051	91.31
283.282	74.31
283.513	80.31
283.745	82.31
283.976	96.31
284.207	83.31
284.439	106.31
284.67	87.31
284.901	89.31
285.132	76.31
285.364	75.31
285.595	85.31
285.826	79.31
286.057	74.31
286.288	92.31
286.52	92.31
286.751	92.31
286.982	80.31
287.213	88.31
287.444	89.31
287.675	85.31
287.906	97.31
288.138	83.31
288.369	74.31
288.6	78.31
288.831	81.31
289.062	86.31
289.293	79.31
289.524	82.31
289.755	86.31
289.986	80.31
290.217	91.31
290.448	91.31
290.679	89.31
290.91	92.31
291.141	83.31
291.371	82.31
291.602	81.31
291.833	100.31
292.064	95.31
292.295	89.31
292.526	84.31
292.757	93.31
292.987	88.31
293.218	83.31
293.449	92.31
293.68	83.31
293.91	78.31
294.141	80.31
294.372	96.31
294.603	80.31
294.833	76.31
295.064	89.31
295.295	93.31
295.525	78.31
295.756	77.31
295.987	79.31
296.217	88.31
296.448	89.31
296.679	89.31
296.909	90.31
297.14	97.31
297.37	95.31
297.601	86.31
297.831	84.31
298.062	84.31
298.292	81.31
298.523	88.31
298.753	83.31
298.984	83.31
299.214	83.31
299.445	91.31
299.675	77.31
299.905	91.31
300.136	83.31
300.366	94.31
300.597	77.31
300.827	72.31
301.057	87.31
301.288	88.31
301.518	89.31
301.748	81.31
301.979	77.31
302.209	89.31
302.439	81.31
302.669	87.31
302.9	80.31
303.13	73.31
303.36	76.31
303.59	87.31
303.82	88.31
304.051	89.31
304.281	84.31
304.511	88.31
304.741	96.31
304.971	90.31
305.201	106.31
305.431	97.31
305.661	82.31
305.891	82.31
306.121	82.31
306.352	84.31
306.582	77.31
306.812	77.31
307.042	90.31
307.272	67.31
307.502	73.31
307.731	91.31
307.961	88.31
308.191	93.31
308.421	74.31
308.651	87.31
308.881	95.31
309.111	86.31
309.341	91.31
309.571	82.31
309.8	92.31
310.03	88.31
310.26	101.31
310.49	88.31
310.72	91.31
310.949	91.31
311.179	88.31
311.409	107.31
311.639	72.31
311.868	84.31
312.098	97.31
312.328	88.31
312.557	74.31
312.787	87.31
313.017	77.31
313.246	75.31
313.476	90.31
313.706	86.31
313.935	94.31
314.165	91.31
314.394	77.31
314.624	95.31
314.853	79.31
315.083	85.31
315.312	83.31
315.542	68.31
315.771	89.31
316.001	83.31
316.23	90.31
316.46	86.31
316.689	82.31
316.919	82.31
317.148	91.31
317.377	80.31
317.607	59.31
317.836	82.31
318.065	89.31
318.295	95.31
318.524	77.31
318.753	93.31
318.983	81.31
319.212	85.31
319.441	84.31
319.67	71.31
319.9	87.31
320.129	80.31
320.358	87.31
320.587	94.31
320.816	92.31
321.046	87.31
321.275	83.31
321.504	78.31
321.733	91.31
321.962	84.31
322.191	74.31
322.42	83.31
322.649	71.31
322.878	89.31
323.108	81.31
323.337	85.31
323.566	72.31
323.795	74.31
324.024	80.31
324.253	83.31
324.482	89.31
324.71	80.31
324.939	91.31
325.168	83.31
325.397	89.31
325.626	88.31
325.855	80.31
326.084	91.31
326.313	85.31
326.542	75.31
326.77	91.31
326.999	83.31
327.228	89.31
327.457	97.31
327.686	92.31
327.914	83.31
328.143	85.31
328.372	86.31
328.6	82.31
328.829	74.31
329.058	96.31
329.287	87.31
329.515	86.31
329.744	96.31
329.972	96.31
330.201	99.31
330.43	89.31
330.658	79.31
330.887	77.31
331.115	75.31
331.344	84.31
331.572	91.31
331.801	96.31
332.03	87.31
332.258	92.31
332.486	89.31
332.715	77.31
332.943	92.31
333.172	63.31
333.4	74.31
333.629	74.31
333.857	95.31
334.085	76.31
334.314	76.31
334.542	83.31
334.771	80.31
334.999	81.31
335.227	85.31
335.455	88.31
335.684	76.31
335.912	79.31
336.14	81.31
336.369	88.31
336.597	81.31
336.825	72.31
337.053	82.31
337.281	87.31
337.51	90.31
337.738	100.31
337.966	82.31
338.194	89.31
338.422	82.31
338.65	87.31
338.878	82.31
339.106	79.31
339.334	83.31
339.562	80.31
339.79	89.31
340.018	66.31
340.246	87.31
340.474	74.31
340.702	85.31
340.93	102.31
341.158	80.31
341.386	74.31
341.614	81.31
341.842	81.31
342.07	84.31
342.298	80.31
342.526	64.31
342.754	79.31
342.981	103.31
343.209	91.31
343.437	98.31
343.665	76.31
343.893	91.31
344.12	85.31
344.348	85.31
344.576	73.31
344.804	85.31
345.031	83.31
345.259	84.31
345.487	88.31
345.714	83.31
345.942	85.31
346.17	86.31
346.397	85.31
346.625	86.31
346.853	79.31
347.08	72.31
347.308	101.31
347.535	83.31
347.763	90.31
347.99	96.31
348.218	102.31
348.445	97.31
348.673	92.31
348.9	88.31
349.128	84.31
349.355	83.31
349.583	92.31
349.81	75.31
350.037	81.31
350.265	87.31
350.492	77.31
350.72	84.31
350.947	88.31
351.174	79.31
351.402	89.31
351.629	74.31
351.856	90.31
352.083	89.31
352.311	89.31
352.538	93.31
352.765	92.31
352.992	89.31
353.22	100.31
353.447	82.31
353.674	75.31
353.901	91.31
354.128	84.31
354.355	81.31
354.583	96.31
354.81	89.31
355.037	82.31
355.264	75.31
355.491	72.31
355.718	74.31
355.945	78.31
356.172	85.31
356.399	79.31
356.626	85.31
356.853	92.31
357.08	102.31
357.307	80.31
357.534	90.31
357.761	83.31
357.988	68.31
358.215	85.31
358.441	73.31
358.668	83.31
358.895	85.31
359.122	72.31
359.349	77.31
359.576	88.31
359.802	84.31
360.029	93.31
360.256	84.31
360.483	94.31
360.709	76.31
360.936	87.31
361.163	79.31
361.39	84.31
361.616	88.31
361.843	88.31
362.07	89.31
362.296	87.31
362.523	90.31
362.749	91.31
362.976	93.31
363.203	80.31
363.429	80.31
363.656	83.31
363.882	70.31
364.109	97.31
364.335	88.31
364.562	76.31
364.788	78.31
365.015	83.31
365.241	88.31
365.468	83.31
365.694	85.31
365.92	86.31
366.147	89.31
366.373	80.31
366.599	83.31
366.826	93.31
367.052	84.31
367.278	76.31
367.505	76.31
367.731	96.31
367.957	94.31
368.184	100.31
368.41	78.31
368.636	74.31
368.862	102.31
369.089	93.31
369.315	83.31
369.541	107.31
369.767	95.31
369.993	97.31
370.219	80.31
370.445	83.31
370.672	100.31
370.898	89.31
371.124	84.31
371.35	95.31
371.576	92.31
371.802	88.31
372.028	79.31
372.254	101.31
372.48	77.31
372.706	83.31
372.932	104.31
373.158	92.31
373.384	96.31
373.61	100.31
373.835	88.31
374.061	98.31
374.287	79.31
374.513	71.31
374.739	95.31
374.965	90.31
375.191	90.31
375.416	82.31
375.642	93.31
375.868	80.31
376.094	80.31
376.319	89.31
376.545	78.31
376.771	90.31
376.997	84.31
377.222	94.31
377.448	83.31
377.674	83.31
377.899	81.31
378.125	103.31
378.35	102.31
378.576	89.31
378.802	108.31
379.027	98.31
379.253	104.31
379.478	87.31
379.704	99.31
379.929	89.31
380.155	92.31
380.38	97.31
380.606	93.31
380.831	91.31
381.057	103.31
381.282	96.31
381.507	89.31
381.733	94.31
381.958	87.31
382.184	84.31
382.409	96.31
382.634	94.31
382.86	93.31
383.085	99.31
383.31	95.31
383.535	108.31
383.761	82.31
383.986	87.31
384.211	103.31
384.436	96.31
384.662	92.31
384.887	105.31
385.112	108.31
385.337	106.31
385.562	77.31
385.787	103.31
386.013	98.31
386.238	104.31
386.463	101.31
386.688	103.31
386.913	95.31
387.138	111.31
387.363	97.31
387.588	107.31
387.813	101.31
388.038	88.31
388.263	100.31
388.488	106.31
388.713	92.31
388.938	110.31
389.163	110.31
389.387	97.31
389.612	109.31
389.837	103.31
390.062	106.31
390.287	103.31
390.512	104.31
390.736	96.31
390.961	92.31
391.186	91.31
391.411	109.31
391.636	100.31
391.86	105.31
392.085	98.31
392.31	92.31
392.534	101.31
392.759	101.31
392.984	110.31
393.208	108.31
393.433	99.31
393.658	110.31
393.882	103.31
394.107	115.31
394.331	102.31
394.556	101.31
394.78	103.31
395.005	99.31
395.229	108.31
395.454	107.31
395.678	107.31
395.903	111.31
396.127	108.31
396.352	119.31
396.576	106.31
396.801	102.31
397.025	102.31
397.249	95.31
397.474	116.31
397.698	97.31
397.922	104.31
398.147	124.31
398.371	117.31
398.595	127.31
398.82	116.31
399.044	118.31
399.268	121.31
399.492	95.31
399.717	107.31
399.941	103.31
400.165	106.31
400.389	100.31
400.613	109.31
400.837	116.31
401.062	117.31
401.286	113.31
401.51	96.31
401.734	102.31
401.958	117.31
402.182	111.31
402.406	105.31
402.63	124.31
402.854	115.31
403.078	105.31
403.302	133.31
403.526	115.31
403.75	121.31
403.974	132.31
404.198	122.31
404.422	114.31
404.645	112.31
404.869	96.31
405.093	119.31
405.317	109.31
405.541	129.31
405.765	125.31
405.988	107.31
406.212	127.31
406.436	109.31
406.66	112.31
406.883	106.31
407.107	115.31
407.331	107.31
407.555	108.31
407.778	108.31
408.002	128.31
408.226	122.31
408.449	120.31
408.673	119.31
408.896	131.31
409.12	109.31
409.344	123.31
409.567	121.31
409.791	113.31
410.014	120.31
410.238	123.31
410.461	131.31
410.685	119.31
410.908	128.31
411.132	124.31
411.355	114.31
411.578	123.31
411.802	113.31
412.025	119.31
412.249	111.31
412.472	123.31
412.695	115.31
412.919	128.31
413.142	128.31
413.365	120.31
413.589	106.31
413.812	101.31
414.035	107.31
414.258	119.31
414.482	120.31
414.705	124.31
414.928	130.31
415.151	115.31
415.374	114.31
415.597	115.31
415.821	131.31
416.044	117.31
416.267	117.31
416.49	128.31
416.713	127.31
416.936	108.31
417.159	124.31
417.382	127.31
417.605	116.31
417.828	118.31
418.051	123.31
418.274	131.31
418.497	130.31
418.72	127.31
418.943	126.31
419.166	131.31
419.389	149.31
419.611	128.31
419.834	146.31
420.057	148.31
420.28	121.31
420.503	137.31
420.726	131.31
420.948	126.31
421.171	126.31
421.394	141.31
421.617	145.31
421.839	125.31
422.062	133.31
422.285	138.31
422.507	144.31
422.73	107.31
422.953	129.31
423.175	112.31
423.398	129.31
423.621	121.31
423.843	138.31
424.066	155.31
424.288	129.31
424.511	124.31
424.733	131.31
424.956	133.31
425.178	136.31
425.401	141.31
425.623	132.31
425.846	120.31
426.068	137.31
426.291	134.31
426.513	123.31
426.735	119.31
426.958	128.31
427.18	127.31
427.402	125.31
427.625	121.31
427.847	145.31
428.069	105.31
428.292	127.31
428.514	121.31
428.736	121.31
428.958	125.31
429.181	126.31
429.403	131.31
429.625	123.31
429.847	130.31
430.069	132.31
430.292	115.31
430.514	135.31
430.736	139.31
430.958	142.31
431.18	126.31
431.402	139.31
431.624	122.31
431.846	106.31
432.068	83.31
432.29	99.31
432.512	115.31
432.734	117.31
432.956	122.31
433.178	135.31
433.4	126.31
433.622	129.31
433.844	123.31
434.066	139.31
434.287	96.31
434.509	99.31
434.731	110.31
434.953	112.31
435.175	123.31
435.397	124.31
435.618	120.31
435.84	113.31
436.062	113.31
436.284	115.31
436.505	133.31
436.727	100.31
436.949	125.31
437.17	127.31
437.392	115.31
437.614	108.31
437.835	113.31
438.057	106.31
438.278	117.31
438.5	118.31
438.721	135.31
438.943	134.31
439.165	125.31
439.386	138.31
439.608	132.31
439.829	132.31
440.05	140.31
440.272	138.31
440.493	138.31
440.715	146.31
440.936	131.31
441.158	147.31
441.379	152.31
441.6	126.31
441.822	146.31
442.043	133.31
442.264	148.31
442.486	139.31
442.707	139.31
442.928	127.31
443.149	141.31
443.371	132.31
443.592	127.31
443.813	128.31
444.034	137.31
444.255	138.31
444.476	139.31
444.698	141.31
444.919	139.31
445.14	286.31
445.361	188.31
445.582	152.31
445.803	148.31
446.024	135.31
446.245	140.31
446.466	151.31
446.687	160.31
446.908	149.31
447.129	168.31
447.35	150.31
447.571	141.31
447.792	149.31
448.013	149.31
448.234	130.31
448.455	142.31
448.675	150.31
448.896	137.31
449.117	137.31
449.338	127.31
449.559	143.31
449.779	134.31
450	141.31
450.221	153.31
450.442	151.31
450.662	137.31
450.883	117.31
451.104	140.31
451.324	131.31
451.545	135.31
451.766	121.31
451.986	120.31
452.207	124.31
452.428	129.31
452.648	132.31
452.869	138.31
453.089	115.31
453.31	108.31
453.53	108.31
453.751	101.31
453.971	104.31
454.192	107.31
454.412	104.31
454.633	101.31
454.853	125.31
455.073	125.31
455.294	127.31
455.514	118.31
455.734	114.31
455.955	119.31
456.175	115.31
456.395	109.31
456.616	110.31
456.836	122.31
457.056	108.31
457.276	109.31
457.497	97.31
457.717	122.31
457.937	123.31
458.157	110.31
458.377	99.31
458.598	97.31
458.818	106.31
459.038	83.31
459.258	93.31
459.478	96.31
459.698	70.31
459.918	104.31
460.138	101.31
460.358	126.31
460.578	127.31
460.798	114.31
461.018	114.31
461.238	109.31
461.458	112.31
461.678	125.31
461.898	106.31
462.118	112.31
462.338	115.31
462.558	118.31
462.777	113.31
462.997	108.31
463.217	101.31
463.437	103.31
463.657	116.31
463.876	100.31
464.096	111.31
464.316	111.31
464.536	118.31
464.755	106.31
464.975	112.31
465.195	121.31
465.414	122.31
465.634	122.31
465.854	118.31
466.073	124.31
466.293	123.31
466.512	131.31
466.732	140.31
466.951	132.31
467.171	131.31
467.391	126.31
467.61	118.31
467.829	137.31
468.049	147.31
468.268	132.31
468.488	119.31
468.707	138.31
468.927	134.31
469.146	142.31
469.365	128.31
469.585	145.31
469.804	132.31
470.023	130.31
470.243	152.31
470.462	125.31
470.681	141.31
470.901	128.31
471.12	147.31
471.339	136.31
471.558	149.31
471.777	131.31
471.997	133.31
472.216	125.31
472.435	121.31
472.654	116.31
472.873	131.31
473.092	106.31
473.311	116.31
473.53	121.31
473.749	130.31
473.968	125.31
474.187	123.31
474.406	115.31
474.625	121.31
474.844	135.31
475.063	127.31
475.282	133.31
475.501	128.31
475.72	125.31
475.939	124.31
476.158	116.31
476.377	128.31
476.596	116.31
476.814	116.31
477.033	111.31
477.252	118.31
477.471	123.31
477.69	132.31
477.908	141.31
478.127	141.31
478.346	137.31
478.564	129.31
478.783	127.31
479.002	130.31
479.22	131.31
479.439	135.31
479.658	123.31
479.876	100.31
480.095	114.31
480.313	97.31
480.532	119.31
480.751	108.31
480.969	101.31
481.188	83.31
481.406	95.31
481.624	81.31
481.843	80.31
482.061	96.31
482.28	113.31
482.498	106.31
482.717	103.31
482.935	114.31
483.153	143.31
483.372	151.31
483.59	165.31
483.808	147.31
484.027	113.31
484.245	126.31
484.463	145.31
484.681	175.31
484.9	150.31
485.118	123.31
485.336	117.31
485.554	108.31
485.772	106.31
485.99	107.31
486.209	113.31
486.427	107.31
486.645	124.31
486.863	127.31
487.081	145.31
487.299	138.31
487.517	127.31
487.735	159.31
487.953	188.31
488.171	177.31
488.389	177.31
488.607	148.31
488.825	139.31
489.043	130.31
489.261	126.31
489.479	134.31
489.696	131.31
489.914	136.31
490.132	126.31
490.35	144.31
490.568	155.31
490.786	161.31
491.003	165.31
491.221	181.31
491.439	180.31
491.657	181.31
491.874	194.31
492.092	220.31
492.31	227.31
492.527	218.31
492.745	195.31
492.963	177.31
493.18	168.31
493.398	175.31
493.615	182.31
493.833	179.31
494.05	171.31
494.268	183.31
494.485	157.31
494.703	180.31
494.92	165.31
495.138	163.31
495.355	179.31
495.573	193.31
495.79	175.31
496.008	154.31
496.225	158.31
496.442	145.31
496.66	157.31
496.877	170.31
497.094	158.31
497.312	163.31
497.529	157.31
497.746	129.31
497.963	139.31
498.181	129.31
498.398	127.31
498.615	107.31
498.832	125.31
499.049	112.31
499.267	111.31
499.484	126.31
499.701	128.31
499.918	129.31
500.135	137.31
500.352	131.31
500.569	152.31
500.786	137.31
501.003	109.31
501.22	132.31
501.437	127.31
501.654	132.31
501.871	127.31
502.088	116.31
502.305	135.31
502.522	129.31
502.739	134.31
502.956	130.31
503.172	116.31
503.389	121.31
503.606	125.31
503.823	112.31
504.04	133.31
504.256	122.31
504.473	120.31
504.69	116.31
504.907	108.31
505.123	119.31
505.34	119.31
505.557	129.31
505.773	133.31
505.99	132.31
506.207	118.31
506.423	131.31
506.64	124.31
506.856	126.31
507.073	120.31
507.289	118.31
507.506	110.31
507.722	111.31
507.939	119.31
508.155	132.31
508.372	127.31
508.588	116.31
508.805	125.31
509.021	115.31
509.238	105.31
509.454	120.31
509.67	101.31
509.887	99.31
510.103	98.31
510.319	98.31
510.536	96.31
510.752	108.31
510.968	99.31
511.184	89.31
511.401	83.31
