Data from Location4.07152019.Energy5.Lamp.07192019.3%Agarose_HRD10591_16-20-33-926.txt Node
Date: Fri Jul 19 16:20:33 EDT 2019
User: cochatt
Spectrometer: HR+D1059
Trigger mode: 1
Integration Time (sec): 1.000000E-1
Scans to average: 1
Electric dark correction enabled: true
Nonlinearity correction enabled: false
Boxcar width: 0
XAxis mode: Wavelengths
Number of Pixels in Spectrum: 2048
>>>>>Begin Spectral Data<<<<<
223.165	-26.06
223.4	-26.06
223.635	-26.06
223.869	-25.06
224.104	-22.06
224.338	-17.06
224.573	-6.06
224.808	-5.06
225.042	-5.06
225.277	-5.06
225.511	0.94
225.746	4.94
225.98	6.94
226.215	15.94
226.449	9.94
226.683	17.94
226.918	19.94
227.152	34.94
227.387	44.94
227.621	34.94
227.856	38.94
228.09	32.94
228.324	55.94
228.559	62.94
228.793	56.94
229.027	71.94
229.262	59.94
229.496	77.94
229.73	80.94
229.964	58.94
230.199	63.94
230.433	81.94
230.667	70.94
230.901	60.94
231.136	72.94
231.37	90.94
231.604	91.94
231.838	70.94
232.072	84.94
232.306	81.94
232.541	101.94
232.775	72.94
233.009	100.94
233.243	89.94
233.477	83.94
233.711	78.94
233.945	94.94
234.179	69.94
234.413	82.94
234.647	73.94
234.881	96.94
235.115	93.94
235.349	77.94
235.583	87.94
235.817	84.94
236.051	74.94
236.285	94.94
236.519	76.94
236.753	92.94
236.987	72.94
237.221	79.94
237.455	59.94
237.689	81.94
237.922	71.94
238.156	79.94
238.39	82.94
238.624	86.94
238.858	71.94
239.091	76.94
239.325	79.94
239.559	81.94
239.793	72.94
240.027	74.94
240.26	85.94
240.494	77.94
240.728	79.94
240.961	76.94
241.195	85.94
241.429	73.94
241.662	85.94
241.896	79.94
242.13	77.94
242.363	80.94
242.597	77.94
242.83	75.94
243.064	84.94
243.298	76.94
243.531	74.94
243.765	75.94
243.998	77.94
244.232	74.94
244.465	79.94
244.699	77.94
244.932	79.94
245.166	73.94
245.399	83.94
245.633	85.94
245.866	83.94
246.099	79.94
246.333	84.94
246.566	69.94
246.8	81.94
247.033	75.94
247.266	82.94
247.5	71.94
247.733	75.94
247.966	84.94
248.2	79.94
248.433	81.94
248.666	76.94
248.899	77.94
249.133	64.94
249.366	99.94
249.599	76.94
249.832	71.94
250.066	76.94
250.299	86.94
250.532	86.94
250.765	72.94
250.998	79.94
251.231	63.94
251.465	79.94
251.698	94.94
251.931	81.94
252.164	78.94
252.397	80.94
252.63	70.94
252.863	85.94
253.096	87.94
253.329	80.94
253.562	86.94
253.795	89.94
254.028	86.94
254.261	88.94
254.494	86.94
254.727	83.94
254.96	75.94
255.193	79.94
255.426	74.94
255.659	71.94
255.892	91.94
256.124	79.94
256.357	81.94
256.59	87.94
256.823	83.94
257.056	83.94
257.289	72.94
257.521	73.94
257.754	68.94
257.987	64.94
258.22	83.94
258.452	88.94
258.685	83.94
258.918	75.94
259.151	77.94
259.383	79.94
259.616	77.94
259.849	89.94
260.081	70.94
260.314	67.94
260.547	93.94
260.779	74.94
261.012	85.94
261.244	95.94
261.477	80.94
261.71	86.94
261.942	84.94
262.175	57.94
262.407	87.94
262.64	87.94
262.872	76.94
263.105	84.94
263.337	74.94
263.57	79.94
263.802	81.94
264.035	78.94
264.267	71.94
264.499	71.94
264.732	83.94
264.964	83.94
265.197	77.94
265.429	83.94
265.661	87.94
265.894	80.94
266.126	95.94
266.358	82.94
266.591	84.94
266.823	82.94
267.055	83.94
267.287	88.94
267.52	83.94
267.752	98.94
267.984	87.94
268.216	95.94
268.448	81.94
268.681	85.94
268.913	74.94
269.145	84.94
269.377	85.94
269.609	86.94
269.841	86.94
270.073	93.94
270.306	77.94
270.538	83.94
270.77	76.94
271.002	88.94
271.234	75.94
271.466	67.94
271.698	80.94
271.93	83.94
272.162	63.94
272.394	95.94
272.626	82.94
272.858	82.94
273.09	92.94
273.322	79.94
273.553	78.94
273.785	79.94
274.017	79.94
274.249	78.94
274.481	94.94
274.713	81.94
274.945	83.94
275.176	86.94
275.408	76.94
275.64	87.94
275.872	85.94
276.104	78.94
276.335	83.94
276.567	93.94
276.799	77.94
277.031	81.94
277.262	78.94
277.494	84.94
277.726	87.94
277.957	89.94
278.189	89.94
278.421	90.94
278.652	79.94
278.884	76.94
279.115	65.94
279.347	72.94
279.579	76.94
279.81	91.94
280.042	89.94
280.273	88.94
280.505	80.94
280.736	67.94
280.968	86.94
281.199	92.94
281.431	68.94
281.662	79.94
281.894	86.94
282.125	81.94
282.356	90.94
282.588	77.94
282.819	90.94
283.051	66.94
283.282	73.94
283.513	91.94
283.745	82.94
283.976	83.94
284.207	93.94
284.439	94.94
284.67	90.94
284.901	85.94
285.132	90.94
285.364	85.94
285.595	75.94
285.826	83.94
286.057	81.94
286.288	88.94
286.52	63.94
286.751	81.94
286.982	89.94
287.213	82.94
287.444	87.94
287.675	84.94
287.906	79.94
288.138	68.94
288.369	96.94
288.6	96.94
288.831	91.94
289.062	85.94
289.293	87.94
289.524	89.94
289.755	90.94
289.986	85.94
290.217	77.94
290.448	78.94
290.679	90.94
290.91	78.94
291.141	94.94
291.371	83.94
291.602	81.94
291.833	85.94
292.064	81.94
292.295	67.94
292.526	88.94
292.757	76.94
292.987	86.94
293.218	75.94
293.449	73.94
293.68	94.94
293.91	87.94
294.141	95.94
294.372	80.94
294.603	91.94
294.833	78.94
295.064	86.94
295.295	61.94
295.525	83.94
295.756	81.94
295.987	79.94
296.217	86.94
296.448	75.94
296.679	83.94
296.909	80.94
297.14	93.94
297.37	74.94
297.601	82.94
297.831	84.94
298.062	82.94
298.292	91.94
298.523	75.94
298.753	78.94
298.984	92.94
299.214	87.94
299.445	86.94
299.675	94.94
299.905	98.94
300.136	68.94
300.366	88.94
300.597	85.94
300.827	89.94
301.057	85.94
301.288	77.94
301.518	99.94
301.748	93.94
301.979	86.94
302.209	86.94
302.439	71.94
302.669	66.94
302.9	84.94
303.13	85.94
303.36	79.94
303.59	89.94
303.82	94.94
304.051	68.94
304.281	74.94
304.511	81.94
304.741	80.94
304.971	85.94
305.201	98.94
305.431	81.94
305.661	87.94
305.891	92.94
306.121	84.94
306.352	90.94
306.582	82.94
306.812	79.94
307.042	87.94
307.272	76.94
307.502	81.94
307.731	84.94
307.961	74.94
308.191	94.94
308.421	88.94
308.651	82.94
308.881	90.94
309.111	95.94
309.341	81.94
309.571	77.94
309.8	77.94
310.03	84.94
310.26	75.94
310.49	75.94
310.72	89.94
310.949	73.94
311.179	74.94
311.409	75.94
311.639	88.94
311.868	92.94
312.098	76.94
312.328	85.94
312.557	70.94
312.787	79.94
313.017	81.94
313.246	90.94
313.476	85.94
313.706	81.94
313.935	91.94
314.165	93.94
314.394	98.94
314.624	80.94
314.853	87.94
315.083	94.94
315.312	95.94
315.542	92.94
315.771	84.94
316.001	86.94
316.23	82.94
316.46	74.94
316.689	79.94
316.919	85.94
317.148	91.94
317.377	83.94
317.607	81.94
317.836	78.94
318.065	66.94
318.295	77.94
318.524	84.94
318.753	89.94
318.983	80.94
319.212	85.94
319.441	71.94
319.67	76.94
319.9	75.94
320.129	83.94
320.358	67.94
320.587	88.94
320.816	81.94
321.046	91.94
321.275	91.94
321.504	81.94
321.733	69.94
321.962	83.94
322.191	91.94
322.42	80.94
322.649	81.94
322.878	81.94
323.108	86.94
323.337	74.94
323.566	83.94
323.795	72.94
324.024	100.94
324.253	89.94
324.482	80.94
324.71	90.94
324.939	83.94
325.168	92.94
325.397	82.94
325.626	81.94
325.855	80.94
326.084	102.94
326.313	81.94
326.542	89.94
326.77	96.94
326.999	85.94
327.228	93.94
327.457	83.94
327.686	102.94
327.914	73.94
328.143	77.94
328.372	83.94
328.6	83.94
328.829	88.94
329.058	79.94
329.287	91.94
329.515	83.94
329.744	77.94
329.972	93.94
330.201	70.94
330.43	86.94
330.658	88.94
330.887	86.94
331.115	88.94
331.344	79.94
331.572	87.94
331.801	76.94
332.03	76.94
332.258	81.94
332.486	101.94
332.715	99.94
332.943	83.94
333.172	79.94
333.4	74.94
333.629	84.94
333.857	83.94
334.085	92.94
334.314	102.94
334.542	94.94
334.771	84.94
334.999	85.94
335.227	88.94
335.455	88.94
335.684	80.94
335.912	83.94
336.14	77.94
336.369	75.94
336.597	93.94
336.825	74.94
337.053	77.94
337.281	94.94
337.51	73.94
337.738	86.94
337.966	82.94
338.194	74.94
338.422	92.94
338.65	81.94
338.878	89.94
339.106	89.94
339.334	90.94
339.562	87.94
339.79	78.94
340.018	96.94
340.246	75.94
340.474	73.94
340.702	86.94
340.93	78.94
341.158	76.94
341.386	67.94
341.614	89.94
341.842	79.94
342.07	97.94
342.298	73.94
342.526	88.94
342.754	95.94
342.981	89.94
343.209	81.94
343.437	87.94
343.665	83.94
343.893	96.94
344.12	91.94
344.348	88.94
344.576	84.94
344.804	71.94
345.031	92.94
345.259	77.94
345.487	89.94
345.714	96.94
345.942	81.94
346.17	76.94
346.397	83.94
346.625	86.94
346.853	90.94
347.08	76.94
347.308	94.94
347.535	85.94
347.763	87.94
347.99	91.94
348.218	91.94
348.445	75.94
348.673	75.94
348.9	80.94
349.128	81.94
349.355	89.94
349.583	89.94
349.81	82.94
350.037	96.94
350.265	90.94
350.492	95.94
350.72	89.94
350.947	83.94
351.174	75.94
351.402	81.94
351.629	95.94
351.856	94.94
352.083	93.94
352.311	81.94
352.538	90.94
352.765	86.94
352.992	71.94
353.22	80.94
353.447	87.94
353.674	71.94
353.901	75.94
354.128	91.94
354.355	73.94
354.583	89.94
354.81	86.94
355.037	88.94
355.264	89.94
355.491	72.94
355.718	68.94
355.945	84.94
356.172	97.94
356.399	85.94
356.626	72.94
356.853	82.94
357.08	92.94
357.307	80.94
357.534	93.94
357.761	91.94
357.988	91.94
358.215	84.94
358.441	81.94
358.668	77.94
358.895	75.94
359.122	70.94
359.349	75.94
359.576	80.94
359.802	87.94
360.029	85.94
360.256	80.94
360.483	55.94
360.709	74.94
360.936	87.94
361.163	97.94
361.39	82.94
361.616	83.94
361.843	78.94
362.07	75.94
362.296	81.94
362.523	75.94
362.749	84.94
362.976	86.94
363.203	88.94
363.429	93.94
363.656	94.94
363.882	83.94
364.109	87.94
364.335	86.94
364.562	81.94
364.788	77.94
365.015	82.94
365.241	84.94
365.468	86.94
365.694	91.94
365.92	84.94
366.147	81.94
366.373	75.94
366.599	89.94
366.826	81.94
367.052	103.94
367.278	85.94
367.505	94.94
367.731	90.94
367.957	94.94
368.184	96.94
368.41	75.94
368.636	96.94
368.862	82.94
369.089	84.94
369.315	89.94
369.541	89.94
369.767	89.94
369.993	95.94
370.219	85.94
370.445	100.94
370.672	102.94
370.898	89.94
371.124	91.94
371.35	91.94
371.576	86.94
371.802	85.94
372.028	80.94
372.254	79.94
372.48	73.94
372.706	98.94
372.932	104.94
373.158	85.94
373.384	84.94
373.61	83.94
373.835	87.94
374.061	96.94
374.287	99.94
374.513	92.94
374.739	93.94
374.965	87.94
375.191	96.94
375.416	104.94
375.642	98.94
375.868	83.94
376.094	81.94
376.319	91.94
376.545	85.94
376.771	104.94
376.997	98.94
377.222	89.94
377.448	101.94
377.674	96.94
377.899	77.94
378.125	81.94
378.35	93.94
378.576	95.94
378.802	93.94
379.027	104.94
379.253	90.94
379.478	96.94
379.704	104.94
379.929	88.94
380.155	105.94
380.38	89.94
380.606	97.94
380.831	114.94
381.057	95.94
381.282	96.94
381.507	104.94
381.733	89.94
381.958	95.94
382.184	98.94
382.409	89.94
382.634	95.94
382.86	103.94
383.085	91.94
383.31	103.94
383.535	91.94
383.761	107.94
383.986	99.94
384.211	103.94
384.436	88.94
384.662	96.94
384.887	81.94
385.112	88.94
385.337	92.94
385.562	97.94
385.787	106.94
386.013	90.94
386.238	94.94
386.463	102.94
386.688	94.94
386.913	92.94
387.138	88.94
387.363	91.94
387.588	98.94
387.813	96.94
388.038	104.94
388.263	106.94
388.488	109.94
388.713	92.94
388.938	97.94
389.163	101.94
389.387	103.94
389.612	105.94
389.837	95.94
390.062	107.94
390.287	98.94
390.512	99.94
390.736	111.94
390.961	91.94
391.186	108.94
391.411	102.94
391.636	79.94
391.86	97.94
392.085	98.94
392.31	101.94
392.534	113.94
392.759	99.94
392.984	113.94
393.208	113.94
393.433	103.94
393.658	113.94
393.882	111.94
394.107	95.94
394.331	92.94
394.556	114.94
394.78	111.94
395.005	101.94
395.229	106.94
395.454	113.94
395.678	108.94
395.903	119.94
396.127	117.94
396.352	106.94
396.576	117.94
396.801	102.94
397.025	123.94
397.249	102.94
397.474	94.94
397.698	106.94
397.922	106.94
398.147	101.94
398.371	117.94
398.595	107.94
398.82	111.94
399.044	108.94
399.268	112.94
399.492	110.94
399.717	99.94
399.941	102.94
400.165	104.94
400.389	118.94
400.613	108.94
400.837	107.94
401.062	102.94
401.286	106.94
401.51	97.94
401.734	108.94
401.958	115.94
402.182	108.94
402.406	108.94
402.63	101.94
402.854	121.94
403.078	119.94
403.302	115.94
403.526	104.94
403.75	123.94
403.974	106.94
404.198	117.94
404.422	130.94
404.645	106.94
404.869	135.94
405.093	108.94
405.317	113.94
405.541	106.94
405.765	103.94
405.988	113.94
406.212	132.94
406.436	127.94
406.66	147.94
406.883	103.94
407.107	104.94
407.331	101.94
407.555	120.94
407.778	129.94
408.002	112.94
408.226	104.94
408.449	113.94
408.673	122.94
408.896	127.94
409.12	124.94
409.344	130.94
409.567	114.94
409.791	106.94
410.014	123.94
410.238	118.94
410.461	115.94
410.685	117.94
410.908	121.94
411.132	117.94
411.355	120.94
411.578	123.94
411.802	113.94
412.025	116.94
412.249	111.94
412.472	118.94
412.695	118.94
412.919	121.94
413.142	123.94
413.365	120.94
413.589	116.94
413.812	118.94
414.035	116.94
414.258	113.94
414.482	119.94
414.705	113.94
414.928	109.94
415.151	125.94
415.374	111.94
415.597	113.94
415.821	125.94
416.044	125.94
416.267	118.94
416.49	122.94
416.713	132.94
416.936	111.94
417.159	123.94
417.382	112.94
417.605	107.94
417.828	115.94
418.051	128.94
418.274	121.94
418.497	121.94
418.72	111.94
418.943	139.94
419.166	146.94
419.389	146.94
419.611	133.94
419.834	111.94
420.057	137.94
420.28	118.94
420.503	115.94
420.726	135.94
420.948	138.94
421.171	126.94
421.394	133.94
421.617	132.94
421.839	131.94
422.062	140.94
422.285	127.94
422.507	129.94
422.73	137.94
422.953	122.94
423.175	132.94
423.398	111.94
423.621	125.94
423.843	121.94
424.066	134.94
424.288	131.94
424.511	133.94
424.733	146.94
424.956	121.94
425.178	138.94
425.401	135.94
425.623	145.94
425.846	130.94
426.068	139.94
426.291	125.94
426.513	125.94
426.735	124.94
426.958	135.94
427.18	126.94
427.402	139.94
427.625	124.94
427.847	120.94
428.069	108.94
428.292	125.94
428.514	141.94
428.736	138.94
428.958	122.94
429.181	122.94
429.403	141.94
429.625	129.94
429.847	126.94
430.069	138.94
430.292	116.94
430.514	133.94
430.736	122.94
430.958	130.94
431.18	131.94
431.402	104.94
431.624	114.94
431.846	98.94
432.068	93.94
432.29	111.94
432.512	117.94
432.734	125.94
432.956	135.94
433.178	132.94
433.4	120.94
433.622	134.94
433.844	125.94
434.066	118.94
434.287	112.94
434.509	97.94
434.731	99.94
434.953	104.94
435.175	119.94
435.397	123.94
435.618	121.94
435.84	126.94
436.062	121.94
436.284	130.94
436.505	129.94
436.727	137.94
436.949	143.94
437.17	117.94
437.392	135.94
437.614	131.94
437.835	101.94
438.057	114.94
438.278	117.94
438.5	125.94
438.721	134.94
438.943	133.94
439.165	135.94
439.386	133.94
439.608	139.94
439.829	140.94
440.05	132.94
440.272	127.94
440.493	127.94
440.715	134.94
440.936	137.94
441.158	125.94
441.379	144.94
441.6	145.94
441.822	148.94
442.043	134.94
442.264	139.94
442.486	127.94
442.707	121.94
442.928	132.94
443.149	130.94
443.371	132.94
443.592	123.94
443.813	143.94
444.034	139.94
444.255	134.94
444.476	145.94
444.698	129.94
444.919	146.94
445.14	269.94
445.361	194.94
445.582	155.94
445.803	156.94
446.024	147.94
446.245	130.94
446.466	152.94
446.687	151.94
446.908	136.94
447.129	146.94
447.35	136.94
447.571	135.94
447.792	142.94
448.013	135.94
448.234	134.94
448.455	141.94
448.675	144.94
448.896	134.94
449.117	137.94
449.338	142.94
449.559	133.94
449.779	117.94
450	137.94
450.221	126.94
450.442	137.94
450.662	129.94
450.883	138.94
451.104	132.94
451.324	127.94
451.545	139.94
451.766	125.94
451.986	132.94
452.207	114.94
452.428	135.94
452.648	125.94
452.869	116.94
453.089	107.94
453.31	103.94
453.53	116.94
453.751	99.94
453.971	125.94
454.192	103.94
454.412	99.94
454.633	111.94
454.853	104.94
455.073	121.94
455.294	123.94
455.514	121.94
455.734	114.94
455.955	109.94
456.175	119.94
456.395	111.94
456.616	102.94
456.836	115.94
457.056	107.94
457.276	103.94
457.497	112.94
457.717	96.94
457.937	108.94
458.157	116.94
458.377	101.94
458.598	100.94
458.818	91.94
459.038	90.94
459.258	82.94
459.478	78.94
459.698	89.94
459.918	96.94
460.138	116.94
460.358	104.94
460.578	106.94
460.798	124.94
461.018	104.94
461.238	113.94
461.458	122.94
461.678	111.94
461.898	114.94
462.118	99.94
462.338	103.94
462.558	111.94
462.777	105.94
462.997	111.94
463.217	119.94
463.437	123.94
463.657	98.94
463.876	92.94
464.096	89.94
464.316	101.94
464.536	101.94
464.755	117.94
464.975	119.94
465.195	111.94
465.414	123.94
465.634	117.94
465.854	112.94
466.073	108.94
466.293	119.94
466.512	108.94
466.732	119.94
466.951	125.94
467.171	139.94
467.391	135.94
467.61	132.94
467.829	143.94
468.049	136.94
468.268	130.94
468.488	137.94
468.707	126.94
468.927	127.94
469.146	125.94
469.365	132.94
469.585	120.94
469.804	139.94
470.023	131.94
470.243	129.94
470.462	150.94
470.681	144.94
470.901	125.94
471.12	147.94
471.339	132.94
471.558	139.94
471.777	126.94
471.997	123.94
472.216	128.94
472.435	99.94
472.654	88.94
472.873	111.94
473.092	119.94
473.311	128.94
473.53	118.94
473.749	115.94
473.968	123.94
474.187	134.94
474.406	115.94
474.625	127.94
474.844	134.94
475.063	135.94
475.282	141.94
475.501	121.94
475.72	120.94
475.939	122.94
476.158	121.94
476.377	125.94
476.596	115.94
476.814	103.94
477.033	115.94
477.252	120.94
477.471	116.94
477.69	124.94
477.908	146.94
478.127	137.94
478.346	155.94
478.564	132.94
478.783	133.94
479.002	121.94
479.22	132.94
479.439	119.94
479.658	131.94
479.876	107.94
480.095	107.94
480.313	106.94
480.532	115.94
480.751	102.94
480.969	99.94
481.188	97.94
481.406	108.94
481.624	77.94
481.843	102.94
482.061	91.94
482.28	125.94
482.498	113.94
482.717	103.94
482.935	125.94
483.153	133.94
483.372	153.94
483.59	159.94
483.808	133.94
484.027	137.94
484.245	147.94
484.463	163.94
484.681	140.94
484.9	135.94
485.118	132.94
485.336	124.94
485.554	115.94
485.772	99.94
485.99	95.94
486.209	105.94
486.427	107.94
486.645	107.94
486.863	139.94
487.081	121.94
487.299	119.94
487.517	139.94
487.735	165.94
487.953	175.94
488.171	191.94
488.389	173.94
488.607	161.94
488.825	145.94
489.043	131.94
489.261	139.94
489.479	129.94
489.696	146.94
489.914	150.94
490.132	134.94
490.35	161.94
490.568	149.94
490.786	181.94
491.003	181.94
491.221	171.94
491.439	193.94
491.657	191.94
491.874	198.94
492.092	223.94
492.31	228.94
492.527	223.94
492.745	201.94
492.963	187.94
493.18	193.94
493.398	169.94
493.615	172.94
493.833	165.94
494.05	173.94
494.268	165.94
494.485	167.94
494.703	168.94
494.92	172.94
495.138	154.94
495.355	160.94
495.573	171.94
495.79	166.94
496.008	165.94
496.225	168.94
496.442	154.94
496.66	169.94
496.877	146.94
497.094	151.94
497.312	141.94
497.529	154.94
497.746	142.94
497.963	137.94
498.181	122.94
498.398	122.94
498.615	112.94
498.832	131.94
499.049	125.94
499.267	117.94
499.484	120.94
499.701	139.94
499.918	127.94
500.135	118.94
500.352	155.94
500.569	133.94
500.786	145.94
501.003	141.94
501.22	137.94
501.437	132.94
501.654	115.94
501.871	131.94
502.088	133.94
502.305	124.94
502.522	118.94
502.739	137.94
502.956	133.94
503.172	115.94
503.389	122.94
503.606	127.94
503.823	126.94
504.04	138.94
504.256	127.94
504.473	114.94
504.69	125.94
504.907	113.94
505.123	124.94
505.34	118.94
505.557	120.94
505.773	114.94
505.99	119.94
506.207	125.94
506.423	116.94
506.64	124.94
506.856	121.94
507.073	123.94
507.289	125.94
507.506	123.94
507.722	122.94
507.939	112.94
508.155	117.94
508.372	121.94
508.588	102.94
508.805	107.94
509.021	112.94
509.238	113.94
509.454	108.94
509.67	87.94
509.887	82.94
510.103	92.94
510.319	103.94
510.536	93.94
510.752	88.94
510.968	74.94
511.184	85.94
511.401	64.94
511.617	82.94
511.833	94.94
