Data from Location4.07152019.Energy5.Lamp.07192019.3%Agarose_HRD10591_16-21-26-927.txt Node
Date: Fri Jul 19 16:21:26 EDT 2019
User: cochatt
Spectrometer: HR+D1059
Trigger mode: 1
Integration Time (sec): 1.000000E-1
Scans to average: 1
Electric dark correction enabled: true
Nonlinearity correction enabled: false
Boxcar width: 0
XAxis mode: Wavelengths
Number of Pixels in Spectrum: 2048
>>>>>Begin Spectral Data<<<<<
223.165	-8.81
223.4	-8.81
223.635	-8.81
223.869	-16.81
224.104	-30.81
224.338	-14.81
224.573	-13.81
224.808	-21.81
225.042	-2.81
225.277	-3.81
225.511	-19.81
225.746	5.19
225.98	1.19
226.215	14.19
226.449	26.19
226.683	21.19
226.918	35.19
227.152	30.19
227.387	36.19
227.621	42.19
227.856	50.19
228.09	56.19
228.324	49.19
228.559	57.19
228.793	59.19
229.027	56.19
229.262	66.19
229.496	72.19
229.73	58.19
229.964	66.19
230.199	70.19
230.433	74.19
230.667	74.19
230.901	91.19
231.136	85.19
231.37	84.19
231.604	85.19
231.838	93.19
232.072	84.19
232.306	80.19
232.541	83.19
232.775	96.19
233.009	86.19
233.243	84.19
233.477	80.19
233.711	76.19
233.945	74.19
234.179	92.19
234.413	92.19
234.647	72.19
234.881	73.19
235.115	88.19
235.349	82.19
235.583	83.19
235.817	87.19
236.051	77.19
236.285	64.19
236.519	75.19
236.753	75.19
236.987	91.19
237.221	91.19
237.455	84.19
237.689	75.19
237.922	70.19
238.156	83.19
238.39	78.19
238.624	81.19
238.858	80.19
239.091	89.19
239.325	94.19
239.559	73.19
239.793	57.19
240.027	97.19
240.26	87.19
240.494	77.19
240.728	91.19
240.961	69.19
241.195	87.19
241.429	78.19
241.662	78.19
241.896	68.19
242.13	96.19
242.363	85.19
242.597	84.19
242.83	85.19
243.064	87.19
243.298	83.19
243.531	84.19
243.765	72.19
243.998	67.19
244.232	79.19
244.465	87.19
244.699	67.19
244.932	90.19
245.166	78.19
245.399	83.19
245.633	77.19
245.866	77.19
246.099	72.19
246.333	76.19
246.566	78.19
246.8	79.19
247.033	92.19
247.266	97.19
247.5	71.19
247.733	82.19
247.966	89.19
248.2	70.19
248.433	83.19
248.666	79.19
248.899	84.19
249.133	73.19
249.366	70.19
249.599	78.19
249.832	77.19
250.066	96.19
250.299	89.19
250.532	73.19
250.765	87.19
250.998	84.19
251.231	77.19
251.465	83.19
251.698	77.19
251.931	76.19
252.164	84.19
252.397	88.19
252.63	97.19
252.863	82.19
253.096	87.19
253.329	79.19
253.562	67.19
253.795	80.19
254.028	76.19
254.261	95.19
254.494	74.19
254.727	77.19
254.96	77.19
255.193	79.19
255.426	76.19
255.659	82.19
255.892	85.19
256.124	81.19
256.357	78.19
256.59	86.19
256.823	83.19
257.056	76.19
257.289	78.19
257.521	86.19
257.754	82.19
257.987	72.19
258.22	81.19
258.452	89.19
258.685	97.19
258.918	80.19
259.151	86.19
259.383	90.19
259.616	76.19
259.849	79.19
260.081	81.19
260.314	78.19
260.547	73.19
260.779	84.19
261.012	97.19
261.244	94.19
261.477	86.19
261.71	89.19
261.942	90.19
262.175	83.19
262.407	83.19
262.64	91.19
262.872	86.19
263.105	76.19
263.337	83.19
263.57	76.19
263.802	80.19
264.035	87.19
264.267	86.19
264.499	85.19
264.732	76.19
264.964	83.19
265.197	86.19
265.429	89.19
265.661	92.19
265.894	89.19
266.126	83.19
266.358	75.19
266.591	89.19
266.823	87.19
267.055	92.19
267.287	95.19
267.52	85.19
267.752	98.19
267.984	85.19
268.216	83.19
268.448	93.19
268.681	77.19
268.913	86.19
269.145	81.19
269.377	75.19
269.609	79.19
269.841	81.19
270.073	85.19
270.306	75.19
270.538	82.19
270.77	93.19
271.002	82.19
271.234	82.19
271.466	76.19
271.698	85.19
271.93	87.19
272.162	82.19
272.394	91.19
272.626	95.19
272.858	85.19
273.09	89.19
273.322	88.19
273.553	88.19
273.785	93.19
274.017	78.19
274.249	93.19
274.481	106.19
274.713	89.19
274.945	80.19
275.176	89.19
275.408	88.19
275.64	78.19
275.872	90.19
276.104	82.19
276.335	84.19
276.567	90.19
276.799	87.19
277.031	84.19
277.262	79.19
277.494	87.19
277.726	79.19
277.957	79.19
278.189	76.19
278.421	82.19
278.652	87.19
278.884	93.19
279.115	84.19
279.347	80.19
279.579	85.19
279.81	100.19
280.042	93.19
280.273	82.19
280.505	79.19
280.736	81.19
280.968	78.19
281.199	75.19
281.431	86.19
281.662	89.19
281.894	74.19
282.125	86.19
282.356	71.19
282.588	85.19
282.819	82.19
283.051	91.19
283.282	76.19
283.513	79.19
283.745	70.19
283.976	90.19
284.207	79.19
284.439	85.19
284.67	105.19
284.901	82.19
285.132	74.19
285.364	75.19
285.595	88.19
285.826	76.19
286.057	82.19
286.288	89.19
286.52	82.19
286.751	95.19
286.982	81.19
287.213	97.19
287.444	92.19
287.675	74.19
287.906	101.19
288.138	79.19
288.369	85.19
288.6	94.19
288.831	85.19
289.062	89.19
289.293	85.19
289.524	87.19
289.755	78.19
289.986	82.19
290.217	81.19
290.448	82.19
290.679	86.19
290.91	73.19
291.141	84.19
291.371	85.19
291.602	85.19
291.833	82.19
292.064	83.19
292.295	97.19
292.526	93.19
292.757	81.19
292.987	66.19
293.218	95.19
293.449	105.19
293.68	92.19
293.91	85.19
294.141	103.19
294.372	87.19
294.603	75.19
294.833	90.19
295.064	83.19
295.295	89.19
295.525	97.19
295.756	100.19
295.987	98.19
296.217	94.19
296.448	98.19
296.679	81.19
296.909	96.19
297.14	98.19
297.37	94.19
297.601	79.19
297.831	87.19
298.062	87.19
298.292	93.19
298.523	91.19
298.753	93.19
298.984	94.19
299.214	82.19
299.445	84.19
299.675	77.19
299.905	85.19
300.136	92.19
300.366	83.19
300.597	80.19
300.827	83.19
301.057	74.19
301.288	86.19
301.518	88.19
301.748	84.19
301.979	101.19
302.209	89.19
302.439	84.19
302.669	75.19
302.9	79.19
303.13	79.19
303.36	94.19
303.59	92.19
303.82	82.19
304.051	103.19
304.281	78.19
304.511	93.19
304.741	96.19
304.971	86.19
305.201	87.19
305.431	99.19
305.661	92.19
305.891	96.19
306.121	85.19
306.352	93.19
306.582	84.19
306.812	80.19
307.042	89.19
307.272	86.19
307.502	69.19
307.731	90.19
307.961	73.19
308.191	83.19
308.421	75.19
308.651	84.19
308.881	94.19
309.111	84.19
309.341	86.19
309.571	86.19
309.8	90.19
310.03	75.19
310.26	85.19
310.49	87.19
310.72	85.19
310.949	100.19
311.179	84.19
311.409	91.19
311.639	81.19
311.868	83.19
312.098	90.19
312.328	103.19
312.557	95.19
312.787	90.19
313.017	89.19
313.246	82.19
313.476	94.19
313.706	82.19
313.935	86.19
314.165	86.19
314.394	88.19
314.624	95.19
314.853	77.19
315.083	112.19
315.312	93.19
315.542	59.19
315.771	76.19
316.001	93.19
316.23	77.19
316.46	74.19
316.689	90.19
316.919	95.19
317.148	87.19
317.377	94.19
317.607	79.19
317.836	74.19
318.065	81.19
318.295	80.19
318.524	83.19
318.753	89.19
318.983	84.19
319.212	101.19
319.441	86.19
319.67	105.19
319.9	84.19
320.129	98.19
320.358	94.19
320.587	97.19
320.816	79.19
321.046	88.19
321.275	83.19
321.504	79.19
321.733	75.19
321.962	87.19
322.191	78.19
322.42	98.19
322.649	78.19
322.878	90.19
323.108	90.19
323.337	86.19
323.566	87.19
323.795	88.19
324.024	80.19
324.253	84.19
324.482	76.19
324.71	79.19
324.939	96.19
325.168	89.19
325.397	75.19
325.626	90.19
325.855	94.19
326.084	89.19
326.313	89.19
326.542	90.19
326.77	90.19
326.999	87.19
327.228	78.19
327.457	93.19
327.686	83.19
327.914	98.19
328.143	93.19
328.372	74.19
328.6	81.19
328.829	102.19
329.058	54.19
329.287	97.19
329.515	76.19
329.744	82.19
329.972	89.19
330.201	98.19
330.43	77.19
330.658	73.19
330.887	91.19
331.115	83.19
331.344	85.19
331.572	86.19
331.801	99.19
332.03	91.19
332.258	98.19
332.486	80.19
332.715	95.19
332.943	89.19
333.172	89.19
333.4	92.19
333.629	67.19
333.857	78.19
334.085	87.19
334.314	82.19
334.542	83.19
334.771	77.19
334.999	79.19
335.227	88.19
335.455	77.19
335.684	94.19
335.912	83.19
336.14	90.19
336.369	85.19
336.597	93.19
336.825	90.19
337.053	89.19
337.281	75.19
337.51	78.19
337.738	69.19
337.966	80.19
338.194	74.19
338.422	85.19
338.65	86.19
338.878	81.19
339.106	90.19
339.334	87.19
339.562	77.19
339.79	86.19
340.018	91.19
340.246	97.19
340.474	94.19
340.702	85.19
340.93	66.19
341.158	71.19
341.386	86.19
341.614	82.19
341.842	90.19
342.07	85.19
342.298	94.19
342.526	96.19
342.754	82.19
342.981	98.19
343.209	94.19
343.437	100.19
343.665	92.19
343.893	86.19
344.12	92.19
344.348	93.19
344.576	95.19
344.804	72.19
345.031	91.19
345.259	89.19
345.487	87.19
345.714	76.19
345.942	98.19
346.17	101.19
346.397	97.19
346.625	97.19
346.853	77.19
347.08	102.19
347.308	79.19
347.535	87.19
347.763	99.19
347.99	81.19
348.218	81.19
348.445	88.19
348.673	77.19
348.9	96.19
349.128	92.19
349.355	87.19
349.583	89.19
349.81	87.19
350.037	87.19
350.265	86.19
350.492	97.19
350.72	79.19
350.947	94.19
351.174	94.19
351.402	93.19
351.629	80.19
351.856	76.19
352.083	89.19
352.311	91.19
352.538	88.19
352.765	90.19
352.992	89.19
353.22	85.19
353.447	86.19
353.674	97.19
353.901	91.19
354.128	78.19
354.355	72.19
354.583	97.19
354.81	81.19
355.037	82.19
355.264	78.19
355.491	73.19
355.718	83.19
355.945	84.19
356.172	90.19
356.399	94.19
356.626	89.19
356.853	89.19
357.08	99.19
357.307	87.19
357.534	79.19
357.761	93.19
357.988	86.19
358.215	94.19
358.441	87.19
358.668	85.19
358.895	101.19
359.122	90.19
359.349	93.19
359.576	95.19
359.802	83.19
360.029	90.19
360.256	73.19
360.483	83.19
360.709	85.19
360.936	84.19
361.163	79.19
361.39	90.19
361.616	92.19
361.843	72.19
362.07	79.19
362.296	90.19
362.523	69.19
362.749	85.19
362.976	83.19
363.203	87.19
363.429	93.19
363.656	82.19
363.882	89.19
364.109	70.19
364.335	79.19
364.562	83.19
364.788	97.19
365.015	88.19
365.241	83.19
365.468	87.19
365.694	85.19
365.92	94.19
366.147	94.19
366.373	87.19
366.599	79.19
366.826	82.19
367.052	68.19
367.278	79.19
367.505	81.19
367.731	92.19
367.957	87.19
368.184	97.19
368.41	89.19
368.636	85.19
368.862	102.19
369.089	84.19
369.315	92.19
369.541	77.19
369.767	93.19
369.993	90.19
370.219	76.19
370.445	84.19
370.672	95.19
370.898	90.19
371.124	98.19
371.35	103.19
371.576	87.19
371.802	93.19
372.028	91.19
372.254	102.19
372.48	97.19
372.706	97.19
372.932	85.19
373.158	91.19
373.384	100.19
373.61	89.19
373.835	95.19
374.061	98.19
374.287	96.19
374.513	94.19
374.739	94.19
374.965	81.19
375.191	85.19
375.416	91.19
375.642	94.19
375.868	91.19
376.094	85.19
376.319	97.19
376.545	93.19
376.771	101.19
376.997	103.19
377.222	76.19
377.448	99.19
377.674	93.19
377.899	95.19
378.125	91.19
378.35	91.19
378.576	106.19
378.802	98.19
379.027	95.19
379.253	96.19
379.478	82.19
379.704	85.19
379.929	97.19
380.155	94.19
380.38	96.19
380.606	100.19
380.831	88.19
381.057	114.19
381.282	85.19
381.507	106.19
381.733	85.19
381.958	80.19
382.184	107.19
382.409	113.19
382.634	91.19
382.86	99.19
383.085	116.19
383.31	99.19
383.535	104.19
383.761	98.19
383.986	81.19
384.211	105.19
384.436	102.19
384.662	94.19
384.887	102.19
385.112	86.19
385.337	101.19
385.562	94.19
385.787	79.19
386.013	96.19
386.238	110.19
386.463	106.19
386.688	97.19
386.913	102.19
387.138	86.19
387.363	84.19
387.588	107.19
387.813	102.19
388.038	98.19
388.263	103.19
388.488	102.19
388.713	113.19
388.938	99.19
389.163	99.19
389.387	100.19
389.612	111.19
389.837	101.19
390.062	98.19
390.287	91.19
390.512	106.19
390.736	99.19
390.961	99.19
391.186	92.19
391.411	100.19
391.636	122.19
391.86	107.19
392.085	115.19
392.31	125.19
392.534	116.19
392.759	118.19
392.984	118.19
393.208	111.19
393.433	96.19
393.658	108.19
393.882	98.19
394.107	98.19
394.331	97.19
394.556	98.19
394.78	109.19
395.005	105.19
395.229	103.19
395.454	121.19
395.678	92.19
395.903	111.19
396.127	101.19
396.352	96.19
396.576	98.19
396.801	114.19
397.025	109.19
397.249	106.19
397.474	116.19
397.698	99.19
397.922	110.19
398.147	94.19
398.371	110.19
398.595	114.19
398.82	104.19
399.044	100.19
399.268	112.19
399.492	99.19
399.717	95.19
399.941	104.19
400.165	107.19
400.389	106.19
400.613	113.19
400.837	107.19
401.062	125.19
401.286	111.19
401.51	109.19
401.734	114.19
401.958	129.19
402.182	112.19
402.406	97.19
402.63	101.19
402.854	123.19
403.078	114.19
403.302	99.19
403.526	105.19
403.75	116.19
403.974	121.19
404.198	122.19
404.422	121.19
404.645	109.19
404.869	110.19
405.093	117.19
405.317	118.19
405.541	108.19
405.765	121.19
405.988	116.19
406.212	135.19
406.436	123.19
406.66	109.19
406.883	117.19
407.107	116.19
407.331	114.19
407.555	114.19
407.778	107.19
408.002	123.19
408.226	113.19
408.449	119.19
408.673	122.19
408.896	124.19
409.12	130.19
409.344	124.19
409.567	123.19
409.791	120.19
410.014	117.19
410.238	119.19
410.461	117.19
410.685	117.19
410.908	115.19
411.132	119.19
411.355	114.19
411.578	102.19
411.802	107.19
412.025	109.19
412.249	117.19
412.472	115.19
412.695	112.19
412.919	125.19
413.142	126.19
413.365	122.19
413.589	122.19
413.812	123.19
414.035	129.19
414.258	128.19
414.482	131.19
414.705	103.19
414.928	129.19
415.151	139.19
415.374	114.19
415.597	139.19
415.821	128.19
416.044	107.19
416.267	127.19
416.49	122.19
416.713	118.19
416.936	143.19
417.159	138.19
417.382	124.19
417.605	124.19
417.828	124.19
418.051	139.19
418.274	134.19
418.497	117.19
418.72	123.19
418.943	120.19
419.166	138.19
419.389	143.19
419.611	142.19
419.834	127.19
420.057	143.19
420.28	125.19
420.503	131.19
420.726	131.19
420.948	131.19
421.171	135.19
421.394	139.19
421.617	141.19
421.839	141.19
422.062	141.19
422.285	127.19
422.507	123.19
422.73	132.19
422.953	123.19
423.175	127.19
423.398	129.19
423.621	116.19
423.843	138.19
424.066	140.19
424.288	146.19
424.511	145.19
424.733	144.19
424.956	143.19
425.178	135.19
425.401	142.19
425.623	147.19
425.846	151.19
426.068	125.19
426.291	143.19
426.513	132.19
426.735	129.19
426.958	133.19
427.18	141.19
427.402	144.19
427.625	110.19
427.847	113.19
428.069	123.19
428.292	143.19
428.514	110.19
428.736	136.19
428.958	121.19
429.181	127.19
429.403	115.19
429.625	125.19
429.847	140.19
430.069	132.19
430.292	133.19
430.514	123.19
430.736	125.19
430.958	119.19
431.18	123.19
431.402	121.19
431.624	126.19
431.846	114.19
432.068	88.19
432.29	99.19
432.512	121.19
432.734	113.19
432.956	127.19
433.178	147.19
433.4	129.19
433.622	135.19
433.844	130.19
434.066	107.19
434.287	108.19
434.509	98.19
434.731	98.19
434.953	109.19
435.175	135.19
435.397	114.19
435.618	130.19
435.84	98.19
436.062	108.19
436.284	106.19
436.505	136.19
436.727	142.19
436.949	132.19
437.17	130.19
437.392	130.19
437.614	129.19
437.835	105.19
438.057	111.19
438.278	127.19
438.5	123.19
438.721	131.19
438.943	134.19
439.165	148.19
439.386	146.19
439.608	148.19
439.829	142.19
440.05	144.19
440.272	143.19
440.493	136.19
440.715	151.19
440.936	141.19
441.158	134.19
441.379	129.19
441.6	147.19
441.822	139.19
442.043	131.19
442.264	126.19
442.486	120.19
442.707	123.19
442.928	135.19
443.149	133.19
443.371	133.19
443.592	132.19
443.813	136.19
444.034	144.19
444.255	155.19
444.476	124.19
444.698	134.19
444.919	148.19
445.14	270.19
445.361	195.19
445.582	141.19
445.803	139.19
446.024	141.19
446.245	142.19
446.466	143.19
446.687	151.19
446.908	149.19
447.129	137.19
447.35	160.19
447.571	154.19
447.792	148.19
448.013	146.19
448.234	137.19
448.455	133.19
448.675	142.19
448.896	135.19
449.117	140.19
449.338	128.19
449.559	136.19
449.779	135.19
450	141.19
450.221	127.19
450.442	136.19
450.662	127.19
450.883	129.19
451.104	125.19
451.324	131.19
451.545	129.19
451.766	122.19
451.986	126.19
452.207	142.19
452.428	135.19
452.648	121.19
452.869	118.19
453.089	117.19
453.31	116.19
453.53	111.19
453.751	99.19
453.971	93.19
454.192	108.19
454.412	120.19
454.633	115.19
454.853	119.19
455.073	129.19
455.294	122.19
455.514	131.19
455.734	117.19
455.955	114.19
456.175	122.19
456.395	119.19
456.616	106.19
456.836	123.19
457.056	107.19
457.276	107.19
457.497	121.19
457.717	116.19
457.937	106.19
458.157	103.19
458.377	113.19
458.598	92.19
458.818	110.19
459.038	94.19
459.258	83.19
459.478	84.19
459.698	99.19
459.918	94.19
460.138	100.19
460.358	98.19
460.578	116.19
460.798	120.19
461.018	111.19
461.238	121.19
461.458	131.19
461.678	112.19
461.898	115.19
462.118	117.19
462.338	106.19
462.558	97.19
462.777	113.19
462.997	108.19
463.217	103.19
463.437	110.19
463.657	107.19
463.876	110.19
464.096	93.19
464.316	99.19
464.536	123.19
464.755	115.19
464.975	108.19
465.195	115.19
465.414	128.19
465.634	123.19
465.854	130.19
466.073	127.19
466.293	131.19
466.512	128.19
466.732	119.19
466.951	127.19
467.171	125.19
467.391	118.19
467.61	125.19
467.829	133.19
468.049	126.19
468.268	137.19
468.488	131.19
468.707	130.19
468.927	127.19
469.146	129.19
469.365	150.19
469.585	137.19
469.804	142.19
470.023	136.19
470.243	136.19
470.462	130.19
470.681	129.19
470.901	139.19
471.12	150.19
471.339	134.19
471.558	141.19
471.777	133.19
471.997	130.19
472.216	122.19
472.435	127.19
472.654	100.19
472.873	111.19
473.092	92.19
473.311	98.19
473.53	125.19
473.749	124.19
473.968	141.19
474.187	121.19
474.406	130.19
474.625	135.19
474.844	126.19
475.063	131.19
475.282	124.19
475.501	115.19
475.72	127.19
475.939	128.19
476.158	129.19
476.377	122.19
476.596	119.19
476.814	123.19
477.033	91.19
477.252	116.19
477.471	123.19
477.69	140.19
477.908	129.19
478.127	131.19
478.346	127.19
478.564	137.19
478.783	132.19
479.002	153.19
479.22	137.19
479.439	128.19
479.658	124.19
479.876	129.19
480.095	107.19
480.313	121.19
480.532	113.19
480.751	121.19
480.969	91.19
481.188	90.19
481.406	91.19
481.624	93.19
481.843	84.19
482.061	105.19
482.28	119.19
482.498	127.19
482.717	119.19
482.935	125.19
483.153	134.19
483.372	154.19
483.59	140.19
483.808	131.19
484.027	139.19
484.245	141.19
484.463	148.19
484.681	167.19
484.9	161.19
485.118	144.19
485.336	129.19
485.554	120.19
485.772	100.19
485.99	87.19
486.209	99.19
486.427	105.19
486.645	124.19
486.863	131.19
487.081	148.19
487.299	121.19
487.517	127.19
487.735	157.19
487.953	183.19
488.171	172.19
488.389	179.19
488.607	162.19
488.825	152.19
489.043	146.19
489.261	130.19
489.479	146.19
489.696	136.19
489.914	135.19
490.132	135.19
490.35	153.19
490.568	152.19
490.786	179.19
491.003	174.19
491.221	179.19
491.439	174.19
491.657	183.19
491.874	205.19
492.092	231.19
492.31	243.19
492.527	204.19
492.745	204.19
492.963	196.19
493.18	183.19
493.398	169.19
493.615	177.19
493.833	172.19
494.05	170.19
494.268	153.19
494.485	166.19
494.703	169.19
494.92	181.19
495.138	161.19
495.355	170.19
495.573	167.19
495.79	170.19
496.008	158.19
496.225	164.19
496.442	178.19
496.66	162.19
496.877	167.19
497.094	163.19
497.312	158.19
497.529	157.19
497.746	154.19
497.963	137.19
498.181	132.19
498.398	112.19
498.615	123.19
498.832	105.19
499.049	117.19
499.267	135.19
499.484	132.19
499.701	126.19
499.918	141.19
500.135	137.19
500.352	135.19
500.569	129.19
500.786	123.19
501.003	140.19
501.22	141.19
501.437	124.19
501.654	146.19
501.871	130.19
502.088	125.19
502.305	124.19
502.522	124.19
502.739	120.19
502.956	122.19
503.172	120.19
503.389	121.19
503.606	118.19
503.823	121.19
504.04	113.19
504.256	138.19
504.473	127.19
504.69	125.19
504.907	134.19
505.123	104.19
505.34	111.19
505.557	125.19
505.773	117.19
505.99	134.19
506.207	116.19
506.423	117.19
506.64	122.19
506.856	117.19
507.073	114.19
507.289	138.19
507.506	113.19
507.722	119.19
507.939	126.19
508.155	127.19
508.372	123.19
508.588	115.19
508.805	99.19
509.021	109.19
509.238	117.19
509.454	103.19
509.67	111.19
509.887	102.19
510.103	92.19
510.319	97.19
510.536	95.19
510.752	93.19
510.968	92.19
511.184	75.19
511.401	90.19
511.617	93.19
