Data from Location4.07152019.Energy5.Lamp.07192019.3%Agarose_HRD10591_16-19-52-925.txt Node
Date: Fri Jul 19 16:19:52 EDT 2019
User: cochatt
Spectrometer: HR+D1059
Trigger mode: 1
Integration Time (sec): 1.000000E-1
Scans to average: 1
Electric dark correction enabled: true
Nonlinearity correction enabled: false
Boxcar width: 0
XAxis mode: Wavelengths
Number of Pixels in Spectrum: 2048
>>>>>Begin Spectral Data<<<<<
223.165	-26.19
223.4	-26.19
223.635	-26.19
223.869	-15.19
224.104	-21.19
224.338	-17.19
224.573	-14.19
224.808	0.81
225.042	-5.19
225.277	-1.19
225.511	4.81
225.746	6.81
225.98	-1.19
226.215	20.81
226.449	5.81
226.683	12.81
226.918	29.81
227.152	19.81
227.387	43.81
227.621	34.81
227.856	32.81
228.09	42.81
228.324	50.81
228.559	56.81
228.793	68.81
229.027	57.81
229.262	59.81
229.496	62.81
229.73	75.81
229.964	69.81
230.199	73.81
230.433	75.81
230.667	66.81
230.901	74.81
231.136	76.81
231.37	80.81
231.604	83.81
231.838	96.81
232.072	75.81
232.306	78.81
232.541	76.81
232.775	76.81
233.009	89.81
233.243	78.81
233.477	75.81
233.711	83.81
233.945	77.81
234.179	84.81
234.413	77.81
234.647	79.81
234.881	92.81
235.115	77.81
235.349	81.81
235.583	86.81
235.817	84.81
236.051	83.81
236.285	74.81
236.519	82.81
236.753	76.81
236.987	84.81
237.221	76.81
237.455	59.81
237.689	73.81
237.922	78.81
238.156	81.81
238.39	84.81
238.624	70.81
238.858	76.81
239.091	80.81
239.325	68.81
239.559	75.81
239.793	81.81
240.027	75.81
240.26	75.81
240.494	87.81
240.728	86.81
240.961	69.81
241.195	72.81
241.429	74.81
241.662	65.81
241.896	64.81
242.13	72.81
242.363	74.81
242.597	73.81
242.83	78.81
243.064	78.81
243.298	72.81
243.531	74.81
243.765	87.81
243.998	69.81
244.232	81.81
244.465	77.81
244.699	82.81
244.932	84.81
245.166	90.81
245.399	81.81
245.633	78.81
245.866	86.81
246.099	72.81
246.333	88.81
246.566	83.81
246.8	66.81
247.033	63.81
247.266	66.81
247.5	74.81
247.733	76.81
247.966	88.81
248.2	66.81
248.433	73.81
248.666	97.81
248.899	71.81
249.133	82.81
249.366	67.81
249.599	58.81
249.832	70.81
250.066	92.81
250.299	89.81
250.532	92.81
250.765	81.81
250.998	69.81
251.231	78.81
251.465	58.81
251.698	84.81
251.931	86.81
252.164	92.81
252.397	58.81
252.63	85.81
252.863	84.81
253.096	87.81
253.329	88.81
253.562	85.81
253.795	81.81
254.028	93.81
254.261	83.81
254.494	87.81
254.727	91.81
254.96	74.81
255.193	85.81
255.426	75.81
255.659	74.81
255.892	82.81
256.124	74.81
256.357	76.81
256.59	90.81
256.823	71.81
257.056	83.81
257.289	85.81
257.521	73.81
257.754	79.81
257.987	84.81
258.22	75.81
258.452	88.81
258.685	82.81
258.918	72.81
259.151	71.81
259.383	101.81
259.616	84.81
259.849	84.81
260.081	75.81
260.314	78.81
260.547	86.81
260.779	85.81
261.012	62.81
261.244	74.81
261.477	89.81
261.71	80.81
261.942	98.81
262.175	84.81
262.407	85.81
262.64	71.81
262.872	61.81
263.105	100.81
263.337	96.81
263.57	82.81
263.802	78.81
264.035	82.81
264.267	77.81
264.499	91.81
264.732	74.81
264.964	85.81
265.197	76.81
265.429	83.81
265.661	67.81
265.894	91.81
266.126	85.81
266.358	85.81
266.591	83.81
266.823	85.81
267.055	71.81
267.287	82.81
267.52	82.81
267.752	81.81
267.984	69.81
268.216	82.81
268.448	89.81
268.681	73.81
268.913	76.81
269.145	97.81
269.377	80.81
269.609	76.81
269.841	80.81
270.073	99.81
270.306	73.81
270.538	92.81
270.77	82.81
271.002	78.81
271.234	77.81
271.466	82.81
271.698	82.81
271.93	82.81
272.162	78.81
272.394	86.81
272.626	76.81
272.858	90.81
273.09	69.81
273.322	84.81
273.553	90.81
273.785	96.81
274.017	76.81
274.249	87.81
274.481	77.81
274.713	82.81
274.945	93.81
275.176	99.81
275.408	95.81
275.64	78.81
275.872	85.81
276.104	76.81
276.335	86.81
276.567	80.81
276.799	77.81
277.031	83.81
277.262	77.81
277.494	73.81
277.726	82.81
277.957	90.81
278.189	73.81
278.421	93.81
278.652	73.81
278.884	86.81
279.115	101.81
279.347	75.81
279.579	91.81
279.81	90.81
280.042	89.81
280.273	96.81
280.505	84.81
280.736	99.81
280.968	64.81
281.199	77.81
281.431	73.81
281.662	88.81
281.894	78.81
282.125	88.81
282.356	90.81
282.588	88.81
282.819	82.81
283.051	73.81
283.282	86.81
283.513	85.81
283.745	96.81
283.976	91.81
284.207	82.81
284.439	82.81
284.67	86.81
284.901	88.81
285.132	77.81
285.364	69.81
285.595	87.81
285.826	89.81
286.057	73.81
286.288	92.81
286.52	88.81
286.751	93.81
286.982	74.81
287.213	85.81
287.444	83.81
287.675	82.81
287.906	76.81
288.138	88.81
288.369	79.81
288.6	90.81
288.831	89.81
289.062	86.81
289.293	100.81
289.524	84.81
289.755	82.81
289.986	91.81
290.217	81.81
290.448	85.81
290.679	92.81
290.91	91.81
291.141	101.81
291.371	81.81
291.602	78.81
291.833	96.81
292.064	76.81
292.295	90.81
292.526	85.81
292.757	71.81
292.987	76.81
293.218	86.81
293.449	98.81
293.68	93.81
293.91	77.81
294.141	100.81
294.372	91.81
294.603	71.81
294.833	78.81
295.064	70.81
295.295	77.81
295.525	74.81
295.756	93.81
295.987	66.81
296.217	80.81
296.448	79.81
296.679	84.81
296.909	89.81
297.14	85.81
297.37	78.81
297.601	78.81
297.831	87.81
298.062	84.81
298.292	85.81
298.523	83.81
298.753	84.81
298.984	73.81
299.214	76.81
299.445	93.81
299.675	87.81
299.905	71.81
300.136	90.81
300.366	86.81
300.597	97.81
300.827	88.81
301.057	87.81
301.288	83.81
301.518	82.81
301.748	86.81
301.979	80.81
302.209	93.81
302.439	78.81
302.669	84.81
302.9	68.81
303.13	89.81
303.36	88.81
303.59	76.81
303.82	80.81
304.051	71.81
304.281	88.81
304.511	88.81
304.741	84.81
304.971	75.81
305.201	90.81
305.431	75.81
305.661	91.81
305.891	92.81
306.121	89.81
306.352	78.81
306.582	91.81
306.812	90.81
307.042	83.81
307.272	85.81
307.502	83.81
307.731	93.81
307.961	87.81
308.191	85.81
308.421	79.81
308.651	86.81
308.881	82.81
309.111	99.81
309.341	89.81
309.571	91.81
309.8	90.81
310.03	76.81
310.26	74.81
310.49	65.81
310.72	102.81
310.949	84.81
311.179	74.81
311.409	73.81
311.639	82.81
311.868	86.81
312.098	86.81
312.328	97.81
312.557	78.81
312.787	87.81
313.017	72.81
313.246	80.81
313.476	89.81
313.706	78.81
313.935	79.81
314.165	80.81
314.394	86.81
314.624	73.81
314.853	90.81
315.083	89.81
315.312	87.81
315.542	89.81
315.771	84.81
316.001	75.81
316.23	100.81
316.46	85.81
316.689	70.81
316.919	95.81
317.148	76.81
317.377	86.81
317.607	92.81
317.836	91.81
318.065	86.81
318.295	105.81
318.524	85.81
318.753	82.81
318.983	85.81
319.212	80.81
319.441	91.81
319.67	87.81
319.9	87.81
320.129	85.81
320.358	85.81
320.587	90.81
320.816	84.81
321.046	93.81
321.275	88.81
321.504	96.81
321.733	78.81
321.962	102.81
322.191	85.81
322.42	79.81
322.649	86.81
322.878	86.81
323.108	84.81
323.337	82.81
323.566	88.81
323.795	87.81
324.024	82.81
324.253	82.81
324.482	90.81
324.71	89.81
324.939	87.81
325.168	81.81
325.397	88.81
325.626	98.81
325.855	96.81
326.084	88.81
326.313	82.81
326.542	86.81
326.77	91.81
326.999	89.81
327.228	88.81
327.457	99.81
327.686	82.81
327.914	92.81
328.143	84.81
328.372	79.81
328.6	74.81
328.829	85.81
329.058	80.81
329.287	66.81
329.515	97.81
329.744	102.81
329.972	72.81
330.201	72.81
330.43	88.81
330.658	91.81
330.887	83.81
331.115	90.81
331.344	78.81
331.572	83.81
331.801	82.81
332.03	82.81
332.258	93.81
332.486	82.81
332.715	78.81
332.943	92.81
333.172	83.81
333.4	78.81
333.629	78.81
333.857	93.81
334.085	81.81
334.314	84.81
334.542	106.81
334.771	78.81
334.999	86.81
335.227	87.81
335.455	90.81
335.684	80.81
335.912	87.81
336.14	75.81
336.369	77.81
336.597	90.81
336.825	76.81
337.053	81.81
337.281	85.81
337.51	100.81
337.738	89.81
337.966	73.81
338.194	66.81
338.422	83.81
338.65	79.81
338.878	92.81
339.106	82.81
339.334	90.81
339.562	88.81
339.79	87.81
340.018	76.81
340.246	86.81
340.474	80.81
340.702	96.81
340.93	73.81
341.158	77.81
341.386	84.81
341.614	108.81
341.842	81.81
342.07	79.81
342.298	74.81
342.526	89.81
342.754	79.81
342.981	87.81
343.209	87.81
343.437	82.81
343.665	85.81
343.893	83.81
344.12	81.81
344.348	79.81
344.576	89.81
344.804	73.81
345.031	83.81
345.259	73.81
345.487	78.81
345.714	73.81
345.942	86.81
346.17	94.81
346.397	89.81
346.625	71.81
346.853	87.81
347.08	74.81
347.308	75.81
347.535	91.81
347.763	67.81
347.99	73.81
348.218	81.81
348.445	80.81
348.673	77.81
348.9	94.81
349.128	98.81
349.355	81.81
349.583	85.81
349.81	85.81
350.037	83.81
350.265	99.81
350.492	84.81
350.72	88.81
350.947	75.81
351.174	80.81
351.402	85.81
351.629	85.81
351.856	73.81
352.083	78.81
352.311	86.81
352.538	108.81
352.765	89.81
352.992	79.81
353.22	80.81
353.447	76.81
353.674	83.81
353.901	68.81
354.128	93.81
354.355	77.81
354.583	79.81
354.81	102.81
355.037	93.81
355.264	88.81
355.491	69.81
355.718	78.81
355.945	91.81
356.172	87.81
356.399	76.81
356.626	85.81
356.853	87.81
357.08	91.81
357.307	62.81
357.534	71.81
357.761	87.81
357.988	89.81
358.215	88.81
358.441	75.81
358.668	80.81
358.895	94.81
359.122	67.81
359.349	95.81
359.576	95.81
359.802	88.81
360.029	88.81
360.256	76.81
360.483	79.81
360.709	83.81
360.936	91.81
361.163	88.81
361.39	83.81
361.616	86.81
361.843	77.81
362.07	83.81
362.296	90.81
362.523	77.81
362.749	82.81
362.976	87.81
363.203	78.81
363.429	79.81
363.656	86.81
363.882	96.81
364.109	84.81
364.335	78.81
364.562	98.81
364.788	90.81
365.015	79.81
365.241	83.81
365.468	91.81
365.694	89.81
365.92	92.81
366.147	68.81
366.373	84.81
366.599	85.81
366.826	81.81
367.052	65.81
367.278	82.81
367.505	92.81
367.731	91.81
367.957	81.81
368.184	98.81
368.41	95.81
368.636	90.81
368.862	80.81
369.089	80.81
369.315	76.81
369.541	104.81
369.767	94.81
369.993	94.81
370.219	106.81
370.445	94.81
370.672	94.81
370.898	89.81
371.124	84.81
371.35	89.81
371.576	81.81
371.802	94.81
372.028	97.81
372.254	88.81
372.48	105.81
372.706	78.81
372.932	97.81
373.158	104.81
373.384	82.81
373.61	87.81
373.835	85.81
374.061	89.81
374.287	95.81
374.513	100.81
374.739	88.81
374.965	92.81
375.191	88.81
375.416	94.81
375.642	97.81
375.868	87.81
376.094	86.81
376.319	92.81
376.545	85.81
376.771	79.81
376.997	93.81
377.222	67.81
377.448	86.81
377.674	89.81
377.899	93.81
378.125	87.81
378.35	86.81
378.576	100.81
378.802	84.81
379.027	86.81
379.253	100.81
379.478	94.81
379.704	103.81
379.929	90.81
380.155	95.81
380.38	98.81
380.606	94.81
380.831	88.81
381.057	94.81
381.282	99.81
381.507	74.81
381.733	76.81
381.958	88.81
382.184	99.81
382.409	84.81
382.634	101.81
382.86	88.81
383.085	101.81
383.31	92.81
383.535	91.81
383.761	98.81
383.986	95.81
384.211	91.81
384.436	88.81
384.662	99.81
384.887	85.81
385.112	95.81
385.337	88.81
385.562	90.81
385.787	98.81
386.013	110.81
386.238	94.81
386.463	90.81
386.688	109.81
386.913	100.81
387.138	101.81
387.363	118.81
387.588	103.81
387.813	90.81
388.038	89.81
388.263	95.81
388.488	109.81
388.713	109.81
388.938	88.81
389.163	92.81
389.387	108.81
389.612	99.81
389.837	88.81
390.062	99.81
390.287	108.81
390.512	112.81
390.736	102.81
390.961	116.81
391.186	112.81
391.411	91.81
391.636	84.81
391.86	102.81
392.085	104.81
392.31	109.81
392.534	109.81
392.759	97.81
392.984	92.81
393.208	92.81
393.433	104.81
393.658	91.81
393.882	107.81
394.107	116.81
394.331	114.81
394.556	108.81
394.78	105.81
395.005	114.81
395.229	109.81
395.454	119.81
395.678	101.81
395.903	105.81
396.127	100.81
396.352	100.81
396.576	94.81
396.801	112.81
397.025	109.81
397.249	121.81
397.474	114.81
397.698	103.81
397.922	114.81
398.147	104.81
398.371	101.81
398.595	118.81
398.82	115.81
399.044	120.81
399.268	102.81
399.492	104.81
399.717	110.81
399.941	125.81
400.165	128.81
400.389	106.81
400.613	109.81
400.837	94.81
401.062	118.81
401.286	109.81
401.51	110.81
401.734	118.81
401.958	97.81
402.182	120.81
402.406	101.81
402.63	120.81
402.854	112.81
403.078	108.81
403.302	104.81
403.526	118.81
403.75	125.81
403.974	111.81
404.198	119.81
404.422	114.81
404.645	119.81
404.869	134.81
405.093	124.81
405.317	119.81
405.541	115.81
405.765	122.81
405.988	122.81
406.212	120.81
406.436	118.81
406.66	118.81
406.883	112.81
407.107	103.81
407.331	118.81
407.555	126.81
407.778	122.81
408.002	126.81
408.226	117.81
408.449	113.81
408.673	111.81
408.896	125.81
409.12	123.81
409.344	116.81
409.567	106.81
409.791	113.81
410.014	111.81
410.238	132.81
410.461	116.81
410.685	121.81
410.908	112.81
411.132	99.81
411.355	103.81
411.578	134.81
411.802	117.81
412.025	109.81
412.249	118.81
412.472	119.81
412.695	122.81
412.919	115.81
413.142	131.81
413.365	123.81
413.589	120.81
413.812	113.81
414.035	103.81
414.258	110.81
414.482	117.81
414.705	114.81
414.928	115.81
415.151	105.81
415.374	118.81
415.597	134.81
415.821	118.81
416.044	120.81
416.267	119.81
416.49	117.81
416.713	116.81
416.936	113.81
417.159	113.81
417.382	125.81
417.605	123.81
417.828	124.81
418.051	124.81
418.274	120.81
418.497	118.81
418.72	131.81
418.943	132.81
419.166	120.81
419.389	136.81
419.611	133.81
419.834	132.81
420.057	110.81
420.28	133.81
420.503	132.81
420.726	124.81
420.948	136.81
421.171	117.81
421.394	132.81
421.617	131.81
421.839	131.81
422.062	139.81
422.285	134.81
422.507	115.81
422.73	125.81
422.953	114.81
423.175	109.81
423.398	109.81
423.621	125.81
423.843	130.81
424.066	118.81
424.288	148.81
424.511	136.81
424.733	132.81
424.956	123.81
425.178	148.81
425.401	125.81
425.623	149.81
425.846	132.81
426.068	124.81
426.291	120.81
426.513	125.81
426.735	134.81
426.958	128.81
427.18	123.81
427.402	133.81
427.625	118.81
427.847	133.81
428.069	132.81
428.292	128.81
428.514	142.81
428.736	118.81
428.958	126.81
429.181	130.81
429.403	135.81
429.625	122.81
429.847	126.81
430.069	117.81
430.292	118.81
430.514	120.81
430.736	121.81
430.958	124.81
431.18	126.81
431.402	109.81
431.624	116.81
431.846	104.81
432.068	106.81
432.29	89.81
432.512	109.81
432.734	123.81
432.956	130.81
433.178	124.81
433.4	139.81
433.622	132.81
433.844	114.81
434.066	117.81
434.287	121.81
434.509	112.81
434.731	103.81
434.953	114.81
435.175	118.81
435.397	123.81
435.618	128.81
435.84	116.81
436.062	103.81
436.284	134.81
436.505	126.81
436.727	132.81
436.949	138.81
437.17	129.81
437.392	129.81
437.614	108.81
437.835	113.81
438.057	108.81
438.278	128.81
438.5	123.81
438.721	124.81
438.943	135.81
439.165	133.81
439.386	140.81
439.608	140.81
439.829	130.81
440.05	140.81
440.272	139.81
440.493	155.81
440.715	138.81
440.936	151.81
441.158	143.81
441.379	138.81
441.6	142.81
441.822	136.81
442.043	136.81
442.264	145.81
442.486	134.81
442.707	146.81
442.928	139.81
443.149	136.81
443.371	155.81
443.592	136.81
443.813	129.81
444.034	150.81
444.255	139.81
444.476	141.81
444.698	142.81
444.919	141.81
445.14	277.81
445.361	212.81
445.582	151.81
445.803	156.81
446.024	136.81
446.245	152.81
446.466	154.81
446.687	154.81
446.908	154.81
447.129	149.81
447.35	163.81
447.571	148.81
447.792	134.81
448.013	143.81
448.234	145.81
448.455	142.81
448.675	132.81
448.896	124.81
449.117	131.81
449.338	136.81
449.559	125.81
449.779	137.81
450	133.81
450.221	128.81
450.442	128.81
450.662	121.81
450.883	141.81
451.104	145.81
451.324	126.81
451.545	119.81
451.766	128.81
451.986	131.81
452.207	130.81
452.428	134.81
452.648	126.81
452.869	114.81
453.089	119.81
453.31	104.81
453.53	103.81
453.751	113.81
453.971	109.81
454.192	102.81
454.412	108.81
454.633	116.81
454.853	111.81
455.073	125.81
455.294	123.81
455.514	123.81
455.734	129.81
455.955	107.81
456.175	104.81
456.395	116.81
456.616	115.81
456.836	100.81
457.056	107.81
457.276	109.81
457.497	100.81
457.717	99.81
457.937	97.81
458.157	102.81
458.377	112.81
458.598	110.81
458.818	112.81
459.038	101.81
459.258	79.81
459.478	94.81
459.698	93.81
459.918	104.81
460.138	90.81
460.358	90.81
460.578	102.81
460.798	117.81
461.018	122.81
461.238	121.81
461.458	104.81
461.678	104.81
461.898	112.81
462.118	119.81
462.338	117.81
462.558	106.81
462.777	109.81
462.997	121.81
463.217	122.81
463.437	108.81
463.657	107.81
463.876	100.81
464.096	104.81
464.316	118.81
464.536	108.81
464.755	116.81
464.975	95.81
465.195	114.81
465.414	106.81
465.634	125.81
465.854	118.81
466.073	117.81
466.293	106.81
466.512	124.81
466.732	119.81
466.951	134.81
467.171	137.81
467.391	132.81
467.61	143.81
467.829	143.81
468.049	118.81
468.268	126.81
468.488	129.81
468.707	148.81
468.927	150.81
469.146	149.81
469.365	128.81
469.585	129.81
469.804	126.81
470.023	130.81
470.243	132.81
470.462	146.81
470.681	144.81
470.901	133.81
471.12	131.81
471.339	161.81
471.558	143.81
471.777	149.81
471.997	128.81
472.216	130.81
472.435	123.81
472.654	100.81
472.873	115.81
473.092	124.81
473.311	129.81
473.53	125.81
473.749	128.81
473.968	127.81
474.187	128.81
474.406	127.81
474.625	114.81
474.844	118.81
475.063	141.81
475.282	123.81
475.501	102.81
475.72	124.81
475.939	117.81
476.158	136.81
476.377	138.81
476.596	131.81
476.814	110.81
477.033	105.81
477.252	120.81
477.471	128.81
477.69	129.81
477.908	138.81
478.127	126.81
478.346	142.81
478.564	127.81
478.783	140.81
479.002	116.81
479.22	140.81
479.439	142.81
479.658	117.81
479.876	116.81
480.095	112.81
480.313	121.81
480.532	101.81
480.751	112.81
480.969	97.81
481.188	86.81
481.406	91.81
481.624	90.81
481.843	97.81
482.061	102.81
482.28	124.81
482.498	118.81
482.717	109.81
482.935	125.81
483.153	140.81
483.372	150.81
483.59	142.81
483.808	146.81
484.027	132.81
484.245	124.81
484.463	165.81
484.681	162.81
484.9	148.81
485.118	138.81
485.336	137.81
485.554	120.81
485.772	96.81
485.99	102.81
486.209	106.81
486.427	117.81
486.645	112.81
486.863	125.81
487.081	163.81
487.299	133.81
487.517	147.81
487.735	169.81
487.953	188.81
488.171	166.81
488.389	161.81
488.607	153.81
488.825	155.81
489.043	130.81
489.261	132.81
489.479	121.81
489.696	146.81
489.914	141.81
490.132	124.81
490.35	146.81
490.568	159.81
490.786	174.81
491.003	190.81
491.221	188.81
491.439	179.81
491.657	191.81
491.874	201.81
492.092	203.81
492.31	237.81
492.527	224.81
492.745	181.81
492.963	188.81
493.18	184.81
493.398	168.81
493.615	166.81
493.833	166.81
494.05	183.81
494.268	168.81
494.485	176.81
494.703	168.81
494.92	161.81
495.138	149.81
495.355	164.81
495.573	170.81
495.79	155.81
496.008	184.81
496.225	162.81
496.442	169.81
496.66	155.81
496.877	168.81
497.094	169.81
497.312	155.81
497.529	164.81
497.746	157.81
497.963	145.81
498.181	135.81
498.398	122.81
498.615	120.81
498.832	116.81
499.049	119.81
499.267	124.81
499.484	117.81
499.701	139.81
499.918	133.81
500.135	138.81
500.352	126.81
500.569	137.81
500.786	126.81
501.003	146.81
501.22	134.81
501.437	149.81
501.654	122.81
501.871	125.81
502.088	126.81
502.305	138.81
502.522	136.81
502.739	150.81
502.956	126.81
503.172	128.81
503.389	130.81
503.606	115.81
503.823	117.81
504.04	116.81
504.256	119.81
504.473	122.81
504.69	120.81
504.907	121.81
505.123	127.81
505.34	115.81
505.557	125.81
505.773	118.81
505.99	131.81
506.207	119.81
506.423	118.81
506.64	126.81
506.856	126.81
507.073	114.81
507.289	118.81
507.506	126.81
507.722	125.81
507.939	123.81
508.155	114.81
508.372	110.81
508.588	112.81
508.805	128.81
509.021	102.81
509.238	111.81
509.454	99.81
509.67	96.81
509.887	92.81
510.103	109.81
510.319	100.81
510.536	97.81
510.752	92.81
510.968	92.81
511.184	81.81
511.401	84.81
511.617	90.81
