Data from Location4.07152019.Energy5.Lamp.07192019.3%Agarose_HRD10591_16-20-28-926.txt Node
Date: Fri Jul 19 16:20:28 EDT 2019
User: cochatt
Spectrometer: HR+D1059
Trigger mode: 1
Integration Time (sec): 1.000000E-1
Scans to average: 1
Electric dark correction enabled: true
Nonlinearity correction enabled: false
Boxcar width: 0
XAxis mode: Wavelengths
Number of Pixels in Spectrum: 2048
>>>>>Begin Spectral Data<<<<<
223.165	-11.88
223.4	-11.88
223.635	-11.88
223.869	-15.88
224.104	-32.88
224.338	-8.88
224.573	3.12
224.808	-12.88
225.042	-8.88
225.277	-10.88
225.511	4.12
225.746	-8.88
225.98	18.12
226.215	7.12
226.449	12.12
226.683	8.12
226.918	20.12
227.152	38.12
227.387	33.12
227.621	25.12
227.856	45.12
228.09	47.12
228.324	58.12
228.559	57.12
228.793	53.12
229.027	60.12
229.262	68.12
229.496	71.12
229.73	79.12
229.964	67.12
230.199	69.12
230.433	63.12
230.667	71.12
230.901	76.12
231.136	69.12
231.37	89.12
231.604	85.12
231.838	98.12
232.072	79.12
232.306	78.12
232.541	86.12
232.775	85.12
233.009	89.12
233.243	90.12
233.477	82.12
233.711	91.12
233.945	95.12
234.179	91.12
234.413	79.12
234.647	77.12
234.881	71.12
235.115	87.12
235.349	93.12
235.583	80.12
235.817	84.12
236.051	72.12
236.285	80.12
236.519	87.12
236.753	90.12
236.987	72.12
237.221	66.12
237.455	65.12
237.689	69.12
237.922	63.12
238.156	71.12
238.39	81.12
238.624	67.12
238.858	84.12
239.091	66.12
239.325	78.12
239.559	94.12
239.793	69.12
240.027	86.12
240.26	66.12
240.494	75.12
240.728	77.12
240.961	77.12
241.195	69.12
241.429	79.12
241.662	78.12
241.896	70.12
242.13	79.12
242.363	86.12
242.597	80.12
242.83	81.12
243.064	71.12
243.298	93.12
243.531	84.12
243.765	87.12
243.998	82.12
244.232	75.12
244.465	82.12
244.699	77.12
244.932	85.12
245.166	71.12
245.399	76.12
245.633	88.12
245.866	89.12
246.099	80.12
246.333	84.12
246.566	94.12
246.8	77.12
247.033	58.12
247.266	63.12
247.5	61.12
247.733	83.12
247.966	81.12
248.2	84.12
248.433	87.12
248.666	86.12
248.899	92.12
249.133	90.12
249.366	86.12
249.599	83.12
249.832	85.12
250.066	79.12
250.299	81.12
250.532	81.12
250.765	88.12
250.998	71.12
251.231	82.12
251.465	86.12
251.698	89.12
251.931	69.12
252.164	63.12
252.397	79.12
252.63	79.12
252.863	67.12
253.096	76.12
253.329	85.12
253.562	73.12
253.795	80.12
254.028	89.12
254.261	76.12
254.494	82.12
254.727	89.12
254.96	90.12
255.193	88.12
255.426	83.12
255.659	78.12
255.892	95.12
256.124	84.12
256.357	81.12
256.59	74.12
256.823	79.12
257.056	89.12
257.289	90.12
257.521	83.12
257.754	72.12
257.987	78.12
258.22	88.12
258.452	87.12
258.685	87.12
258.918	83.12
259.151	78.12
259.383	83.12
259.616	81.12
259.849	97.12
260.081	87.12
260.314	82.12
260.547	95.12
260.779	79.12
261.012	73.12
261.244	68.12
261.477	77.12
261.71	74.12
261.942	75.12
262.175	84.12
262.407	88.12
262.64	95.12
262.872	87.12
263.105	68.12
263.337	85.12
263.57	83.12
263.802	87.12
264.035	96.12
264.267	81.12
264.499	79.12
264.732	79.12
264.964	66.12
265.197	95.12
265.429	69.12
265.661	86.12
265.894	97.12
266.126	84.12
266.358	78.12
266.591	93.12
266.823	83.12
267.055	88.12
267.287	81.12
267.52	78.12
267.752	77.12
267.984	78.12
268.216	75.12
268.448	86.12
268.681	86.12
268.913	74.12
269.145	83.12
269.377	89.12
269.609	82.12
269.841	77.12
270.073	82.12
270.306	91.12
270.538	86.12
270.77	79.12
271.002	91.12
271.234	78.12
271.466	88.12
271.698	74.12
271.93	94.12
272.162	97.12
272.394	78.12
272.626	82.12
272.858	87.12
273.09	82.12
273.322	82.12
273.553	90.12
273.785	94.12
274.017	91.12
274.249	90.12
274.481	84.12
274.713	73.12
274.945	87.12
275.176	86.12
275.408	87.12
275.64	91.12
275.872	93.12
276.104	80.12
276.335	83.12
276.567	82.12
276.799	75.12
277.031	84.12
277.262	95.12
277.494	76.12
277.726	82.12
277.957	82.12
278.189	83.12
278.421	82.12
278.652	88.12
278.884	77.12
279.115	90.12
279.347	73.12
279.579	79.12
279.81	83.12
280.042	89.12
280.273	80.12
280.505	80.12
280.736	85.12
280.968	87.12
281.199	86.12
281.431	94.12
281.662	79.12
281.894	88.12
282.125	80.12
282.356	81.12
282.588	84.12
282.819	70.12
283.051	90.12
283.282	77.12
283.513	75.12
283.745	93.12
283.976	94.12
284.207	85.12
284.439	83.12
284.67	73.12
284.901	90.12
285.132	78.12
285.364	83.12
285.595	76.12
285.826	80.12
286.057	86.12
286.288	92.12
286.52	84.12
286.751	81.12
286.982	84.12
287.213	87.12
287.444	97.12
287.675	86.12
287.906	89.12
288.138	106.12
288.369	84.12
288.6	85.12
288.831	85.12
289.062	89.12
289.293	85.12
289.524	65.12
289.755	81.12
289.986	95.12
290.217	88.12
290.448	82.12
290.679	89.12
290.91	74.12
291.141	93.12
291.371	98.12
291.602	94.12
291.833	89.12
292.064	83.12
292.295	84.12
292.526	101.12
292.757	70.12
292.987	90.12
293.218	97.12
293.449	81.12
293.68	85.12
293.91	88.12
294.141	79.12
294.372	98.12
294.603	83.12
294.833	93.12
295.064	80.12
295.295	92.12
295.525	96.12
295.756	77.12
295.987	77.12
296.217	78.12
296.448	82.12
296.679	90.12
296.909	84.12
297.14	83.12
297.37	71.12
297.601	79.12
297.831	78.12
298.062	79.12
298.292	93.12
298.523	88.12
298.753	92.12
298.984	87.12
299.214	94.12
299.445	88.12
299.675	79.12
299.905	81.12
300.136	85.12
300.366	84.12
300.597	70.12
300.827	71.12
301.057	87.12
301.288	92.12
301.518	87.12
301.748	84.12
301.979	75.12
302.209	94.12
302.439	90.12
302.669	89.12
302.9	92.12
303.13	82.12
303.36	91.12
303.59	90.12
303.82	79.12
304.051	73.12
304.281	82.12
304.511	67.12
304.741	76.12
304.971	89.12
305.201	98.12
305.431	85.12
305.661	96.12
305.891	78.12
306.121	94.12
306.352	84.12
306.582	90.12
306.812	88.12
307.042	99.12
307.272	97.12
307.502	78.12
307.731	102.12
307.961	90.12
308.191	85.12
308.421	75.12
308.651	86.12
308.881	94.12
309.111	93.12
309.341	91.12
309.571	74.12
309.8	82.12
310.03	80.12
310.26	90.12
310.49	95.12
310.72	81.12
310.949	62.12
311.179	86.12
311.409	90.12
311.639	78.12
311.868	90.12
312.098	97.12
312.328	108.12
312.557	83.12
312.787	85.12
313.017	87.12
313.246	99.12
313.476	82.12
313.706	99.12
313.935	88.12
314.165	90.12
314.394	89.12
314.624	90.12
314.853	75.12
315.083	84.12
315.312	75.12
315.542	87.12
315.771	84.12
316.001	97.12
316.23	97.12
316.46	86.12
316.689	91.12
316.919	99.12
317.148	88.12
317.377	73.12
317.607	90.12
317.836	82.12
318.065	85.12
318.295	79.12
318.524	73.12
318.753	82.12
318.983	89.12
319.212	94.12
319.441	91.12
319.67	93.12
319.9	83.12
320.129	76.12
320.358	87.12
320.587	91.12
320.816	84.12
321.046	100.12
321.275	78.12
321.504	83.12
321.733	89.12
321.962	75.12
322.191	93.12
322.42	85.12
322.649	75.12
322.878	89.12
323.108	88.12
323.337	90.12
323.566	84.12
323.795	85.12
324.024	86.12
324.253	67.12
324.482	76.12
324.71	81.12
324.939	98.12
325.168	85.12
325.397	90.12
325.626	81.12
325.855	82.12
326.084	87.12
326.313	89.12
326.542	92.12
326.77	93.12
326.999	84.12
327.228	100.12
327.457	88.12
327.686	77.12
327.914	78.12
328.143	90.12
328.372	96.12
328.6	96.12
328.829	89.12
329.058	85.12
329.287	80.12
329.515	81.12
329.744	88.12
329.972	92.12
330.201	87.12
330.43	72.12
330.658	89.12
330.887	99.12
331.115	81.12
331.344	88.12
331.572	78.12
331.801	96.12
332.03	93.12
332.258	86.12
332.486	87.12
332.715	83.12
332.943	86.12
333.172	88.12
333.4	79.12
333.629	96.12
333.857	91.12
334.085	87.12
334.314	86.12
334.542	85.12
334.771	89.12
334.999	89.12
335.227	76.12
335.455	83.12
335.684	83.12
335.912	97.12
336.14	80.12
336.369	105.12
336.597	70.12
336.825	78.12
337.053	70.12
337.281	92.12
337.51	85.12
337.738	81.12
337.966	82.12
338.194	87.12
338.422	82.12
338.65	87.12
338.878	93.12
339.106	83.12
339.334	74.12
339.562	93.12
339.79	86.12
340.018	84.12
340.246	81.12
340.474	92.12
340.702	107.12
340.93	71.12
341.158	83.12
341.386	87.12
341.614	76.12
341.842	93.12
342.07	81.12
342.298	95.12
342.526	89.12
342.754	65.12
342.981	81.12
343.209	97.12
343.437	85.12
343.665	75.12
343.893	83.12
344.12	91.12
344.348	91.12
344.576	96.12
344.804	78.12
345.031	89.12
345.259	92.12
345.487	98.12
345.714	93.12
345.942	90.12
346.17	109.12
346.397	86.12
346.625	88.12
346.853	80.12
347.08	93.12
347.308	67.12
347.535	89.12
347.763	95.12
347.99	88.12
348.218	89.12
348.445	85.12
348.673	92.12
348.9	87.12
349.128	85.12
349.355	85.12
349.583	84.12
349.81	74.12
350.037	86.12
350.265	89.12
350.492	97.12
350.72	75.12
350.947	89.12
351.174	98.12
351.402	84.12
351.629	84.12
351.856	83.12
352.083	85.12
352.311	93.12
352.538	98.12
352.765	93.12
352.992	85.12
353.22	74.12
353.447	83.12
353.674	90.12
353.901	81.12
354.128	85.12
354.355	91.12
354.583	84.12
354.81	84.12
355.037	90.12
355.264	80.12
355.491	85.12
355.718	87.12
355.945	81.12
356.172	88.12
356.399	87.12
356.626	99.12
356.853	89.12
357.08	93.12
357.307	106.12
357.534	94.12
357.761	93.12
357.988	87.12
358.215	87.12
358.441	70.12
358.668	90.12
358.895	105.12
359.122	81.12
359.349	85.12
359.576	86.12
359.802	78.12
360.029	94.12
360.256	91.12
360.483	99.12
360.709	88.12
360.936	97.12
361.163	105.12
361.39	82.12
361.616	92.12
361.843	95.12
362.07	93.12
362.296	97.12
362.523	83.12
362.749	86.12
362.976	78.12
363.203	85.12
363.429	94.12
363.656	85.12
363.882	75.12
364.109	84.12
364.335	103.12
364.562	75.12
364.788	76.12
365.015	90.12
365.241	86.12
365.468	79.12
365.694	93.12
365.92	94.12
366.147	92.12
366.373	95.12
366.599	107.12
366.826	90.12
367.052	76.12
367.278	78.12
367.505	78.12
367.731	101.12
367.957	82.12
368.184	87.12
368.41	95.12
368.636	90.12
368.862	96.12
369.089	103.12
369.315	89.12
369.541	98.12
369.767	90.12
369.993	94.12
370.219	90.12
370.445	89.12
370.672	95.12
370.898	85.12
371.124	94.12
371.35	97.12
371.576	98.12
371.802	93.12
372.028	99.12
372.254	96.12
372.48	83.12
372.706	85.12
372.932	93.12
373.158	101.12
373.384	95.12
373.61	88.12
373.835	110.12
374.061	86.12
374.287	86.12
374.513	90.12
374.739	112.12
374.965	98.12
375.191	95.12
375.416	101.12
375.642	97.12
375.868	102.12
376.094	107.12
376.319	102.12
376.545	107.12
376.771	90.12
376.997	106.12
377.222	97.12
377.448	82.12
377.674	87.12
377.899	97.12
378.125	91.12
378.35	98.12
378.576	105.12
378.802	113.12
379.027	108.12
379.253	94.12
379.478	109.12
379.704	104.12
379.929	96.12
380.155	99.12
380.38	83.12
380.606	101.12
380.831	100.12
381.057	72.12
381.282	90.12
381.507	100.12
381.733	100.12
381.958	93.12
382.184	93.12
382.409	85.12
382.634	74.12
382.86	107.12
383.085	107.12
383.31	98.12
383.535	104.12
383.761	82.12
383.986	94.12
384.211	102.12
384.436	99.12
384.662	89.12
384.887	101.12
385.112	88.12
385.337	98.12
385.562	103.12
385.787	109.12
386.013	104.12
386.238	90.12
386.463	99.12
386.688	91.12
386.913	98.12
387.138	74.12
387.363	114.12
387.588	113.12
387.813	107.12
388.038	107.12
388.263	107.12
388.488	88.12
388.713	106.12
388.938	95.12
389.163	106.12
389.387	94.12
389.612	106.12
389.837	102.12
390.062	101.12
390.287	110.12
390.512	124.12
390.736	97.12
390.961	109.12
391.186	113.12
391.411	102.12
391.636	108.12
391.86	107.12
392.085	100.12
392.31	101.12
392.534	108.12
392.759	107.12
392.984	102.12
393.208	106.12
393.433	116.12
393.658	99.12
393.882	109.12
394.107	99.12
394.331	103.12
394.556	95.12
394.78	107.12
395.005	116.12
395.229	98.12
395.454	115.12
395.678	111.12
395.903	115.12
396.127	100.12
396.352	100.12
396.576	102.12
396.801	114.12
397.025	103.12
397.249	102.12
397.474	96.12
397.698	111.12
397.922	111.12
398.147	95.12
398.371	107.12
398.595	111.12
398.82	98.12
399.044	105.12
399.268	115.12
399.492	108.12
399.717	130.12
399.941	122.12
400.165	110.12
400.389	105.12
400.613	98.12
400.837	123.12
401.062	117.12
401.286	108.12
401.51	114.12
401.734	108.12
401.958	109.12
402.182	102.12
402.406	120.12
402.63	95.12
402.854	117.12
403.078	117.12
403.302	113.12
403.526	111.12
403.75	111.12
403.974	123.12
404.198	125.12
404.422	124.12
404.645	115.12
404.869	121.12
405.093	115.12
405.317	115.12
405.541	121.12
405.765	110.12
405.988	124.12
406.212	105.12
406.436	117.12
406.66	124.12
406.883	120.12
407.107	107.12
407.331	122.12
407.555	110.12
407.778	120.12
408.002	133.12
408.226	114.12
408.449	124.12
408.673	119.12
408.896	125.12
409.12	108.12
409.344	114.12
409.567	121.12
409.791	107.12
410.014	113.12
410.238	107.12
410.461	125.12
410.685	125.12
410.908	113.12
411.132	127.12
411.355	125.12
411.578	129.12
411.802	129.12
412.025	133.12
412.249	133.12
412.472	129.12
412.695	127.12
412.919	123.12
413.142	122.12
413.365	120.12
413.589	116.12
413.812	122.12
414.035	142.12
414.258	121.12
414.482	122.12
414.705	128.12
414.928	121.12
415.151	119.12
415.374	122.12
415.597	121.12
415.821	123.12
416.044	139.12
416.267	121.12
416.49	118.12
416.713	110.12
416.936	137.12
417.159	127.12
417.382	119.12
417.605	131.12
417.828	134.12
418.051	140.12
418.274	140.12
418.497	115.12
418.72	146.12
418.943	143.12
419.166	120.12
419.389	132.12
419.611	135.12
419.834	131.12
420.057	123.12
420.28	130.12
420.503	142.12
420.726	138.12
420.948	123.12
421.171	129.12
421.394	145.12
421.617	140.12
421.839	149.12
422.062	132.12
422.285	124.12
422.507	133.12
422.73	122.12
422.953	112.12
423.175	135.12
423.398	142.12
423.621	131.12
423.843	132.12
424.066	134.12
424.288	140.12
424.511	150.12
424.733	161.12
424.956	142.12
425.178	135.12
425.401	130.12
425.623	134.12
425.846	128.12
426.068	135.12
426.291	135.12
426.513	139.12
426.735	127.12
426.958	141.12
427.18	123.12
427.402	108.12
427.625	129.12
427.847	124.12
428.069	137.12
428.292	127.12
428.514	138.12
428.736	121.12
428.958	131.12
429.181	134.12
429.403	117.12
429.625	125.12
429.847	126.12
430.069	123.12
430.292	140.12
430.514	133.12
430.736	133.12
430.958	127.12
431.18	128.12
431.402	121.12
431.624	105.12
431.846	101.12
432.068	100.12
432.29	106.12
432.512	116.12
432.734	113.12
432.956	127.12
433.178	123.12
433.4	138.12
433.622	144.12
433.844	113.12
434.066	119.12
434.287	108.12
434.509	87.12
434.731	105.12
434.953	120.12
435.175	123.12
435.397	133.12
435.618	121.12
435.84	101.12
436.062	91.12
436.284	125.12
436.505	131.12
436.727	118.12
436.949	130.12
437.17	125.12
437.392	112.12
437.614	126.12
437.835	107.12
438.057	110.12
438.278	116.12
438.5	126.12
438.721	132.12
438.943	142.12
439.165	128.12
439.386	145.12
439.608	140.12
439.829	131.12
440.05	133.12
440.272	142.12
440.493	149.12
440.715	137.12
440.936	136.12
441.158	131.12
441.379	159.12
441.6	143.12
441.822	150.12
442.043	146.12
442.264	128.12
442.486	141.12
442.707	137.12
442.928	137.12
443.149	128.12
443.371	154.12
443.592	148.12
443.813	139.12
444.034	126.12
444.255	150.12
444.476	139.12
444.698	144.12
444.919	143.12
445.14	263.12
445.361	210.12
445.582	145.12
445.803	138.12
446.024	163.12
446.245	152.12
446.466	149.12
446.687	161.12
446.908	150.12
447.129	154.12
447.35	172.12
447.571	147.12
447.792	132.12
448.013	145.12
448.234	148.12
448.455	140.12
448.675	131.12
448.896	129.12
449.117	138.12
449.338	137.12
449.559	148.12
449.779	135.12
450	123.12
450.221	138.12
450.442	135.12
450.662	126.12
450.883	127.12
451.104	135.12
451.324	138.12
451.545	137.12
451.766	151.12
451.986	135.12
452.207	109.12
452.428	123.12
452.648	141.12
452.869	131.12
453.089	109.12
453.31	110.12
453.53	106.12
453.751	126.12
453.971	105.12
454.192	96.12
454.412	97.12
454.633	116.12
454.853	106.12
455.073	127.12
455.294	123.12
455.514	125.12
455.734	123.12
455.955	109.12
456.175	110.12
456.395	100.12
456.616	101.12
456.836	98.12
457.056	117.12
457.276	123.12
457.497	109.12
457.717	105.12
457.937	102.12
458.157	102.12
458.377	102.12
458.598	101.12
458.818	109.12
459.038	92.12
459.258	97.12
459.478	93.12
459.698	91.12
459.918	96.12
460.138	119.12
460.358	111.12
460.578	130.12
460.798	115.12
461.018	125.12
461.238	118.12
461.458	105.12
461.678	115.12
461.898	121.12
462.118	116.12
462.338	106.12
462.558	117.12
462.777	104.12
462.997	110.12
463.217	105.12
463.437	110.12
463.657	110.12
463.876	98.12
464.096	95.12
464.316	100.12
464.536	119.12
464.755	118.12
464.975	111.12
465.195	109.12
465.414	124.12
465.634	120.12
465.854	124.12
466.073	131.12
466.293	113.12
466.512	119.12
466.732	115.12
466.951	135.12
467.171	127.12
467.391	146.12
467.61	151.12
467.829	135.12
468.049	129.12
468.268	131.12
468.488	130.12
468.707	140.12
468.927	133.12
469.146	137.12
469.365	128.12
469.585	139.12
469.804	139.12
470.023	143.12
470.243	149.12
470.462	145.12
470.681	138.12
470.901	150.12
471.12	138.12
471.339	137.12
471.558	137.12
471.777	139.12
471.997	123.12
472.216	117.12
472.435	109.12
472.654	106.12
472.873	113.12
473.092	115.12
473.311	125.12
473.53	122.12
473.749	125.12
473.968	129.12
474.187	118.12
474.406	120.12
474.625	143.12
474.844	143.12
475.063	126.12
475.282	123.12
475.501	116.12
475.72	125.12
475.939	132.12
476.158	122.12
476.377	121.12
476.596	122.12
476.814	116.12
477.033	110.12
477.252	114.12
477.471	140.12
477.69	145.12
477.908	141.12
478.127	151.12
478.346	140.12
478.564	139.12
478.783	143.12
479.002	145.12
479.22	137.12
479.439	121.12
479.658	122.12
479.876	119.12
480.095	104.12
480.313	121.12
480.532	135.12
480.751	121.12
480.969	105.12
481.188	89.12
481.406	93.12
481.624	102.12
481.843	97.12
482.061	103.12
482.28	104.12
482.498	113.12
482.717	105.12
482.935	126.12
483.153	140.12
483.372	159.12
483.59	149.12
483.808	143.12
484.027	130.12
484.245	140.12
484.463	140.12
484.681	153.12
484.9	147.12
485.118	139.12
485.336	136.12
485.554	105.12
485.772	98.12
485.99	109.12
486.209	109.12
486.427	117.12
486.645	145.12
486.863	126.12
487.081	126.12
487.299	142.12
487.517	149.12
487.735	167.12
487.953	173.12
488.171	179.12
488.389	170.12
488.607	160.12
488.825	153.12
489.043	135.12
489.261	137.12
489.479	149.12
489.696	136.12
489.914	154.12
490.132	151.12
490.35	149.12
490.568	150.12
490.786	171.12
491.003	165.12
491.221	186.12
491.439	199.12
491.657	194.12
491.874	202.12
492.092	198.12
492.31	239.12
492.527	220.12
492.745	204.12
492.963	190.12
493.18	192.12
493.398	183.12
493.615	183.12
493.833	174.12
494.05	193.12
494.268	169.12
494.485	166.12
494.703	169.12
494.92	150.12
495.138	175.12
495.355	175.12
495.573	177.12
495.79	161.12
496.008	166.12
496.225	153.12
496.442	155.12
496.66	162.12
496.877	149.12
497.094	163.12
497.312	171.12
497.529	158.12
497.746	153.12
497.963	141.12
498.181	141.12
498.398	132.12
498.615	120.12
498.832	106.12
499.049	137.12
499.267	121.12
499.484	124.12
499.701	125.12
499.918	121.12
500.135	129.12
500.352	130.12
500.569	129.12
500.786	139.12
501.003	135.12
501.22	117.12
501.437	133.12
501.654	141.12
501.871	129.12
502.088	137.12
502.305	125.12
502.522	123.12
502.739	130.12
502.956	121.12
503.172	123.12
503.389	129.12
503.606	125.12
503.823	119.12
504.04	122.12
504.256	125.12
504.473	123.12
504.69	119.12
504.907	122.12
505.123	98.12
505.34	131.12
505.557	106.12
505.773	125.12
505.99	120.12
506.207	115.12
506.423	109.12
506.64	127.12
506.856	114.12
507.073	120.12
507.289	123.12
507.506	123.12
507.722	120.12
507.939	105.12
508.155	115.12
508.372	125.12
508.588	117.12
508.805	120.12
509.021	108.12
509.238	117.12
509.454	117.12
509.67	97.12
509.887	89.12
510.103	94.12
510.319	99.12
510.536	108.12
510.752	105.12
510.968	81.12
511.184	80.12
511.401	92.12
