Data from Location4.07152019.Energy5.Lamp.07192019.3%Agarose_HRD10591_16-18-52-925.txt Node
Date: Fri Jul 19 16:18:52 EDT 2019
User: cochatt
Spectrometer: HR+D1059
Trigger mode: 1
Integration Time (sec): 1.000000E-1
Scans to average: 1
Electric dark correction enabled: true
Nonlinearity correction enabled: false
Boxcar width: 0
XAxis mode: Wavelengths
Number of Pixels in Spectrum: 2048
>>>>>Begin Spectral Data<<<<<
223.165	-29.94
223.4	-29.94
223.635	-29.94
223.869	-3.94
224.104	-11.94
224.338	-14.94
224.573	-11.94
224.808	-18.94
225.042	-13.94
225.277	-15.94
225.511	0.06
225.746	7.06
225.98	6.06
226.215	21.06
226.449	4.06
226.683	30.06
226.918	10.06
227.152	43.06
227.387	43.06
227.621	32.06
227.856	42.06
228.09	34.06
228.324	53.06
228.559	57.06
228.793	64.06
229.027	62.06
229.262	66.06
229.496	62.06
229.73	65.06
229.964	66.06
230.199	67.06
230.433	75.06
230.667	75.06
230.901	66.06
231.136	71.06
231.37	81.06
231.604	74.06
231.838	77.06
232.072	78.06
232.306	87.06
232.541	73.06
232.775	95.06
233.009	71.06
233.243	89.06
233.477	74.06
233.711	78.06
233.945	78.06
234.179	77.06
234.413	79.06
234.647	80.06
234.881	81.06
235.115	72.06
235.349	95.06
235.583	61.06
235.817	68.06
236.051	72.06
236.285	75.06
236.519	63.06
236.753	82.06
236.987	78.06
237.221	69.06
237.455	67.06
237.689	84.06
237.922	83.06
238.156	82.06
238.39	69.06
238.624	86.06
238.858	76.06
239.091	65.06
239.325	67.06
239.559	67.06
239.793	67.06
240.027	73.06
240.26	73.06
240.494	72.06
240.728	73.06
240.961	75.06
241.195	81.06
241.429	75.06
241.662	68.06
241.896	65.06
242.13	55.06
242.363	65.06
242.597	80.06
242.83	82.06
243.064	85.06
243.298	69.06
243.531	69.06
243.765	76.06
243.998	85.06
244.232	81.06
244.465	72.06
244.699	78.06
244.932	73.06
245.166	78.06
245.399	79.06
245.633	81.06
245.866	65.06
246.099	58.06
246.333	66.06
246.566	66.06
246.8	74.06
247.033	89.06
247.266	76.06
247.5	68.06
247.733	65.06
247.966	74.06
248.2	80.06
248.433	67.06
248.666	61.06
248.899	77.06
249.133	77.06
249.366	69.06
249.599	80.06
249.832	64.06
250.066	75.06
250.299	80.06
250.532	73.06
250.765	88.06
250.998	81.06
251.231	76.06
251.465	75.06
251.698	79.06
251.931	80.06
252.164	86.06
252.397	69.06
252.63	79.06
252.863	67.06
253.096	68.06
253.329	76.06
253.562	83.06
253.795	83.06
254.028	87.06
254.261	72.06
254.494	74.06
254.727	71.06
254.96	64.06
255.193	54.06
255.426	76.06
255.659	88.06
255.892	78.06
256.124	63.06
256.357	69.06
256.59	80.06
256.823	89.06
257.056	68.06
257.289	80.06
257.521	77.06
257.754	72.06
257.987	77.06
258.22	88.06
258.452	76.06
258.685	92.06
258.918	84.06
259.151	81.06
259.383	78.06
259.616	78.06
259.849	78.06
260.081	82.06
260.314	89.06
260.547	78.06
260.779	68.06
261.012	85.06
261.244	82.06
261.477	79.06
261.71	67.06
261.942	72.06
262.175	84.06
262.407	72.06
262.64	73.06
262.872	86.06
263.105	81.06
263.337	85.06
263.57	78.06
263.802	80.06
264.035	72.06
264.267	81.06
264.499	71.06
264.732	78.06
264.964	80.06
265.197	76.06
265.429	74.06
265.661	87.06
265.894	72.06
266.126	67.06
266.358	81.06
266.591	80.06
266.823	86.06
267.055	74.06
267.287	79.06
267.52	74.06
267.752	80.06
267.984	70.06
268.216	78.06
268.448	68.06
268.681	66.06
268.913	96.06
269.145	89.06
269.377	84.06
269.609	77.06
269.841	83.06
270.073	84.06
270.306	81.06
270.538	79.06
270.77	89.06
271.002	84.06
271.234	77.06
271.466	84.06
271.698	76.06
271.93	66.06
272.162	74.06
272.394	77.06
272.626	95.06
272.858	94.06
273.09	84.06
273.322	81.06
273.553	81.06
273.785	65.06
274.017	66.06
274.249	89.06
274.481	84.06
274.713	86.06
274.945	77.06
275.176	75.06
275.408	76.06
275.64	74.06
275.872	94.06
276.104	72.06
276.335	79.06
276.567	74.06
276.799	75.06
277.031	81.06
277.262	73.06
277.494	86.06
277.726	90.06
277.957	71.06
278.189	72.06
278.421	78.06
278.652	92.06
278.884	92.06
279.115	80.06
279.347	75.06
279.579	81.06
279.81	80.06
280.042	89.06
280.273	78.06
280.505	78.06
280.736	78.06
280.968	82.06
281.199	85.06
281.431	91.06
281.662	89.06
281.894	77.06
282.125	88.06
282.356	67.06
282.588	74.06
282.819	78.06
283.051	86.06
283.282	81.06
283.513	94.06
283.745	86.06
283.976	87.06
284.207	84.06
284.439	73.06
284.67	72.06
284.901	77.06
285.132	78.06
285.364	77.06
285.595	89.06
285.826	94.06
286.057	80.06
286.288	90.06
286.52	81.06
286.751	98.06
286.982	79.06
287.213	76.06
287.444	75.06
287.675	80.06
287.906	84.06
288.138	86.06
288.369	78.06
288.6	91.06
288.831	80.06
289.062	70.06
289.293	97.06
289.524	75.06
289.755	81.06
289.986	88.06
290.217	86.06
290.448	102.06
290.679	80.06
290.91	101.06
291.141	81.06
291.371	92.06
291.602	77.06
291.833	84.06
292.064	75.06
292.295	76.06
292.526	75.06
292.757	88.06
292.987	85.06
293.218	81.06
293.449	69.06
293.68	80.06
293.91	85.06
294.141	84.06
294.372	84.06
294.603	71.06
294.833	76.06
295.064	75.06
295.295	76.06
295.525	78.06
295.756	78.06
295.987	83.06
296.217	75.06
296.448	76.06
296.679	86.06
296.909	82.06
297.14	79.06
297.37	71.06
297.601	83.06
297.831	89.06
298.062	82.06
298.292	83.06
298.523	75.06
298.753	90.06
298.984	84.06
299.214	81.06
299.445	96.06
299.675	81.06
299.905	70.06
300.136	90.06
300.366	74.06
300.597	72.06
300.827	95.06
301.057	89.06
301.288	95.06
301.518	86.06
301.748	80.06
301.979	97.06
302.209	93.06
302.439	86.06
302.669	88.06
302.9	87.06
303.13	82.06
303.36	86.06
303.59	74.06
303.82	91.06
304.051	95.06
304.281	71.06
304.511	86.06
304.741	83.06
304.971	74.06
305.201	83.06
305.431	83.06
305.661	82.06
305.891	89.06
306.121	82.06
306.352	85.06
306.582	72.06
306.812	82.06
307.042	85.06
307.272	86.06
307.502	81.06
307.731	71.06
307.961	79.06
308.191	76.06
308.421	59.06
308.651	98.06
308.881	82.06
309.111	80.06
309.341	76.06
309.571	65.06
309.8	75.06
310.03	81.06
310.26	78.06
310.49	81.06
310.72	75.06
310.949	72.06
311.179	78.06
311.409	82.06
311.639	82.06
311.868	95.06
312.098	95.06
312.328	80.06
312.557	82.06
312.787	89.06
313.017	87.06
313.246	80.06
313.476	89.06
313.706	72.06
313.935	91.06
314.165	80.06
314.394	83.06
314.624	86.06
314.853	76.06
315.083	58.06
315.312	74.06
315.542	77.06
315.771	78.06
316.001	87.06
316.23	80.06
316.46	87.06
316.689	80.06
316.919	92.06
317.148	80.06
317.377	93.06
317.607	97.06
317.836	72.06
318.065	75.06
318.295	81.06
318.524	86.06
318.753	80.06
318.983	80.06
319.212	81.06
319.441	82.06
319.67	97.06
319.9	87.06
320.129	83.06
320.358	99.06
320.587	96.06
320.816	85.06
321.046	87.06
321.275	83.06
321.504	81.06
321.733	80.06
321.962	78.06
322.191	69.06
322.42	71.06
322.649	93.06
322.878	79.06
323.108	90.06
323.337	82.06
323.566	84.06
323.795	83.06
324.024	71.06
324.253	88.06
324.482	74.06
324.71	86.06
324.939	83.06
325.168	91.06
325.397	75.06
325.626	92.06
325.855	93.06
326.084	77.06
326.313	92.06
326.542	79.06
326.77	84.06
326.999	74.06
327.228	78.06
327.457	92.06
327.686	69.06
327.914	80.06
328.143	74.06
328.372	75.06
328.6	86.06
328.829	77.06
329.058	80.06
329.287	81.06
329.515	92.06
329.744	81.06
329.972	82.06
330.201	81.06
330.43	83.06
330.658	67.06
330.887	70.06
331.115	87.06
331.344	74.06
331.572	90.06
331.801	83.06
332.03	79.06
332.258	83.06
332.486	73.06
332.715	79.06
332.943	104.06
333.172	87.06
333.4	76.06
333.629	82.06
333.857	86.06
334.085	81.06
334.314	90.06
334.542	77.06
334.771	84.06
334.999	87.06
335.227	71.06
335.455	83.06
335.684	86.06
335.912	86.06
336.14	82.06
336.369	83.06
336.597	81.06
336.825	86.06
337.053	77.06
337.281	80.06
337.51	77.06
337.738	93.06
337.966	73.06
338.194	88.06
338.422	81.06
338.65	66.06
338.878	82.06
339.106	81.06
339.334	95.06
339.562	93.06
339.79	89.06
340.018	83.06
340.246	96.06
340.474	82.06
340.702	99.06
340.93	88.06
341.158	85.06
341.386	78.06
341.614	84.06
341.842	86.06
342.07	83.06
342.298	94.06
342.526	74.06
342.754	80.06
342.981	92.06
343.209	91.06
343.437	73.06
343.665	82.06
343.893	71.06
344.12	81.06
344.348	73.06
344.576	89.06
344.804	94.06
345.031	72.06
345.259	81.06
345.487	81.06
345.714	87.06
345.942	83.06
346.17	95.06
346.397	72.06
346.625	74.06
346.853	74.06
347.08	99.06
347.308	90.06
347.535	86.06
347.763	90.06
347.99	98.06
348.218	79.06
348.445	76.06
348.673	81.06
348.9	86.06
349.128	81.06
349.355	88.06
349.583	88.06
349.81	88.06
350.037	86.06
350.265	78.06
350.492	91.06
350.72	82.06
350.947	67.06
351.174	78.06
351.402	83.06
351.629	82.06
351.856	94.06
352.083	90.06
352.311	97.06
352.538	94.06
352.765	83.06
352.992	80.06
353.22	83.06
353.447	82.06
353.674	82.06
353.901	72.06
354.128	84.06
354.355	76.06
354.583	94.06
354.81	88.06
355.037	88.06
355.264	82.06
355.491	86.06
355.718	87.06
355.945	89.06
356.172	85.06
356.399	93.06
356.626	82.06
356.853	86.06
357.08	83.06
357.307	75.06
357.534	97.06
357.761	83.06
357.988	82.06
358.215	95.06
358.441	90.06
358.668	81.06
358.895	89.06
359.122	74.06
359.349	79.06
359.576	80.06
359.802	95.06
360.029	76.06
360.256	85.06
360.483	88.06
360.709	83.06
360.936	92.06
361.163	85.06
361.39	81.06
361.616	80.06
361.843	81.06
362.07	84.06
362.296	85.06
362.523	81.06
362.749	86.06
362.976	82.06
363.203	73.06
363.429	73.06
363.656	104.06
363.882	79.06
364.109	69.06
364.335	92.06
364.562	90.06
364.788	88.06
365.015	83.06
365.241	84.06
365.468	84.06
365.694	80.06
365.92	73.06
366.147	69.06
366.373	93.06
366.599	86.06
366.826	78.06
367.052	75.06
367.278	90.06
367.505	83.06
367.731	84.06
367.957	87.06
368.184	83.06
368.41	86.06
368.636	87.06
368.862	86.06
369.089	84.06
369.315	95.06
369.541	76.06
369.767	91.06
369.993	91.06
370.219	75.06
370.445	93.06
370.672	89.06
370.898	82.06
371.124	85.06
371.35	98.06
371.576	84.06
371.802	77.06
372.028	86.06
372.254	98.06
372.48	100.06
372.706	82.06
372.932	83.06
373.158	83.06
373.384	83.06
373.61	95.06
373.835	90.06
374.061	103.06
374.287	86.06
374.513	97.06
374.739	90.06
374.965	91.06
375.191	86.06
375.416	98.06
375.642	96.06
375.868	90.06
376.094	90.06
376.319	81.06
376.545	94.06
376.771	100.06
376.997	97.06
377.222	77.06
377.448	87.06
377.674	85.06
377.899	96.06
378.125	86.06
378.35	104.06
378.576	92.06
378.802	90.06
379.027	92.06
379.253	111.06
379.478	92.06
379.704	97.06
379.929	83.06
380.155	89.06
380.38	106.06
380.606	91.06
380.831	85.06
381.057	116.06
381.282	91.06
381.507	82.06
381.733	91.06
381.958	104.06
382.184	87.06
382.409	101.06
382.634	102.06
382.86	93.06
383.085	96.06
383.31	95.06
383.535	93.06
383.761	99.06
383.986	110.06
384.211	99.06
384.436	95.06
384.662	108.06
384.887	93.06
385.112	103.06
385.337	88.06
385.562	95.06
385.787	87.06
386.013	96.06
386.238	88.06
386.463	92.06
386.688	86.06
386.913	112.06
387.138	91.06
387.363	94.06
387.588	96.06
387.813	103.06
388.038	104.06
388.263	80.06
388.488	91.06
388.713	107.06
388.938	93.06
389.163	112.06
389.387	107.06
389.612	107.06
389.837	97.06
390.062	111.06
390.287	100.06
390.512	108.06
390.736	107.06
390.961	98.06
391.186	90.06
391.411	98.06
391.636	88.06
391.86	114.06
392.085	94.06
392.31	106.06
392.534	107.06
392.759	103.06
392.984	110.06
393.208	90.06
393.433	104.06
393.658	88.06
393.882	97.06
394.107	111.06
394.331	97.06
394.556	100.06
394.78	107.06
395.005	108.06
395.229	119.06
395.454	108.06
395.678	99.06
395.903	107.06
396.127	107.06
396.352	105.06
396.576	107.06
396.801	111.06
397.025	101.06
397.249	100.06
397.474	117.06
397.698	116.06
397.922	116.06
398.147	110.06
398.371	110.06
398.595	94.06
398.82	103.06
399.044	104.06
399.268	104.06
399.492	106.06
399.717	101.06
399.941	100.06
400.165	118.06
400.389	109.06
400.613	106.06
400.837	108.06
401.062	99.06
401.286	99.06
401.51	106.06
401.734	107.06
401.958	95.06
402.182	84.06
402.406	90.06
402.63	118.06
402.854	114.06
403.078	111.06
403.302	94.06
403.526	118.06
403.75	112.06
403.974	116.06
404.198	114.06
404.422	114.06
404.645	114.06
404.869	121.06
405.093	114.06
405.317	96.06
405.541	110.06
405.765	116.06
405.988	116.06
406.212	122.06
406.436	93.06
406.66	107.06
406.883	105.06
407.107	106.06
407.331	109.06
407.555	122.06
407.778	103.06
408.002	106.06
408.226	130.06
408.449	122.06
408.673	113.06
408.896	112.06
409.12	115.06
409.344	106.06
409.567	126.06
409.791	114.06
410.014	120.06
410.238	126.06
410.461	122.06
410.685	116.06
410.908	120.06
411.132	106.06
411.355	120.06
411.578	112.06
411.802	105.06
412.025	129.06
412.249	112.06
412.472	124.06
412.695	119.06
412.919	133.06
413.142	114.06
413.365	111.06
413.589	116.06
413.812	121.06
414.035	122.06
414.258	129.06
414.482	126.06
414.705	123.06
414.928	126.06
415.151	119.06
415.374	120.06
415.597	119.06
415.821	135.06
416.044	118.06
416.267	127.06
416.49	121.06
416.713	121.06
416.936	113.06
417.159	149.06
417.382	132.06
417.605	114.06
417.828	112.06
418.051	117.06
418.274	131.06
418.497	118.06
418.72	118.06
418.943	132.06
419.166	134.06
419.389	144.06
419.611	125.06
419.834	135.06
420.057	118.06
420.28	122.06
420.503	137.06
420.726	138.06
420.948	135.06
421.171	136.06
421.394	121.06
421.617	132.06
421.839	121.06
422.062	126.06
422.285	127.06
422.507	124.06
422.73	127.06
422.953	118.06
423.175	129.06
423.398	138.06
423.621	138.06
423.843	135.06
424.066	139.06
424.288	137.06
424.511	138.06
424.733	129.06
424.956	132.06
425.178	141.06
425.401	124.06
425.623	132.06
425.846	118.06
426.068	136.06
426.291	120.06
426.513	121.06
426.735	128.06
426.958	124.06
427.18	126.06
427.402	136.06
427.625	126.06
427.847	130.06
428.069	127.06
428.292	128.06
428.514	120.06
428.736	124.06
428.958	129.06
429.181	124.06
429.403	138.06
429.625	129.06
429.847	122.06
430.069	124.06
430.292	126.06
430.514	123.06
430.736	121.06
430.958	141.06
431.18	118.06
431.402	121.06
431.624	136.06
431.846	115.06
432.068	93.06
432.29	94.06
432.512	118.06
432.734	111.06
432.956	125.06
433.178	137.06
433.4	136.06
433.622	136.06
433.844	139.06
434.066	131.06
434.287	105.06
434.509	101.06
434.731	107.06
434.953	118.06
435.175	119.06
435.397	124.06
435.618	116.06
435.84	101.06
436.062	120.06
436.284	118.06
436.505	131.06
436.727	121.06
436.949	132.06
437.17	122.06
437.392	113.06
437.614	113.06
437.835	105.06
438.057	96.06
438.278	112.06
438.5	121.06
438.721	142.06
438.943	139.06
439.165	138.06
439.386	135.06
439.608	150.06
439.829	130.06
440.05	140.06
440.272	146.06
440.493	146.06
440.715	135.06
440.936	147.06
441.158	135.06
441.379	141.06
441.6	143.06
441.822	128.06
442.043	148.06
442.264	138.06
442.486	146.06
442.707	144.06
442.928	135.06
443.149	129.06
443.371	134.06
443.592	130.06
443.813	127.06
444.034	131.06
444.255	138.06
444.476	140.06
444.698	144.06
444.919	151.06
445.14	269.06
445.361	192.06
445.582	138.06
445.803	150.06
446.024	131.06
446.245	148.06
446.466	163.06
446.687	146.06
446.908	160.06
447.129	161.06
447.35	152.06
447.571	142.06
447.792	143.06
448.013	145.06
448.234	128.06
448.455	145.06
448.675	136.06
448.896	130.06
449.117	144.06
449.338	144.06
449.559	133.06
449.779	133.06
450	137.06
450.221	124.06
450.442	121.06
450.662	126.06
450.883	138.06
451.104	126.06
451.324	134.06
451.545	131.06
451.766	113.06
451.986	119.06
452.207	144.06
452.428	114.06
452.648	123.06
452.869	120.06
453.089	127.06
453.31	111.06
453.53	93.06
453.751	97.06
453.971	99.06
454.192	106.06
454.412	110.06
454.633	114.06
454.853	116.06
455.073	116.06
455.294	120.06
455.514	110.06
455.734	124.06
455.955	114.06
456.175	114.06
456.395	107.06
456.616	110.06
456.836	107.06
457.056	100.06
457.276	106.06
457.497	112.06
457.717	107.06
457.937	103.06
458.157	114.06
458.377	98.06
458.598	100.06
458.818	104.06
459.038	95.06
459.258	72.06
459.478	89.06
459.698	94.06
459.918	104.06
460.138	110.06
460.358	116.06
460.578	116.06
460.798	115.06
461.018	114.06
461.238	110.06
461.458	107.06
461.678	117.06
461.898	115.06
462.118	113.06
462.338	104.06
462.558	115.06
462.777	107.06
462.997	92.06
463.217	99.06
463.437	102.06
463.657	113.06
463.876	118.06
464.096	102.06
464.316	109.06
464.536	106.06
464.755	98.06
464.975	122.06
465.195	111.06
465.414	110.06
465.634	104.06
465.854	125.06
466.073	129.06
466.293	115.06
466.512	110.06
466.732	136.06
466.951	126.06
467.171	131.06
467.391	140.06
467.61	126.06
467.829	128.06
468.049	125.06
468.268	135.06
468.488	116.06
468.707	133.06
468.927	122.06
469.146	112.06
469.365	139.06
469.585	147.06
469.804	128.06
470.023	134.06
470.243	130.06
470.462	135.06
470.681	138.06
470.901	141.06
471.12	138.06
471.339	152.06
471.558	147.06
471.777	135.06
471.997	122.06
472.216	124.06
472.435	99.06
472.654	99.06
472.873	122.06
473.092	119.06
473.311	124.06
473.53	118.06
473.749	122.06
473.968	122.06
474.187	113.06
474.406	119.06
474.625	123.06
474.844	126.06
475.063	142.06
475.282	136.06
475.501	115.06
475.72	121.06
475.939	107.06
476.158	134.06
476.377	117.06
476.596	125.06
476.814	103.06
477.033	104.06
477.252	115.06
477.471	118.06
477.69	126.06
477.908	117.06
478.127	134.06
478.346	119.06
478.564	132.06
478.783	134.06
479.002	159.06
479.22	133.06
479.439	141.06
479.658	135.06
479.876	132.06
480.095	107.06
480.313	108.06
480.532	120.06
480.751	112.06
480.969	103.06
481.188	96.06
481.406	86.06
481.624	90.06
481.843	75.06
482.061	91.06
482.28	101.06
482.498	123.06
482.717	115.06
482.935	119.06
483.153	145.06
483.372	144.06
483.59	137.06
483.808	152.06
484.027	140.06
484.245	121.06
484.463	138.06
484.681	152.06
484.9	167.06
485.118	139.06
485.336	120.06
485.554	110.06
485.772	89.06
485.99	104.06
486.209	116.06
486.427	105.06
486.645	113.06
486.863	128.06
487.081	126.06
487.299	125.06
487.517	140.06
487.735	178.06
487.953	178.06
488.171	179.06
488.389	166.06
488.607	163.06
488.825	151.06
489.043	116.06
489.261	127.06
489.479	144.06
489.696	126.06
489.914	133.06
490.132	144.06
490.35	148.06
490.568	153.06
490.786	162.06
491.003	167.06
491.221	182.06
491.439	172.06
491.657	178.06
491.874	180.06
492.092	217.06
492.31	243.06
492.527	210.06
492.745	192.06
492.963	190.06
493.18	185.06
493.398	179.06
493.615	187.06
493.833	174.06
494.05	174.06
494.268	177.06
494.485	186.06
494.703	161.06
494.92	183.06
495.138	166.06
495.355	172.06
495.573	185.06
495.79	176.06
496.008	163.06
496.225	148.06
496.442	168.06
496.66	181.06
496.877	169.06
497.094	159.06
497.312	156.06
497.529	152.06
497.746	144.06
497.963	134.06
498.181	123.06
498.398	118.06
498.615	100.06
498.832	118.06
499.049	122.06
499.267	127.06
499.484	122.06
499.701	126.06
499.918	132.06
500.135	146.06
500.352	129.06
500.569	136.06
500.786	129.06
501.003	126.06
501.22	139.06
501.437	138.06
501.654	146.06
501.871	145.06
502.088	118.06
502.305	130.06
502.522	124.06
502.739	125.06
502.956	124.06
503.172	126.06
503.389	106.06
503.606	115.06
503.823	110.06
504.04	116.06
504.256	128.06
504.473	115.06
504.69	107.06
504.907	128.06
505.123	124.06
505.34	118.06
505.557	123.06
505.773	119.06
505.99	104.06
506.207	103.06
506.423	120.06
506.64	99.06
506.856	118.06
507.073	114.06
507.289	93.06
507.506	110.06
507.722	111.06
507.939	128.06
508.155	112.06
508.372	110.06
508.588	116.06
508.805	99.06
509.021	104.06
509.238	99.06
509.454	99.06
509.67	111.06
509.887	103.06
510.103	99.06
510.319	87.06
510.536	94.06
510.752	83.06
510.968	92.06
511.184	75.06
511.401	83.06
511.617	98.06
511.833	86.06
512.049	76.06
