Data from Location4.07152019.Energy5.Lamp.07192019.3%Agarose_HRD10591_16-20-25-926.txt Node
Date: Fri Jul 19 16:20:25 EDT 2019
User: cochatt
Spectrometer: HR+D1059
Trigger mode: 1
Integration Time (sec): 1.000000E-1
Scans to average: 1
Electric dark correction enabled: true
Nonlinearity correction enabled: false
Boxcar width: 0
XAxis mode: Wavelengths
Number of Pixels in Spectrum: 2048
>>>>>Begin Spectral Data<<<<<
223.165	-6.88
223.4	-6.88
223.635	-6.88
223.869	-8.88
224.104	-11.88
224.338	0.12
224.573	-13.88
224.808	-19.88
225.042	-14.88
225.277	-3.88
225.511	1.12
225.746	-0.88
225.98	5.12
226.215	8.12
226.449	9.12
226.683	11.12
226.918	20.12
227.152	26.12
227.387	24.12
227.621	28.12
227.856	47.12
228.09	36.12
228.324	41.12
228.559	44.12
228.793	55.12
229.027	64.12
229.262	67.12
229.496	62.12
229.73	73.12
229.964	76.12
230.199	66.12
230.433	70.12
230.667	73.12
230.901	73.12
231.136	83.12
231.37	72.12
231.604	75.12
231.838	88.12
232.072	82.12
232.306	90.12
232.541	90.12
232.775	77.12
233.009	90.12
233.243	79.12
233.477	64.12
233.711	81.12
233.945	83.12
234.179	88.12
234.413	80.12
234.647	77.12
234.881	75.12
235.115	73.12
235.349	78.12
235.583	80.12
235.817	80.12
236.051	77.12
236.285	72.12
236.519	68.12
236.753	87.12
236.987	68.12
237.221	79.12
237.455	68.12
237.689	74.12
237.922	83.12
238.156	76.12
238.39	73.12
238.624	76.12
238.858	60.12
239.091	89.12
239.325	79.12
239.559	74.12
239.793	76.12
240.027	81.12
240.26	80.12
240.494	84.12
240.728	88.12
240.961	87.12
241.195	74.12
241.429	58.12
241.662	69.12
241.896	62.12
242.13	67.12
242.363	77.12
242.597	77.12
242.83	82.12
243.064	76.12
243.298	74.12
243.531	76.12
243.765	75.12
243.998	86.12
244.232	63.12
244.465	78.12
244.699	75.12
244.932	79.12
245.166	76.12
245.399	72.12
245.633	66.12
245.866	76.12
246.099	83.12
246.333	82.12
246.566	68.12
246.8	61.12
247.033	72.12
247.266	76.12
247.5	71.12
247.733	78.12
247.966	92.12
248.2	86.12
248.433	76.12
248.666	86.12
248.899	97.12
249.133	107.12
249.366	86.12
249.599	73.12
249.832	102.12
250.066	94.12
250.299	82.12
250.532	80.12
250.765	77.12
250.998	70.12
251.231	72.12
251.465	73.12
251.698	68.12
251.931	82.12
252.164	66.12
252.397	76.12
252.63	77.12
252.863	79.12
253.096	71.12
253.329	88.12
253.562	77.12
253.795	79.12
254.028	75.12
254.261	60.12
254.494	71.12
254.727	86.12
254.96	73.12
255.193	87.12
255.426	86.12
255.659	80.12
255.892	75.12
256.124	79.12
256.357	72.12
256.59	82.12
256.823	73.12
257.056	74.12
257.289	76.12
257.521	84.12
257.754	89.12
257.987	86.12
258.22	88.12
258.452	80.12
258.685	81.12
258.918	90.12
259.151	85.12
259.383	77.12
259.616	79.12
259.849	76.12
260.081	74.12
260.314	58.12
260.547	71.12
260.779	74.12
261.012	86.12
261.244	70.12
261.477	72.12
261.71	74.12
261.942	72.12
262.175	97.12
262.407	64.12
262.64	81.12
262.872	79.12
263.105	70.12
263.337	84.12
263.57	77.12
263.802	68.12
264.035	83.12
264.267	69.12
264.499	75.12
264.732	104.12
264.964	89.12
265.197	85.12
265.429	81.12
265.661	84.12
265.894	84.12
266.126	70.12
266.358	79.12
266.591	87.12
266.823	85.12
267.055	72.12
267.287	86.12
267.52	76.12
267.752	79.12
267.984	80.12
268.216	73.12
268.448	86.12
268.681	85.12
268.913	84.12
269.145	76.12
269.377	86.12
269.609	55.12
269.841	73.12
270.073	86.12
270.306	80.12
270.538	76.12
270.77	71.12
271.002	88.12
271.234	76.12
271.466	74.12
271.698	92.12
271.93	73.12
272.162	77.12
272.394	73.12
272.626	73.12
272.858	90.12
273.09	94.12
273.322	83.12
273.553	82.12
273.785	80.12
274.017	80.12
274.249	81.12
274.481	87.12
274.713	69.12
274.945	94.12
275.176	67.12
275.408	95.12
275.64	85.12
275.872	82.12
276.104	91.12
276.335	76.12
276.567	80.12
276.799	76.12
277.031	85.12
277.262	92.12
277.494	92.12
277.726	83.12
277.957	82.12
278.189	98.12
278.421	75.12
278.652	72.12
278.884	70.12
279.115	72.12
279.347	78.12
279.579	85.12
279.81	88.12
280.042	94.12
280.273	85.12
280.505	83.12
280.736	93.12
280.968	93.12
281.199	84.12
281.431	78.12
281.662	81.12
281.894	81.12
282.125	87.12
282.356	84.12
282.588	74.12
282.819	76.12
283.051	89.12
283.282	74.12
283.513	81.12
283.745	71.12
283.976	73.12
284.207	85.12
284.439	94.12
284.67	79.12
284.901	78.12
285.132	89.12
285.364	72.12
285.595	82.12
285.826	87.12
286.057	89.12
286.288	67.12
286.52	83.12
286.751	67.12
286.982	86.12
287.213	86.12
287.444	85.12
287.675	82.12
287.906	91.12
288.138	82.12
288.369	96.12
288.6	89.12
288.831	82.12
289.062	88.12
289.293	79.12
289.524	82.12
289.755	83.12
289.986	76.12
290.217	72.12
290.448	87.12
290.679	79.12
290.91	75.12
291.141	85.12
291.371	77.12
291.602	73.12
291.833	78.12
292.064	82.12
292.295	91.12
292.526	91.12
292.757	79.12
292.987	77.12
293.218	94.12
293.449	83.12
293.68	73.12
293.91	75.12
294.141	83.12
294.372	85.12
294.603	81.12
294.833	75.12
295.064	69.12
295.295	87.12
295.525	88.12
295.756	77.12
295.987	79.12
296.217	73.12
296.448	84.12
296.679	94.12
296.909	83.12
297.14	78.12
297.37	75.12
297.601	87.12
297.831	72.12
298.062	84.12
298.292	67.12
298.523	94.12
298.753	86.12
298.984	91.12
299.214	81.12
299.445	84.12
299.675	82.12
299.905	95.12
300.136	81.12
300.366	85.12
300.597	77.12
300.827	91.12
301.057	87.12
301.288	97.12
301.518	77.12
301.748	81.12
301.979	80.12
302.209	80.12
302.439	85.12
302.669	76.12
302.9	83.12
303.13	96.12
303.36	84.12
303.59	74.12
303.82	84.12
304.051	77.12
304.281	74.12
304.511	92.12
304.741	84.12
304.971	85.12
305.201	99.12
305.431	88.12
305.661	92.12
305.891	98.12
306.121	94.12
306.352	91.12
306.582	80.12
306.812	86.12
307.042	84.12
307.272	81.12
307.502	94.12
307.731	84.12
307.961	98.12
308.191	101.12
308.421	84.12
308.651	75.12
308.881	71.12
309.111	79.12
309.341	74.12
309.571	81.12
309.8	86.12
310.03	80.12
310.26	84.12
310.49	90.12
310.72	66.12
310.949	69.12
311.179	73.12
311.409	83.12
311.639	98.12
311.868	85.12
312.098	81.12
312.328	87.12
312.557	81.12
312.787	82.12
313.017	87.12
313.246	92.12
313.476	83.12
313.706	98.12
313.935	78.12
314.165	81.12
314.394	74.12
314.624	74.12
314.853	94.12
315.083	85.12
315.312	90.12
315.542	103.12
315.771	95.12
316.001	77.12
316.23	96.12
316.46	87.12
316.689	98.12
316.919	90.12
317.148	87.12
317.377	90.12
317.607	74.12
317.836	85.12
318.065	96.12
318.295	88.12
318.524	78.12
318.753	84.12
318.983	81.12
319.212	81.12
319.441	84.12
319.67	97.12
319.9	66.12
320.129	72.12
320.358	80.12
320.587	72.12
320.816	79.12
321.046	89.12
321.275	80.12
321.504	69.12
321.733	82.12
321.962	86.12
322.191	84.12
322.42	81.12
322.649	84.12
322.878	73.12
323.108	76.12
323.337	91.12
323.566	79.12
323.795	89.12
324.024	80.12
324.253	71.12
324.482	85.12
324.71	74.12
324.939	95.12
325.168	84.12
325.397	85.12
325.626	81.12
325.855	91.12
326.084	81.12
326.313	86.12
326.542	87.12
326.77	78.12
326.999	90.12
327.228	84.12
327.457	87.12
327.686	86.12
327.914	65.12
328.143	90.12
328.372	91.12
328.6	85.12
328.829	83.12
329.058	79.12
329.287	88.12
329.515	76.12
329.744	86.12
329.972	87.12
330.201	89.12
330.43	80.12
330.658	77.12
330.887	80.12
331.115	83.12
331.344	90.12
331.572	84.12
331.801	71.12
332.03	82.12
332.258	80.12
332.486	82.12
332.715	85.12
332.943	76.12
333.172	77.12
333.4	84.12
333.629	94.12
333.857	88.12
334.085	81.12
334.314	84.12
334.542	71.12
334.771	89.12
334.999	86.12
335.227	76.12
335.455	73.12
335.684	73.12
335.912	74.12
336.14	72.12
336.369	80.12
336.597	86.12
336.825	73.12
337.053	86.12
337.281	92.12
337.51	70.12
337.738	77.12
337.966	100.12
338.194	97.12
338.422	80.12
338.65	82.12
338.878	92.12
339.106	85.12
339.334	80.12
339.562	83.12
339.79	79.12
340.018	81.12
340.246	70.12
340.474	71.12
340.702	93.12
340.93	68.12
341.158	86.12
341.386	82.12
341.614	83.12
341.842	92.12
342.07	75.12
342.298	83.12
342.526	81.12
342.754	78.12
342.981	70.12
343.209	89.12
343.437	79.12
343.665	97.12
343.893	80.12
344.12	100.12
344.348	98.12
344.576	98.12
344.804	80.12
345.031	68.12
345.259	63.12
345.487	71.12
345.714	84.12
345.942	89.12
346.17	99.12
346.397	74.12
346.625	88.12
346.853	90.12
347.08	68.12
347.308	88.12
347.535	72.12
347.763	75.12
347.99	99.12
348.218	74.12
348.445	86.12
348.673	80.12
348.9	78.12
349.128	81.12
349.355	70.12
349.583	77.12
349.81	70.12
350.037	77.12
350.265	93.12
350.492	97.12
350.72	79.12
350.947	77.12
351.174	91.12
351.402	90.12
351.629	78.12
351.856	79.12
352.083	76.12
352.311	85.12
352.538	79.12
352.765	77.12
352.992	75.12
353.22	70.12
353.447	74.12
353.674	85.12
353.901	73.12
354.128	80.12
354.355	84.12
354.583	94.12
354.81	85.12
355.037	92.12
355.264	75.12
355.491	104.12
355.718	76.12
355.945	87.12
356.172	85.12
356.399	84.12
356.626	79.12
356.853	68.12
357.08	73.12
357.307	76.12
357.534	79.12
357.761	100.12
357.988	79.12
358.215	90.12
358.441	89.12
358.668	107.12
358.895	86.12
359.122	75.12
359.349	83.12
359.576	90.12
359.802	79.12
360.029	79.12
360.256	80.12
360.483	80.12
360.709	84.12
360.936	87.12
361.163	82.12
361.39	88.12
361.616	84.12
361.843	82.12
362.07	76.12
362.296	71.12
362.523	78.12
362.749	90.12
362.976	75.12
363.203	76.12
363.429	86.12
363.656	71.12
363.882	66.12
364.109	81.12
364.335	79.12
364.562	87.12
364.788	105.12
365.015	86.12
365.241	88.12
365.468	89.12
365.694	100.12
365.92	94.12
366.147	87.12
366.373	81.12
366.599	106.12
366.826	89.12
367.052	76.12
367.278	74.12
367.505	91.12
367.731	88.12
367.957	82.12
368.184	97.12
368.41	90.12
368.636	87.12
368.862	88.12
369.089	84.12
369.315	73.12
369.541	97.12
369.767	90.12
369.993	89.12
370.219	103.12
370.445	87.12
370.672	83.12
370.898	71.12
371.124	97.12
371.35	75.12
371.576	81.12
371.802	82.12
372.028	79.12
372.254	100.12
372.48	100.12
372.706	84.12
372.932	79.12
373.158	87.12
373.384	85.12
373.61	88.12
373.835	89.12
374.061	86.12
374.287	97.12
374.513	94.12
374.739	98.12
374.965	97.12
375.191	90.12
375.416	81.12
375.642	88.12
375.868	89.12
376.094	83.12
376.319	90.12
376.545	77.12
376.771	90.12
376.997	89.12
377.222	91.12
377.448	92.12
377.674	84.12
377.899	87.12
378.125	95.12
378.35	82.12
378.576	98.12
378.802	96.12
379.027	94.12
379.253	93.12
379.478	88.12
379.704	100.12
379.929	88.12
380.155	89.12
380.38	90.12
380.606	95.12
380.831	94.12
381.057	103.12
381.282	97.12
381.507	90.12
381.733	77.12
381.958	91.12
382.184	94.12
382.409	98.12
382.634	97.12
382.86	97.12
383.085	88.12
383.31	93.12
383.535	92.12
383.761	96.12
383.986	105.12
384.211	105.12
384.436	95.12
384.662	96.12
384.887	87.12
385.112	86.12
385.337	106.12
385.562	86.12
385.787	75.12
386.013	89.12
386.238	89.12
386.463	70.12
386.688	99.12
386.913	93.12
387.138	88.12
387.363	114.12
387.588	83.12
387.813	106.12
388.038	97.12
388.263	105.12
388.488	92.12
388.713	98.12
388.938	99.12
389.163	88.12
389.387	91.12
389.612	86.12
389.837	97.12
390.062	111.12
390.287	103.12
390.512	103.12
390.736	104.12
390.961	111.12
391.186	96.12
391.411	80.12
391.636	92.12
391.86	100.12
392.085	98.12
392.31	98.12
392.534	101.12
392.759	104.12
392.984	95.12
393.208	104.12
393.433	98.12
393.658	91.12
393.882	86.12
394.107	82.12
394.331	111.12
394.556	107.12
394.78	104.12
395.005	96.12
395.229	95.12
395.454	114.12
395.678	110.12
395.903	110.12
396.127	101.12
396.352	109.12
396.576	99.12
396.801	103.12
397.025	102.12
397.249	105.12
397.474	104.12
397.698	113.12
397.922	102.12
398.147	100.12
398.371	105.12
398.595	114.12
398.82	89.12
399.044	118.12
399.268	105.12
399.492	106.12
399.717	101.12
399.941	103.12
400.165	114.12
400.389	114.12
400.613	107.12
400.837	106.12
401.062	111.12
401.286	110.12
401.51	112.12
401.734	102.12
401.958	114.12
402.182	107.12
402.406	107.12
402.63	104.12
402.854	117.12
403.078	103.12
403.302	115.12
403.526	108.12
403.75	103.12
403.974	101.12
404.198	117.12
404.422	105.12
404.645	114.12
404.869	119.12
405.093	115.12
405.317	123.12
405.541	96.12
405.765	113.12
405.988	114.12
406.212	103.12
406.436	116.12
406.66	118.12
406.883	105.12
407.107	124.12
407.331	103.12
407.555	122.12
407.778	121.12
408.002	116.12
408.226	111.12
408.449	126.12
408.673	118.12
408.896	116.12
409.12	122.12
409.344	114.12
409.567	99.12
409.791	111.12
410.014	122.12
410.238	124.12
410.461	130.12
410.685	118.12
410.908	116.12
411.132	119.12
411.355	119.12
411.578	123.12
411.802	131.12
412.025	110.12
412.249	122.12
412.472	127.12
412.695	122.12
412.919	115.12
413.142	123.12
413.365	111.12
413.589	123.12
413.812	105.12
414.035	122.12
414.258	119.12
414.482	138.12
414.705	114.12
414.928	130.12
415.151	120.12
415.374	119.12
415.597	110.12
415.821	117.12
416.044	115.12
416.267	127.12
416.49	120.12
416.713	115.12
416.936	113.12
417.159	124.12
417.382	113.12
417.605	129.12
417.828	128.12
418.051	123.12
418.274	127.12
418.497	95.12
418.72	126.12
418.943	125.12
419.166	130.12
419.389	140.12
419.611	122.12
419.834	123.12
420.057	120.12
420.28	113.12
420.503	123.12
420.726	123.12
420.948	113.12
421.171	132.12
421.394	124.12
421.617	136.12
421.839	138.12
422.062	132.12
422.285	113.12
422.507	122.12
422.73	127.12
422.953	125.12
423.175	112.12
423.398	122.12
423.621	120.12
423.843	144.12
424.066	133.12
424.288	138.12
424.511	146.12
424.733	138.12
424.956	140.12
425.178	123.12
425.401	120.12
425.623	136.12
425.846	144.12
426.068	141.12
426.291	129.12
426.513	122.12
426.735	119.12
426.958	137.12
427.18	118.12
427.402	117.12
427.625	105.12
427.847	123.12
428.069	120.12
428.292	129.12
428.514	125.12
428.736	128.12
428.958	116.12
429.181	120.12
429.403	137.12
429.625	118.12
429.847	123.12
430.069	120.12
430.292	136.12
430.514	121.12
430.736	122.12
430.958	129.12
431.18	130.12
431.402	122.12
431.624	114.12
431.846	106.12
432.068	111.12
432.29	87.12
432.512	105.12
432.734	127.12
432.956	114.12
433.178	136.12
433.4	122.12
433.622	126.12
433.844	124.12
434.066	118.12
434.287	100.12
434.509	92.12
434.731	108.12
434.953	105.12
435.175	114.12
435.397	132.12
435.618	108.12
435.84	119.12
436.062	111.12
436.284	129.12
436.505	126.12
436.727	118.12
436.949	136.12
437.17	123.12
437.392	125.12
437.614	122.12
437.835	110.12
438.057	116.12
438.278	113.12
438.5	129.12
438.721	123.12
438.943	127.12
439.165	120.12
439.386	137.12
439.608	130.12
439.829	134.12
440.05	130.12
440.272	124.12
440.493	131.12
440.715	144.12
440.936	151.12
441.158	147.12
441.379	134.12
441.6	134.12
441.822	136.12
442.043	132.12
442.264	134.12
442.486	144.12
442.707	123.12
442.928	138.12
443.149	130.12
443.371	125.12
443.592	125.12
443.813	126.12
444.034	118.12
444.255	125.12
444.476	143.12
444.698	138.12
444.919	138.12
445.14	261.12
445.361	191.12
445.582	150.12
445.803	136.12
446.024	144.12
446.245	138.12
446.466	139.12
446.687	144.12
446.908	137.12
447.129	136.12
447.35	139.12
447.571	141.12
447.792	161.12
448.013	133.12
448.234	136.12
448.455	151.12
448.675	130.12
448.896	134.12
449.117	119.12
449.338	114.12
449.559	125.12
449.779	149.12
450	135.12
450.221	131.12
450.442	128.12
450.662	123.12
450.883	132.12
451.104	113.12
451.324	129.12
451.545	135.12
451.766	126.12
451.986	128.12
452.207	134.12
452.428	112.12
452.648	116.12
452.869	129.12
453.089	114.12
453.31	110.12
453.53	107.12
453.751	97.12
453.971	104.12
454.192	83.12
454.412	113.12
454.633	105.12
454.853	106.12
455.073	123.12
455.294	116.12
455.514	106.12
455.734	106.12
455.955	111.12
456.175	107.12
456.395	98.12
456.616	100.12
456.836	106.12
457.056	108.12
457.276	99.12
457.497	96.12
457.717	116.12
457.937	104.12
458.157	98.12
458.377	109.12
458.598	98.12
458.818	87.12
459.038	85.12
459.258	85.12
459.478	99.12
459.698	84.12
459.918	100.12
460.138	110.12
460.358	122.12
460.578	108.12
460.798	114.12
461.018	118.12
461.238	124.12
461.458	128.12
461.678	114.12
461.898	104.12
462.118	105.12
462.338	114.12
462.558	113.12
462.777	97.12
462.997	96.12
463.217	111.12
463.437	103.12
463.657	110.12
463.876	110.12
464.096	97.12
464.316	95.12
464.536	122.12
464.755	124.12
464.975	113.12
465.195	103.12
465.414	96.12
465.634	114.12
465.854	100.12
466.073	115.12
466.293	126.12
466.512	123.12
466.732	119.12
466.951	128.12
467.171	110.12
467.391	129.12
467.61	116.12
467.829	139.12
468.049	140.12
468.268	130.12
468.488	138.12
468.707	141.12
468.927	126.12
469.146	130.12
469.365	151.12
469.585	144.12
469.804	136.12
470.023	122.12
470.243	149.12
470.462	139.12
470.681	156.12
470.901	132.12
471.12	126.12
471.339	121.12
471.558	134.12
471.777	130.12
471.997	118.12
472.216	124.12
472.435	108.12
472.654	101.12
472.873	105.12
473.092	108.12
473.311	118.12
473.53	115.12
473.749	127.12
473.968	132.12
474.187	123.12
474.406	110.12
474.625	114.12
474.844	134.12
475.063	123.12
475.282	133.12
475.501	127.12
475.72	108.12
475.939	121.12
476.158	118.12
476.377	124.12
476.596	116.12
476.814	117.12
477.033	96.12
477.252	105.12
477.471	112.12
477.69	136.12
477.908	136.12
478.127	148.12
478.346	124.12
478.564	130.12
478.783	143.12
479.002	134.12
479.22	135.12
479.439	130.12
479.658	111.12
479.876	105.12
480.095	110.12
480.313	114.12
480.532	118.12
480.751	111.12
480.969	102.12
481.188	88.12
481.406	92.12
481.624	100.12
481.843	72.12
482.061	101.12
482.28	108.12
482.498	114.12
482.717	117.12
482.935	117.12
483.153	132.12
483.372	159.12
483.59	156.12
483.808	135.12
484.027	139.12
484.245	123.12
484.463	136.12
484.681	160.12
484.9	136.12
485.118	127.12
485.336	129.12
485.554	101.12
485.772	115.12
485.99	110.12
486.209	113.12
486.427	108.12
486.645	118.12
486.863	120.12
487.081	133.12
487.299	137.12
487.517	136.12
487.735	172.12
487.953	183.12
488.171	190.12
488.389	177.12
488.607	167.12
488.825	141.12
489.043	123.12
489.261	124.12
489.479	135.12
489.696	130.12
489.914	128.12
490.132	131.12
490.35	150.12
490.568	155.12
490.786	166.12
491.003	170.12
491.221	178.12
491.439	171.12
491.657	186.12
491.874	203.12
492.092	227.12
492.31	226.12
492.527	226.12
492.745	206.12
492.963	182.12
493.18	185.12
493.398	191.12
493.615	172.12
493.833	174.12
494.05	181.12
494.268	159.12
494.485	152.12
494.703	161.12
494.92	150.12
495.138	168.12
495.355	176.12
495.573	156.12
495.79	166.12
496.008	163.12
496.225	168.12
496.442	165.12
496.66	162.12
496.877	140.12
497.094	161.12
497.312	148.12
497.529	162.12
497.746	143.12
497.963	121.12
498.181	122.12
498.398	120.12
498.615	113.12
498.832	114.12
499.049	114.12
499.267	121.12
499.484	127.12
499.701	116.12
499.918	132.12
500.135	127.12
500.352	134.12
500.569	132.12
500.786	128.12
501.003	128.12
501.22	136.12
501.437	139.12
501.654	122.12
501.871	141.12
502.088	120.12
502.305	136.12
502.522	124.12
502.739	133.12
502.956	119.12
503.172	112.12
503.389	120.12
503.606	100.12
503.823	118.12
504.04	125.12
504.256	107.12
504.473	110.12
504.69	118.12
504.907	132.12
505.123	116.12
505.34	124.12
505.557	119.12
505.773	115.12
505.99	115.12
506.207	125.12
506.423	120.12
506.64	111.12
506.856	106.12
507.073	114.12
507.289	108.12
507.506	114.12
507.722	120.12
507.939	111.12
508.155	121.12
508.372	107.12
508.588	110.12
508.805	116.12
509.021	116.12
509.238	98.12
509.454	98.12
509.67	76.12
509.887	95.12
510.103	96.12
510.319	87.12
510.536	76.12
510.752	79.12
510.968	81.12
511.184	87.12
511.401	67.12
511.617	84.12
511.833	76.12
512.049	87.12
