Data from Location4.07152019.Energy5.Lamp.07192019.3%Agarose_HRD10591_16-19-26-925.txt Node
Date: Fri Jul 19 16:19:26 EDT 2019
User: cochatt
Spectrometer: HR+D1059
Trigger mode: 1
Integration Time (sec): 1.000000E-1
Scans to average: 1
Electric dark correction enabled: true
Nonlinearity correction enabled: false
Boxcar width: 0
XAxis mode: Wavelengths
Number of Pixels in Spectrum: 2048
>>>>>Begin Spectral Data<<<<<
223.165	-22.81
223.4	-22.81
223.635	-22.81
223.869	-27.81
224.104	-17.81
224.338	-14.81
224.573	-21.81
224.808	1.19
225.042	-3.81
225.277	-5.81
225.511	-3.81
225.746	6.19
225.98	0.19
226.215	21.19
226.449	17.19
226.683	21.19
226.918	20.19
227.152	31.19
227.387	31.19
227.621	35.19
227.856	49.19
228.09	54.19
228.324	51.19
228.559	54.19
228.793	56.19
229.027	51.19
229.262	63.19
229.496	66.19
229.73	80.19
229.964	78.19
230.199	61.19
230.433	67.19
230.667	74.19
230.901	88.19
231.136	66.19
231.37	78.19
231.604	70.19
231.838	82.19
232.072	74.19
232.306	73.19
232.541	71.19
232.775	74.19
233.009	87.19
233.243	97.19
233.477	71.19
233.711	90.19
233.945	78.19
234.179	90.19
234.413	83.19
234.647	79.19
234.881	88.19
235.115	88.19
235.349	74.19
235.583	78.19
235.817	74.19
236.051	82.19
236.285	70.19
236.519	89.19
236.753	79.19
236.987	65.19
237.221	86.19
237.455	76.19
237.689	78.19
237.922	67.19
238.156	63.19
238.39	81.19
238.624	73.19
238.858	75.19
239.091	81.19
239.325	87.19
239.559	71.19
239.793	73.19
240.027	84.19
240.26	72.19
240.494	71.19
240.728	64.19
240.961	74.19
241.195	79.19
241.429	85.19
241.662	83.19
241.896	74.19
242.13	65.19
242.363	78.19
242.597	74.19
242.83	85.19
243.064	83.19
243.298	92.19
243.531	81.19
243.765	75.19
243.998	86.19
244.232	69.19
244.465	84.19
244.699	59.19
244.932	68.19
245.166	72.19
245.399	79.19
245.633	74.19
245.866	68.19
246.099	82.19
246.333	81.19
246.566	70.19
246.8	71.19
247.033	68.19
247.266	62.19
247.5	72.19
247.733	80.19
247.966	78.19
248.2	85.19
248.433	83.19
248.666	67.19
248.899	81.19
249.133	72.19
249.366	88.19
249.599	93.19
249.832	75.19
250.066	101.19
250.299	77.19
250.532	99.19
250.765	100.19
250.998	77.19
251.231	91.19
251.465	84.19
251.698	87.19
251.931	79.19
252.164	98.19
252.397	86.19
252.63	91.19
252.863	84.19
253.096	84.19
253.329	78.19
253.562	100.19
253.795	75.19
254.028	82.19
254.261	94.19
254.494	67.19
254.727	70.19
254.96	90.19
255.193	81.19
255.426	82.19
255.659	78.19
255.892	78.19
256.124	78.19
256.357	82.19
256.59	80.19
256.823	81.19
257.056	89.19
257.289	88.19
257.521	80.19
257.754	85.19
257.987	67.19
258.22	86.19
258.452	83.19
258.685	92.19
258.918	78.19
259.151	92.19
259.383	85.19
259.616	74.19
259.849	85.19
260.081	81.19
260.314	87.19
260.547	90.19
260.779	77.19
261.012	78.19
261.244	78.19
261.477	81.19
261.71	78.19
261.942	76.19
262.175	62.19
262.407	83.19
262.64	89.19
262.872	75.19
263.105	67.19
263.337	85.19
263.57	77.19
263.802	91.19
264.035	71.19
264.267	84.19
264.499	85.19
264.732	87.19
264.964	72.19
265.197	89.19
265.429	86.19
265.661	75.19
265.894	84.19
266.126	92.19
266.358	81.19
266.591	94.19
266.823	70.19
267.055	88.19
267.287	71.19
267.52	72.19
267.752	88.19
267.984	61.19
268.216	86.19
268.448	85.19
268.681	81.19
268.913	90.19
269.145	80.19
269.377	88.19
269.609	72.19
269.841	72.19
270.073	73.19
270.306	86.19
270.538	86.19
270.77	90.19
271.002	87.19
271.234	83.19
271.466	89.19
271.698	74.19
271.93	86.19
272.162	89.19
272.394	82.19
272.626	87.19
272.858	83.19
273.09	75.19
273.322	91.19
273.553	74.19
273.785	82.19
274.017	75.19
274.249	79.19
274.481	86.19
274.713	92.19
274.945	82.19
275.176	79.19
275.408	97.19
275.64	87.19
275.872	79.19
276.104	86.19
276.335	78.19
276.567	84.19
276.799	76.19
277.031	91.19
277.262	82.19
277.494	75.19
277.726	91.19
277.957	98.19
278.189	79.19
278.421	84.19
278.652	79.19
278.884	81.19
279.115	91.19
279.347	83.19
279.579	78.19
279.81	91.19
280.042	86.19
280.273	76.19
280.505	79.19
280.736	80.19
280.968	90.19
281.199	97.19
281.431	82.19
281.662	84.19
281.894	77.19
282.125	73.19
282.356	82.19
282.588	78.19
282.819	77.19
283.051	87.19
283.282	78.19
283.513	85.19
283.745	84.19
283.976	77.19
284.207	91.19
284.439	94.19
284.67	79.19
284.901	64.19
285.132	74.19
285.364	82.19
285.595	90.19
285.826	81.19
286.057	76.19
286.288	91.19
286.52	76.19
286.751	91.19
286.982	85.19
287.213	89.19
287.444	81.19
287.675	82.19
287.906	85.19
288.138	71.19
288.369	92.19
288.6	75.19
288.831	84.19
289.062	97.19
289.293	86.19
289.524	80.19
289.755	84.19
289.986	89.19
290.217	78.19
290.448	65.19
290.679	83.19
290.91	90.19
291.141	85.19
291.371	87.19
291.602	92.19
291.833	76.19
292.064	82.19
292.295	87.19
292.526	83.19
292.757	89.19
292.987	86.19
293.218	78.19
293.449	83.19
293.68	88.19
293.91	82.19
294.141	82.19
294.372	83.19
294.603	74.19
294.833	87.19
295.064	73.19
295.295	88.19
295.525	81.19
295.756	69.19
295.987	86.19
296.217	91.19
296.448	92.19
296.679	67.19
296.909	85.19
297.14	72.19
297.37	83.19
297.601	82.19
297.831	76.19
298.062	77.19
298.292	90.19
298.523	90.19
298.753	74.19
298.984	92.19
299.214	84.19
299.445	80.19
299.675	84.19
299.905	101.19
300.136	80.19
300.366	81.19
300.597	81.19
300.827	79.19
301.057	84.19
301.288	82.19
301.518	90.19
301.748	84.19
301.979	88.19
302.209	85.19
302.439	83.19
302.669	83.19
302.9	80.19
303.13	76.19
303.36	75.19
303.59	82.19
303.82	85.19
304.051	95.19
304.281	78.19
304.511	73.19
304.741	91.19
304.971	71.19
305.201	68.19
305.431	79.19
305.661	78.19
305.891	85.19
306.121	88.19
306.352	92.19
306.582	82.19
306.812	84.19
307.042	73.19
307.272	91.19
307.502	81.19
307.731	103.19
307.961	82.19
308.191	84.19
308.421	87.19
308.651	87.19
308.881	77.19
309.111	67.19
309.341	89.19
309.571	102.19
309.8	83.19
310.03	82.19
310.26	79.19
310.49	85.19
310.72	86.19
310.949	82.19
311.179	77.19
311.409	84.19
311.639	98.19
311.868	88.19
312.098	99.19
312.328	65.19
312.557	99.19
312.787	81.19
313.017	82.19
313.246	74.19
313.476	84.19
313.706	86.19
313.935	74.19
314.165	72.19
314.394	90.19
314.624	77.19
314.853	87.19
315.083	75.19
315.312	82.19
315.542	84.19
315.771	76.19
316.001	76.19
316.23	94.19
316.46	80.19
316.689	91.19
316.919	87.19
317.148	89.19
317.377	94.19
317.607	89.19
317.836	70.19
318.065	105.19
318.295	83.19
318.524	80.19
318.753	75.19
318.983	77.19
319.212	87.19
319.441	80.19
319.67	80.19
319.9	75.19
320.129	65.19
320.358	92.19
320.587	97.19
320.816	80.19
321.046	81.19
321.275	98.19
321.504	83.19
321.733	92.19
321.962	76.19
322.191	80.19
322.42	86.19
322.649	93.19
322.878	82.19
323.108	101.19
323.337	80.19
323.566	91.19
323.795	90.19
324.024	86.19
324.253	73.19
324.482	82.19
324.71	80.19
324.939	82.19
325.168	90.19
325.397	91.19
325.626	95.19
325.855	86.19
326.084	76.19
326.313	83.19
326.542	96.19
326.77	95.19
326.999	85.19
327.228	86.19
327.457	71.19
327.686	83.19
327.914	84.19
328.143	84.19
328.372	80.19
328.6	94.19
328.829	77.19
329.058	83.19
329.287	93.19
329.515	91.19
329.744	98.19
329.972	71.19
330.201	94.19
330.43	91.19
330.658	82.19
330.887	79.19
331.115	103.19
331.344	106.19
331.572	103.19
331.801	81.19
332.03	77.19
332.258	89.19
332.486	88.19
332.715	74.19
332.943	81.19
333.172	94.19
333.4	90.19
333.629	91.19
333.857	86.19
334.085	81.19
334.314	71.19
334.542	90.19
334.771	84.19
334.999	84.19
335.227	101.19
335.455	86.19
335.684	96.19
335.912	72.19
336.14	75.19
336.369	86.19
336.597	84.19
336.825	88.19
337.053	82.19
337.281	83.19
337.51	86.19
337.738	97.19
337.966	93.19
338.194	82.19
338.422	74.19
338.65	88.19
338.878	83.19
339.106	89.19
339.334	88.19
339.562	87.19
339.79	81.19
340.018	84.19
340.246	97.19
340.474	91.19
340.702	82.19
340.93	93.19
341.158	82.19
341.386	79.19
341.614	88.19
341.842	91.19
342.07	76.19
342.298	84.19
342.526	81.19
342.754	85.19
342.981	84.19
343.209	96.19
343.437	93.19
343.665	89.19
343.893	82.19
344.12	91.19
344.348	76.19
344.576	93.19
344.804	90.19
345.031	81.19
345.259	82.19
345.487	97.19
345.714	79.19
345.942	88.19
346.17	83.19
346.397	73.19
346.625	82.19
346.853	87.19
347.08	77.19
347.308	98.19
347.535	77.19
347.763	88.19
347.99	95.19
348.218	86.19
348.445	86.19
348.673	69.19
348.9	78.19
349.128	94.19
349.355	94.19
349.583	72.19
349.81	72.19
350.037	80.19
350.265	81.19
350.492	82.19
350.72	74.19
350.947	82.19
351.174	89.19
351.402	89.19
351.629	93.19
351.856	86.19
352.083	88.19
352.311	86.19
352.538	83.19
352.765	88.19
352.992	72.19
353.22	74.19
353.447	93.19
353.674	88.19
353.901	76.19
354.128	80.19
354.355	84.19
354.583	87.19
354.81	88.19
355.037	98.19
355.264	87.19
355.491	85.19
355.718	78.19
355.945	80.19
356.172	87.19
356.399	69.19
356.626	86.19
356.853	88.19
357.08	82.19
357.307	86.19
357.534	76.19
357.761	79.19
357.988	95.19
358.215	83.19
358.441	82.19
358.668	91.19
358.895	87.19
359.122	92.19
359.349	78.19
359.576	98.19
359.802	81.19
360.029	80.19
360.256	83.19
360.483	90.19
360.709	86.19
360.936	90.19
361.163	76.19
361.39	89.19
361.616	73.19
361.843	90.19
362.07	86.19
362.296	77.19
362.523	91.19
362.749	90.19
362.976	85.19
363.203	78.19
363.429	91.19
363.656	70.19
363.882	86.19
364.109	92.19
364.335	93.19
364.562	80.19
364.788	97.19
365.015	83.19
365.241	80.19
365.468	78.19
365.694	87.19
365.92	89.19
366.147	97.19
366.373	96.19
366.599	92.19
366.826	84.19
367.052	95.19
367.278	89.19
367.505	99.19
367.731	90.19
367.957	75.19
368.184	84.19
368.41	87.19
368.636	96.19
368.862	86.19
369.089	74.19
369.315	78.19
369.541	80.19
369.767	81.19
369.993	80.19
370.219	83.19
370.445	98.19
370.672	80.19
370.898	93.19
371.124	93.19
371.35	86.19
371.576	77.19
371.802	87.19
372.028	89.19
372.254	93.19
372.48	90.19
372.706	92.19
372.932	90.19
373.158	87.19
373.384	92.19
373.61	106.19
373.835	81.19
374.061	95.19
374.287	90.19
374.513	85.19
374.739	106.19
374.965	86.19
375.191	92.19
375.416	88.19
375.642	94.19
375.868	93.19
376.094	103.19
376.319	93.19
376.545	89.19
376.771	79.19
376.997	88.19
377.222	95.19
377.448	86.19
377.674	100.19
377.899	89.19
378.125	98.19
378.35	98.19
378.576	94.19
378.802	86.19
379.027	83.19
379.253	95.19
379.478	98.19
379.704	90.19
379.929	97.19
380.155	113.19
380.38	94.19
380.606	100.19
380.831	91.19
381.057	97.19
381.282	108.19
381.507	112.19
381.733	96.19
381.958	93.19
382.184	110.19
382.409	102.19
382.634	91.19
382.86	90.19
383.085	113.19
383.31	107.19
383.535	113.19
383.761	103.19
383.986	90.19
384.211	96.19
384.436	106.19
384.662	96.19
384.887	102.19
385.112	107.19
385.337	98.19
385.562	102.19
385.787	91.19
386.013	89.19
386.238	90.19
386.463	104.19
386.688	95.19
386.913	92.19
387.138	92.19
387.363	104.19
387.588	116.19
387.813	106.19
388.038	82.19
388.263	116.19
388.488	92.19
388.713	104.19
388.938	88.19
389.163	89.19
389.387	91.19
389.612	94.19
389.837	106.19
390.062	112.19
390.287	86.19
390.512	99.19
390.736	101.19
390.961	101.19
391.186	96.19
391.411	104.19
391.636	107.19
391.86	104.19
392.085	91.19
392.31	98.19
392.534	98.19
392.759	98.19
392.984	114.19
393.208	101.19
393.433	103.19
393.658	103.19
393.882	101.19
394.107	108.19
394.331	99.19
394.556	88.19
394.78	114.19
395.005	95.19
395.229	114.19
395.454	111.19
395.678	102.19
395.903	114.19
396.127	120.19
396.352	118.19
396.576	107.19
396.801	116.19
397.025	113.19
397.249	119.19
397.474	111.19
397.698	116.19
397.922	105.19
398.147	102.19
398.371	106.19
398.595	114.19
398.82	112.19
399.044	103.19
399.268	107.19
399.492	103.19
399.717	101.19
399.941	104.19
400.165	119.19
400.389	104.19
400.613	107.19
400.837	108.19
401.062	107.19
401.286	108.19
401.51	113.19
401.734	103.19
401.958	107.19
402.182	107.19
402.406	98.19
402.63	114.19
402.854	114.19
403.078	124.19
403.302	122.19
403.526	108.19
403.75	107.19
403.974	111.19
404.198	119.19
404.422	133.19
404.645	119.19
404.869	112.19
405.093	102.19
405.317	109.19
405.541	117.19
405.765	110.19
405.988	107.19
406.212	114.19
406.436	116.19
406.66	108.19
406.883	118.19
407.107	117.19
407.331	110.19
407.555	113.19
407.778	117.19
408.002	119.19
408.226	118.19
408.449	126.19
408.673	120.19
408.896	121.19
409.12	110.19
409.344	118.19
409.567	113.19
409.791	124.19
410.014	97.19
410.238	115.19
410.461	108.19
410.685	113.19
410.908	122.19
411.132	115.19
411.355	112.19
411.578	114.19
411.802	117.19
412.025	101.19
412.249	115.19
412.472	126.19
412.695	128.19
412.919	112.19
413.142	136.19
413.365	121.19
413.589	111.19
413.812	121.19
414.035	125.19
414.258	121.19
414.482	118.19
414.705	125.19
414.928	127.19
415.151	106.19
415.374	116.19
415.597	130.19
415.821	130.19
416.044	123.19
416.267	122.19
416.49	119.19
416.713	118.19
416.936	133.19
417.159	117.19
417.382	138.19
417.605	125.19
417.828	118.19
418.051	130.19
418.274	120.19
418.497	134.19
418.72	129.19
418.943	122.19
419.166	127.19
419.389	150.19
419.611	128.19
419.834	117.19
420.057	126.19
420.28	127.19
420.503	126.19
420.726	144.19
420.948	119.19
421.171	141.19
421.394	129.19
421.617	131.19
421.839	157.19
422.062	136.19
422.285	144.19
422.507	137.19
422.73	124.19
422.953	124.19
423.175	128.19
423.398	130.19
423.621	134.19
423.843	132.19
424.066	136.19
424.288	128.19
424.511	140.19
424.733	155.19
424.956	120.19
425.178	120.19
425.401	112.19
425.623	131.19
425.846	136.19
426.068	133.19
426.291	122.19
426.513	139.19
426.735	128.19
426.958	123.19
427.18	127.19
427.402	120.19
427.625	122.19
427.847	119.19
428.069	128.19
428.292	128.19
428.514	145.19
428.736	133.19
428.958	127.19
429.181	117.19
429.403	130.19
429.625	125.19
429.847	116.19
430.069	142.19
430.292	128.19
430.514	122.19
430.736	129.19
430.958	124.19
431.18	110.19
431.402	121.19
431.624	118.19
431.846	115.19
432.068	99.19
432.29	90.19
432.512	127.19
432.734	126.19
432.956	133.19
433.178	128.19
433.4	133.19
433.622	137.19
433.844	132.19
434.066	112.19
434.287	108.19
434.509	92.19
434.731	99.19
434.953	113.19
435.175	118.19
435.397	122.19
435.618	108.19
435.84	129.19
436.062	114.19
436.284	122.19
436.505	127.19
436.727	118.19
436.949	130.19
437.17	123.19
437.392	139.19
437.614	128.19
437.835	109.19
438.057	118.19
438.278	127.19
438.5	124.19
438.721	134.19
438.943	137.19
439.165	126.19
439.386	131.19
439.608	142.19
439.829	154.19
440.05	156.19
440.272	149.19
440.493	146.19
440.715	128.19
440.936	147.19
441.158	134.19
441.379	139.19
441.6	143.19
441.822	126.19
442.043	139.19
442.264	138.19
442.486	146.19
442.707	129.19
442.928	140.19
443.149	150.19
443.371	144.19
443.592	119.19
443.813	137.19
444.034	135.19
444.255	138.19
444.476	127.19
444.698	150.19
444.919	134.19
445.14	260.19
445.361	204.19
445.582	150.19
445.803	139.19
446.024	148.19
446.245	140.19
446.466	146.19
446.687	154.19
446.908	154.19
447.129	154.19
447.35	143.19
447.571	155.19
447.792	133.19
448.013	152.19
448.234	148.19
448.455	149.19
448.675	145.19
448.896	134.19
449.117	122.19
449.338	133.19
449.559	124.19
449.779	147.19
450	140.19
450.221	136.19
450.442	127.19
450.662	121.19
450.883	116.19
451.104	117.19
451.324	122.19
451.545	129.19
451.766	120.19
451.986	116.19
452.207	129.19
452.428	127.19
452.648	126.19
452.869	118.19
453.089	130.19
453.31	128.19
453.53	115.19
453.751	118.19
453.971	90.19
454.192	90.19
454.412	103.19
454.633	98.19
454.853	130.19
455.073	121.19
455.294	129.19
455.514	120.19
455.734	115.19
455.955	107.19
456.175	116.19
456.395	112.19
456.616	115.19
456.836	121.19
457.056	111.19
457.276	111.19
457.497	111.19
457.717	121.19
457.937	115.19
458.157	111.19
458.377	110.19
458.598	104.19
458.818	84.19
459.038	89.19
459.258	75.19
459.478	95.19
459.698	82.19
459.918	88.19
460.138	91.19
460.358	110.19
460.578	124.19
460.798	123.19
461.018	121.19
461.238	108.19
461.458	124.19
461.678	106.19
461.898	116.19
462.118	104.19
462.338	108.19
462.558	120.19
462.777	109.19
462.997	114.19
463.217	107.19
463.437	108.19
463.657	105.19
463.876	113.19
464.096	105.19
464.316	114.19
464.536	102.19
464.755	101.19
464.975	101.19
465.195	98.19
465.414	111.19
465.634	112.19
465.854	123.19
466.073	117.19
466.293	121.19
466.512	126.19
466.732	119.19
466.951	132.19
467.171	138.19
467.391	132.19
467.61	124.19
467.829	132.19
468.049	133.19
468.268	142.19
468.488	137.19
468.707	131.19
468.927	131.19
469.146	132.19
469.365	154.19
469.585	138.19
469.804	134.19
470.023	151.19
470.243	153.19
470.462	135.19
470.681	135.19
470.901	127.19
471.12	131.19
471.339	144.19
471.558	142.19
471.777	132.19
471.997	124.19
472.216	134.19
472.435	114.19
472.654	112.19
472.873	115.19
473.092	122.19
473.311	112.19
473.53	108.19
473.749	124.19
473.968	146.19
474.187	141.19
474.406	124.19
474.625	116.19
474.844	135.19
475.063	137.19
475.282	120.19
475.501	120.19
475.72	126.19
475.939	119.19
476.158	131.19
476.377	119.19
476.596	122.19
476.814	126.19
477.033	97.19
477.252	119.19
477.471	117.19
477.69	129.19
477.908	138.19
478.127	139.19
478.346	144.19
478.564	134.19
478.783	137.19
479.002	142.19
479.22	146.19
479.439	132.19
479.658	119.19
479.876	120.19
480.095	105.19
480.313	110.19
480.532	117.19
480.751	124.19
480.969	87.19
481.188	86.19
481.406	98.19
481.624	80.19
481.843	74.19
482.061	98.19
482.28	120.19
482.498	106.19
482.717	104.19
482.935	137.19
483.153	145.19
483.372	147.19
483.59	146.19
483.808	154.19
484.027	133.19
484.245	122.19
484.463	158.19
484.681	153.19
484.9	145.19
485.118	139.19
485.336	121.19
485.554	114.19
485.772	99.19
485.99	105.19
486.209	104.19
486.427	118.19
486.645	128.19
486.863	142.19
487.081	139.19
487.299	137.19
487.517	141.19
487.735	160.19
487.953	176.19
488.171	181.19
488.389	168.19
488.607	149.19
488.825	138.19
489.043	145.19
489.261	136.19
489.479	133.19
489.696	138.19
489.914	126.19
490.132	138.19
490.35	152.19
490.568	154.19
490.786	165.19
491.003	157.19
491.221	167.19
491.439	174.19
491.657	181.19
491.874	180.19
492.092	231.19
492.31	226.19
492.527	225.19
492.745	207.19
492.963	165.19
493.18	170.19
493.398	182.19
493.615	157.19
493.833	174.19
494.05	171.19
494.268	179.19
494.485	152.19
494.703	170.19
494.92	159.19
495.138	160.19
495.355	151.19
495.573	187.19
495.79	160.19
496.008	170.19
496.225	136.19
496.442	168.19
496.66	170.19
496.877	150.19
497.094	154.19
497.312	144.19
497.529	145.19
497.746	145.19
497.963	148.19
498.181	132.19
498.398	130.19
498.615	128.19
498.832	114.19
499.049	118.19
499.267	124.19
499.484	129.19
499.701	141.19
499.918	126.19
500.135	134.19
500.352	147.19
500.569	146.19
500.786	143.19
501.003	131.19
501.22	140.19
501.437	143.19
501.654	120.19
501.871	127.19
502.088	123.19
502.305	136.19
502.522	126.19
502.739	135.19
502.956	114.19
503.172	134.19
503.389	107.19
503.606	103.19
503.823	135.19
504.04	105.19
504.256	121.19
504.473	112.19
504.69	131.19
504.907	125.19
505.123	119.19
505.34	126.19
505.557	127.19
505.773	127.19
505.99	112.19
506.207	110.19
506.423	114.19
506.64	106.19
506.856	112.19
507.073	119.19
507.289	118.19
507.506	111.19
507.722	115.19
507.939	116.19
508.155	121.19
508.372	119.19
508.588	106.19
508.805	100.19
509.021	105.19
509.238	115.19
509.454	107.19
509.67	101.19
509.887	99.19
510.103	102.19
510.319	99.19
510.536	92.19
510.752	92.19
510.968	81.19
511.184	80.19
511.401	98.19
511.617	107.19
