Data from Location4.07152019.Energy5.Lamp.07192019.3%Agarose_HRD10591_16-21-09-926.txt Node
Date: Fri Jul 19 16:21:09 EDT 2019
User: cochatt
Spectrometer: HR+D1059
Trigger mode: 1
Integration Time (sec): 1.000000E-1
Scans to average: 1
Electric dark correction enabled: true
Nonlinearity correction enabled: false
Boxcar width: 0
XAxis mode: Wavelengths
Number of Pixels in Spectrum: 2048
>>>>>Begin Spectral Data<<<<<
223.165	-21.31
223.4	-21.31
223.635	-21.31
223.869	-4.31
224.104	-20.31
224.338	-11.31
224.573	-15.31
224.808	-12.31
225.042	-15.31
225.277	1.69
225.511	-7.31
225.746	13.69
225.98	7.69
226.215	9.69
226.449	16.69
226.683	9.69
226.918	26.69
227.152	21.69
227.387	26.69
227.621	45.69
227.856	61.69
228.09	36.69
228.324	38.69
228.559	48.69
228.793	44.69
229.027	54.69
229.262	63.69
229.496	63.69
229.73	67.69
229.964	59.69
230.199	52.69
230.433	80.69
230.667	88.69
230.901	71.69
231.136	75.69
231.37	79.69
231.604	81.69
231.838	70.69
232.072	73.69
232.306	76.69
232.541	68.69
232.775	67.69
233.009	69.69
233.243	60.69
233.477	80.69
233.711	84.69
233.945	70.69
234.179	85.69
234.413	75.69
234.647	69.69
234.881	76.69
235.115	75.69
235.349	72.69
235.583	77.69
235.817	71.69
236.051	82.69
236.285	75.69
236.519	77.69
236.753	83.69
236.987	79.69
237.221	61.69
237.455	70.69
237.689	86.69
237.922	71.69
238.156	60.69
238.39	62.69
238.624	74.69
238.858	70.69
239.091	62.69
239.325	82.69
239.559	79.69
239.793	66.69
240.027	82.69
240.26	69.69
240.494	66.69
240.728	63.69
240.961	63.69
241.195	71.69
241.429	73.69
241.662	78.69
241.896	79.69
242.13	74.69
242.363	77.69
242.597	65.69
242.83	79.69
243.064	87.69
243.298	71.69
243.531	73.69
243.765	76.69
243.998	82.69
244.232	76.69
244.465	82.69
244.699	84.69
244.932	70.69
245.166	73.69
245.399	75.69
245.633	68.69
245.866	59.69
246.099	76.69
246.333	80.69
246.566	84.69
246.8	72.69
247.033	82.69
247.266	78.69
247.5	74.69
247.733	77.69
247.966	65.69
248.2	72.69
248.433	78.69
248.666	61.69
248.899	67.69
249.133	76.69
249.366	70.69
249.599	67.69
249.832	79.69
250.066	75.69
250.299	70.69
250.532	85.69
250.765	70.69
250.998	70.69
251.231	70.69
251.465	82.69
251.698	84.69
251.931	84.69
252.164	56.69
252.397	83.69
252.63	71.69
252.863	67.69
253.096	71.69
253.329	78.69
253.562	72.69
253.795	75.69
254.028	87.69
254.261	76.69
254.494	70.69
254.727	91.69
254.96	82.69
255.193	74.69
255.426	75.69
255.659	67.69
255.892	69.69
256.124	76.69
256.357	69.69
256.59	71.69
256.823	77.69
257.056	60.69
257.289	63.69
257.521	62.69
257.754	72.69
257.987	74.69
258.22	83.69
258.452	69.69
258.685	76.69
258.918	80.69
259.151	69.69
259.383	78.69
259.616	71.69
259.849	80.69
260.081	83.69
260.314	78.69
260.547	79.69
260.779	77.69
261.012	81.69
261.244	81.69
261.477	80.69
261.71	80.69
261.942	83.69
262.175	76.69
262.407	75.69
262.64	86.69
262.872	87.69
263.105	84.69
263.337	76.69
263.57	71.69
263.802	83.69
264.035	73.69
264.267	66.69
264.499	80.69
264.732	69.69
264.964	76.69
265.197	77.69
265.429	76.69
265.661	70.69
265.894	83.69
266.126	85.69
266.358	86.69
266.591	69.69
266.823	64.69
267.055	75.69
267.287	73.69
267.52	91.69
267.752	76.69
267.984	84.69
268.216	84.69
268.448	80.69
268.681	78.69
268.913	80.69
269.145	83.69
269.377	78.69
269.609	65.69
269.841	86.69
270.073	85.69
270.306	76.69
270.538	74.69
270.77	65.69
271.002	85.69
271.234	79.69
271.466	84.69
271.698	86.69
271.93	76.69
272.162	75.69
272.394	90.69
272.626	81.69
272.858	81.69
273.09	84.69
273.322	73.69
273.553	77.69
273.785	78.69
274.017	61.69
274.249	82.69
274.481	88.69
274.713	83.69
274.945	76.69
275.176	86.69
275.408	69.69
275.64	79.69
275.872	79.69
276.104	77.69
276.335	82.69
276.567	71.69
276.799	95.69
277.031	83.69
277.262	73.69
277.494	73.69
277.726	88.69
277.957	78.69
278.189	70.69
278.421	71.69
278.652	63.69
278.884	83.69
279.115	74.69
279.347	85.69
279.579	81.69
279.81	84.69
280.042	87.69
280.273	83.69
280.505	73.69
280.736	72.69
280.968	94.69
281.199	79.69
281.431	99.69
281.662	72.69
281.894	90.69
282.125	91.69
282.356	95.69
282.588	80.69
282.819	76.69
283.051	79.69
283.282	80.69
283.513	79.69
283.745	78.69
283.976	82.69
284.207	69.69
284.439	68.69
284.67	80.69
284.901	79.69
285.132	77.69
285.364	77.69
285.595	56.69
285.826	77.69
286.057	84.69
286.288	80.69
286.52	76.69
286.751	80.69
286.982	76.69
287.213	65.69
287.444	83.69
287.675	77.69
287.906	74.69
288.138	66.69
288.369	78.69
288.6	73.69
288.831	78.69
289.062	81.69
289.293	84.69
289.524	65.69
289.755	78.69
289.986	73.69
290.217	78.69
290.448	93.69
290.679	80.69
290.91	84.69
291.141	96.69
291.371	76.69
291.602	76.69
291.833	77.69
292.064	75.69
292.295	93.69
292.526	70.69
292.757	71.69
292.987	76.69
293.218	80.69
293.449	72.69
293.68	91.69
293.91	73.69
294.141	70.69
294.372	81.69
294.603	80.69
294.833	79.69
295.064	76.69
295.295	77.69
295.525	81.69
295.756	80.69
295.987	70.69
296.217	73.69
296.448	87.69
296.679	65.69
296.909	77.69
297.14	64.69
297.37	78.69
297.601	77.69
297.831	87.69
298.062	76.69
298.292	79.69
298.523	80.69
298.753	71.69
298.984	76.69
299.214	78.69
299.445	73.69
299.675	77.69
299.905	91.69
300.136	83.69
300.366	68.69
300.597	75.69
300.827	67.69
301.057	82.69
301.288	75.69
301.518	74.69
301.748	82.69
301.979	69.69
302.209	70.69
302.439	83.69
302.669	83.69
302.9	84.69
303.13	79.69
303.36	80.69
303.59	76.69
303.82	71.69
304.051	83.69
304.281	81.69
304.511	81.69
304.741	94.69
304.971	71.69
305.201	73.69
305.431	81.69
305.661	77.69
305.891	89.69
306.121	87.69
306.352	93.69
306.582	88.69
306.812	69.69
307.042	94.69
307.272	74.69
307.502	84.69
307.731	81.69
307.961	94.69
308.191	87.69
308.421	78.69
308.651	89.69
308.881	88.69
309.111	71.69
309.341	80.69
309.571	81.69
309.8	79.69
310.03	87.69
310.26	86.69
310.49	84.69
310.72	72.69
310.949	78.69
311.179	84.69
311.409	83.69
311.639	79.69
311.868	83.69
312.098	83.69
312.328	72.69
312.557	89.69
312.787	79.69
313.017	69.69
313.246	76.69
313.476	73.69
313.706	78.69
313.935	82.69
314.165	84.69
314.394	94.69
314.624	74.69
314.853	78.69
315.083	76.69
315.312	87.69
315.542	85.69
315.771	81.69
316.001	86.69
316.23	79.69
316.46	71.69
316.689	70.69
316.919	82.69
317.148	67.69
317.377	72.69
317.607	74.69
317.836	87.69
318.065	81.69
318.295	92.69
318.524	86.69
318.753	79.69
318.983	91.69
319.212	70.69
319.441	77.69
319.67	63.69
319.9	68.69
320.129	72.69
320.358	83.69
320.587	82.69
320.816	84.69
321.046	71.69
321.275	78.69
321.504	79.69
321.733	84.69
321.962	77.69
322.191	67.69
322.42	71.69
322.649	69.69
322.878	85.69
323.108	82.69
323.337	84.69
323.566	84.69
323.795	83.69
324.024	92.69
324.253	71.69
324.482	79.69
324.71	84.69
324.939	78.69
325.168	71.69
325.397	78.69
325.626	72.69
325.855	62.69
326.084	73.69
326.313	68.69
326.542	73.69
326.77	71.69
326.999	83.69
327.228	81.69
327.457	71.69
327.686	69.69
327.914	87.69
328.143	78.69
328.372	91.69
328.6	73.69
328.829	81.69
329.058	80.69
329.287	82.69
329.515	81.69
329.744	94.69
329.972	83.69
330.201	87.69
330.43	82.69
330.658	76.69
330.887	75.69
331.115	85.69
331.344	83.69
331.572	76.69
331.801	75.69
332.03	76.69
332.258	78.69
332.486	77.69
332.715	73.69
332.943	85.69
333.172	76.69
333.4	68.69
333.629	77.69
333.857	85.69
334.085	75.69
334.314	78.69
334.542	87.69
334.771	72.69
334.999	73.69
335.227	78.69
335.455	74.69
335.684	74.69
335.912	74.69
336.14	82.69
336.369	93.69
336.597	80.69
336.825	83.69
337.053	82.69
337.281	72.69
337.51	76.69
337.738	94.69
337.966	71.69
338.194	87.69
338.422	85.69
338.65	73.69
338.878	71.69
339.106	81.69
339.334	79.69
339.562	80.69
339.79	82.69
340.018	77.69
340.246	74.69
340.474	74.69
340.702	79.69
340.93	77.69
341.158	99.69
341.386	84.69
341.614	73.69
341.842	68.69
342.07	72.69
342.298	84.69
342.526	80.69
342.754	71.69
342.981	87.69
343.209	67.69
343.437	75.69
343.665	87.69
343.893	87.69
344.12	63.69
344.348	75.69
344.576	77.69
344.804	79.69
345.031	85.69
345.259	90.69
345.487	92.69
345.714	70.69
345.942	82.69
346.17	94.69
346.397	73.69
346.625	84.69
346.853	79.69
347.08	68.69
347.308	79.69
347.535	66.69
347.763	80.69
347.99	76.69
348.218	76.69
348.445	64.69
348.673	72.69
348.9	82.69
349.128	88.69
349.355	77.69
349.583	82.69
349.81	83.69
350.037	73.69
350.265	72.69
350.492	80.69
350.72	86.69
350.947	81.69
351.174	73.69
351.402	75.69
351.629	78.69
351.856	80.69
352.083	92.69
352.311	75.69
352.538	72.69
352.765	67.69
352.992	78.69
353.22	78.69
353.447	68.69
353.674	72.69
353.901	76.69
354.128	91.69
354.355	79.69
354.583	73.69
354.81	71.69
355.037	80.69
355.264	73.69
355.491	72.69
355.718	80.69
355.945	71.69
356.172	83.69
356.399	75.69
356.626	76.69
356.853	71.69
357.08	86.69
357.307	85.69
357.534	88.69
357.761	69.69
357.988	75.69
358.215	82.69
358.441	72.69
358.668	82.69
358.895	71.69
359.122	71.69
359.349	80.69
359.576	82.69
359.802	91.69
360.029	91.69
360.256	84.69
360.483	81.69
360.709	98.69
360.936	79.69
361.163	73.69
361.39	76.69
361.616	84.69
361.843	78.69
362.07	83.69
362.296	87.69
362.523	79.69
362.749	86.69
362.976	71.69
363.203	88.69
363.429	80.69
363.656	82.69
363.882	79.69
364.109	79.69
364.335	74.69
364.562	85.69
364.788	83.69
365.015	78.69
365.241	85.69
365.468	65.69
365.694	97.69
365.92	94.69
366.147	85.69
366.373	85.69
366.599	86.69
366.826	63.69
367.052	81.69
367.278	83.69
367.505	87.69
367.731	84.69
367.957	86.69
368.184	89.69
368.41	94.69
368.636	86.69
368.862	83.69
369.089	78.69
369.315	77.69
369.541	89.69
369.767	84.69
369.993	78.69
370.219	77.69
370.445	85.69
370.672	81.69
370.898	72.69
371.124	90.69
371.35	94.69
371.576	87.69
371.802	73.69
372.028	85.69
372.254	93.69
372.48	90.69
372.706	80.69
372.932	89.69
373.158	95.69
373.384	85.69
373.61	78.69
373.835	83.69
374.061	90.69
374.287	76.69
374.513	74.69
374.739	82.69
374.965	97.69
375.191	95.69
375.416	84.69
375.642	83.69
375.868	89.69
376.094	95.69
376.319	85.69
376.545	79.69
376.771	92.69
376.997	88.69
377.222	84.69
377.448	76.69
377.674	77.69
377.899	88.69
378.125	80.69
378.35	86.69
378.576	85.69
378.802	109.69
379.027	69.69
379.253	82.69
379.478	81.69
379.704	77.69
379.929	85.69
380.155	87.69
380.38	85.69
380.606	80.69
380.831	89.69
381.057	92.69
381.282	101.69
381.507	95.69
381.733	86.69
381.958	91.69
382.184	72.69
382.409	82.69
382.634	93.69
382.86	78.69
383.085	96.69
383.31	85.69
383.535	95.69
383.761	68.69
383.986	87.69
384.211	88.69
384.436	79.69
384.662	80.69
384.887	80.69
385.112	82.69
385.337	80.69
385.562	77.69
385.787	100.69
386.013	105.69
386.238	88.69
386.463	92.69
386.688	104.69
386.913	81.69
387.138	98.69
387.363	91.69
387.588	87.69
387.813	88.69
388.038	102.69
388.263	83.69
388.488	84.69
388.713	94.69
388.938	89.69
389.163	103.69
389.387	88.69
389.612	103.69
389.837	102.69
390.062	110.69
390.287	93.69
390.512	96.69
390.736	90.69
390.961	93.69
391.186	96.69
391.411	101.69
391.636	108.69
391.86	91.69
392.085	100.69
392.31	101.69
392.534	91.69
392.759	113.69
392.984	83.69
393.208	98.69
393.433	84.69
393.658	94.69
393.882	86.69
394.107	93.69
394.331	104.69
394.556	99.69
394.78	89.69
395.005	101.69
395.229	101.69
395.454	112.69
395.678	100.69
395.903	89.69
396.127	107.69
396.352	99.69
396.576	98.69
396.801	102.69
397.025	104.69
397.249	105.69
397.474	112.69
397.698	107.69
397.922	77.69
398.147	94.69
398.371	94.69
398.595	87.69
398.82	86.69
399.044	103.69
399.268	99.69
399.492	115.69
399.717	111.69
399.941	108.69
400.165	102.69
400.389	102.69
400.613	103.69
400.837	106.69
401.062	109.69
401.286	100.69
401.51	84.69
401.734	100.69
401.958	111.69
402.182	108.69
402.406	114.69
402.63	130.69
402.854	104.69
403.078	109.69
403.302	117.69
403.526	108.69
403.75	99.69
403.974	121.69
404.198	108.69
404.422	113.69
404.645	113.69
404.869	124.69
405.093	103.69
405.317	95.69
405.541	109.69
405.765	115.69
405.988	108.69
406.212	117.69
406.436	103.69
406.66	119.69
406.883	104.69
407.107	126.69
407.331	108.69
407.555	111.69
407.778	103.69
408.002	111.69
408.226	102.69
408.449	110.69
408.673	116.69
408.896	115.69
409.12	107.69
409.344	112.69
409.567	113.69
409.791	109.69
410.014	114.69
410.238	96.69
410.461	113.69
410.685	95.69
410.908	121.69
411.132	120.69
411.355	128.69
411.578	123.69
411.802	126.69
412.025	97.69
412.249	104.69
412.472	110.69
412.695	119.69
412.919	127.69
413.142	118.69
413.365	116.69
413.589	104.69
413.812	103.69
414.035	119.69
414.258	117.69
414.482	119.69
414.705	116.69
414.928	126.69
415.151	119.69
415.374	116.69
415.597	110.69
415.821	115.69
416.044	113.69
416.267	125.69
416.49	122.69
416.713	104.69
416.936	110.69
417.159	113.69
417.382	128.69
417.605	123.69
417.828	132.69
418.051	117.69
418.274	107.69
418.497	123.69
418.72	133.69
418.943	152.69
419.166	129.69
419.389	123.69
419.611	130.69
419.834	125.69
420.057	126.69
420.28	123.69
420.503	131.69
420.726	128.69
420.948	117.69
421.171	136.69
421.394	141.69
421.617	122.69
421.839	129.69
422.062	130.69
422.285	116.69
422.507	125.69
422.73	108.69
422.953	115.69
423.175	115.69
423.398	118.69
423.621	114.69
423.843	125.69
424.066	129.69
424.288	144.69
424.511	143.69
424.733	124.69
424.956	145.69
425.178	138.69
425.401	135.69
425.623	143.69
425.846	125.69
426.068	103.69
426.291	121.69
426.513	121.69
426.735	136.69
426.958	119.69
427.18	131.69
427.402	128.69
427.625	126.69
427.847	132.69
428.069	115.69
428.292	133.69
428.514	120.69
428.736	123.69
428.958	119.69
429.181	138.69
429.403	129.69
429.625	124.69
429.847	123.69
430.069	119.69
430.292	127.69
430.514	109.69
430.736	118.69
430.958	134.69
431.18	118.69
431.402	116.69
431.624	127.69
431.846	115.69
432.068	105.69
432.29	93.69
432.512	108.69
432.734	122.69
432.956	127.69
433.178	129.69
433.4	120.69
433.622	131.69
433.844	124.69
434.066	114.69
434.287	98.69
434.509	99.69
434.731	82.69
434.953	109.69
435.175	110.69
435.397	112.69
435.618	108.69
435.84	117.69
436.062	120.69
436.284	114.69
436.505	117.69
436.727	126.69
436.949	119.69
437.17	127.69
437.392	123.69
437.614	97.69
437.835	113.69
438.057	112.69
438.278	125.69
438.5	115.69
438.721	127.69
438.943	119.69
439.165	134.69
439.386	131.69
439.608	141.69
439.829	122.69
440.05	132.69
440.272	141.69
440.493	142.69
440.715	119.69
440.936	136.69
441.158	123.69
441.379	121.69
441.6	139.69
441.822	140.69
442.043	143.69
442.264	130.69
442.486	127.69
442.707	139.69
442.928	129.69
443.149	127.69
443.371	139.69
443.592	133.69
443.813	122.69
444.034	128.69
444.255	125.69
444.476	106.69
444.698	140.69
444.919	128.69
445.14	252.69
445.361	179.69
445.582	139.69
445.803	147.69
446.024	132.69
446.245	143.69
446.466	147.69
446.687	146.69
446.908	136.69
447.129	145.69
447.35	144.69
447.571	149.69
447.792	127.69
448.013	136.69
448.234	129.69
448.455	135.69
448.675	117.69
448.896	121.69
449.117	143.69
449.338	128.69
449.559	124.69
449.779	140.69
450	140.69
450.221	120.69
450.442	120.69
450.662	136.69
450.883	128.69
451.104	121.69
451.324	115.69
451.545	129.69
451.766	133.69
451.986	126.69
452.207	118.69
452.428	120.69
452.648	119.69
452.869	110.69
453.089	120.69
453.31	110.69
453.53	98.69
453.751	98.69
453.971	95.69
454.192	84.69
454.412	99.69
454.633	99.69
454.853	121.69
455.073	110.69
455.294	94.69
455.514	126.69
455.734	120.69
455.955	120.69
456.175	101.69
456.395	117.69
456.616	99.69
456.836	111.69
457.056	113.69
457.276	92.69
457.497	102.69
457.717	90.69
457.937	93.69
458.157	96.69
458.377	96.69
458.598	94.69
458.818	93.69
459.038	76.69
459.258	73.69
459.478	86.69
459.698	88.69
459.918	92.69
460.138	108.69
460.358	110.69
460.578	112.69
460.798	109.69
461.018	111.69
461.238	110.69
461.458	109.69
461.678	110.69
461.898	110.69
462.118	112.69
462.338	112.69
462.558	117.69
462.777	100.69
462.997	113.69
463.217	105.69
463.437	111.69
463.657	115.69
463.876	119.69
464.096	98.69
464.316	91.69
464.536	109.69
464.755	106.69
464.975	115.69
465.195	101.69
465.414	95.69
465.634	116.69
465.854	116.69
466.073	122.69
466.293	116.69
466.512	120.69
466.732	117.69
466.951	117.69
467.171	119.69
467.391	127.69
467.61	131.69
467.829	121.69
468.049	126.69
468.268	128.69
468.488	134.69
468.707	124.69
468.927	139.69
469.146	135.69
469.365	130.69
469.585	144.69
469.804	125.69
470.023	136.69
470.243	126.69
470.462	126.69
470.681	137.69
470.901	135.69
471.12	128.69
471.339	143.69
471.558	124.69
471.777	138.69
471.997	119.69
472.216	131.69
472.435	111.69
472.654	116.69
472.873	102.69
473.092	111.69
473.311	125.69
473.53	115.69
473.749	120.69
473.968	127.69
474.187	122.69
474.406	117.69
474.625	116.69
474.844	125.69
475.063	121.69
475.282	98.69
475.501	125.69
475.72	125.69
475.939	129.69
476.158	132.69
476.377	116.69
476.596	117.69
476.814	109.69
477.033	109.69
477.252	119.69
477.471	109.69
477.69	120.69
477.908	129.69
478.127	127.69
478.346	130.69
478.564	128.69
478.783	129.69
479.002	138.69
479.22	126.69
479.439	132.69
479.658	113.69
479.876	120.69
480.095	108.69
480.313	100.69
480.532	121.69
480.751	112.69
480.969	116.69
481.188	87.69
481.406	95.69
481.624	91.69
481.843	93.69
482.061	103.69
482.28	97.69
482.498	101.69
482.717	102.69
482.935	117.69
483.153	122.69
483.372	126.69
483.59	150.69
483.808	141.69
484.027	143.69
484.245	129.69
484.463	161.69
484.681	155.69
484.9	145.69
485.118	133.69
485.336	122.69
485.554	97.69
485.772	88.69
485.99	97.69
486.209	111.69
486.427	107.69
486.645	118.69
486.863	130.69
487.081	143.69
487.299	143.69
487.517	143.69
487.735	159.69
487.953	166.69
488.171	182.69
488.389	177.69
488.607	146.69
488.825	151.69
489.043	124.69
489.261	121.69
489.479	129.69
489.696	140.69
489.914	130.69
490.132	129.69
490.35	137.69
490.568	135.69
490.786	157.69
491.003	171.69
491.221	176.69
491.439	175.69
491.657	196.69
491.874	194.69
492.092	225.69
492.31	228.69
492.527	211.69
492.745	211.69
492.963	194.69
493.18	175.69
493.398	200.69
493.615	176.69
493.833	172.69
494.05	159.69
494.268	168.69
494.485	164.69
494.703	165.69
494.92	165.69
495.138	169.69
495.355	172.69
495.573	163.69
495.79	165.69
496.008	156.69
496.225	143.69
496.442	150.69
496.66	166.69
496.877	152.69
497.094	169.69
497.312	150.69
497.529	147.69
497.746	139.69
497.963	135.69
498.181	130.69
498.398	117.69
498.615	122.69
498.832	103.69
499.049	119.69
499.267	95.69
499.484	129.69
499.701	127.69
499.918	128.69
500.135	149.69
500.352	128.69
500.569	131.69
500.786	140.69
501.003	129.69
501.22	134.69
501.437	124.69
501.654	129.69
501.871	121.69
502.088	134.69
502.305	117.69
502.522	122.69
502.739	105.69
502.956	123.69
503.172	127.69
503.389	114.69
503.606	104.69
503.823	114.69
504.04	114.69
504.256	101.69
504.473	115.69
504.69	119.69
504.907	119.69
505.123	112.69
505.34	112.69
505.557	105.69
505.773	131.69
505.99	113.69
506.207	102.69
506.423	114.69
506.64	120.69
506.856	112.69
507.073	118.69
507.289	129.69
507.506	114.69
507.722	105.69
507.939	112.69
508.155	124.69
508.372	117.69
508.588	112.69
508.805	113.69
509.021	96.69
509.238	100.69
509.454	100.69
509.67	99.69
509.887	96.69
510.103	81.69
510.319	94.69
510.536	72.69
510.752	89.69
510.968	87.69
511.184	78.69
511.401	93.69
511.617	76.69
511.833	72.69
512.049	91.69
512.265	88.69
512.481	89.69
