Data from Location4.07152019.Energy5.Lamp.07192019.3%Agarose_HRD10591_16-21-01-926.txt Node
Date: Fri Jul 19 16:21:01 EDT 2019
User: cochatt
Spectrometer: HR+D1059
Trigger mode: 1
Integration Time (sec): 1.000000E-1
Scans to average: 1
Electric dark correction enabled: true
Nonlinearity correction enabled: false
Boxcar width: 0
XAxis mode: Wavelengths
Number of Pixels in Spectrum: 2048
>>>>>Begin Spectral Data<<<<<
223.165	-12.94
223.4	-12.94
223.635	-12.94
223.869	-18.94
224.104	-21.94
224.338	-0.94
224.573	-4.94
224.808	-12.94
225.042	-1.94
225.277	-8.94
225.511	-6.94
225.746	-3.94
225.98	6.06
226.215	8.06
226.449	3.06
226.683	25.06
226.918	31.06
227.152	21.06
227.387	27.06
227.621	32.06
227.856	45.06
228.09	55.06
228.324	46.06
228.559	56.06
228.793	52.06
229.027	56.06
229.262	53.06
229.496	70.06
229.73	75.06
229.964	86.06
230.199	77.06
230.433	90.06
230.667	65.06
230.901	72.06
231.136	73.06
231.37	83.06
231.604	91.06
231.838	86.06
232.072	91.06
232.306	85.06
232.541	77.06
232.775	74.06
233.009	80.06
233.243	81.06
233.477	84.06
233.711	73.06
233.945	74.06
234.179	89.06
234.413	101.06
234.647	81.06
234.881	77.06
235.115	85.06
235.349	76.06
235.583	82.06
235.817	80.06
236.051	93.06
236.285	78.06
236.519	72.06
236.753	77.06
236.987	75.06
237.221	87.06
237.455	76.06
237.689	76.06
237.922	86.06
238.156	82.06
238.39	93.06
238.624	93.06
238.858	72.06
239.091	85.06
239.325	85.06
239.559	89.06
239.793	92.06
240.027	91.06
240.26	68.06
240.494	81.06
240.728	92.06
240.961	87.06
241.195	85.06
241.429	85.06
241.662	76.06
241.896	75.06
242.13	87.06
242.363	88.06
242.597	82.06
242.83	89.06
243.064	80.06
243.298	81.06
243.531	76.06
243.765	94.06
243.998	82.06
244.232	71.06
244.465	84.06
244.699	88.06
244.932	82.06
245.166	76.06
245.399	80.06
245.633	79.06
245.866	79.06
246.099	80.06
246.333	89.06
246.566	81.06
246.8	85.06
247.033	66.06
247.266	90.06
247.5	80.06
247.733	91.06
247.966	89.06
248.2	90.06
248.433	83.06
248.666	89.06
248.899	86.06
249.133	76.06
249.366	64.06
249.599	76.06
249.832	85.06
250.066	79.06
250.299	68.06
250.532	75.06
250.765	87.06
250.998	83.06
251.231	81.06
251.465	87.06
251.698	79.06
251.931	103.06
252.164	82.06
252.397	68.06
252.63	84.06
252.863	68.06
253.096	78.06
253.329	93.06
253.562	83.06
253.795	79.06
254.028	83.06
254.261	85.06
254.494	92.06
254.727	91.06
254.96	106.06
255.193	97.06
255.426	90.06
255.659	87.06
255.892	78.06
256.124	87.06
256.357	87.06
256.59	82.06
256.823	94.06
257.056	84.06
257.289	83.06
257.521	89.06
257.754	88.06
257.987	100.06
258.22	89.06
258.452	59.06
258.685	84.06
258.918	84.06
259.151	83.06
259.383	92.06
259.616	81.06
259.849	86.06
260.081	77.06
260.314	85.06
260.547	91.06
260.779	91.06
261.012	91.06
261.244	78.06
261.477	71.06
261.71	91.06
261.942	85.06
262.175	93.06
262.407	76.06
262.64	86.06
262.872	83.06
263.105	75.06
263.337	80.06
263.57	91.06
263.802	91.06
264.035	90.06
264.267	88.06
264.499	80.06
264.732	91.06
264.964	83.06
265.197	75.06
265.429	100.06
265.661	82.06
265.894	95.06
266.126	100.06
266.358	80.06
266.591	86.06
266.823	93.06
267.055	86.06
267.287	90.06
267.52	90.06
267.752	87.06
267.984	86.06
268.216	85.06
268.448	96.06
268.681	92.06
268.913	83.06
269.145	98.06
269.377	77.06
269.609	80.06
269.841	71.06
270.073	75.06
270.306	77.06
270.538	72.06
270.77	82.06
271.002	81.06
271.234	81.06
271.466	103.06
271.698	73.06
271.93	72.06
272.162	92.06
272.394	87.06
272.626	102.06
272.858	89.06
273.09	75.06
273.322	93.06
273.553	90.06
273.785	69.06
274.017	81.06
274.249	83.06
274.481	73.06
274.713	79.06
274.945	79.06
275.176	88.06
275.408	77.06
275.64	80.06
275.872	87.06
276.104	84.06
276.335	84.06
276.567	76.06
276.799	98.06
277.031	77.06
277.262	79.06
277.494	90.06
277.726	91.06
277.957	74.06
278.189	94.06
278.421	89.06
278.652	91.06
278.884	90.06
279.115	87.06
279.347	98.06
279.579	80.06
279.81	94.06
280.042	90.06
280.273	92.06
280.505	92.06
280.736	91.06
280.968	83.06
281.199	92.06
281.431	87.06
281.662	87.06
281.894	95.06
282.125	80.06
282.356	91.06
282.588	84.06
282.819	101.06
283.051	82.06
283.282	98.06
283.513	85.06
283.745	69.06
283.976	84.06
284.207	92.06
284.439	82.06
284.67	91.06
284.901	87.06
285.132	87.06
285.364	105.06
285.595	91.06
285.826	87.06
286.057	93.06
286.288	76.06
286.52	95.06
286.751	84.06
286.982	80.06
287.213	88.06
287.444	92.06
287.675	78.06
287.906	99.06
288.138	86.06
288.369	77.06
288.6	88.06
288.831	80.06
289.062	90.06
289.293	94.06
289.524	85.06
289.755	88.06
289.986	88.06
290.217	87.06
290.448	90.06
290.679	99.06
290.91	90.06
291.141	79.06
291.371	91.06
291.602	80.06
291.833	78.06
292.064	87.06
292.295	92.06
292.526	77.06
292.757	80.06
292.987	67.06
293.218	86.06
293.449	86.06
293.68	90.06
293.91	90.06
294.141	83.06
294.372	79.06
294.603	99.06
294.833	95.06
295.064	86.06
295.295	86.06
295.525	86.06
295.756	81.06
295.987	90.06
296.217	80.06
296.448	84.06
296.679	105.06
296.909	93.06
297.14	92.06
297.37	87.06
297.601	84.06
297.831	91.06
298.062	88.06
298.292	80.06
298.523	92.06
298.753	104.06
298.984	102.06
299.214	95.06
299.445	73.06
299.675	77.06
299.905	96.06
300.136	85.06
300.366	79.06
300.597	74.06
300.827	86.06
301.057	84.06
301.288	80.06
301.518	107.06
301.748	90.06
301.979	88.06
302.209	84.06
302.439	87.06
302.669	80.06
302.9	86.06
303.13	84.06
303.36	68.06
303.59	88.06
303.82	87.06
304.051	85.06
304.281	87.06
304.511	81.06
304.741	84.06
304.971	67.06
305.201	85.06
305.431	77.06
305.661	88.06
305.891	93.06
306.121	94.06
306.352	100.06
306.582	84.06
306.812	79.06
307.042	83.06
307.272	78.06
307.502	89.06
307.731	90.06
307.961	87.06
308.191	92.06
308.421	96.06
308.651	87.06
308.881	91.06
309.111	94.06
309.341	72.06
309.571	90.06
309.8	94.06
310.03	91.06
310.26	80.06
310.49	90.06
310.72	86.06
310.949	76.06
311.179	92.06
311.409	84.06
311.639	79.06
311.868	84.06
312.098	90.06
312.328	92.06
312.557	88.06
312.787	105.06
313.017	84.06
313.246	85.06
313.476	93.06
313.706	81.06
313.935	92.06
314.165	85.06
314.394	85.06
314.624	81.06
314.853	84.06
315.083	85.06
315.312	92.06
315.542	93.06
315.771	98.06
316.001	93.06
316.23	108.06
316.46	86.06
316.689	93.06
316.919	83.06
317.148	83.06
317.377	96.06
317.607	66.06
317.836	79.06
318.065	80.06
318.295	78.06
318.524	75.06
318.753	86.06
318.983	78.06
319.212	90.06
319.441	82.06
319.67	95.06
319.9	96.06
320.129	96.06
320.358	91.06
320.587	87.06
320.816	95.06
321.046	92.06
321.275	92.06
321.504	98.06
321.733	90.06
321.962	95.06
322.191	89.06
322.42	95.06
322.649	100.06
322.878	77.06
323.108	94.06
323.337	78.06
323.566	76.06
323.795	81.06
324.024	97.06
324.253	82.06
324.482	92.06
324.71	86.06
324.939	85.06
325.168	99.06
325.397	76.06
325.626	80.06
325.855	86.06
326.084	80.06
326.313	87.06
326.542	98.06
326.77	90.06
326.999	89.06
327.228	78.06
327.457	88.06
327.686	89.06
327.914	77.06
328.143	99.06
328.372	92.06
328.6	93.06
328.829	88.06
329.058	90.06
329.287	92.06
329.515	94.06
329.744	84.06
329.972	77.06
330.201	75.06
330.43	85.06
330.658	104.06
330.887	100.06
331.115	88.06
331.344	86.06
331.572	85.06
331.801	94.06
332.03	83.06
332.258	98.06
332.486	75.06
332.715	93.06
332.943	104.06
333.172	89.06
333.4	83.06
333.629	89.06
333.857	80.06
334.085	90.06
334.314	99.06
334.542	87.06
334.771	79.06
334.999	86.06
335.227	89.06
335.455	86.06
335.684	90.06
335.912	88.06
336.14	91.06
336.369	87.06
336.597	89.06
336.825	95.06
337.053	94.06
337.281	93.06
337.51	82.06
337.738	101.06
337.966	95.06
338.194	91.06
338.422	102.06
338.65	93.06
338.878	90.06
339.106	108.06
339.334	94.06
339.562	82.06
339.79	90.06
340.018	89.06
340.246	99.06
340.474	82.06
340.702	87.06
340.93	82.06
341.158	75.06
341.386	92.06
341.614	88.06
341.842	88.06
342.07	88.06
342.298	91.06
342.526	97.06
342.754	80.06
342.981	93.06
343.209	88.06
343.437	78.06
343.665	90.06
343.893	87.06
344.12	82.06
344.348	80.06
344.576	83.06
344.804	80.06
345.031	82.06
345.259	78.06
345.487	92.06
345.714	87.06
345.942	78.06
346.17	80.06
346.397	88.06
346.625	99.06
346.853	103.06
347.08	89.06
347.308	87.06
347.535	90.06
347.763	87.06
347.99	98.06
348.218	86.06
348.445	88.06
348.673	93.06
348.9	84.06
349.128	91.06
349.355	85.06
349.583	86.06
349.81	98.06
350.037	88.06
350.265	86.06
350.492	98.06
350.72	94.06
350.947	78.06
351.174	102.06
351.402	85.06
351.629	99.06
351.856	100.06
352.083	100.06
352.311	81.06
352.538	91.06
352.765	95.06
352.992	97.06
353.22	86.06
353.447	83.06
353.674	80.06
353.901	92.06
354.128	77.06
354.355	92.06
354.583	82.06
354.81	98.06
355.037	89.06
355.264	77.06
355.491	76.06
355.718	77.06
355.945	89.06
356.172	76.06
356.399	98.06
356.626	77.06
356.853	90.06
357.08	86.06
357.307	86.06
357.534	87.06
357.761	89.06
357.988	93.06
358.215	86.06
358.441	94.06
358.668	91.06
358.895	100.06
359.122	81.06
359.349	90.06
359.576	92.06
359.802	96.06
360.029	94.06
360.256	87.06
360.483	79.06
360.709	72.06
360.936	95.06
361.163	94.06
361.39	80.06
361.616	94.06
361.843	85.06
362.07	83.06
362.296	90.06
362.523	92.06
362.749	78.06
362.976	92.06
363.203	86.06
363.429	75.06
363.656	93.06
363.882	76.06
364.109	78.06
364.335	92.06
364.562	84.06
364.788	88.06
365.015	87.06
365.241	95.06
365.468	100.06
365.694	87.06
365.92	81.06
366.147	73.06
366.373	101.06
366.599	97.06
366.826	95.06
367.052	88.06
367.278	85.06
367.505	74.06
367.731	79.06
367.957	94.06
368.184	100.06
368.41	86.06
368.636	90.06
368.862	100.06
369.089	93.06
369.315	86.06
369.541	100.06
369.767	95.06
369.993	91.06
370.219	88.06
370.445	97.06
370.672	83.06
370.898	90.06
371.124	97.06
371.35	86.06
371.576	101.06
371.802	103.06
372.028	109.06
372.254	90.06
372.48	99.06
372.706	87.06
372.932	90.06
373.158	87.06
373.384	100.06
373.61	98.06
373.835	103.06
374.061	95.06
374.287	80.06
374.513	101.06
374.739	93.06
374.965	104.06
375.191	89.06
375.416	99.06
375.642	95.06
375.868	95.06
376.094	101.06
376.319	91.06
376.545	86.06
376.771	90.06
376.997	82.06
377.222	93.06
377.448	107.06
377.674	98.06
377.899	107.06
378.125	84.06
378.35	84.06
378.576	100.06
378.802	104.06
379.027	106.06
379.253	91.06
379.478	95.06
379.704	90.06
379.929	90.06
380.155	88.06
380.38	117.06
380.606	91.06
380.831	86.06
381.057	94.06
381.282	98.06
381.507	99.06
381.733	107.06
381.958	103.06
382.184	94.06
382.409	98.06
382.634	96.06
382.86	95.06
383.085	99.06
383.31	96.06
383.535	86.06
383.761	96.06
383.986	106.06
384.211	95.06
384.436	93.06
384.662	88.06
384.887	95.06
385.112	92.06
385.337	95.06
385.562	104.06
385.787	106.06
386.013	92.06
386.238	109.06
386.463	106.06
386.688	88.06
386.913	99.06
387.138	89.06
387.363	82.06
387.588	96.06
387.813	104.06
388.038	95.06
388.263	95.06
388.488	101.06
388.713	100.06
388.938	128.06
389.163	112.06
389.387	90.06
389.612	97.06
389.837	88.06
390.062	98.06
390.287	95.06
390.512	101.06
390.736	104.06
390.961	102.06
391.186	107.06
391.411	99.06
391.636	88.06
391.86	100.06
392.085	87.06
392.31	103.06
392.534	108.06
392.759	119.06
392.984	108.06
393.208	124.06
393.433	104.06
393.658	91.06
393.882	103.06
394.107	95.06
394.331	106.06
394.556	99.06
394.78	112.06
395.005	110.06
395.229	111.06
395.454	94.06
395.678	108.06
395.903	118.06
396.127	106.06
396.352	104.06
396.576	106.06
396.801	112.06
397.025	112.06
397.249	122.06
397.474	109.06
397.698	99.06
397.922	108.06
398.147	123.06
398.371	105.06
398.595	102.06
398.82	105.06
399.044	110.06
399.268	119.06
399.492	107.06
399.717	112.06
399.941	107.06
400.165	116.06
400.389	98.06
400.613	109.06
400.837	118.06
401.062	106.06
401.286	125.06
401.51	114.06
401.734	113.06
401.958	101.06
402.182	109.06
402.406	116.06
402.63	115.06
402.854	109.06
403.078	105.06
403.302	123.06
403.526	116.06
403.75	111.06
403.974	122.06
404.198	93.06
404.422	116.06
404.645	123.06
404.869	114.06
405.093	109.06
405.317	102.06
405.541	102.06
405.765	113.06
405.988	115.06
406.212	120.06
406.436	125.06
406.66	118.06
406.883	127.06
407.107	117.06
407.331	115.06
407.555	129.06
407.778	106.06
408.002	122.06
408.226	120.06
408.449	123.06
408.673	127.06
408.896	123.06
409.12	105.06
409.344	115.06
409.567	110.06
409.791	119.06
410.014	135.06
410.238	122.06
410.461	119.06
410.685	108.06
410.908	130.06
411.132	132.06
411.355	125.06
411.578	132.06
411.802	112.06
412.025	113.06
412.249	116.06
412.472	121.06
412.695	115.06
412.919	119.06
413.142	125.06
413.365	130.06
413.589	125.06
413.812	111.06
414.035	118.06
414.258	102.06
414.482	122.06
414.705	117.06
414.928	123.06
415.151	114.06
415.374	121.06
415.597	118.06
415.821	102.06
416.044	122.06
416.267	132.06
416.49	142.06
416.713	111.06
416.936	103.06
417.159	120.06
417.382	123.06
417.605	126.06
417.828	122.06
418.051	128.06
418.274	115.06
418.497	139.06
418.72	124.06
418.943	126.06
419.166	127.06
419.389	136.06
419.611	134.06
419.834	131.06
420.057	121.06
420.28	132.06
420.503	143.06
420.726	123.06
420.948	135.06
421.171	133.06
421.394	132.06
421.617	127.06
421.839	136.06
422.062	137.06
422.285	136.06
422.507	122.06
422.73	140.06
422.953	127.06
423.175	124.06
423.398	134.06
423.621	132.06
423.843	132.06
424.066	141.06
424.288	126.06
424.511	126.06
424.733	137.06
424.956	148.06
425.178	138.06
425.401	134.06
425.623	139.06
425.846	145.06
426.068	138.06
426.291	136.06
426.513	125.06
426.735	128.06
426.958	127.06
427.18	123.06
427.402	124.06
427.625	119.06
427.847	107.06
428.069	128.06
428.292	124.06
428.514	136.06
428.736	144.06
428.958	133.06
429.181	123.06
429.403	125.06
429.625	112.06
429.847	118.06
430.069	120.06
430.292	132.06
430.514	136.06
430.736	136.06
430.958	130.06
431.18	129.06
431.402	144.06
431.624	133.06
431.846	108.06
432.068	95.06
432.29	103.06
432.512	99.06
432.734	119.06
432.956	127.06
433.178	134.06
433.4	125.06
433.622	125.06
433.844	131.06
434.066	126.06
434.287	108.06
434.509	108.06
434.731	109.06
434.953	119.06
435.175	126.06
435.397	122.06
435.618	126.06
435.84	118.06
436.062	111.06
436.284	115.06
436.505	113.06
436.727	128.06
436.949	142.06
437.17	139.06
437.392	117.06
437.614	124.06
437.835	123.06
438.057	111.06
438.278	115.06
438.5	122.06
438.721	123.06
438.943	142.06
439.165	137.06
439.386	130.06
439.608	163.06
439.829	128.06
440.05	139.06
440.272	160.06
440.493	153.06
440.715	141.06
440.936	126.06
441.158	138.06
441.379	134.06
441.6	147.06
441.822	148.06
442.043	142.06
442.264	130.06
442.486	140.06
442.707	133.06
442.928	132.06
443.149	128.06
443.371	143.06
443.592	136.06
443.813	131.06
444.034	131.06
444.255	142.06
444.476	138.06
444.698	138.06
444.919	136.06
445.14	266.06
445.361	195.06
445.582	144.06
445.803	144.06
446.024	147.06
446.245	158.06
446.466	149.06
446.687	159.06
446.908	142.06
447.129	160.06
447.35	137.06
447.571	138.06
447.792	145.06
448.013	154.06
448.234	157.06
448.455	137.06
448.675	139.06
448.896	139.06
449.117	137.06
449.338	129.06
449.559	142.06
449.779	122.06
450	134.06
450.221	137.06
450.442	139.06
450.662	124.06
450.883	139.06
451.104	137.06
451.324	134.06
451.545	127.06
451.766	123.06
451.986	119.06
452.207	124.06
452.428	114.06
452.648	118.06
452.869	130.06
453.089	124.06
453.31	121.06
453.53	112.06
453.751	114.06
453.971	108.06
454.192	103.06
454.412	103.06
454.633	124.06
454.853	98.06
455.073	114.06
455.294	111.06
455.514	110.06
455.734	124.06
455.955	118.06
456.175	115.06
456.395	123.06
456.616	122.06
456.836	111.06
457.056	115.06
457.276	97.06
457.497	98.06
457.717	114.06
457.937	110.06
458.157	104.06
458.377	109.06
458.598	109.06
458.818	81.06
459.038	99.06
459.258	80.06
459.478	95.06
459.698	89.06
459.918	99.06
460.138	102.06
460.358	124.06
460.578	125.06
460.798	109.06
461.018	110.06
461.238	105.06
461.458	129.06
461.678	113.06
461.898	114.06
462.118	97.06
462.338	104.06
462.558	116.06
462.777	105.06
462.997	102.06
463.217	95.06
463.437	106.06
463.657	104.06
463.876	110.06
464.096	112.06
464.316	118.06
464.536	98.06
464.755	138.06
464.975	105.06
465.195	111.06
465.414	108.06
465.634	122.06
465.854	122.06
466.073	124.06
466.293	121.06
466.512	125.06
466.732	136.06
466.951	132.06
467.171	137.06
467.391	131.06
467.61	125.06
467.829	131.06
468.049	143.06
468.268	128.06
468.488	129.06
468.707	128.06
468.927	115.06
469.146	134.06
469.365	128.06
469.585	145.06
469.804	139.06
470.023	132.06
470.243	137.06
470.462	136.06
470.681	152.06
470.901	136.06
471.12	126.06
471.339	138.06
471.558	132.06
471.777	137.06
471.997	136.06
472.216	134.06
472.435	114.06
472.654	114.06
472.873	119.06
473.092	123.06
473.311	121.06
473.53	124.06
473.749	127.06
473.968	132.06
474.187	144.06
474.406	122.06
474.625	131.06
474.844	131.06
475.063	131.06
475.282	144.06
475.501	123.06
475.72	125.06
475.939	112.06
476.158	134.06
476.377	123.06
476.596	111.06
476.814	115.06
477.033	111.06
477.252	104.06
477.471	121.06
477.69	130.06
477.908	139.06
478.127	136.06
478.346	152.06
478.564	147.06
478.783	140.06
479.002	138.06
479.22	131.06
479.439	132.06
479.658	130.06
479.876	130.06
480.095	100.06
480.313	115.06
480.532	111.06
480.751	102.06
480.969	94.06
481.188	94.06
481.406	81.06
481.624	80.06
481.843	101.06
482.061	89.06
482.28	126.06
482.498	112.06
482.717	107.06
482.935	119.06
483.153	132.06
483.372	150.06
483.59	153.06
483.808	148.06
484.027	131.06
484.245	140.06
484.463	143.06
484.681	176.06
484.9	162.06
485.118	137.06
485.336	119.06
485.554	108.06
485.772	90.06
485.99	112.06
486.209	106.06
486.427	104.06
486.645	124.06
486.863	130.06
487.081	134.06
487.299	130.06
487.517	129.06
487.735	171.06
487.953	182.06
488.171	172.06
488.389	186.06
488.607	171.06
488.825	156.06
489.043	132.06
489.261	134.06
489.479	144.06
489.696	127.06
489.914	130.06
490.132	140.06
490.35	158.06
490.568	164.06
490.786	159.06
491.003	159.06
491.221	169.06
491.439	169.06
491.657	187.06
491.874	181.06
492.092	216.06
492.31	238.06
492.527	231.06
492.745	207.06
492.963	188.06
493.18	184.06
493.398	181.06
493.615	188.06
493.833	171.06
494.05	173.06
494.268	182.06
494.485	174.06
494.703	180.06
494.92	167.06
495.138	182.06
495.355	178.06
495.573	173.06
495.79	182.06
496.008	159.06
496.225	178.06
496.442	158.06
496.66	174.06
496.877	148.06
497.094	164.06
497.312	174.06
497.529	165.06
497.746	135.06
497.963	142.06
498.181	130.06
498.398	123.06
498.615	120.06
498.832	121.06
499.049	119.06
499.267	134.06
499.484	120.06
499.701	132.06
499.918	132.06
500.135	131.06
500.352	139.06
500.569	154.06
500.786	158.06
501.003	158.06
501.22	154.06
501.437	126.06
501.654	129.06
501.871	125.06
502.088	140.06
502.305	130.06
502.522	129.06
502.739	134.06
502.956	121.06
503.172	143.06
503.389	123.06
503.606	116.06
503.823	130.06
504.04	132.06
504.256	128.06
504.473	132.06
504.69	127.06
504.907	124.06
505.123	113.06
505.34	119.06
505.557	131.06
505.773	122.06
505.99	121.06
506.207	123.06
506.423	141.06
506.64	135.06
506.856	133.06
507.073	126.06
507.289	117.06
507.506	130.06
507.722	105.06
507.939	125.06
508.155	120.06
508.372	120.06
508.588	121.06
508.805	115.06
509.021	102.06
509.238	116.06
509.454	110.06
509.67	99.06
509.887	98.06
510.103	99.06
510.319	94.06
510.536	96.06
510.752	78.06
510.968	87.06
511.184	85.06
511.401	91.06
