Data from Location4.07152019.Energy5.Lamp.07192019.3%Agarose_HRD10591_16-19-06-929.txt Node
Date: Fri Jul 19 16:19:06 EDT 2019
User: cochatt
Spectrometer: HR+D1059
Trigger mode: 1
Integration Time (sec): 1.000000E-1
Scans to average: 1
Electric dark correction enabled: true
Nonlinearity correction enabled: false
Boxcar width: 0
XAxis mode: Wavelengths
Number of Pixels in Spectrum: 2048
>>>>>Begin Spectral Data<<<<<
223.165	-11.69
223.4	-11.69
223.635	-11.69
223.869	-22.69
224.104	-14.69
224.338	-4.69
224.573	-14.69
224.808	-13.69
225.042	-16.69
225.277	-9.69
225.511	4.31
225.746	3.31
225.98	2.31
226.215	8.31
226.449	2.31
226.683	20.31
226.918	33.31
227.152	34.31
227.387	29.31
227.621	37.31
227.856	39.31
228.09	39.31
228.324	46.31
228.559	57.31
228.793	44.31
229.027	67.31
229.262	62.31
229.496	56.31
229.73	73.31
229.964	65.31
230.199	60.31
230.433	67.31
230.667	75.31
230.901	81.31
231.136	87.31
231.37	71.31
231.604	83.31
231.838	82.31
232.072	78.31
232.306	82.31
232.541	80.31
232.775	68.31
233.009	91.31
233.243	74.31
233.477	74.31
233.711	74.31
233.945	88.31
234.179	89.31
234.413	94.31
234.647	70.31
234.881	79.31
235.115	82.31
235.349	78.31
235.583	89.31
235.817	84.31
236.051	75.31
236.285	76.31
236.519	78.31
236.753	80.31
236.987	84.31
237.221	71.31
237.455	79.31
237.689	78.31
237.922	83.31
238.156	71.31
238.39	75.31
238.624	72.31
238.858	78.31
239.091	78.31
239.325	70.31
239.559	77.31
239.793	67.31
240.027	70.31
240.26	74.31
240.494	79.31
240.728	81.31
240.961	84.31
241.195	67.31
241.429	63.31
241.662	62.31
241.896	73.31
242.13	65.31
242.363	79.31
242.597	74.31
242.83	70.31
243.064	74.31
243.298	71.31
243.531	76.31
243.765	81.31
243.998	54.31
244.232	79.31
244.465	67.31
244.699	69.31
244.932	70.31
245.166	86.31
245.399	87.31
245.633	96.31
245.866	86.31
246.099	73.31
246.333	85.31
246.566	70.31
246.8	80.31
247.033	85.31
247.266	93.31
247.5	75.31
247.733	67.31
247.966	75.31
248.2	88.31
248.433	82.31
248.666	85.31
248.899	86.31
249.133	74.31
249.366	87.31
249.599	90.31
249.832	72.31
250.066	75.31
250.299	75.31
250.532	73.31
250.765	79.31
250.998	75.31
251.231	79.31
251.465	82.31
251.698	75.31
251.931	87.31
252.164	78.31
252.397	86.31
252.63	76.31
252.863	73.31
253.096	80.31
253.329	68.31
253.562	85.31
253.795	63.31
254.028	82.31
254.261	86.31
254.494	83.31
254.727	83.31
254.96	82.31
255.193	66.31
255.426	81.31
255.659	71.31
255.892	88.31
256.124	76.31
256.357	76.31
256.59	91.31
256.823	90.31
257.056	95.31
257.289	80.31
257.521	74.31
257.754	68.31
257.987	81.31
258.22	88.31
258.452	72.31
258.685	63.31
258.918	78.31
259.151	78.31
259.383	78.31
259.616	86.31
259.849	90.31
260.081	78.31
260.314	86.31
260.547	63.31
260.779	72.31
261.012	75.31
261.244	80.31
261.477	81.31
261.71	75.31
261.942	89.31
262.175	74.31
262.407	92.31
262.64	65.31
262.872	79.31
263.105	77.31
263.337	74.31
263.57	83.31
263.802	71.31
264.035	73.31
264.267	74.31
264.499	73.31
264.732	77.31
264.964	90.31
265.197	78.31
265.429	82.31
265.661	74.31
265.894	69.31
266.126	74.31
266.358	81.31
266.591	79.31
266.823	79.31
267.055	78.31
267.287	74.31
267.52	81.31
267.752	71.31
267.984	74.31
268.216	86.31
268.448	82.31
268.681	84.31
268.913	75.31
269.145	93.31
269.377	82.31
269.609	79.31
269.841	65.31
270.073	76.31
270.306	78.31
270.538	74.31
270.77	71.31
271.002	89.31
271.234	88.31
271.466	89.31
271.698	74.31
271.93	78.31
272.162	89.31
272.394	79.31
272.626	72.31
272.858	71.31
273.09	89.31
273.322	85.31
273.553	72.31
273.785	78.31
274.017	83.31
274.249	80.31
274.481	85.31
274.713	81.31
274.945	88.31
275.176	82.31
275.408	90.31
275.64	77.31
275.872	87.31
276.104	78.31
276.335	79.31
276.567	84.31
276.799	95.31
277.031	75.31
277.262	90.31
277.494	85.31
277.726	84.31
277.957	80.31
278.189	89.31
278.421	81.31
278.652	78.31
278.884	81.31
279.115	78.31
279.347	72.31
279.579	83.31
279.81	74.31
280.042	67.31
280.273	74.31
280.505	83.31
280.736	74.31
280.968	81.31
281.199	87.31
281.431	100.31
281.662	83.31
281.894	79.31
282.125	85.31
282.356	88.31
282.588	85.31
282.819	87.31
283.051	84.31
283.282	85.31
283.513	93.31
283.745	85.31
283.976	75.31
284.207	79.31
284.439	80.31
284.67	88.31
284.901	78.31
285.132	74.31
285.364	91.31
285.595	87.31
285.826	81.31
286.057	93.31
286.288	91.31
286.52	86.31
286.751	78.31
286.982	79.31
287.213	81.31
287.444	87.31
287.675	65.31
287.906	61.31
288.138	85.31
288.369	80.31
288.6	79.31
288.831	91.31
289.062	87.31
289.293	90.31
289.524	73.31
289.755	80.31
289.986	87.31
290.217	82.31
290.448	76.31
290.679	83.31
290.91	85.31
291.141	85.31
291.371	86.31
291.602	89.31
291.833	87.31
292.064	67.31
292.295	70.31
292.526	77.31
292.757	86.31
292.987	86.31
293.218	96.31
293.449	84.31
293.68	73.31
293.91	77.31
294.141	79.31
294.372	75.31
294.603	75.31
294.833	72.31
295.064	77.31
295.295	93.31
295.525	89.31
295.756	85.31
295.987	95.31
296.217	78.31
296.448	83.31
296.679	81.31
296.909	81.31
297.14	70.31
297.37	85.31
297.601	96.31
297.831	85.31
298.062	102.31
298.292	87.31
298.523	87.31
298.753	86.31
298.984	81.31
299.214	87.31
299.445	90.31
299.675	73.31
299.905	90.31
300.136	87.31
300.366	89.31
300.597	81.31
300.827	91.31
301.057	79.31
301.288	77.31
301.518	81.31
301.748	81.31
301.979	98.31
302.209	98.31
302.439	90.31
302.669	92.31
302.9	93.31
303.13	89.31
303.36	85.31
303.59	83.31
303.82	82.31
304.051	78.31
304.281	87.31
304.511	90.31
304.741	72.31
304.971	83.31
305.201	83.31
305.431	88.31
305.661	81.31
305.891	97.31
306.121	83.31
306.352	94.31
306.582	85.31
306.812	85.31
307.042	89.31
307.272	82.31
307.502	66.31
307.731	79.31
307.961	83.31
308.191	82.31
308.421	90.31
308.651	85.31
308.881	87.31
309.111	80.31
309.341	91.31
309.571	81.31
309.8	82.31
310.03	86.31
310.26	78.31
310.49	81.31
310.72	84.31
310.949	64.31
311.179	98.31
311.409	91.31
311.639	84.31
311.868	83.31
312.098	84.31
312.328	72.31
312.557	71.31
312.787	90.31
313.017	94.31
313.246	83.31
313.476	80.31
313.706	65.31
313.935	94.31
314.165	87.31
314.394	86.31
314.624	86.31
314.853	77.31
315.083	85.31
315.312	93.31
315.542	85.31
315.771	66.31
316.001	74.31
316.23	79.31
316.46	106.31
316.689	79.31
316.919	87.31
317.148	84.31
317.377	88.31
317.607	73.31
317.836	79.31
318.065	83.31
318.295	84.31
318.524	64.31
318.753	89.31
318.983	74.31
319.212	83.31
319.441	94.31
319.67	83.31
319.9	79.31
320.129	97.31
320.358	84.31
320.587	75.31
320.816	88.31
321.046	78.31
321.275	85.31
321.504	85.31
321.733	66.31
321.962	89.31
322.191	76.31
322.42	75.31
322.649	73.31
322.878	82.31
323.108	70.31
323.337	74.31
323.566	82.31
323.795	85.31
324.024	83.31
324.253	66.31
324.482	86.31
324.71	84.31
324.939	87.31
325.168	86.31
325.397	74.31
325.626	81.31
325.855	97.31
326.084	91.31
326.313	83.31
326.542	81.31
326.77	78.31
326.999	88.31
327.228	100.31
327.457	91.31
327.686	94.31
327.914	74.31
328.143	88.31
328.372	78.31
328.6	92.31
328.829	84.31
329.058	83.31
329.287	79.31
329.515	75.31
329.744	69.31
329.972	63.31
330.201	88.31
330.43	83.31
330.658	78.31
330.887	77.31
331.115	87.31
331.344	80.31
331.572	86.31
331.801	74.31
332.03	81.31
332.258	78.31
332.486	84.31
332.715	88.31
332.943	95.31
333.172	96.31
333.4	88.31
333.629	88.31
333.857	79.31
334.085	78.31
334.314	85.31
334.542	101.31
334.771	85.31
334.999	75.31
335.227	84.31
335.455	80.31
335.684	95.31
335.912	72.31
336.14	82.31
336.369	79.31
336.597	74.31
336.825	85.31
337.053	83.31
337.281	82.31
337.51	82.31
337.738	80.31
337.966	82.31
338.194	69.31
338.422	73.31
338.65	72.31
338.878	98.31
339.106	100.31
339.334	82.31
339.562	74.31
339.79	83.31
340.018	65.31
340.246	75.31
340.474	84.31
340.702	71.31
340.93	82.31
341.158	70.31
341.386	82.31
341.614	85.31
341.842	86.31
342.07	75.31
342.298	79.31
342.526	78.31
342.754	82.31
342.981	77.31
343.209	93.31
343.437	64.31
343.665	80.31
343.893	78.31
344.12	87.31
344.348	78.31
344.576	94.31
344.804	100.31
345.031	73.31
345.259	78.31
345.487	84.31
345.714	86.31
345.942	75.31
346.17	84.31
346.397	89.31
346.625	95.31
346.853	86.31
347.08	74.31
347.308	86.31
347.535	95.31
347.763	88.31
347.99	82.31
348.218	76.31
348.445	95.31
348.673	86.31
348.9	80.31
349.128	71.31
349.355	84.31
349.583	80.31
349.81	89.31
350.037	98.31
350.265	99.31
350.492	86.31
350.72	88.31
350.947	80.31
351.174	81.31
351.402	78.31
351.629	68.31
351.856	82.31
352.083	96.31
352.311	83.31
352.538	74.31
352.765	81.31
352.992	85.31
353.22	85.31
353.447	83.31
353.674	90.31
353.901	68.31
354.128	72.31
354.355	74.31
354.583	84.31
354.81	90.31
355.037	69.31
355.264	81.31
355.491	68.31
355.718	67.31
355.945	89.31
356.172	95.31
356.399	80.31
356.626	75.31
356.853	82.31
357.08	92.31
357.307	89.31
357.534	75.31
357.761	78.31
357.988	87.31
358.215	91.31
358.441	83.31
358.668	82.31
358.895	86.31
359.122	77.31
359.349	82.31
359.576	83.31
359.802	104.31
360.029	88.31
360.256	71.31
360.483	78.31
360.709	78.31
360.936	86.31
361.163	83.31
361.39	81.31
361.616	88.31
361.843	81.31
362.07	74.31
362.296	82.31
362.523	81.31
362.749	78.31
362.976	78.31
363.203	94.31
363.429	75.31
363.656	77.31
363.882	83.31
364.109	89.31
364.335	87.31
364.562	68.31
364.788	88.31
365.015	74.31
365.241	88.31
365.468	78.31
365.694	83.31
365.92	89.31
366.147	89.31
366.373	86.31
366.599	95.31
366.826	95.31
367.052	88.31
367.278	100.31
367.505	84.31
367.731	102.31
367.957	90.31
368.184	84.31
368.41	93.31
368.636	88.31
368.862	99.31
369.089	78.31
369.315	70.31
369.541	75.31
369.767	85.31
369.993	80.31
370.219	99.31
370.445	87.31
370.672	91.31
370.898	78.31
371.124	85.31
371.35	81.31
371.576	94.31
371.802	110.31
372.028	101.31
372.254	83.31
372.48	93.31
372.706	92.31
372.932	99.31
373.158	86.31
373.384	77.31
373.61	82.31
373.835	71.31
374.061	88.31
374.287	95.31
374.513	95.31
374.739	88.31
374.965	95.31
375.191	88.31
375.416	82.31
375.642	89.31
375.868	89.31
376.094	93.31
376.319	74.31
376.545	110.31
376.771	79.31
376.997	91.31
377.222	89.31
377.448	90.31
377.674	87.31
377.899	84.31
378.125	81.31
378.35	86.31
378.576	92.31
378.802	97.31
379.027	95.31
379.253	87.31
379.478	88.31
379.704	90.31
379.929	83.31
380.155	93.31
380.38	82.31
380.606	95.31
380.831	83.31
381.057	102.31
381.282	104.31
381.507	81.31
381.733	99.31
381.958	92.31
382.184	92.31
382.409	88.31
382.634	104.31
382.86	79.31
383.085	98.31
383.31	102.31
383.535	93.31
383.761	96.31
383.986	101.31
384.211	107.31
384.436	104.31
384.662	90.31
384.887	82.31
385.112	82.31
385.337	82.31
385.562	99.31
385.787	92.31
386.013	91.31
386.238	99.31
386.463	90.31
386.688	91.31
386.913	89.31
387.138	97.31
387.363	95.31
387.588	101.31
387.813	96.31
388.038	95.31
388.263	98.31
388.488	105.31
388.713	97.31
388.938	110.31
389.163	90.31
389.387	91.31
389.612	104.31
389.837	113.31
390.062	105.31
390.287	101.31
390.512	99.31
390.736	95.31
390.961	106.31
391.186	104.31
391.411	93.31
391.636	105.31
391.86	92.31
392.085	112.31
392.31	122.31
392.534	118.31
392.759	98.31
392.984	112.31
393.208	99.31
393.433	115.31
393.658	98.31
393.882	107.31
394.107	94.31
394.331	107.31
394.556	112.31
394.78	117.31
395.005	104.31
395.229	104.31
395.454	97.31
395.678	103.31
395.903	115.31
396.127	102.31
396.352	101.31
396.576	96.31
396.801	121.31
397.025	112.31
397.249	116.31
397.474	99.31
397.698	97.31
397.922	105.31
398.147	88.31
398.371	100.31
398.595	115.31
398.82	99.31
399.044	105.31
399.268	114.31
399.492	111.31
399.717	112.31
399.941	109.31
400.165	113.31
400.389	106.31
400.613	106.31
400.837	112.31
401.062	121.31
401.286	111.31
401.51	110.31
401.734	102.31
401.958	113.31
402.182	103.31
402.406	99.31
402.63	106.31
402.854	107.31
403.078	120.31
403.302	90.31
403.526	106.31
403.75	106.31
403.974	126.31
404.198	115.31
404.422	119.31
404.645	108.31
404.869	121.31
405.093	111.31
405.317	112.31
405.541	110.31
405.765	114.31
405.988	126.31
406.212	114.31
406.436	103.31
406.66	108.31
406.883	118.31
407.107	104.31
407.331	108.31
407.555	111.31
407.778	125.31
408.002	102.31
408.226	111.31
408.449	110.31
408.673	111.31
408.896	121.31
409.12	105.31
409.344	120.31
409.567	117.31
409.791	116.31
410.014	130.31
410.238	120.31
410.461	123.31
410.685	120.31
410.908	115.31
411.132	129.31
411.355	111.31
411.578	121.31
411.802	111.31
412.025	123.31
412.249	111.31
412.472	123.31
412.695	118.31
412.919	137.31
413.142	117.31
413.365	117.31
413.589	118.31
413.812	124.31
414.035	121.31
414.258	121.31
414.482	116.31
414.705	113.31
414.928	109.31
415.151	119.31
415.374	121.31
415.597	118.31
415.821	106.31
416.044	113.31
416.267	120.31
416.49	127.31
416.713	123.31
416.936	125.31
417.159	126.31
417.382	129.31
417.605	108.31
417.828	127.31
418.051	119.31
418.274	136.31
418.497	127.31
418.72	135.31
418.943	119.31
419.166	110.31
419.389	114.31
419.611	119.31
419.834	124.31
420.057	125.31
420.28	122.31
420.503	143.31
420.726	129.31
420.948	132.31
421.171	129.31
421.394	116.31
421.617	128.31
421.839	133.31
422.062	140.31
422.285	117.31
422.507	130.31
422.73	114.31
422.953	131.31
423.175	120.31
423.398	117.31
423.621	121.31
423.843	120.31
424.066	129.31
424.288	139.31
424.511	145.31
424.733	129.31
424.956	130.31
425.178	148.31
425.401	133.31
425.623	142.31
425.846	125.31
426.068	117.31
426.291	135.31
426.513	128.31
426.735	126.31
426.958	122.31
427.18	126.31
427.402	129.31
427.625	128.31
427.847	135.31
428.069	124.31
428.292	129.31
428.514	119.31
428.736	136.31
428.958	139.31
429.181	135.31
429.403	135.31
429.625	141.31
429.847	125.31
430.069	131.31
430.292	133.31
430.514	145.31
430.736	142.31
430.958	114.31
431.18	119.31
431.402	110.31
431.624	119.31
431.846	114.31
432.068	106.31
432.29	86.31
432.512	88.31
432.734	117.31
432.956	126.31
433.178	137.31
433.4	131.31
433.622	136.31
433.844	127.31
434.066	125.31
434.287	120.31
434.509	97.31
434.731	93.31
434.953	104.31
435.175	128.31
435.397	127.31
435.618	107.31
435.84	105.31
436.062	106.31
436.284	118.31
436.505	125.31
436.727	123.31
436.949	127.31
437.17	124.31
437.392	135.31
437.614	131.31
437.835	112.31
438.057	103.31
438.278	123.31
438.5	117.31
438.721	131.31
438.943	133.31
439.165	128.31
439.386	158.31
439.608	141.31
439.829	152.31
440.05	125.31
440.272	141.31
440.493	135.31
440.715	145.31
440.936	133.31
441.158	138.31
441.379	132.31
441.6	150.31
441.822	131.31
442.043	139.31
442.264	130.31
442.486	130.31
442.707	133.31
442.928	130.31
443.149	139.31
443.371	143.31
443.592	129.31
443.813	139.31
444.034	140.31
444.255	139.31
444.476	143.31
444.698	144.31
444.919	128.31
445.14	278.31
445.361	216.31
445.582	146.31
445.803	151.31
446.024	159.31
446.245	140.31
446.466	137.31
446.687	151.31
446.908	155.31
447.129	162.31
447.35	143.31
447.571	158.31
447.792	133.31
448.013	150.31
448.234	148.31
448.455	137.31
448.675	135.31
448.896	125.31
449.117	146.31
449.338	139.31
449.559	125.31
449.779	143.31
450	136.31
450.221	119.31
450.442	134.31
450.662	133.31
450.883	143.31
451.104	123.31
451.324	137.31
451.545	129.31
451.766	131.31
451.986	120.31
452.207	129.31
452.428	126.31
452.648	119.31
452.869	120.31
453.089	127.31
453.31	109.31
453.53	103.31
453.751	94.31
453.971	101.31
454.192	97.31
454.412	99.31
454.633	120.31
454.853	121.31
455.073	130.31
455.294	114.31
455.514	105.31
455.734	123.31
455.955	127.31
456.175	114.31
456.395	113.31
456.616	124.31
456.836	117.31
457.056	118.31
457.276	107.31
457.497	112.31
457.717	97.31
457.937	113.31
458.157	106.31
458.377	96.31
458.598	102.31
458.818	93.31
459.038	70.31
459.258	82.31
459.478	72.31
459.698	96.31
459.918	99.31
460.138	121.31
460.358	116.31
460.578	122.31
460.798	125.31
461.018	119.31
461.238	125.31
461.458	100.31
461.678	116.31
461.898	120.31
462.118	110.31
462.338	107.31
462.558	116.31
462.777	111.31
462.997	108.31
463.217	106.31
463.437	113.31
463.657	100.31
463.876	99.31
464.096	87.31
464.316	108.31
464.536	117.31
464.755	132.31
464.975	117.31
465.195	119.31
465.414	119.31
465.634	120.31
465.854	89.31
466.073	109.31
466.293	106.31
466.512	120.31
466.732	145.31
466.951	145.31
467.171	131.31
467.391	134.31
467.61	120.31
467.829	126.31
468.049	136.31
468.268	130.31
468.488	142.31
468.707	124.31
468.927	122.31
469.146	140.31
469.365	151.31
469.585	138.31
469.804	129.31
470.023	136.31
470.243	134.31
470.462	145.31
470.681	145.31
470.901	135.31
471.12	151.31
471.339	148.31
471.558	135.31
471.777	135.31
471.997	137.31
472.216	124.31
472.435	125.31
472.654	111.31
472.873	120.31
473.092	121.31
473.311	116.31
473.53	130.31
473.749	129.31
473.968	136.31
474.187	123.31
474.406	112.31
474.625	125.31
474.844	116.31
475.063	125.31
475.282	139.31
475.501	125.31
475.72	108.31
475.939	129.31
476.158	130.31
476.377	133.31
476.596	121.31
476.814	120.31
477.033	107.31
477.252	102.31
477.471	126.31
477.69	126.31
477.908	153.31
478.127	146.31
478.346	129.31
478.564	127.31
478.783	118.31
479.002	119.31
479.22	147.31
479.439	124.31
479.658	125.31
479.876	131.31
480.095	119.31
480.313	125.31
480.532	119.31
480.751	113.31
480.969	91.31
481.188	89.31
481.406	97.31
481.624	87.31
481.843	88.31
482.061	105.31
482.28	114.31
482.498	103.31
482.717	129.31
482.935	116.31
483.153	129.31
483.372	151.31
483.59	144.31
483.808	152.31
484.027	129.31
484.245	132.31
484.463	159.31
484.681	177.31
484.9	159.31
485.118	148.31
485.336	134.31
485.554	119.31
485.772	98.31
485.99	103.31
486.209	94.31
486.427	101.31
486.645	124.31
486.863	125.31
487.081	143.31
487.299	134.31
487.517	148.31
487.735	157.31
487.953	173.31
488.171	166.31
488.389	162.31
488.607	149.31
488.825	149.31
489.043	124.31
489.261	123.31
489.479	131.31
489.696	132.31
489.914	153.31
490.132	141.31
490.35	168.31
490.568	157.31
490.786	162.31
491.003	182.31
491.221	177.31
491.439	191.31
491.657	183.31
491.874	210.31
492.092	206.31
492.31	234.31
492.527	220.31
492.745	201.31
492.963	175.31
493.18	171.31
493.398	196.31
493.615	179.31
493.833	184.31
494.05	167.31
494.268	179.31
494.485	164.31
494.703	175.31
494.92	158.31
495.138	173.31
495.355	166.31
495.573	154.31
495.79	161.31
496.008	177.31
496.225	158.31
496.442	155.31
496.66	159.31
496.877	154.31
497.094	171.31
497.312	163.31
497.529	151.31
497.746	154.31
497.963	137.31
498.181	123.31
498.398	131.31
498.615	130.31
498.832	122.31
499.049	120.31
499.267	109.31
499.484	125.31
499.701	127.31
499.918	134.31
500.135	135.31
500.352	122.31
500.569	146.31
500.786	131.31
501.003	143.31
501.22	148.31
501.437	138.31
501.654	145.31
501.871	122.31
502.088	135.31
502.305	128.31
502.522	130.31
502.739	143.31
502.956	131.31
503.172	136.31
503.389	128.31
503.606	120.31
503.823	126.31
504.04	121.31
504.256	131.31
504.473	125.31
504.69	105.31
504.907	119.31
505.123	135.31
505.34	123.31
505.557	115.31
505.773	118.31
505.99	123.31
506.207	123.31
506.423	119.31
506.64	114.31
506.856	118.31
507.073	104.31
507.289	112.31
507.506	115.31
507.722	117.31
507.939	119.31
508.155	120.31
508.372	121.31
508.588	114.31
508.805	115.31
509.021	110.31
509.238	103.31
509.454	106.31
509.67	108.31
509.887	96.31
510.103	91.31
510.319	89.31
510.536	92.31
510.752	87.31
510.968	99.31
511.184	82.31
511.401	72.31
511.617	95.31
511.833	94.31
512.049	82.31
