Data from Location4.07152019.Energy5.Lamp.07192019.3%Agarose_HRD10591_16-19-45-925.txt Node
Date: Fri Jul 19 16:19:45 EDT 2019
User: cochatt
Spectrometer: HR+D1059
Trigger mode: 1
Integration Time (sec): 1.000000E-1
Scans to average: 1
Electric dark correction enabled: true
Nonlinearity correction enabled: false
Boxcar width: 0
XAxis mode: Wavelengths
Number of Pixels in Spectrum: 2048
>>>>>Begin Spectral Data<<<<<
223.165	-10.81
223.4	-10.81
223.635	-10.81
223.869	-22.81
224.104	-5.81
224.338	-1.81
224.573	-14.81
224.808	-13.81
225.042	-2.81
225.277	-16.81
225.511	-8.81
225.746	5.19
225.98	17.19
226.215	11.19
226.449	6.19
226.683	15.19
226.918	15.19
227.152	28.19
227.387	45.19
227.621	45.19
227.856	50.19
228.09	48.19
228.324	39.19
228.559	41.19
228.793	57.19
229.027	57.19
229.262	71.19
229.496	77.19
229.73	66.19
229.964	75.19
230.199	74.19
230.433	73.19
230.667	71.19
230.901	95.19
231.136	81.19
231.37	80.19
231.604	78.19
231.838	82.19
232.072	89.19
232.306	98.19
232.541	56.19
232.775	96.19
233.009	92.19
233.243	89.19
233.477	82.19
233.711	77.19
233.945	93.19
234.179	78.19
234.413	84.19
234.647	74.19
234.881	72.19
235.115	87.19
235.349	82.19
235.583	92.19
235.817	72.19
236.051	97.19
236.285	83.19
236.519	59.19
236.753	75.19
236.987	84.19
237.221	85.19
237.455	75.19
237.689	75.19
237.922	63.19
238.156	85.19
238.39	76.19
238.624	85.19
238.858	72.19
239.091	80.19
239.325	76.19
239.559	76.19
239.793	86.19
240.027	74.19
240.26	70.19
240.494	90.19
240.728	83.19
240.961	77.19
241.195	72.19
241.429	73.19
241.662	78.19
241.896	70.19
242.13	82.19
242.363	77.19
242.597	87.19
242.83	84.19
243.064	89.19
243.298	60.19
243.531	76.19
243.765	78.19
243.998	80.19
244.232	89.19
244.465	83.19
244.699	82.19
244.932	97.19
245.166	68.19
245.399	85.19
245.633	79.19
245.866	79.19
246.099	84.19
246.333	83.19
246.566	83.19
246.8	83.19
247.033	87.19
247.266	74.19
247.5	68.19
247.733	74.19
247.966	84.19
248.2	78.19
248.433	69.19
248.666	67.19
248.899	94.19
249.133	86.19
249.366	83.19
249.599	73.19
249.832	80.19
250.066	84.19
250.299	86.19
250.532	92.19
250.765	85.19
250.998	65.19
251.231	75.19
251.465	85.19
251.698	84.19
251.931	90.19
252.164	66.19
252.397	84.19
252.63	74.19
252.863	83.19
253.096	78.19
253.329	92.19
253.562	77.19
253.795	81.19
254.028	82.19
254.261	79.19
254.494	88.19
254.727	73.19
254.96	78.19
255.193	77.19
255.426	83.19
255.659	75.19
255.892	90.19
256.124	79.19
256.357	91.19
256.59	81.19
256.823	78.19
257.056	91.19
257.289	72.19
257.521	87.19
257.754	89.19
257.987	69.19
258.22	95.19
258.452	87.19
258.685	94.19
258.918	93.19
259.151	84.19
259.383	83.19
259.616	92.19
259.849	91.19
260.081	85.19
260.314	88.19
260.547	89.19
260.779	93.19
261.012	84.19
261.244	96.19
261.477	89.19
261.71	82.19
261.942	91.19
262.175	75.19
262.407	78.19
262.64	86.19
262.872	89.19
263.105	90.19
263.337	76.19
263.57	84.19
263.802	82.19
264.035	81.19
264.267	91.19
264.499	87.19
264.732	73.19
264.964	75.19
265.197	82.19
265.429	82.19
265.661	110.19
265.894	68.19
266.126	92.19
266.358	100.19
266.591	72.19
266.823	78.19
267.055	78.19
267.287	89.19
267.52	82.19
267.752	76.19
267.984	87.19
268.216	94.19
268.448	95.19
268.681	74.19
268.913	78.19
269.145	70.19
269.377	85.19
269.609	87.19
269.841	83.19
270.073	83.19
270.306	87.19
270.538	83.19
270.77	89.19
271.002	83.19
271.234	77.19
271.466	74.19
271.698	79.19
271.93	95.19
272.162	94.19
272.394	94.19
272.626	82.19
272.858	93.19
273.09	99.19
273.322	79.19
273.553	95.19
273.785	79.19
274.017	89.19
274.249	87.19
274.481	91.19
274.713	83.19
274.945	91.19
275.176	92.19
275.408	91.19
275.64	83.19
275.872	81.19
276.104	77.19
276.335	80.19
276.567	83.19
276.799	81.19
277.031	90.19
277.262	92.19
277.494	82.19
277.726	84.19
277.957	75.19
278.189	82.19
278.421	81.19
278.652	74.19
278.884	94.19
279.115	87.19
279.347	79.19
279.579	83.19
279.81	90.19
280.042	82.19
280.273	68.19
280.505	88.19
280.736	71.19
280.968	82.19
281.199	86.19
281.431	87.19
281.662	88.19
281.894	75.19
282.125	90.19
282.356	97.19
282.588	96.19
282.819	92.19
283.051	88.19
283.282	82.19
283.513	92.19
283.745	85.19
283.976	85.19
284.207	99.19
284.439	89.19
284.67	79.19
284.901	76.19
285.132	73.19
285.364	92.19
285.595	98.19
285.826	85.19
286.057	85.19
286.288	91.19
286.52	80.19
286.751	90.19
286.982	84.19
287.213	77.19
287.444	84.19
287.675	83.19
287.906	92.19
288.138	87.19
288.369	84.19
288.6	89.19
288.831	89.19
289.062	87.19
289.293	92.19
289.524	99.19
289.755	88.19
289.986	87.19
290.217	94.19
290.448	87.19
290.679	88.19
290.91	96.19
291.141	92.19
291.371	96.19
291.602	97.19
291.833	79.19
292.064	80.19
292.295	95.19
292.526	98.19
292.757	96.19
292.987	87.19
293.218	96.19
293.449	93.19
293.68	84.19
293.91	80.19
294.141	91.19
294.372	82.19
294.603	98.19
294.833	86.19
295.064	89.19
295.295	72.19
295.525	91.19
295.756	92.19
295.987	87.19
296.217	89.19
296.448	88.19
296.679	89.19
296.909	87.19
297.14	83.19
297.37	88.19
297.601	87.19
297.831	78.19
298.062	76.19
298.292	87.19
298.523	89.19
298.753	81.19
298.984	86.19
299.214	94.19
299.445	70.19
299.675	97.19
299.905	84.19
300.136	86.19
300.366	94.19
300.597	82.19
300.827	94.19
301.057	81.19
301.288	91.19
301.518	81.19
301.748	92.19
301.979	85.19
302.209	78.19
302.439	89.19
302.669	99.19
302.9	87.19
303.13	91.19
303.36	89.19
303.59	79.19
303.82	78.19
304.051	82.19
304.281	102.19
304.511	84.19
304.741	82.19
304.971	87.19
305.201	95.19
305.431	89.19
305.661	84.19
305.891	78.19
306.121	88.19
306.352	85.19
306.582	92.19
306.812	78.19
307.042	100.19
307.272	91.19
307.502	75.19
307.731	86.19
307.961	87.19
308.191	71.19
308.421	97.19
308.651	92.19
308.881	86.19
309.111	79.19
309.341	100.19
309.571	78.19
309.8	104.19
310.03	96.19
310.26	93.19
310.49	82.19
310.72	92.19
310.949	93.19
311.179	79.19
311.409	88.19
311.639	85.19
311.868	83.19
312.098	93.19
312.328	84.19
312.557	77.19
312.787	93.19
313.017	89.19
313.246	92.19
313.476	65.19
313.706	76.19
313.935	105.19
314.165	73.19
314.394	90.19
314.624	87.19
314.853	90.19
315.083	91.19
315.312	90.19
315.542	87.19
315.771	93.19
316.001	81.19
316.23	80.19
316.46	70.19
316.689	83.19
316.919	70.19
317.148	82.19
317.377	86.19
317.607	85.19
317.836	89.19
318.065	81.19
318.295	77.19
318.524	79.19
318.753	88.19
318.983	75.19
319.212	83.19
319.441	85.19
319.67	89.19
319.9	97.19
320.129	76.19
320.358	87.19
320.587	95.19
320.816	86.19
321.046	74.19
321.275	86.19
321.504	78.19
321.733	84.19
321.962	94.19
322.191	88.19
322.42	95.19
322.649	82.19
322.878	97.19
323.108	89.19
323.337	89.19
323.566	82.19
323.795	81.19
324.024	74.19
324.253	90.19
324.482	107.19
324.71	91.19
324.939	105.19
325.168	95.19
325.397	92.19
325.626	92.19
325.855	87.19
326.084	83.19
326.313	90.19
326.542	82.19
326.77	80.19
326.999	79.19
327.228	101.19
327.457	92.19
327.686	85.19
327.914	82.19
328.143	89.19
328.372	94.19
328.6	90.19
328.829	84.19
329.058	105.19
329.287	95.19
329.515	79.19
329.744	80.19
329.972	98.19
330.201	82.19
330.43	77.19
330.658	82.19
330.887	97.19
331.115	90.19
331.344	96.19
331.572	86.19
331.801	88.19
332.03	78.19
332.258	83.19
332.486	86.19
332.715	86.19
332.943	78.19
333.172	76.19
333.4	83.19
333.629	77.19
333.857	81.19
334.085	79.19
334.314	91.19
334.542	89.19
334.771	76.19
334.999	86.19
335.227	82.19
335.455	85.19
335.684	93.19
335.912	93.19
336.14	85.19
336.369	84.19
336.597	86.19
336.825	70.19
337.053	97.19
337.281	79.19
337.51	91.19
337.738	78.19
337.966	90.19
338.194	92.19
338.422	80.19
338.65	82.19
338.878	98.19
339.106	85.19
339.334	87.19
339.562	86.19
339.79	91.19
340.018	80.19
340.246	81.19
340.474	79.19
340.702	90.19
340.93	100.19
341.158	93.19
341.386	79.19
341.614	79.19
341.842	75.19
342.07	86.19
342.298	92.19
342.526	79.19
342.754	86.19
342.981	86.19
343.209	86.19
343.437	95.19
343.665	79.19
343.893	82.19
344.12	74.19
344.348	82.19
344.576	89.19
344.804	86.19
345.031	82.19
345.259	74.19
345.487	101.19
345.714	82.19
345.942	75.19
346.17	89.19
346.397	80.19
346.625	89.19
346.853	94.19
347.08	88.19
347.308	91.19
347.535	85.19
347.763	92.19
347.99	94.19
348.218	92.19
348.445	72.19
348.673	98.19
348.9	85.19
349.128	90.19
349.355	99.19
349.583	98.19
349.81	103.19
350.037	90.19
350.265	75.19
350.492	74.19
350.72	89.19
350.947	81.19
351.174	92.19
351.402	84.19
351.629	87.19
351.856	86.19
352.083	91.19
352.311	76.19
352.538	101.19
352.765	96.19
352.992	94.19
353.22	87.19
353.447	76.19
353.674	94.19
353.901	97.19
354.128	75.19
354.355	84.19
354.583	89.19
354.81	79.19
355.037	82.19
355.264	86.19
355.491	81.19
355.718	78.19
355.945	72.19
356.172	93.19
356.399	94.19
356.626	85.19
356.853	90.19
357.08	80.19
357.307	100.19
357.534	81.19
357.761	81.19
357.988	91.19
358.215	78.19
358.441	92.19
358.668	94.19
358.895	90.19
359.122	87.19
359.349	82.19
359.576	81.19
359.802	100.19
360.029	78.19
360.256	77.19
360.483	105.19
360.709	87.19
360.936	91.19
361.163	97.19
361.39	89.19
361.616	94.19
361.843	90.19
362.07	76.19
362.296	84.19
362.523	74.19
362.749	97.19
362.976	85.19
363.203	98.19
363.429	91.19
363.656	85.19
363.882	85.19
364.109	78.19
364.335	81.19
364.562	87.19
364.788	72.19
365.015	92.19
365.241	94.19
365.468	84.19
365.694	94.19
365.92	100.19
366.147	88.19
366.373	84.19
366.599	67.19
366.826	89.19
367.052	91.19
367.278	90.19
367.505	95.19
367.731	97.19
367.957	93.19
368.184	77.19
368.41	81.19
368.636	63.19
368.862	101.19
369.089	91.19
369.315	86.19
369.541	91.19
369.767	83.19
369.993	87.19
370.219	91.19
370.445	84.19
370.672	87.19
370.898	85.19
371.124	88.19
371.35	99.19
371.576	104.19
371.802	87.19
372.028	103.19
372.254	99.19
372.48	85.19
372.706	93.19
372.932	88.19
373.158	89.19
373.384	89.19
373.61	94.19
373.835	93.19
374.061	107.19
374.287	97.19
374.513	102.19
374.739	96.19
374.965	87.19
375.191	95.19
375.416	82.19
375.642	91.19
375.868	94.19
376.094	84.19
376.319	100.19
376.545	88.19
376.771	96.19
376.997	92.19
377.222	93.19
377.448	84.19
377.674	83.19
377.899	92.19
378.125	97.19
378.35	87.19
378.576	95.19
378.802	103.19
379.027	83.19
379.253	82.19
379.478	85.19
379.704	103.19
379.929	93.19
380.155	84.19
380.38	98.19
380.606	83.19
380.831	99.19
381.057	100.19
381.282	99.19
381.507	102.19
381.733	105.19
381.958	91.19
382.184	94.19
382.409	102.19
382.634	101.19
382.86	90.19
383.085	100.19
383.31	92.19
383.535	97.19
383.761	100.19
383.986	99.19
384.211	91.19
384.436	92.19
384.662	103.19
384.887	101.19
385.112	97.19
385.337	78.19
385.562	94.19
385.787	95.19
386.013	110.19
386.238	106.19
386.463	94.19
386.688	87.19
386.913	104.19
387.138	89.19
387.363	91.19
387.588	107.19
387.813	100.19
388.038	99.19
388.263	117.19
388.488	111.19
388.713	111.19
388.938	111.19
389.163	105.19
389.387	99.19
389.612	109.19
389.837	96.19
390.062	103.19
390.287	99.19
390.512	102.19
390.736	106.19
390.961	107.19
391.186	103.19
391.411	85.19
391.636	102.19
391.86	107.19
392.085	102.19
392.31	98.19
392.534	102.19
392.759	114.19
392.984	121.19
393.208	95.19
393.433	104.19
393.658	108.19
393.882	108.19
394.107	126.19
394.331	101.19
394.556	104.19
394.78	109.19
395.005	101.19
395.229	109.19
395.454	107.19
395.678	109.19
395.903	102.19
396.127	102.19
396.352	102.19
396.576	106.19
396.801	105.19
397.025	90.19
397.249	93.19
397.474	103.19
397.698	108.19
397.922	111.19
398.147	121.19
398.371	112.19
398.595	116.19
398.82	113.19
399.044	103.19
399.268	119.19
399.492	110.19
399.717	118.19
399.941	102.19
400.165	113.19
400.389	106.19
400.613	99.19
400.837	113.19
401.062	115.19
401.286	110.19
401.51	118.19
401.734	119.19
401.958	117.19
402.182	90.19
402.406	111.19
402.63	106.19
402.854	107.19
403.078	101.19
403.302	106.19
403.526	111.19
403.75	107.19
403.974	126.19
404.198	109.19
404.422	105.19
404.645	113.19
404.869	124.19
405.093	126.19
405.317	107.19
405.541	112.19
405.765	120.19
405.988	115.19
406.212	131.19
406.436	129.19
406.66	118.19
406.883	126.19
407.107	115.19
407.331	123.19
407.555	120.19
407.778	123.19
408.002	127.19
408.226	122.19
408.449	110.19
408.673	113.19
408.896	105.19
409.12	107.19
409.344	123.19
409.567	127.19
409.791	118.19
410.014	126.19
410.238	118.19
410.461	122.19
410.685	121.19
410.908	115.19
411.132	125.19
411.355	118.19
411.578	122.19
411.802	129.19
412.025	116.19
412.249	125.19
412.472	114.19
412.695	131.19
412.919	131.19
413.142	110.19
413.365	125.19
413.589	116.19
413.812	113.19
414.035	129.19
414.258	141.19
414.482	122.19
414.705	115.19
414.928	102.19
415.151	129.19
415.374	124.19
415.597	130.19
415.821	139.19
416.044	125.19
416.267	127.19
416.49	120.19
416.713	124.19
416.936	135.19
417.159	124.19
417.382	141.19
417.605	131.19
417.828	141.19
418.051	150.19
418.274	133.19
418.497	140.19
418.72	121.19
418.943	130.19
419.166	140.19
419.389	125.19
419.611	129.19
419.834	124.19
420.057	127.19
420.28	118.19
420.503	124.19
420.726	126.19
420.948	129.19
421.171	145.19
421.394	130.19
421.617	161.19
421.839	137.19
422.062	135.19
422.285	130.19
422.507	115.19
422.73	118.19
422.953	123.19
423.175	136.19
423.398	130.19
423.621	124.19
423.843	118.19
424.066	133.19
424.288	126.19
424.511	127.19
424.733	142.19
424.956	139.19
425.178	129.19
425.401	135.19
425.623	135.19
425.846	129.19
426.068	133.19
426.291	140.19
426.513	104.19
426.735	131.19
426.958	134.19
427.18	138.19
427.402	123.19
427.625	126.19
427.847	124.19
428.069	121.19
428.292	125.19
428.514	126.19
428.736	138.19
428.958	119.19
429.181	111.19
429.403	119.19
429.625	147.19
429.847	131.19
430.069	114.19
430.292	123.19
430.514	126.19
430.736	120.19
430.958	115.19
431.18	129.19
431.402	130.19
431.624	120.19
431.846	104.19
432.068	108.19
432.29	105.19
432.512	118.19
432.734	127.19
432.956	116.19
433.178	138.19
433.4	141.19
433.622	148.19
433.844	131.19
434.066	99.19
434.287	105.19
434.509	99.19
434.731	102.19
434.953	113.19
435.175	121.19
435.397	121.19
435.618	128.19
435.84	119.19
436.062	115.19
436.284	124.19
436.505	122.19
436.727	140.19
436.949	142.19
437.17	139.19
437.392	135.19
437.614	120.19
437.835	125.19
438.057	106.19
438.278	113.19
438.5	120.19
438.721	129.19
438.943	147.19
439.165	130.19
439.386	111.19
439.608	140.19
439.829	129.19
440.05	147.19
440.272	147.19
440.493	141.19
440.715	133.19
440.936	137.19
441.158	155.19
441.379	141.19
441.6	134.19
441.822	146.19
442.043	132.19
442.264	135.19
442.486	150.19
442.707	147.19
442.928	126.19
443.149	111.19
443.371	152.19
443.592	135.19
443.813	132.19
444.034	125.19
444.255	140.19
444.476	142.19
444.698	129.19
444.919	131.19
445.14	267.19
445.361	206.19
445.582	134.19
445.803	126.19
446.024	150.19
446.245	146.19
446.466	142.19
446.687	162.19
446.908	159.19
447.129	155.19
447.35	150.19
447.571	153.19
447.792	155.19
448.013	129.19
448.234	139.19
448.455	134.19
448.675	140.19
448.896	130.19
449.117	123.19
449.338	143.19
449.559	139.19
449.779	135.19
450	145.19
450.221	135.19
450.442	144.19
450.662	121.19
450.883	131.19
451.104	135.19
451.324	120.19
451.545	132.19
451.766	142.19
451.986	131.19
452.207	132.19
452.428	130.19
452.648	114.19
452.869	127.19
453.089	130.19
453.31	115.19
453.53	109.19
453.751	113.19
453.971	102.19
454.192	107.19
454.412	109.19
454.633	131.19
454.853	122.19
455.073	125.19
455.294	121.19
455.514	121.19
455.734	126.19
455.955	121.19
456.175	112.19
456.395	110.19
456.616	117.19
456.836	113.19
457.056	112.19
457.276	111.19
457.497	119.19
457.717	113.19
457.937	115.19
458.157	102.19
458.377	100.19
458.598	114.19
458.818	113.19
459.038	102.19
459.258	96.19
459.478	101.19
459.698	100.19
459.918	100.19
460.138	100.19
460.358	115.19
460.578	127.19
460.798	98.19
461.018	118.19
461.238	108.19
461.458	118.19
461.678	127.19
461.898	104.19
462.118	105.19
462.338	127.19
462.558	132.19
462.777	123.19
462.997	120.19
463.217	101.19
463.437	123.19
463.657	124.19
463.876	101.19
464.096	114.19
464.316	98.19
464.536	119.19
464.755	126.19
464.975	114.19
465.195	105.19
465.414	112.19
465.634	123.19
465.854	129.19
466.073	122.19
466.293	126.19
466.512	137.19
466.732	129.19
466.951	124.19
467.171	134.19
467.391	133.19
467.61	149.19
467.829	128.19
468.049	144.19
468.268	134.19
468.488	149.19
468.707	137.19
468.927	141.19
469.146	136.19
469.365	155.19
469.585	142.19
469.804	146.19
470.023	141.19
470.243	148.19
470.462	165.19
470.681	141.19
470.901	130.19
471.12	141.19
471.339	141.19
471.558	147.19
471.777	142.19
471.997	144.19
472.216	143.19
472.435	111.19
472.654	107.19
472.873	118.19
473.092	97.19
473.311	122.19
473.53	101.19
473.749	135.19
473.968	127.19
474.187	130.19
474.406	133.19
474.625	126.19
474.844	133.19
475.063	126.19
475.282	120.19
475.501	115.19
475.72	125.19
475.939	119.19
476.158	138.19
476.377	141.19
476.596	125.19
476.814	110.19
477.033	113.19
477.252	127.19
477.471	136.19
477.69	134.19
477.908	138.19
478.127	126.19
478.346	125.19
478.564	140.19
478.783	129.19
479.002	133.19
479.22	126.19
479.439	130.19
479.658	109.19
479.876	119.19
480.095	112.19
480.313	130.19
480.532	118.19
480.751	127.19
480.969	98.19
481.188	94.19
481.406	92.19
481.624	92.19
481.843	109.19
482.061	110.19
482.28	100.19
482.498	111.19
482.717	110.19
482.935	132.19
483.153	149.19
483.372	136.19
483.59	149.19
483.808	149.19
484.027	134.19
484.245	139.19
484.463	161.19
484.681	157.19
484.9	157.19
485.118	140.19
485.336	123.19
485.554	122.19
485.772	114.19
485.99	104.19
486.209	126.19
486.427	106.19
486.645	121.19
486.863	123.19
487.081	140.19
487.299	121.19
487.517	153.19
487.735	163.19
487.953	175.19
488.171	190.19
488.389	161.19
488.607	165.19
488.825	144.19
489.043	134.19
489.261	131.19
489.479	142.19
489.696	145.19
489.914	144.19
490.132	145.19
490.35	156.19
490.568	151.19
490.786	174.19
491.003	174.19
491.221	172.19
491.439	163.19
491.657	187.19
491.874	201.19
492.092	227.19
492.31	227.19
492.527	213.19
492.745	208.19
492.963	189.19
493.18	181.19
493.398	176.19
493.615	189.19
493.833	178.19
494.05	159.19
494.268	177.19
494.485	163.19
494.703	166.19
494.92	163.19
495.138	190.19
495.355	168.19
495.573	159.19
495.79	169.19
496.008	185.19
496.225	171.19
496.442	157.19
496.66	161.19
496.877	165.19
497.094	167.19
497.312	163.19
497.529	156.19
497.746	147.19
497.963	142.19
498.181	142.19
498.398	116.19
498.615	122.19
498.832	122.19
499.049	122.19
499.267	122.19
499.484	126.19
499.701	121.19
499.918	142.19
500.135	140.19
500.352	139.19
500.569	155.19
500.786	148.19
501.003	143.19
501.22	147.19
501.437	138.19
501.654	140.19
501.871	142.19
502.088	139.19
502.305	144.19
502.522	135.19
502.739	131.19
502.956	158.19
503.172	121.19
503.389	125.19
503.606	123.19
503.823	117.19
504.04	125.19
504.256	121.19
504.473	118.19
504.69	119.19
504.907	125.19
505.123	117.19
505.34	129.19
505.557	124.19
505.773	142.19
505.99	124.19
506.207	122.19
506.423	122.19
506.64	104.19
506.856	115.19
507.073	122.19
507.289	115.19
507.506	117.19
507.722	126.19
507.939	121.19
508.155	121.19
508.372	128.19
508.588	121.19
508.805	124.19
509.021	106.19
509.238	121.19
509.454	122.19
509.67	103.19
509.887	117.19
510.103	100.19
510.319	102.19
510.536	110.19
510.752	91.19
510.968	91.19
511.184	78.19
