Data from Location4.07152019.Energy5.Lamp.07192019.3%Agarose_HRD10591_16-19-24-925.txt Node
Date: Fri Jul 19 16:19:24 EDT 2019
User: cochatt
Spectrometer: HR+D1059
Trigger mode: 1
Integration Time (sec): 1.000000E-1
Scans to average: 1
Electric dark correction enabled: true
Nonlinearity correction enabled: false
Boxcar width: 0
XAxis mode: Wavelengths
Number of Pixels in Spectrum: 2048
>>>>>Begin Spectral Data<<<<<
223.165	-3.06
223.4	-3.06
223.635	-3.06
223.869	-18.06
224.104	-17.06
224.338	-17.06
224.573	-22.06
224.808	-19.06
225.042	-3.06
225.277	-0.06
225.511	-2.06
225.746	5.94
225.98	11.94
226.215	15.94
226.449	15.94
226.683	9.94
226.918	18.94
227.152	22.94
227.387	30.94
227.621	38.94
227.856	43.94
228.09	54.94
228.324	47.94
228.559	59.94
228.793	65.94
229.027	68.94
229.262	57.94
229.496	67.94
229.73	73.94
229.964	63.94
230.199	67.94
230.433	77.94
230.667	69.94
230.901	81.94
231.136	63.94
231.37	79.94
231.604	78.94
231.838	66.94
232.072	65.94
232.306	83.94
232.541	91.94
232.775	84.94
233.009	79.94
233.243	86.94
233.477	81.94
233.711	79.94
233.945	81.94
234.179	75.94
234.413	64.94
234.647	95.94
234.881	90.94
235.115	85.94
235.349	71.94
235.583	80.94
235.817	81.94
236.051	77.94
236.285	75.94
236.519	78.94
236.753	81.94
236.987	85.94
237.221	87.94
237.455	82.94
237.689	72.94
237.922	86.94
238.156	89.94
238.39	81.94
238.624	63.94
238.858	70.94
239.091	76.94
239.325	68.94
239.559	83.94
239.793	69.94
240.027	77.94
240.26	81.94
240.494	73.94
240.728	67.94
240.961	75.94
241.195	71.94
241.429	76.94
241.662	74.94
241.896	94.94
242.13	72.94
242.363	78.94
242.597	79.94
242.83	83.94
243.064	83.94
243.298	86.94
243.531	70.94
243.765	77.94
243.998	88.94
244.232	80.94
244.465	67.94
244.699	81.94
244.932	79.94
245.166	71.94
245.399	86.94
245.633	74.94
245.866	72.94
246.099	79.94
246.333	73.94
246.566	92.94
246.8	75.94
247.033	83.94
247.266	80.94
247.5	87.94
247.733	74.94
247.966	77.94
248.2	84.94
248.433	86.94
248.666	86.94
248.899	85.94
249.133	80.94
249.366	75.94
249.599	81.94
249.832	74.94
250.066	85.94
250.299	83.94
250.532	82.94
250.765	77.94
250.998	78.94
251.231	79.94
251.465	83.94
251.698	73.94
251.931	81.94
252.164	82.94
252.397	77.94
252.63	80.94
252.863	80.94
253.096	90.94
253.329	75.94
253.562	83.94
253.795	79.94
254.028	85.94
254.261	76.94
254.494	84.94
254.727	77.94
254.96	77.94
255.193	88.94
255.426	87.94
255.659	74.94
255.892	82.94
256.124	89.94
256.357	85.94
256.59	90.94
256.823	74.94
257.056	97.94
257.289	83.94
257.521	81.94
257.754	79.94
257.987	81.94
258.22	94.94
258.452	89.94
258.685	90.94
258.918	79.94
259.151	81.94
259.383	79.94
259.616	79.94
259.849	90.94
260.081	93.94
260.314	81.94
260.547	70.94
260.779	74.94
261.012	78.94
261.244	87.94
261.477	86.94
261.71	74.94
261.942	78.94
262.175	88.94
262.407	90.94
262.64	94.94
262.872	81.94
263.105	69.94
263.337	81.94
263.57	79.94
263.802	78.94
264.035	77.94
264.267	72.94
264.499	88.94
264.732	88.94
264.964	82.94
265.197	88.94
265.429	106.94
265.661	88.94
265.894	80.94
266.126	88.94
266.358	91.94
266.591	80.94
266.823	101.94
267.055	73.94
267.287	80.94
267.52	78.94
267.752	85.94
267.984	90.94
268.216	81.94
268.448	92.94
268.681	84.94
268.913	93.94
269.145	86.94
269.377	89.94
269.609	89.94
269.841	102.94
270.073	90.94
270.306	69.94
270.538	86.94
270.77	72.94
271.002	75.94
271.234	88.94
271.466	85.94
271.698	86.94
271.93	93.94
272.162	89.94
272.394	93.94
272.626	97.94
272.858	80.94
273.09	83.94
273.322	85.94
273.553	80.94
273.785	87.94
274.017	89.94
274.249	88.94
274.481	88.94
274.713	84.94
274.945	70.94
275.176	91.94
275.408	89.94
275.64	91.94
275.872	97.94
276.104	86.94
276.335	103.94
276.567	84.94
276.799	82.94
277.031	79.94
277.262	92.94
277.494	92.94
277.726	69.94
277.957	83.94
278.189	86.94
278.421	89.94
278.652	90.94
278.884	89.94
279.115	85.94
279.347	83.94
279.579	87.94
279.81	102.94
280.042	91.94
280.273	77.94
280.505	77.94
280.736	78.94
280.968	93.94
281.199	67.94
281.431	90.94
281.662	72.94
281.894	73.94
282.125	88.94
282.356	76.94
282.588	89.94
282.819	90.94
283.051	92.94
283.282	88.94
283.513	92.94
283.745	79.94
283.976	78.94
284.207	79.94
284.439	79.94
284.67	78.94
284.901	83.94
285.132	96.94
285.364	82.94
285.595	78.94
285.826	78.94
286.057	91.94
286.288	76.94
286.52	83.94
286.751	79.94
286.982	79.94
287.213	84.94
287.444	79.94
287.675	84.94
287.906	98.94
288.138	95.94
288.369	84.94
288.6	76.94
288.831	77.94
289.062	92.94
289.293	91.94
289.524	90.94
289.755	66.94
289.986	78.94
290.217	105.94
290.448	92.94
290.679	98.94
290.91	90.94
291.141	91.94
291.371	84.94
291.602	77.94
291.833	90.94
292.064	84.94
292.295	93.94
292.526	86.94
292.757	99.94
292.987	81.94
293.218	83.94
293.449	90.94
293.68	88.94
293.91	89.94
294.141	84.94
294.372	94.94
294.603	79.94
294.833	87.94
295.064	95.94
295.295	97.94
295.525	79.94
295.756	78.94
295.987	95.94
296.217	85.94
296.448	76.94
296.679	78.94
296.909	79.94
297.14	101.94
297.37	90.94
297.601	80.94
297.831	93.94
298.062	83.94
298.292	84.94
298.523	73.94
298.753	73.94
298.984	92.94
299.214	89.94
299.445	80.94
299.675	85.94
299.905	85.94
300.136	75.94
300.366	82.94
300.597	88.94
300.827	88.94
301.057	97.94
301.288	90.94
301.518	75.94
301.748	85.94
301.979	77.94
302.209	91.94
302.439	96.94
302.669	89.94
302.9	81.94
303.13	83.94
303.36	87.94
303.59	98.94
303.82	91.94
304.051	91.94
304.281	84.94
304.511	79.94
304.741	88.94
304.971	92.94
305.201	93.94
305.431	94.94
305.661	94.94
305.891	88.94
306.121	73.94
306.352	99.94
306.582	81.94
306.812	79.94
307.042	79.94
307.272	79.94
307.502	74.94
307.731	82.94
307.961	79.94
308.191	88.94
308.421	93.94
308.651	90.94
308.881	92.94
309.111	90.94
309.341	77.94
309.571	87.94
309.8	81.94
310.03	80.94
310.26	100.94
310.49	85.94
310.72	72.94
310.949	85.94
311.179	75.94
311.409	85.94
311.639	104.94
311.868	99.94
312.098	86.94
312.328	80.94
312.557	85.94
312.787	85.94
313.017	86.94
313.246	90.94
313.476	84.94
313.706	92.94
313.935	95.94
314.165	79.94
314.394	93.94
314.624	96.94
314.853	96.94
315.083	85.94
315.312	89.94
315.542	85.94
315.771	85.94
316.001	81.94
316.23	96.94
316.46	86.94
316.689	92.94
316.919	88.94
317.148	83.94
317.377	91.94
317.607	85.94
317.836	94.94
318.065	95.94
318.295	88.94
318.524	92.94
318.753	86.94
318.983	90.94
319.212	83.94
319.441	82.94
319.67	86.94
319.9	87.94
320.129	99.94
320.358	90.94
320.587	92.94
320.816	90.94
321.046	92.94
321.275	87.94
321.504	89.94
321.733	80.94
321.962	106.94
322.191	80.94
322.42	93.94
322.649	76.94
322.878	92.94
323.108	92.94
323.337	85.94
323.566	91.94
323.795	86.94
324.024	86.94
324.253	104.94
324.482	89.94
324.71	110.94
324.939	107.94
325.168	86.94
325.397	71.94
325.626	89.94
325.855	88.94
326.084	86.94
326.313	102.94
326.542	86.94
326.77	79.94
326.999	83.94
327.228	67.94
327.457	101.94
327.686	90.94
327.914	82.94
328.143	86.94
328.372	88.94
328.6	90.94
328.829	78.94
329.058	76.94
329.287	83.94
329.515	89.94
329.744	80.94
329.972	86.94
330.201	79.94
330.43	73.94
330.658	87.94
330.887	81.94
331.115	87.94
331.344	93.94
331.572	88.94
331.801	79.94
332.03	101.94
332.258	82.94
332.486	83.94
332.715	106.94
332.943	84.94
333.172	82.94
333.4	93.94
333.629	75.94
333.857	84.94
334.085	84.94
334.314	82.94
334.542	79.94
334.771	88.94
334.999	87.94
335.227	72.94
335.455	87.94
335.684	85.94
335.912	90.94
336.14	85.94
336.369	87.94
336.597	80.94
336.825	81.94
337.053	86.94
337.281	74.94
337.51	79.94
337.738	96.94
337.966	84.94
338.194	91.94
338.422	80.94
338.65	87.94
338.878	81.94
339.106	86.94
339.334	82.94
339.562	89.94
339.79	80.94
340.018	94.94
340.246	90.94
340.474	95.94
340.702	107.94
340.93	75.94
341.158	77.94
341.386	77.94
341.614	88.94
341.842	87.94
342.07	90.94
342.298	89.94
342.526	83.94
342.754	94.94
342.981	89.94
343.209	78.94
343.437	89.94
343.665	74.94
343.893	82.94
344.12	75.94
344.348	89.94
344.576	89.94
344.804	94.94
345.031	95.94
345.259	96.94
345.487	86.94
345.714	96.94
345.942	82.94
346.17	96.94
346.397	79.94
346.625	87.94
346.853	80.94
347.08	90.94
347.308	93.94
347.535	110.94
347.763	88.94
347.99	76.94
348.218	90.94
348.445	81.94
348.673	87.94
348.9	83.94
349.128	91.94
349.355	86.94
349.583	81.94
349.81	89.94
350.037	101.94
350.265	87.94
350.492	93.94
350.72	72.94
350.947	90.94
351.174	92.94
351.402	86.94
351.629	87.94
351.856	94.94
352.083	100.94
352.311	87.94
352.538	86.94
352.765	75.94
352.992	76.94
353.22	70.94
353.447	86.94
353.674	85.94
353.901	91.94
354.128	92.94
354.355	85.94
354.583	76.94
354.81	86.94
355.037	100.94
355.264	89.94
355.491	86.94
355.718	86.94
355.945	92.94
356.172	93.94
356.399	85.94
356.626	75.94
356.853	80.94
357.08	90.94
357.307	88.94
357.534	96.94
357.761	83.94
357.988	95.94
358.215	98.94
358.441	75.94
358.668	89.94
358.895	84.94
359.122	90.94
359.349	82.94
359.576	85.94
359.802	77.94
360.029	73.94
360.256	89.94
360.483	82.94
360.709	83.94
360.936	97.94
361.163	97.94
361.39	86.94
361.616	98.94
361.843	94.94
362.07	90.94
362.296	89.94
362.523	94.94
362.749	79.94
362.976	88.94
363.203	97.94
363.429	78.94
363.656	98.94
363.882	71.94
364.109	97.94
364.335	90.94
364.562	84.94
364.788	89.94
365.015	89.94
365.241	86.94
365.468	92.94
365.694	73.94
365.92	89.94
366.147	97.94
366.373	72.94
366.599	96.94
366.826	78.94
367.052	74.94
367.278	89.94
367.505	102.94
367.731	103.94
367.957	95.94
368.184	92.94
368.41	88.94
368.636	95.94
368.862	93.94
369.089	78.94
369.315	99.94
369.541	93.94
369.767	86.94
369.993	96.94
370.219	97.94
370.445	75.94
370.672	101.94
370.898	92.94
371.124	77.94
371.35	83.94
371.576	89.94
371.802	88.94
372.028	93.94
372.254	93.94
372.48	104.94
372.706	78.94
372.932	90.94
373.158	83.94
373.384	100.94
373.61	99.94
373.835	86.94
374.061	96.94
374.287	87.94
374.513	90.94
374.739	87.94
374.965	81.94
375.191	101.94
375.416	89.94
375.642	101.94
375.868	101.94
376.094	104.94
376.319	84.94
376.545	91.94
376.771	95.94
376.997	93.94
377.222	97.94
377.448	90.94
377.674	105.94
377.899	97.94
378.125	104.94
378.35	89.94
378.576	99.94
378.802	89.94
379.027	93.94
379.253	95.94
379.478	98.94
379.704	74.94
379.929	102.94
380.155	101.94
380.38	116.94
380.606	103.94
380.831	92.94
381.057	113.94
381.282	93.94
381.507	103.94
381.733	108.94
381.958	91.94
382.184	93.94
382.409	91.94
382.634	103.94
382.86	94.94
383.085	102.94
383.31	105.94
383.535	86.94
383.761	96.94
383.986	77.94
384.211	94.94
384.436	109.94
384.662	102.94
384.887	105.94
385.112	88.94
385.337	92.94
385.562	102.94
385.787	91.94
386.013	100.94
386.238	100.94
386.463	95.94
386.688	95.94
386.913	114.94
387.138	96.94
387.363	97.94
387.588	101.94
387.813	111.94
388.038	111.94
388.263	101.94
388.488	104.94
388.713	108.94
388.938	105.94
389.163	101.94
389.387	102.94
389.612	115.94
389.837	94.94
390.062	117.94
390.287	100.94
390.512	98.94
390.736	106.94
390.961	97.94
391.186	89.94
391.411	93.94
391.636	112.94
391.86	89.94
392.085	104.94
392.31	95.94
392.534	89.94
392.759	119.94
392.984	101.94
393.208	115.94
393.433	103.94
393.658	107.94
393.882	93.94
394.107	112.94
394.331	108.94
394.556	115.94
394.78	113.94
395.005	99.94
395.229	116.94
395.454	124.94
395.678	104.94
395.903	103.94
396.127	105.94
396.352	101.94
396.576	112.94
396.801	109.94
397.025	97.94
397.249	97.94
397.474	118.94
397.698	110.94
397.922	113.94
398.147	107.94
398.371	119.94
398.595	113.94
398.82	109.94
399.044	118.94
399.268	105.94
399.492	104.94
399.717	103.94
399.941	119.94
400.165	110.94
400.389	95.94
400.613	95.94
400.837	115.94
401.062	105.94
401.286	106.94
401.51	100.94
401.734	110.94
401.958	110.94
402.182	110.94
402.406	110.94
402.63	126.94
402.854	107.94
403.078	118.94
403.302	126.94
403.526	118.94
403.75	109.94
403.974	113.94
404.198	125.94
404.422	125.94
404.645	115.94
404.869	119.94
405.093	109.94
405.317	117.94
405.541	121.94
405.765	113.94
405.988	121.94
406.212	117.94
406.436	123.94
406.66	133.94
406.883	120.94
407.107	115.94
407.331	110.94
407.555	125.94
407.778	113.94
408.002	133.94
408.226	118.94
408.449	110.94
408.673	117.94
408.896	133.94
409.12	119.94
409.344	121.94
409.567	116.94
409.791	124.94
410.014	119.94
410.238	121.94
410.461	123.94
410.685	116.94
410.908	123.94
411.132	121.94
411.355	118.94
411.578	126.94
411.802	141.94
412.025	127.94
412.249	125.94
412.472	115.94
412.695	115.94
412.919	128.94
413.142	115.94
413.365	133.94
413.589	121.94
413.812	120.94
414.035	122.94
414.258	118.94
414.482	125.94
414.705	124.94
414.928	118.94
415.151	128.94
415.374	118.94
415.597	115.94
415.821	115.94
416.044	134.94
416.267	124.94
416.49	123.94
416.713	131.94
416.936	125.94
417.159	117.94
417.382	127.94
417.605	124.94
417.828	133.94
418.051	133.94
418.274	116.94
418.497	136.94
418.72	129.94
418.943	130.94
419.166	135.94
419.389	144.94
419.611	133.94
419.834	121.94
420.057	123.94
420.28	134.94
420.503	124.94
420.726	127.94
420.948	134.94
421.171	141.94
421.394	137.94
421.617	147.94
421.839	128.94
422.062	123.94
422.285	141.94
422.507	129.94
422.73	132.94
422.953	118.94
423.175	122.94
423.398	118.94
423.621	122.94
423.843	131.94
424.066	145.94
424.288	134.94
424.511	143.94
424.733	149.94
424.956	141.94
425.178	138.94
425.401	127.94
425.623	146.94
425.846	140.94
426.068	131.94
426.291	144.94
426.513	143.94
426.735	132.94
426.958	126.94
427.18	111.94
427.402	119.94
427.625	127.94
427.847	113.94
428.069	121.94
428.292	121.94
428.514	118.94
428.736	119.94
428.958	123.94
429.181	132.94
429.403	128.94
429.625	122.94
429.847	123.94
430.069	128.94
430.292	135.94
430.514	119.94
430.736	136.94
430.958	129.94
431.18	129.94
431.402	118.94
431.624	98.94
431.846	108.94
432.068	97.94
432.29	101.94
432.512	113.94
432.734	113.94
432.956	133.94
433.178	120.94
433.4	139.94
433.622	135.94
433.844	129.94
434.066	118.94
434.287	104.94
434.509	103.94
434.731	87.94
434.953	119.94
435.175	116.94
435.397	113.94
435.618	113.94
435.84	106.94
436.062	127.94
436.284	123.94
436.505	121.94
436.727	121.94
436.949	126.94
437.17	123.94
437.392	133.94
437.614	122.94
437.835	98.94
438.057	116.94
438.278	123.94
438.5	115.94
438.721	133.94
438.943	132.94
439.165	124.94
439.386	144.94
439.608	133.94
439.829	159.94
440.05	136.94
440.272	131.94
440.493	138.94
440.715	128.94
440.936	142.94
441.158	136.94
441.379	149.94
441.6	140.94
441.822	154.94
442.043	147.94
442.264	138.94
442.486	143.94
442.707	132.94
442.928	131.94
443.149	137.94
443.371	125.94
443.592	126.94
443.813	129.94
444.034	133.94
444.255	131.94
444.476	143.94
444.698	146.94
444.919	133.94
445.14	281.94
445.361	207.94
445.582	150.94
445.803	123.94
446.024	141.94
446.245	162.94
446.466	152.94
446.687	158.94
446.908	156.94
447.129	147.94
447.35	154.94
447.571	147.94
447.792	137.94
448.013	124.94
448.234	135.94
448.455	154.94
448.675	137.94
448.896	123.94
449.117	143.94
449.338	129.94
449.559	140.94
449.779	132.94
450	126.94
450.221	118.94
450.442	136.94
450.662	131.94
450.883	142.94
451.104	120.94
451.324	141.94
451.545	128.94
451.766	135.94
451.986	130.94
452.207	134.94
452.428	118.94
452.648	131.94
452.869	118.94
453.089	97.94
453.31	106.94
453.53	110.94
453.751	98.94
453.971	110.94
454.192	108.94
454.412	100.94
454.633	115.94
454.853	109.94
455.073	125.94
455.294	119.94
455.514	103.94
455.734	128.94
455.955	111.94
456.175	121.94
456.395	103.94
456.616	108.94
456.836	107.94
457.056	119.94
457.276	97.94
457.497	122.94
457.717	123.94
457.937	102.94
458.157	106.94
458.377	98.94
458.598	104.94
458.818	88.94
459.038	93.94
459.258	86.94
459.478	93.94
459.698	99.94
459.918	109.94
460.138	113.94
460.358	116.94
460.578	125.94
460.798	121.94
461.018	119.94
461.238	112.94
461.458	121.94
461.678	115.94
461.898	113.94
462.118	121.94
462.338	122.94
462.558	117.94
462.777	110.94
462.997	115.94
463.217	100.94
463.437	117.94
463.657	111.94
463.876	108.94
464.096	119.94
464.316	109.94
464.536	102.94
464.755	118.94
464.975	120.94
465.195	117.94
465.414	132.94
465.634	118.94
465.854	103.94
466.073	126.94
466.293	113.94
466.512	123.94
466.732	116.94
466.951	126.94
467.171	126.94
467.391	129.94
467.61	137.94
467.829	128.94
468.049	144.94
468.268	126.94
468.488	124.94
468.707	113.94
468.927	143.94
469.146	142.94
469.365	143.94
469.585	136.94
469.804	141.94
470.023	145.94
470.243	137.94
470.462	146.94
470.681	137.94
470.901	135.94
471.12	146.94
471.339	137.94
471.558	141.94
471.777	153.94
471.997	126.94
472.216	135.94
472.435	133.94
472.654	98.94
472.873	105.94
473.092	100.94
473.311	115.94
473.53	131.94
473.749	127.94
473.968	132.94
474.187	130.94
474.406	128.94
474.625	126.94
474.844	144.94
475.063	121.94
475.282	142.94
475.501	123.94
475.72	118.94
475.939	124.94
476.158	132.94
476.377	125.94
476.596	120.94
476.814	114.94
477.033	109.94
477.252	110.94
477.471	137.94
477.69	121.94
477.908	134.94
478.127	140.94
478.346	136.94
478.564	135.94
478.783	136.94
479.002	142.94
479.22	145.94
479.439	135.94
479.658	127.94
479.876	107.94
480.095	110.94
480.313	124.94
480.532	116.94
480.751	110.94
480.969	105.94
481.188	85.94
481.406	106.94
481.624	93.94
481.843	100.94
482.061	107.94
482.28	102.94
482.498	117.94
482.717	115.94
482.935	126.94
483.153	155.94
483.372	148.94
483.59	155.94
483.808	144.94
484.027	130.94
484.245	126.94
484.463	144.94
484.681	159.94
484.9	166.94
485.118	139.94
485.336	126.94
485.554	104.94
485.772	109.94
485.99	111.94
486.209	114.94
486.427	108.94
486.645	121.94
486.863	139.94
487.081	127.94
487.299	118.94
487.517	136.94
487.735	152.94
487.953	179.94
488.171	183.94
488.389	177.94
488.607	144.94
488.825	137.94
489.043	137.94
489.261	157.94
489.479	143.94
489.696	149.94
489.914	130.94
490.132	149.94
490.35	157.94
490.568	147.94
490.786	153.94
491.003	178.94
491.221	167.94
491.439	192.94
491.657	189.94
491.874	203.94
492.092	208.94
492.31	239.94
492.527	217.94
492.745	205.94
492.963	188.94
493.18	190.94
493.398	165.94
493.615	179.94
493.833	188.94
494.05	174.94
494.268	168.94
494.485	183.94
494.703	155.94
494.92	164.94
495.138	162.94
495.355	153.94
495.573	177.94
495.79	172.94
496.008	165.94
496.225	173.94
496.442	161.94
496.66	170.94
496.877	149.94
497.094	151.94
497.312	159.94
497.529	150.94
497.746	153.94
497.963	140.94
498.181	133.94
498.398	125.94
498.615	123.94
498.832	114.94
499.049	121.94
499.267	123.94
499.484	113.94
499.701	119.94
499.918	126.94
500.135	131.94
500.352	134.94
500.569	137.94
500.786	137.94
501.003	139.94
501.22	141.94
501.437	139.94
501.654	130.94
501.871	125.94
502.088	122.94
502.305	124.94
502.522	126.94
502.739	130.94
502.956	122.94
503.172	134.94
503.389	124.94
503.606	125.94
503.823	118.94
504.04	115.94
504.256	116.94
504.473	109.94
504.69	131.94
504.907	119.94
505.123	126.94
505.34	119.94
505.557	124.94
505.773	114.94
505.99	104.94
506.207	136.94
506.423	124.94
506.64	115.94
506.856	127.94
507.073	115.94
507.289	100.94
507.506	113.94
507.722	120.94
507.939	111.94
508.155	122.94
508.372	108.94
508.588	124.94
508.805	109.94
509.021	94.94
509.238	113.94
509.454	97.94
509.67	96.94
509.887	102.94
510.103	111.94
510.319	107.94
510.536	95.94
510.752	87.94
510.968	97.94
511.184	73.94
