Data from Location4.07152019.Energy5.Lamp.07192019.3%Agarose_HRD10591_16-21-23-926.txt Node
Date: Fri Jul 19 16:21:23 EDT 2019
User: cochatt
Spectrometer: HR+D1059
Trigger mode: 1
Integration Time (sec): 1.000000E-1
Scans to average: 1
Electric dark correction enabled: true
Nonlinearity correction enabled: false
Boxcar width: 0
XAxis mode: Wavelengths
Number of Pixels in Spectrum: 2048
>>>>>Begin Spectral Data<<<<<
223.165	-9.12
223.4	-9.12
223.635	-9.12
223.869	-22.12
224.104	-17.12
224.338	-17.12
224.573	-8.12
224.808	-14.12
225.042	-3.12
225.277	-24.12
225.511	0.88
225.746	8.88
225.98	4.88
226.215	16.88
226.449	3.88
226.683	23.88
226.918	29.88
227.152	25.88
227.387	31.88
227.621	39.88
227.856	54.88
228.09	41.88
228.324	54.88
228.559	70.88
228.793	62.88
229.027	58.88
229.262	64.88
229.496	77.88
229.73	69.88
229.964	68.88
230.199	71.88
230.433	77.88
230.667	88.88
230.901	70.88
231.136	83.88
231.37	94.88
231.604	94.88
231.838	77.88
232.072	90.88
232.306	89.88
232.541	95.88
232.775	94.88
233.009	82.88
233.243	86.88
233.477	77.88
233.711	79.88
233.945	86.88
234.179	76.88
234.413	96.88
234.647	73.88
234.881	80.88
235.115	88.88
235.349	97.88
235.583	79.88
235.817	81.88
236.051	85.88
236.285	80.88
236.519	92.88
236.753	99.88
236.987	87.88
237.221	83.88
237.455	94.88
237.689	76.88
237.922	84.88
238.156	64.88
238.39	86.88
238.624	86.88
238.858	87.88
239.091	79.88
239.325	75.88
239.559	81.88
239.793	74.88
240.027	79.88
240.26	71.88
240.494	89.88
240.728	93.88
240.961	97.88
241.195	88.88
241.429	89.88
241.662	78.88
241.896	77.88
242.13	79.88
242.363	79.88
242.597	91.88
242.83	87.88
243.064	79.88
243.298	80.88
243.531	88.88
243.765	64.88
243.998	81.88
244.232	84.88
244.465	84.88
244.699	83.88
244.932	78.88
245.166	66.88
245.399	80.88
245.633	90.88
245.866	86.88
246.099	89.88
246.333	82.88
246.566	77.88
246.8	79.88
247.033	88.88
247.266	85.88
247.5	96.88
247.733	77.88
247.966	89.88
248.2	81.88
248.433	74.88
248.666	88.88
248.899	89.88
249.133	78.88
249.366	82.88
249.599	76.88
249.832	84.88
250.066	89.88
250.299	93.88
250.532	80.88
250.765	70.88
250.998	85.88
251.231	91.88
251.465	96.88
251.698	82.88
251.931	77.88
252.164	86.88
252.397	95.88
252.63	78.88
252.863	84.88
253.096	90.88
253.329	84.88
253.562	73.88
253.795	79.88
254.028	86.88
254.261	81.88
254.494	70.88
254.727	77.88
254.96	82.88
255.193	78.88
255.426	81.88
255.659	93.88
255.892	81.88
256.124	77.88
256.357	74.88
256.59	81.88
256.823	72.88
257.056	83.88
257.289	76.88
257.521	89.88
257.754	91.88
257.987	81.88
258.22	90.88
258.452	93.88
258.685	95.88
258.918	82.88
259.151	82.88
259.383	94.88
259.616	72.88
259.849	91.88
260.081	75.88
260.314	78.88
260.547	90.88
260.779	86.88
261.012	76.88
261.244	64.88
261.477	97.88
261.71	94.88
261.942	77.88
262.175	89.88
262.407	92.88
262.64	91.88
262.872	78.88
263.105	96.88
263.337	85.88
263.57	92.88
263.802	92.88
264.035	91.88
264.267	96.88
264.499	77.88
264.732	81.88
264.964	73.88
265.197	95.88
265.429	99.88
265.661	89.88
265.894	92.88
266.126	91.88
266.358	91.88
266.591	84.88
266.823	87.88
267.055	83.88
267.287	87.88
267.52	71.88
267.752	96.88
267.984	86.88
268.216	96.88
268.448	87.88
268.681	86.88
268.913	84.88
269.145	89.88
269.377	84.88
269.609	89.88
269.841	87.88
270.073	93.88
270.306	87.88
270.538	77.88
270.77	94.88
271.002	89.88
271.234	89.88
271.466	81.88
271.698	91.88
271.93	71.88
272.162	105.88
272.394	93.88
272.626	93.88
272.858	84.88
273.09	94.88
273.322	83.88
273.553	89.88
273.785	60.88
274.017	77.88
274.249	84.88
274.481	81.88
274.713	93.88
274.945	91.88
275.176	88.88
275.408	73.88
275.64	87.88
275.872	79.88
276.104	81.88
276.335	94.88
276.567	84.88
276.799	90.88
277.031	92.88
277.262	82.88
277.494	86.88
277.726	100.88
277.957	78.88
278.189	93.88
278.421	72.88
278.652	80.88
278.884	75.88
279.115	101.88
279.347	81.88
279.579	83.88
279.81	82.88
280.042	79.88
280.273	89.88
280.505	96.88
280.736	87.88
280.968	88.88
281.199	82.88
281.431	84.88
281.662	81.88
281.894	85.88
282.125	106.88
282.356	93.88
282.588	85.88
282.819	76.88
283.051	94.88
283.282	96.88
283.513	82.88
283.745	89.88
283.976	80.88
284.207	92.88
284.439	94.88
284.67	81.88
284.901	85.88
285.132	84.88
285.364	99.88
285.595	76.88
285.826	83.88
286.057	106.88
286.288	75.88
286.52	104.88
286.751	80.88
286.982	95.88
287.213	92.88
287.444	72.88
287.675	100.88
287.906	88.88
288.138	82.88
288.369	87.88
288.6	97.88
288.831	104.88
289.062	78.88
289.293	82.88
289.524	98.88
289.755	105.88
289.986	86.88
290.217	90.88
290.448	77.88
290.679	96.88
290.91	102.88
291.141	96.88
291.371	99.88
291.602	73.88
291.833	82.88
292.064	88.88
292.295	87.88
292.526	69.88
292.757	83.88
292.987	91.88
293.218	79.88
293.449	80.88
293.68	76.88
293.91	95.88
294.141	93.88
294.372	62.88
294.603	79.88
294.833	91.88
295.064	90.88
295.295	99.88
295.525	97.88
295.756	101.88
295.987	90.88
296.217	93.88
296.448	88.88
296.679	97.88
296.909	89.88
297.14	88.88
297.37	75.88
297.601	83.88
297.831	95.88
298.062	84.88
298.292	96.88
298.523	94.88
298.753	85.88
298.984	85.88
299.214	89.88
299.445	105.88
299.675	79.88
299.905	87.88
300.136	88.88
300.366	79.88
300.597	103.88
300.827	92.88
301.057	83.88
301.288	94.88
301.518	85.88
301.748	96.88
301.979	82.88
302.209	110.88
302.439	93.88
302.669	89.88
302.9	93.88
303.13	85.88
303.36	73.88
303.59	81.88
303.82	92.88
304.051	102.88
304.281	98.88
304.511	100.88
304.741	82.88
304.971	85.88
305.201	80.88
305.431	88.88
305.661	97.88
305.891	93.88
306.121	93.88
306.352	93.88
306.582	80.88
306.812	85.88
307.042	82.88
307.272	94.88
307.502	93.88
307.731	96.88
307.961	106.88
308.191	77.88
308.421	81.88
308.651	93.88
308.881	103.88
309.111	90.88
309.341	82.88
309.571	91.88
309.8	105.88
310.03	95.88
310.26	88.88
310.49	77.88
310.72	84.88
310.949	91.88
311.179	89.88
311.409	93.88
311.639	82.88
311.868	88.88
312.098	91.88
312.328	88.88
312.557	92.88
312.787	82.88
313.017	87.88
313.246	100.88
313.476	84.88
313.706	85.88
313.935	93.88
314.165	88.88
314.394	95.88
314.624	79.88
314.853	105.88
315.083	79.88
315.312	84.88
315.542	72.88
315.771	93.88
316.001	85.88
316.23	78.88
316.46	93.88
316.689	85.88
316.919	93.88
317.148	98.88
317.377	83.88
317.607	95.88
317.836	89.88
318.065	88.88
318.295	74.88
318.524	96.88
318.753	93.88
318.983	86.88
319.212	100.88
319.441	86.88
319.67	93.88
319.9	78.88
320.129	93.88
320.358	85.88
320.587	93.88
320.816	92.88
321.046	80.88
321.275	76.88
321.504	92.88
321.733	100.88
321.962	97.88
322.191	82.88
322.42	96.88
322.649	93.88
322.878	92.88
323.108	96.88
323.337	94.88
323.566	94.88
323.795	87.88
324.024	93.88
324.253	95.88
324.482	93.88
324.71	85.88
324.939	78.88
325.168	96.88
325.397	84.88
325.626	112.88
325.855	77.88
326.084	76.88
326.313	93.88
326.542	88.88
326.77	85.88
326.999	92.88
327.228	82.88
327.457	99.88
327.686	98.88
327.914	80.88
328.143	93.88
328.372	80.88
328.6	78.88
328.829	95.88
329.058	99.88
329.287	89.88
329.515	85.88
329.744	104.88
329.972	89.88
330.201	91.88
330.43	99.88
330.658	98.88
330.887	83.88
331.115	92.88
331.344	85.88
331.572	111.88
331.801	76.88
332.03	91.88
332.258	82.88
332.486	88.88
332.715	98.88
332.943	93.88
333.172	93.88
333.4	92.88
333.629	87.88
333.857	95.88
334.085	82.88
334.314	97.88
334.542	88.88
334.771	87.88
334.999	102.88
335.227	89.88
335.455	81.88
335.684	91.88
335.912	95.88
336.14	91.88
336.369	82.88
336.597	78.88
336.825	83.88
337.053	85.88
337.281	92.88
337.51	96.88
337.738	85.88
337.966	87.88
338.194	82.88
338.422	88.88
338.65	99.88
338.878	86.88
339.106	93.88
339.334	82.88
339.562	87.88
339.79	103.88
340.018	79.88
340.246	81.88
340.474	71.88
340.702	86.88
340.93	88.88
341.158	89.88
341.386	90.88
341.614	81.88
341.842	84.88
342.07	86.88
342.298	93.88
342.526	101.88
342.754	79.88
342.981	93.88
343.209	97.88
343.437	91.88
343.665	85.88
343.893	91.88
344.12	89.88
344.348	82.88
344.576	88.88
344.804	78.88
345.031	84.88
345.259	91.88
345.487	87.88
345.714	78.88
345.942	87.88
346.17	89.88
346.397	97.88
346.625	79.88
346.853	91.88
347.08	78.88
347.308	90.88
347.535	103.88
347.763	80.88
347.99	89.88
348.218	80.88
348.445	88.88
348.673	101.88
348.9	98.88
349.128	99.88
349.355	87.88
349.583	85.88
349.81	89.88
350.037	83.88
350.265	91.88
350.492	80.88
350.72	92.88
350.947	79.88
351.174	72.88
351.402	82.88
351.629	101.88
351.856	103.88
352.083	91.88
352.311	89.88
352.538	86.88
352.765	86.88
352.992	82.88
353.22	79.88
353.447	88.88
353.674	98.88
353.901	96.88
354.128	89.88
354.355	81.88
354.583	85.88
354.81	88.88
355.037	89.88
355.264	68.88
355.491	95.88
355.718	87.88
355.945	86.88
356.172	77.88
356.399	86.88
356.626	88.88
356.853	90.88
357.08	98.88
357.307	84.88
357.534	76.88
357.761	94.88
357.988	100.88
358.215	89.88
358.441	109.88
358.668	85.88
358.895	84.88
359.122	90.88
359.349	83.88
359.576	81.88
359.802	83.88
360.029	79.88
360.256	83.88
360.483	78.88
360.709	98.88
360.936	92.88
361.163	89.88
361.39	77.88
361.616	92.88
361.843	86.88
362.07	91.88
362.296	104.88
362.523	89.88
362.749	81.88
362.976	101.88
363.203	97.88
363.429	94.88
363.656	96.88
363.882	93.88
364.109	89.88
364.335	94.88
364.562	94.88
364.788	92.88
365.015	95.88
365.241	85.88
365.468	95.88
365.694	88.88
365.92	82.88
366.147	82.88
366.373	85.88
366.599	91.88
366.826	87.88
367.052	102.88
367.278	78.88
367.505	82.88
367.731	92.88
367.957	96.88
368.184	82.88
368.41	100.88
368.636	98.88
368.862	86.88
369.089	94.88
369.315	100.88
369.541	102.88
369.767	89.88
369.993	108.88
370.219	102.88
370.445	82.88
370.672	89.88
370.898	90.88
371.124	97.88
371.35	83.88
371.576	99.88
371.802	88.88
372.028	107.88
372.254	94.88
372.48	94.88
372.706	92.88
372.932	94.88
373.158	99.88
373.384	108.88
373.61	93.88
373.835	95.88
374.061	105.88
374.287	98.88
374.513	93.88
374.739	80.88
374.965	86.88
375.191	94.88
375.416	99.88
375.642	78.88
375.868	91.88
376.094	99.88
376.319	81.88
376.545	94.88
376.771	109.88
376.997	90.88
377.222	94.88
377.448	104.88
377.674	91.88
377.899	97.88
378.125	97.88
378.35	106.88
378.576	93.88
378.802	91.88
379.027	92.88
379.253	116.88
379.478	83.88
379.704	98.88
379.929	91.88
380.155	108.88
380.38	100.88
380.606	100.88
380.831	108.88
381.057	100.88
381.282	110.88
381.507	102.88
381.733	105.88
381.958	90.88
382.184	97.88
382.409	110.88
382.634	108.88
382.86	93.88
383.085	89.88
383.31	96.88
383.535	98.88
383.761	102.88
383.986	101.88
384.211	103.88
384.436	115.88
384.662	88.88
384.887	108.88
385.112	103.88
385.337	89.88
385.562	83.88
385.787	90.88
386.013	111.88
386.238	102.88
386.463	105.88
386.688	106.88
386.913	116.88
387.138	99.88
387.363	94.88
387.588	117.88
387.813	95.88
388.038	107.88
388.263	110.88
388.488	126.88
388.713	114.88
388.938	109.88
389.163	100.88
389.387	101.88
389.612	113.88
389.837	103.88
390.062	89.88
390.287	96.88
390.512	100.88
390.736	100.88
390.961	113.88
391.186	109.88
391.411	116.88
391.636	108.88
391.86	127.88
392.085	106.88
392.31	109.88
392.534	108.88
392.759	109.88
392.984	120.88
393.208	115.88
393.433	106.88
393.658	95.88
393.882	100.88
394.107	109.88
394.331	106.88
394.556	100.88
394.78	103.88
395.005	97.88
395.229	115.88
395.454	106.88
395.678	94.88
395.903	121.88
396.127	106.88
396.352	113.88
396.576	103.88
396.801	104.88
397.025	116.88
397.249	109.88
397.474	110.88
397.698	122.88
397.922	112.88
398.147	124.88
398.371	100.88
398.595	124.88
398.82	97.88
399.044	120.88
399.268	125.88
399.492	111.88
399.717	126.88
399.941	116.88
400.165	101.88
400.389	95.88
400.613	121.88
400.837	108.88
401.062	120.88
401.286	106.88
401.51	96.88
401.734	102.88
401.958	108.88
402.182	104.88
402.406	119.88
402.63	111.88
402.854	95.88
403.078	136.88
403.302	93.88
403.526	105.88
403.75	129.88
403.974	129.88
404.198	108.88
404.422	107.88
404.645	120.88
404.869	126.88
405.093	124.88
405.317	117.88
405.541	104.88
405.765	111.88
405.988	132.88
406.212	125.88
406.436	120.88
406.66	110.88
406.883	118.88
407.107	121.88
407.331	129.88
407.555	126.88
407.778	124.88
408.002	119.88
408.226	132.88
408.449	126.88
408.673	121.88
408.896	124.88
409.12	132.88
409.344	128.88
409.567	114.88
409.791	128.88
410.014	118.88
410.238	109.88
410.461	122.88
410.685	134.88
410.908	123.88
411.132	113.88
411.355	118.88
411.578	118.88
411.802	122.88
412.025	124.88
412.249	115.88
412.472	132.88
412.695	121.88
412.919	122.88
413.142	120.88
413.365	122.88
413.589	117.88
413.812	119.88
414.035	128.88
414.258	136.88
414.482	121.88
414.705	117.88
414.928	124.88
415.151	118.88
415.374	127.88
415.597	107.88
415.821	128.88
416.044	135.88
416.267	132.88
416.49	122.88
416.713	125.88
416.936	118.88
417.159	136.88
417.382	136.88
417.605	117.88
417.828	134.88
418.051	129.88
418.274	120.88
418.497	132.88
418.72	130.88
418.943	135.88
419.166	138.88
419.389	133.88
419.611	132.88
419.834	128.88
420.057	117.88
420.28	129.88
420.503	125.88
420.726	138.88
420.948	141.88
421.171	138.88
421.394	130.88
421.617	155.88
421.839	154.88
422.062	134.88
422.285	144.88
422.507	123.88
422.73	132.88
422.953	143.88
423.175	116.88
423.398	144.88
423.621	139.88
423.843	129.88
424.066	122.88
424.288	140.88
424.511	138.88
424.733	135.88
424.956	146.88
425.178	145.88
425.401	150.88
425.623	129.88
425.846	125.88
426.068	127.88
426.291	134.88
426.513	129.88
426.735	120.88
426.958	141.88
427.18	119.88
427.402	133.88
427.625	134.88
427.847	116.88
428.069	124.88
428.292	124.88
428.514	119.88
428.736	131.88
428.958	135.88
429.181	132.88
429.403	132.88
429.625	133.88
429.847	129.88
430.069	146.88
430.292	136.88
430.514	154.88
430.736	136.88
430.958	118.88
431.18	138.88
431.402	109.88
431.624	118.88
431.846	116.88
432.068	104.88
432.29	105.88
432.512	108.88
432.734	120.88
432.956	132.88
433.178	144.88
433.4	136.88
433.622	147.88
433.844	140.88
434.066	122.88
434.287	109.88
434.509	108.88
434.731	86.88
434.953	123.88
435.175	126.88
435.397	138.88
435.618	121.88
435.84	118.88
436.062	122.88
436.284	132.88
436.505	133.88
436.727	143.88
436.949	137.88
437.17	133.88
437.392	131.88
437.614	129.88
437.835	114.88
438.057	116.88
438.278	117.88
438.5	125.88
438.721	138.88
438.943	133.88
439.165	138.88
439.386	129.88
439.608	142.88
439.829	122.88
440.05	142.88
440.272	142.88
440.493	134.88
440.715	154.88
440.936	139.88
441.158	152.88
441.379	147.88
441.6	145.88
441.822	141.88
442.043	145.88
442.264	142.88
442.486	128.88
442.707	153.88
442.928	126.88
443.149	140.88
443.371	141.88
443.592	143.88
443.813	144.88
444.034	151.88
444.255	117.88
444.476	128.88
444.698	146.88
444.919	147.88
445.14	265.88
445.361	204.88
445.582	152.88
445.803	134.88
446.024	150.88
446.245	143.88
446.466	154.88
446.687	149.88
446.908	158.88
447.129	158.88
447.35	139.88
447.571	143.88
447.792	152.88
448.013	145.88
448.234	149.88
448.455	143.88
448.675	134.88
448.896	138.88
449.117	135.88
449.338	128.88
449.559	128.88
449.779	131.88
450	132.88
450.221	160.88
450.442	155.88
450.662	130.88
450.883	124.88
451.104	143.88
451.324	110.88
451.545	141.88
451.766	144.88
451.986	128.88
452.207	127.88
452.428	122.88
452.648	136.88
452.869	140.88
453.089	117.88
453.31	116.88
453.53	124.88
453.751	111.88
453.971	101.88
454.192	104.88
454.412	103.88
454.633	118.88
454.853	122.88
455.073	115.88
455.294	130.88
455.514	130.88
455.734	137.88
455.955	121.88
456.175	109.88
456.395	109.88
456.616	101.88
456.836	116.88
457.056	123.88
457.276	107.88
457.497	117.88
457.717	111.88
457.937	123.88
458.157	116.88
458.377	92.88
458.598	92.88
458.818	93.88
459.038	92.88
459.258	99.88
459.478	87.88
459.698	97.88
459.918	110.88
460.138	106.88
460.358	120.88
460.578	108.88
460.798	100.88
461.018	115.88
461.238	112.88
461.458	107.88
461.678	124.88
461.898	108.88
462.118	111.88
462.338	119.88
462.558	107.88
462.777	115.88
462.997	122.88
463.217	124.88
463.437	101.88
463.657	116.88
463.876	110.88
464.096	111.88
464.316	126.88
464.536	117.88
464.755	120.88
464.975	129.88
465.195	113.88
465.414	119.88
465.634	125.88
465.854	126.88
466.073	124.88
466.293	128.88
466.512	128.88
466.732	125.88
466.951	142.88
467.171	154.88
467.391	144.88
467.61	134.88
467.829	133.88
468.049	138.88
468.268	143.88
468.488	132.88
468.707	138.88
468.927	130.88
469.146	134.88
469.365	138.88
469.585	141.88
469.804	134.88
470.023	140.88
470.243	153.88
470.462	132.88
470.681	153.88
470.901	140.88
471.12	148.88
471.339	144.88
471.558	130.88
471.777	154.88
471.997	121.88
472.216	135.88
472.435	116.88
472.654	126.88
472.873	117.88
473.092	118.88
473.311	137.88
473.53	129.88
473.749	128.88
473.968	145.88
474.187	134.88
474.406	120.88
474.625	129.88
474.844	147.88
475.063	140.88
475.282	127.88
475.501	126.88
475.72	130.88
475.939	150.88
476.158	124.88
476.377	122.88
476.596	112.88
476.814	111.88
477.033	108.88
477.252	118.88
477.471	135.88
477.69	120.88
477.908	136.88
478.127	129.88
478.346	129.88
478.564	118.88
478.783	143.88
479.002	152.88
479.22	149.88
479.439	137.88
479.658	134.88
479.876	130.88
480.095	120.88
480.313	121.88
480.532	116.88
480.751	109.88
480.969	104.88
481.188	86.88
481.406	85.88
481.624	91.88
481.843	89.88
482.061	94.88
482.28	122.88
482.498	120.88
482.717	113.88
482.935	132.88
483.153	139.88
483.372	168.88
483.59	142.88
483.808	142.88
484.027	130.88
484.245	128.88
484.463	156.88
484.681	182.88
484.9	154.88
485.118	137.88
485.336	129.88
485.554	119.88
485.772	104.88
485.99	91.88
486.209	108.88
486.427	96.88
486.645	129.88
486.863	130.88
487.081	134.88
487.299	127.88
487.517	147.88
487.735	167.88
487.953	173.88
488.171	180.88
488.389	164.88
488.607	167.88
488.825	157.88
489.043	125.88
489.261	147.88
489.479	145.88
489.696	146.88
489.914	148.88
490.132	158.88
490.35	146.88
490.568	160.88
490.786	152.88
491.003	162.88
491.221	175.88
491.439	188.88
491.657	190.88
491.874	210.88
492.092	214.88
492.31	255.88
492.527	239.88
492.745	208.88
492.963	193.88
493.18	182.88
493.398	182.88
493.615	181.88
493.833	165.88
494.05	165.88
494.268	169.88
494.485	180.88
494.703	181.88
494.92	175.88
495.138	163.88
495.355	169.88
495.573	173.88
495.79	154.88
496.008	169.88
496.225	182.88
496.442	183.88
496.66	189.88
496.877	168.88
497.094	156.88
497.312	148.88
497.529	155.88
497.746	162.88
497.963	137.88
498.181	139.88
498.398	128.88
498.615	134.88
498.832	116.88
499.049	128.88
499.267	136.88
499.484	127.88
499.701	138.88
499.918	134.88
500.135	145.88
500.352	146.88
500.569	143.88
500.786	129.88
501.003	139.88
501.22	129.88
501.437	150.88
501.654	133.88
501.871	136.88
502.088	128.88
502.305	134.88
502.522	122.88
502.739	117.88
502.956	126.88
503.172	136.88
503.389	113.88
503.606	132.88
503.823	138.88
504.04	126.88
504.256	138.88
504.473	111.88
504.69	124.88
504.907	132.88
505.123	119.88
505.34	111.88
505.557	118.88
505.773	122.88
505.99	131.88
506.207	123.88
506.423	127.88
506.64	122.88
506.856	123.88
507.073	118.88
507.289	119.88
507.506	121.88
507.722	112.88
507.939	132.88
508.155	131.88
508.372	125.88
508.588	127.88
508.805	114.88
509.021	111.88
509.238	113.88
509.454	103.88
509.67	99.88
509.887	100.88
510.103	88.88
510.319	90.88
510.536	88.88
510.752	102.88
510.968	97.88
