Data from Location4.07152019.Energy5.Lamp.07192019.3%Agarose_HRD10591_16-18-16-925.txt Node
Date: Fri Jul 19 16:18:16 EDT 2019
User: cochatt
Spectrometer: HR+D1059
Trigger mode: 1
Integration Time (sec): 1.000000E-1
Scans to average: 1
Electric dark correction enabled: true
Nonlinearity correction enabled: false
Boxcar width: 0
XAxis mode: Wavelengths
Number of Pixels in Spectrum: 2048
>>>>>Begin Spectral Data<<<<<
223.165	-11.56
223.4	-11.56
223.635	-11.56
223.869	-20.56
224.104	-12.56
224.338	-21.56
224.573	-3.56
224.808	-7.56
225.042	-1.56
225.277	-11.56
225.511	-15.56
225.746	9.44
225.98	11.44
226.215	13.44
226.449	14.44
226.683	24.44
226.918	9.44
227.152	23.44
227.387	34.44
227.621	20.44
227.856	41.44
228.09	53.44
228.324	46.44
228.559	54.44
228.793	52.44
229.027	60.44
229.262	64.44
229.496	73.44
229.73	65.44
229.964	77.44
230.199	82.44
230.433	77.44
230.667	75.44
230.901	66.44
231.136	78.44
231.37	73.44
231.604	76.44
231.838	77.44
232.072	86.44
232.306	81.44
232.541	83.44
232.775	71.44
233.009	81.44
233.243	76.44
233.477	89.44
233.711	76.44
233.945	77.44
234.179	90.44
234.413	77.44
234.647	79.44
234.881	93.44
235.115	70.44
235.349	81.44
235.583	79.44
235.817	84.44
236.051	89.44
236.285	64.44
236.519	90.44
236.753	87.44
236.987	71.44
237.221	68.44
237.455	72.44
237.689	76.44
237.922	86.44
238.156	75.44
238.39	72.44
238.624	83.44
238.858	75.44
239.091	74.44
239.325	82.44
239.559	62.44
239.793	93.44
240.027	78.44
240.26	75.44
240.494	60.44
240.728	73.44
240.961	88.44
241.195	74.44
241.429	85.44
241.662	76.44
241.896	65.44
242.13	83.44
242.363	70.44
242.597	83.44
242.83	77.44
243.064	72.44
243.298	69.44
243.531	73.44
243.765	83.44
243.998	69.44
244.232	91.44
244.465	84.44
244.699	91.44
244.932	86.44
245.166	77.44
245.399	67.44
245.633	77.44
245.866	78.44
246.099	75.44
246.333	78.44
246.566	82.44
246.8	78.44
247.033	89.44
247.266	80.44
247.5	81.44
247.733	84.44
247.966	84.44
248.2	74.44
248.433	79.44
248.666	84.44
248.899	81.44
249.133	79.44
249.366	76.44
249.599	81.44
249.832	76.44
250.066	88.44
250.299	69.44
250.532	85.44
250.765	75.44
250.998	82.44
251.231	84.44
251.465	88.44
251.698	85.44
251.931	89.44
252.164	80.44
252.397	80.44
252.63	67.44
252.863	90.44
253.096	80.44
253.329	77.44
253.562	83.44
253.795	75.44
254.028	81.44
254.261	73.44
254.494	76.44
254.727	85.44
254.96	79.44
255.193	68.44
255.426	79.44
255.659	79.44
255.892	82.44
256.124	85.44
256.357	94.44
256.59	80.44
256.823	74.44
257.056	73.44
257.289	94.44
257.521	85.44
257.754	87.44
257.987	85.44
258.22	75.44
258.452	89.44
258.685	86.44
258.918	86.44
259.151	75.44
259.383	73.44
259.616	86.44
259.849	82.44
260.081	82.44
260.314	66.44
260.547	79.44
260.779	80.44
261.012	83.44
261.244	87.44
261.477	87.44
261.71	83.44
261.942	69.44
262.175	77.44
262.407	97.44
262.64	70.44
262.872	86.44
263.105	74.44
263.337	85.44
263.57	95.44
263.802	82.44
264.035	86.44
264.267	81.44
264.499	77.44
264.732	93.44
264.964	78.44
265.197	87.44
265.429	79.44
265.661	86.44
265.894	78.44
266.126	113.44
266.358	78.44
266.591	78.44
266.823	85.44
267.055	78.44
267.287	87.44
267.52	74.44
267.752	71.44
267.984	91.44
268.216	96.44
268.448	90.44
268.681	87.44
268.913	92.44
269.145	88.44
269.377	71.44
269.609	80.44
269.841	86.44
270.073	89.44
270.306	82.44
270.538	69.44
270.77	76.44
271.002	75.44
271.234	80.44
271.466	83.44
271.698	77.44
271.93	86.44
272.162	80.44
272.394	89.44
272.626	80.44
272.858	81.44
273.09	75.44
273.322	82.44
273.553	77.44
273.785	83.44
274.017	73.44
274.249	82.44
274.481	78.44
274.713	84.44
274.945	70.44
275.176	86.44
275.408	85.44
275.64	78.44
275.872	85.44
276.104	63.44
276.335	86.44
276.567	79.44
276.799	67.44
277.031	81.44
277.262	76.44
277.494	95.44
277.726	75.44
277.957	77.44
278.189	89.44
278.421	77.44
278.652	92.44
278.884	88.44
279.115	85.44
279.347	92.44
279.579	86.44
279.81	89.44
280.042	73.44
280.273	80.44
280.505	90.44
280.736	74.44
280.968	70.44
281.199	67.44
281.431	83.44
281.662	75.44
281.894	73.44
282.125	96.44
282.356	90.44
282.588	90.44
282.819	85.44
283.051	88.44
283.282	101.44
283.513	92.44
283.745	89.44
283.976	96.44
284.207	100.44
284.439	85.44
284.67	91.44
284.901	84.44
285.132	94.44
285.364	77.44
285.595	85.44
285.826	84.44
286.057	74.44
286.288	86.44
286.52	90.44
286.751	80.44
286.982	84.44
287.213	94.44
287.444	82.44
287.675	72.44
287.906	85.44
288.138	80.44
288.369	84.44
288.6	80.44
288.831	71.44
289.062	92.44
289.293	89.44
289.524	82.44
289.755	93.44
289.986	88.44
290.217	87.44
290.448	84.44
290.679	88.44
290.91	97.44
291.141	89.44
291.371	78.44
291.602	85.44
291.833	80.44
292.064	99.44
292.295	94.44
292.526	79.44
292.757	69.44
292.987	80.44
293.218	86.44
293.449	88.44
293.68	75.44
293.91	84.44
294.141	83.44
294.372	94.44
294.603	92.44
294.833	80.44
295.064	84.44
295.295	85.44
295.525	92.44
295.756	93.44
295.987	83.44
296.217	76.44
296.448	85.44
296.679	93.44
296.909	86.44
297.14	82.44
297.37	82.44
297.601	79.44
297.831	93.44
298.062	83.44
298.292	72.44
298.523	92.44
298.753	82.44
298.984	80.44
299.214	75.44
299.445	79.44
299.675	86.44
299.905	90.44
300.136	84.44
300.366	71.44
300.597	94.44
300.827	83.44
301.057	91.44
301.288	92.44
301.518	90.44
301.748	89.44
301.979	90.44
302.209	97.44
302.439	84.44
302.669	86.44
302.9	92.44
303.13	79.44
303.36	81.44
303.59	94.44
303.82	96.44
304.051	92.44
304.281	91.44
304.511	92.44
304.741	86.44
304.971	78.44
305.201	86.44
305.431	86.44
305.661	83.44
305.891	97.44
306.121	87.44
306.352	82.44
306.582	78.44
306.812	84.44
307.042	90.44
307.272	81.44
307.502	100.44
307.731	85.44
307.961	85.44
308.191	66.44
308.421	76.44
308.651	92.44
308.881	81.44
309.111	88.44
309.341	86.44
309.571	79.44
309.8	104.44
310.03	84.44
310.26	85.44
310.49	93.44
310.72	84.44
310.949	74.44
311.179	98.44
311.409	84.44
311.639	89.44
311.868	89.44
312.098	85.44
312.328	81.44
312.557	81.44
312.787	94.44
313.017	94.44
313.246	78.44
313.476	88.44
313.706	76.44
313.935	86.44
314.165	78.44
314.394	99.44
314.624	96.44
314.853	83.44
315.083	90.44
315.312	86.44
315.542	89.44
315.771	83.44
316.001	85.44
316.23	74.44
316.46	86.44
316.689	94.44
316.919	90.44
317.148	68.44
317.377	97.44
317.607	85.44
317.836	87.44
318.065	82.44
318.295	94.44
318.524	88.44
318.753	78.44
318.983	78.44
319.212	91.44
319.441	82.44
319.67	75.44
319.9	85.44
320.129	74.44
320.358	90.44
320.587	92.44
320.816	79.44
321.046	83.44
321.275	74.44
321.504	85.44
321.733	86.44
321.962	96.44
322.191	93.44
322.42	75.44
322.649	85.44
322.878	92.44
323.108	72.44
323.337	90.44
323.566	91.44
323.795	84.44
324.024	77.44
324.253	72.44
324.482	84.44
324.71	71.44
324.939	92.44
325.168	63.44
325.397	79.44
325.626	78.44
325.855	97.44
326.084	82.44
326.313	82.44
326.542	79.44
326.77	82.44
326.999	100.44
327.228	96.44
327.457	95.44
327.686	89.44
327.914	76.44
328.143	77.44
328.372	83.44
328.6	85.44
328.829	95.44
329.058	106.44
329.287	101.44
329.515	94.44
329.744	89.44
329.972	82.44
330.201	83.44
330.43	83.44
330.658	89.44
330.887	85.44
331.115	88.44
331.344	93.44
331.572	83.44
331.801	89.44
332.03	79.44
332.258	96.44
332.486	80.44
332.715	80.44
332.943	97.44
333.172	73.44
333.4	92.44
333.629	79.44
333.857	83.44
334.085	68.44
334.314	81.44
334.542	73.44
334.771	88.44
334.999	78.44
335.227	89.44
335.455	89.44
335.684	93.44
335.912	82.44
336.14	85.44
336.369	89.44
336.597	97.44
336.825	94.44
337.053	82.44
337.281	77.44
337.51	85.44
337.738	86.44
337.966	79.44
338.194	88.44
338.422	83.44
338.65	96.44
338.878	65.44
339.106	96.44
339.334	104.44
339.562	85.44
339.79	77.44
340.018	76.44
340.246	88.44
340.474	84.44
340.702	83.44
340.93	87.44
341.158	76.44
341.386	73.44
341.614	87.44
341.842	76.44
342.07	85.44
342.298	82.44
342.526	90.44
342.754	86.44
342.981	99.44
343.209	83.44
343.437	80.44
343.665	85.44
343.893	87.44
344.12	94.44
344.348	97.44
344.576	78.44
344.804	84.44
345.031	81.44
345.259	99.44
345.487	88.44
345.714	83.44
345.942	77.44
346.17	71.44
346.397	90.44
346.625	83.44
346.853	88.44
347.08	78.44
347.308	84.44
347.535	78.44
347.763	78.44
347.99	86.44
348.218	69.44
348.445	81.44
348.673	86.44
348.9	85.44
349.128	82.44
349.355	95.44
349.583	94.44
349.81	82.44
350.037	80.44
350.265	82.44
350.492	81.44
350.72	76.44
350.947	82.44
351.174	93.44
351.402	95.44
351.629	73.44
351.856	75.44
352.083	87.44
352.311	83.44
352.538	91.44
352.765	89.44
352.992	88.44
353.22	80.44
353.447	79.44
353.674	77.44
353.901	90.44
354.128	73.44
354.355	82.44
354.583	90.44
354.81	88.44
355.037	84.44
355.264	82.44
355.491	82.44
355.718	75.44
355.945	75.44
356.172	97.44
356.399	95.44
356.626	75.44
356.853	64.44
357.08	79.44
357.307	86.44
357.534	78.44
357.761	77.44
357.988	85.44
358.215	86.44
358.441	89.44
358.668	82.44
358.895	89.44
359.122	87.44
359.349	81.44
359.576	85.44
359.802	76.44
360.029	90.44
360.256	99.44
360.483	74.44
360.709	85.44
360.936	90.44
361.163	73.44
361.39	91.44
361.616	84.44
361.843	86.44
362.07	92.44
362.296	97.44
362.523	84.44
362.749	87.44
362.976	83.44
363.203	83.44
363.429	89.44
363.656	84.44
363.882	76.44
364.109	89.44
364.335	92.44
364.562	83.44
364.788	87.44
365.015	97.44
365.241	87.44
365.468	86.44
365.694	82.44
365.92	84.44
366.147	100.44
366.373	65.44
366.599	87.44
366.826	93.44
367.052	85.44
367.278	85.44
367.505	92.44
367.731	99.44
367.957	99.44
368.184	89.44
368.41	87.44
368.636	98.44
368.862	81.44
369.089	97.44
369.315	91.44
369.541	101.44
369.767	76.44
369.993	94.44
370.219	90.44
370.445	94.44
370.672	101.44
370.898	92.44
371.124	82.44
371.35	92.44
371.576	99.44
371.802	93.44
372.028	92.44
372.254	89.44
372.48	89.44
372.706	94.44
372.932	77.44
373.158	94.44
373.384	85.44
373.61	95.44
373.835	100.44
374.061	104.44
374.287	105.44
374.513	88.44
374.739	88.44
374.965	78.44
375.191	87.44
375.416	94.44
375.642	90.44
375.868	91.44
376.094	102.44
376.319	88.44
376.545	89.44
376.771	92.44
376.997	101.44
377.222	113.44
377.448	106.44
377.674	102.44
377.899	86.44
378.125	84.44
378.35	91.44
378.576	93.44
378.802	75.44
379.027	109.44
379.253	104.44
379.478	101.44
379.704	91.44
379.929	91.44
380.155	93.44
380.38	92.44
380.606	110.44
380.831	94.44
381.057	120.44
381.282	79.44
381.507	106.44
381.733	91.44
381.958	100.44
382.184	90.44
382.409	101.44
382.634	102.44
382.86	106.44
383.085	88.44
383.31	92.44
383.535	94.44
383.761	94.44
383.986	94.44
384.211	90.44
384.436	91.44
384.662	99.44
384.887	108.44
385.112	119.44
385.337	98.44
385.562	95.44
385.787	104.44
386.013	97.44
386.238	93.44
386.463	109.44
386.688	93.44
386.913	89.44
387.138	97.44
387.363	88.44
387.588	90.44
387.813	106.44
388.038	91.44
388.263	99.44
388.488	102.44
388.713	98.44
388.938	101.44
389.163	102.44
389.387	103.44
389.612	96.44
389.837	88.44
390.062	100.44
390.287	107.44
390.512	95.44
390.736	105.44
390.961	106.44
391.186	104.44
391.411	113.44
391.636	92.44
391.86	96.44
392.085	98.44
392.31	105.44
392.534	100.44
392.759	100.44
392.984	105.44
393.208	101.44
393.433	112.44
393.658	108.44
393.882	99.44
394.107	105.44
394.331	109.44
394.556	114.44
394.78	114.44
395.005	118.44
395.229	110.44
395.454	99.44
395.678	89.44
395.903	120.44
396.127	109.44
396.352	105.44
396.576	108.44
396.801	89.44
397.025	105.44
397.249	119.44
397.474	116.44
397.698	105.44
397.922	108.44
398.147	98.44
398.371	92.44
398.595	126.44
398.82	116.44
399.044	103.44
399.268	117.44
399.492	90.44
399.717	121.44
399.941	101.44
400.165	113.44
400.389	116.44
400.613	110.44
400.837	105.44
401.062	101.44
401.286	118.44
401.51	113.44
401.734	107.44
401.958	116.44
402.182	116.44
402.406	108.44
402.63	109.44
402.854	109.44
403.078	112.44
403.302	116.44
403.526	92.44
403.75	113.44
403.974	96.44
404.198	116.44
404.422	123.44
404.645	110.44
404.869	110.44
405.093	127.44
405.317	117.44
405.541	114.44
405.765	105.44
405.988	113.44
406.212	106.44
406.436	113.44
406.66	121.44
406.883	115.44
407.107	123.44
407.331	136.44
407.555	115.44
407.778	115.44
408.002	107.44
408.226	106.44
408.449	123.44
408.673	109.44
408.896	106.44
409.12	105.44
409.344	125.44
409.567	120.44
409.791	105.44
410.014	118.44
410.238	117.44
410.461	115.44
410.685	120.44
410.908	109.44
411.132	130.44
411.355	114.44
411.578	114.44
411.802	125.44
412.025	124.44
412.249	106.44
412.472	112.44
412.695	111.44
412.919	102.44
413.142	114.44
413.365	120.44
413.589	128.44
413.812	136.44
414.035	140.44
414.258	117.44
414.482	124.44
414.705	125.44
414.928	125.44
415.151	126.44
415.374	120.44
415.597	128.44
415.821	124.44
416.044	132.44
416.267	131.44
416.49	121.44
416.713	134.44
416.936	138.44
417.159	127.44
417.382	128.44
417.605	126.44
417.828	132.44
418.051	124.44
418.274	141.44
418.497	122.44
418.72	127.44
418.943	114.44
419.166	127.44
419.389	128.44
419.611	126.44
419.834	134.44
420.057	140.44
420.28	142.44
420.503	118.44
420.726	138.44
420.948	128.44
421.171	129.44
421.394	120.44
421.617	130.44
421.839	126.44
422.062	142.44
422.285	142.44
422.507	141.44
422.73	117.44
422.953	140.44
423.175	122.44
423.398	130.44
423.621	124.44
423.843	150.44
424.066	142.44
424.288	136.44
424.511	140.44
424.733	150.44
424.956	149.44
425.178	133.44
425.401	152.44
425.623	142.44
425.846	112.44
426.068	132.44
426.291	136.44
426.513	112.44
426.735	138.44
426.958	136.44
427.18	128.44
427.402	125.44
427.625	126.44
427.847	118.44
428.069	115.44
428.292	124.44
428.514	134.44
428.736	118.44
428.958	118.44
429.181	138.44
429.403	132.44
429.625	130.44
429.847	120.44
430.069	127.44
430.292	115.44
430.514	125.44
430.736	126.44
430.958	128.44
431.18	134.44
431.402	142.44
431.624	119.44
431.846	120.44
432.068	89.44
432.29	93.44
432.512	107.44
432.734	139.44
432.956	123.44
433.178	132.44
433.4	129.44
433.622	135.44
433.844	131.44
434.066	111.44
434.287	104.44
434.509	96.44
434.731	85.44
434.953	103.44
435.175	118.44
435.397	116.44
435.618	105.44
435.84	108.44
436.062	117.44
436.284	120.44
436.505	119.44
436.727	121.44
436.949	135.44
437.17	135.44
437.392	134.44
437.614	123.44
437.835	119.44
438.057	120.44
438.278	123.44
438.5	130.44
438.721	134.44
438.943	130.44
439.165	139.44
439.386	135.44
439.608	146.44
439.829	134.44
440.05	136.44
440.272	143.44
440.493	132.44
440.715	132.44
440.936	138.44
441.158	136.44
441.379	136.44
441.6	138.44
441.822	143.44
442.043	155.44
442.264	141.44
442.486	156.44
442.707	126.44
442.928	141.44
443.149	129.44
443.371	131.44
443.592	137.44
443.813	146.44
444.034	142.44
444.255	140.44
444.476	137.44
444.698	129.44
444.919	124.44
445.14	278.44
445.361	186.44
445.582	140.44
445.803	142.44
446.024	137.44
446.245	156.44
446.466	156.44
446.687	170.44
446.908	167.44
447.129	153.44
447.35	153.44
447.571	160.44
447.792	139.44
448.013	146.44
448.234	154.44
448.455	138.44
448.675	149.44
448.896	158.44
449.117	136.44
449.338	121.44
449.559	148.44
449.779	131.44
450	130.44
450.221	143.44
450.442	132.44
450.662	130.44
450.883	135.44
451.104	136.44
451.324	117.44
451.545	128.44
451.766	121.44
451.986	128.44
452.207	136.44
452.428	129.44
452.648	139.44
452.869	118.44
453.089	124.44
453.31	112.44
453.53	115.44
453.751	114.44
453.971	96.44
454.192	96.44
454.412	105.44
454.633	135.44
454.853	130.44
455.073	120.44
455.294	108.44
455.514	104.44
455.734	117.44
455.955	124.44
456.175	116.44
456.395	96.44
456.616	109.44
456.836	105.44
457.056	113.44
457.276	116.44
457.497	114.44
457.717	118.44
457.937	88.44
458.157	121.44
458.377	121.44
458.598	100.44
458.818	107.44
459.038	85.44
459.258	82.44
459.478	77.44
459.698	88.44
459.918	105.44
460.138	117.44
460.358	116.44
460.578	130.44
460.798	104.44
461.018	128.44
461.238	114.44
461.458	106.44
461.678	121.44
461.898	116.44
462.118	114.44
462.338	113.44
462.558	112.44
462.777	102.44
462.997	106.44
463.217	118.44
463.437	109.44
463.657	109.44
463.876	116.44
464.096	123.44
464.316	112.44
464.536	104.44
464.755	125.44
464.975	121.44
465.195	120.44
465.414	128.44
465.634	117.44
465.854	129.44
466.073	121.44
466.293	109.44
466.512	126.44
466.732	134.44
466.951	125.44
467.171	120.44
467.391	134.44
467.61	128.44
467.829	133.44
468.049	135.44
468.268	146.44
468.488	136.44
468.707	126.44
468.927	137.44
469.146	129.44
469.365	145.44
469.585	137.44
469.804	138.44
470.023	134.44
470.243	146.44
470.462	154.44
470.681	149.44
470.901	150.44
471.12	137.44
471.339	136.44
471.558	140.44
471.777	145.44
471.997	136.44
472.216	127.44
472.435	128.44
472.654	117.44
472.873	115.44
473.092	121.44
473.311	133.44
473.53	123.44
473.749	126.44
473.968	117.44
474.187	109.44
474.406	110.44
474.625	130.44
474.844	135.44
475.063	137.44
475.282	122.44
475.501	120.44
475.72	139.44
475.939	128.44
476.158	122.44
476.377	125.44
476.596	126.44
476.814	120.44
477.033	98.44
477.252	115.44
477.471	134.44
477.69	132.44
477.908	123.44
478.127	140.44
478.346	144.44
478.564	144.44
478.783	140.44
479.002	134.44
479.22	132.44
479.439	126.44
479.658	121.44
479.876	126.44
480.095	120.44
480.313	112.44
480.532	112.44
480.751	105.44
480.969	87.44
481.188	93.44
481.406	101.44
481.624	85.44
481.843	89.44
482.061	104.44
482.28	96.44
482.498	116.44
482.717	106.44
482.935	121.44
483.153	149.44
483.372	162.44
483.59	162.44
483.808	149.44
484.027	140.44
484.245	139.44
484.463	165.44
484.681	171.44
484.9	147.44
485.118	149.44
485.336	140.44
485.554	128.44
485.772	116.44
485.99	99.44
486.209	110.44
486.427	118.44
486.645	108.44
486.863	138.44
487.081	141.44
487.299	134.44
487.517	146.44
487.735	171.44
487.953	199.44
488.171	182.44
488.389	171.44
488.607	172.44
488.825	131.44
489.043	133.44
489.261	140.44
489.479	133.44
489.696	119.44
489.914	146.44
490.132	132.44
490.35	154.44
490.568	154.44
490.786	177.44
491.003	165.44
491.221	157.44
491.439	181.44
491.657	195.44
491.874	207.44
492.092	198.44
492.31	239.44
492.527	219.44
492.745	204.44
492.963	193.44
493.18	190.44
493.398	182.44
493.615	181.44
493.833	181.44
494.05	180.44
494.268	172.44
494.485	153.44
494.703	168.44
494.92	179.44
495.138	174.44
495.355	167.44
495.573	167.44
495.79	165.44
496.008	164.44
496.225	162.44
496.442	160.44
496.66	162.44
496.877	168.44
497.094	160.44
497.312	158.44
497.529	155.44
497.746	136.44
497.963	148.44
498.181	140.44
498.398	120.44
498.615	123.44
498.832	120.44
499.049	124.44
499.267	129.44
499.484	140.44
499.701	134.44
499.918	136.44
500.135	142.44
500.352	149.44
500.569	144.44
500.786	139.44
501.003	126.44
501.22	133.44
501.437	142.44
501.654	125.44
501.871	130.44
502.088	121.44
502.305	141.44
502.522	131.44
502.739	141.44
502.956	125.44
503.172	117.44
503.389	125.44
503.606	120.44
503.823	122.44
504.04	121.44
504.256	120.44
504.473	118.44
504.69	117.44
504.907	126.44
505.123	132.44
505.34	125.44
505.557	132.44
505.773	108.44
505.99	106.44
506.207	127.44
506.423	124.44
506.64	117.44
506.856	116.44
507.073	112.44
507.289	118.44
507.506	116.44
507.722	108.44
507.939	128.44
508.155	124.44
508.372	97.44
508.588	111.44
508.805	122.44
509.021	115.44
509.238	99.44
509.454	117.44
509.67	109.44
509.887	106.44
510.103	111.44
510.319	99.44
510.536	95.44
510.752	76.44
510.968	94.44
511.184	82.44
511.401	90.44
511.617	81.44
