Data from Location4.07152019.Energy5.Lamp.07192019.3%Agarose_HRD10591_16-19-31-925.txt Node
Date: Fri Jul 19 16:19:31 EDT 2019
User: cochatt
Spectrometer: HR+D1059
Trigger mode: 1
Integration Time (sec): 1.000000E-1
Scans to average: 1
Electric dark correction enabled: true
Nonlinearity correction enabled: false
Boxcar width: 0
XAxis mode: Wavelengths
Number of Pixels in Spectrum: 2048
>>>>>Begin Spectral Data<<<<<
223.165	-2.44
223.4	-2.44
223.635	-2.44
223.869	-19.44
224.104	-25.44
224.338	-15.44
224.573	-18.44
224.808	-11.44
225.042	-13.44
225.277	-13.44
225.511	-1.44
225.746	6.56
225.98	15.56
226.215	13.56
226.449	4.56
226.683	21.56
226.918	33.56
227.152	25.56
227.387	36.56
227.621	30.56
227.856	46.56
228.09	41.56
228.324	56.56
228.559	67.56
228.793	58.56
229.027	54.56
229.262	58.56
229.496	66.56
229.73	75.56
229.964	69.56
230.199	68.56
230.433	83.56
230.667	95.56
230.901	85.56
231.136	93.56
231.37	91.56
231.604	69.56
231.838	68.56
232.072	92.56
232.306	78.56
232.541	96.56
232.775	84.56
233.009	84.56
233.243	79.56
233.477	87.56
233.711	78.56
233.945	80.56
234.179	78.56
234.413	89.56
234.647	81.56
234.881	75.56
235.115	82.56
235.349	95.56
235.583	80.56
235.817	76.56
236.051	83.56
236.285	67.56
236.519	85.56
236.753	85.56
236.987	85.56
237.221	62.56
237.455	76.56
237.689	77.56
237.922	72.56
238.156	77.56
238.39	72.56
238.624	89.56
238.858	92.56
239.091	76.56
239.325	86.56
239.559	81.56
239.793	81.56
240.027	78.56
240.26	80.56
240.494	89.56
240.728	76.56
240.961	69.56
241.195	68.56
241.429	71.56
241.662	78.56
241.896	79.56
242.13	76.56
242.363	78.56
242.597	85.56
242.83	83.56
243.064	76.56
243.298	74.56
243.531	89.56
243.765	91.56
243.998	86.56
244.232	81.56
244.465	73.56
244.699	86.56
244.932	87.56
245.166	76.56
245.399	80.56
245.633	98.56
245.866	89.56
246.099	73.56
246.333	82.56
246.566	85.56
246.8	91.56
247.033	93.56
247.266	77.56
247.5	84.56
247.733	88.56
247.966	77.56
248.2	77.56
248.433	83.56
248.666	87.56
248.899	81.56
249.133	69.56
249.366	73.56
249.599	74.56
249.832	74.56
250.066	74.56
250.299	98.56
250.532	86.56
250.765	81.56
250.998	90.56
251.231	92.56
251.465	83.56
251.698	85.56
251.931	85.56
252.164	86.56
252.397	75.56
252.63	89.56
252.863	90.56
253.096	92.56
253.329	81.56
253.562	87.56
253.795	76.56
254.028	74.56
254.261	96.56
254.494	88.56
254.727	93.56
254.96	89.56
255.193	86.56
255.426	89.56
255.659	77.56
255.892	80.56
256.124	79.56
256.357	93.56
256.59	78.56
256.823	75.56
257.056	77.56
257.289	78.56
257.521	94.56
257.754	76.56
257.987	83.56
258.22	83.56
258.452	77.56
258.685	83.56
258.918	81.56
259.151	87.56
259.383	77.56
259.616	86.56
259.849	84.56
260.081	79.56
260.314	80.56
260.547	78.56
260.779	84.56
261.012	90.56
261.244	78.56
261.477	75.56
261.71	93.56
261.942	83.56
262.175	96.56
262.407	73.56
262.64	84.56
262.872	86.56
263.105	90.56
263.337	86.56
263.57	82.56
263.802	98.56
264.035	90.56
264.267	89.56
264.499	93.56
264.732	97.56
264.964	98.56
265.197	95.56
265.429	103.56
265.661	92.56
265.894	74.56
266.126	86.56
266.358	86.56
266.591	85.56
266.823	76.56
267.055	93.56
267.287	101.56
267.52	86.56
267.752	85.56
267.984	87.56
268.216	92.56
268.448	99.56
268.681	84.56
268.913	82.56
269.145	91.56
269.377	74.56
269.609	98.56
269.841	91.56
270.073	73.56
270.306	86.56
270.538	81.56
270.77	85.56
271.002	92.56
271.234	86.56
271.466	79.56
271.698	80.56
271.93	74.56
272.162	76.56
272.394	83.56
272.626	78.56
272.858	95.56
273.09	96.56
273.322	77.56
273.553	98.56
273.785	73.56
274.017	95.56
274.249	98.56
274.481	84.56
274.713	92.56
274.945	79.56
275.176	81.56
275.408	103.56
275.64	78.56
275.872	89.56
276.104	92.56
276.335	83.56
276.567	97.56
276.799	80.56
277.031	88.56
277.262	82.56
277.494	89.56
277.726	87.56
277.957	87.56
278.189	69.56
278.421	86.56
278.652	99.56
278.884	88.56
279.115	74.56
279.347	73.56
279.579	99.56
279.81	90.56
280.042	87.56
280.273	82.56
280.505	88.56
280.736	83.56
280.968	92.56
281.199	98.56
281.431	74.56
281.662	88.56
281.894	88.56
282.125	89.56
282.356	78.56
282.588	85.56
282.819	89.56
283.051	82.56
283.282	85.56
283.513	94.56
283.745	98.56
283.976	72.56
284.207	87.56
284.439	85.56
284.67	92.56
284.901	84.56
285.132	85.56
285.364	96.56
285.595	84.56
285.826	95.56
286.057	96.56
286.288	81.56
286.52	99.56
286.751	87.56
286.982	86.56
287.213	79.56
287.444	99.56
287.675	80.56
287.906	83.56
288.138	82.56
288.369	82.56
288.6	87.56
288.831	83.56
289.062	92.56
289.293	83.56
289.524	77.56
289.755	97.56
289.986	89.56
290.217	93.56
290.448	84.56
290.679	73.56
290.91	65.56
291.141	90.56
291.371	84.56
291.602	92.56
291.833	87.56
292.064	87.56
292.295	84.56
292.526	97.56
292.757	90.56
292.987	86.56
293.218	86.56
293.449	76.56
293.68	97.56
293.91	83.56
294.141	84.56
294.372	84.56
294.603	91.56
294.833	93.56
295.064	90.56
295.295	76.56
295.525	90.56
295.756	102.56
295.987	82.56
296.217	95.56
296.448	95.56
296.679	92.56
296.909	74.56
297.14	90.56
297.37	87.56
297.601	85.56
297.831	96.56
298.062	83.56
298.292	90.56
298.523	77.56
298.753	85.56
298.984	87.56
299.214	89.56
299.445	85.56
299.675	92.56
299.905	61.56
300.136	85.56
300.366	98.56
300.597	89.56
300.827	81.56
301.057	78.56
301.288	70.56
301.518	101.56
301.748	84.56
301.979	99.56
302.209	82.56
302.439	90.56
302.669	92.56
302.9	88.56
303.13	82.56
303.36	84.56
303.59	93.56
303.82	93.56
304.051	86.56
304.281	84.56
304.511	87.56
304.741	90.56
304.971	75.56
305.201	94.56
305.431	96.56
305.661	102.56
305.891	79.56
306.121	86.56
306.352	87.56
306.582	85.56
306.812	88.56
307.042	76.56
307.272	84.56
307.502	87.56
307.731	92.56
307.961	70.56
308.191	85.56
308.421	77.56
308.651	87.56
308.881	91.56
309.111	79.56
309.341	83.56
309.571	91.56
309.8	92.56
310.03	84.56
310.26	94.56
310.49	91.56
310.72	84.56
310.949	82.56
311.179	87.56
311.409	92.56
311.639	95.56
311.868	85.56
312.098	91.56
312.328	87.56
312.557	94.56
312.787	88.56
313.017	82.56
313.246	89.56
313.476	82.56
313.706	90.56
313.935	79.56
314.165	94.56
314.394	98.56
314.624	96.56
314.853	93.56
315.083	85.56
315.312	94.56
315.542	99.56
315.771	84.56
316.001	81.56
316.23	82.56
316.46	87.56
316.689	86.56
316.919	84.56
317.148	84.56
317.377	76.56
317.607	74.56
317.836	79.56
318.065	81.56
318.295	83.56
318.524	88.56
318.753	102.56
318.983	91.56
319.212	91.56
319.441	85.56
319.67	85.56
319.9	89.56
320.129	92.56
320.358	82.56
320.587	87.56
320.816	85.56
321.046	91.56
321.275	82.56
321.504	89.56
321.733	100.56
321.962	95.56
322.191	85.56
322.42	88.56
322.649	83.56
322.878	88.56
323.108	85.56
323.337	95.56
323.566	87.56
323.795	85.56
324.024	91.56
324.253	89.56
324.482	81.56
324.71	75.56
324.939	82.56
325.168	97.56
325.397	91.56
325.626	79.56
325.855	97.56
326.084	86.56
326.313	78.56
326.542	80.56
326.77	88.56
326.999	80.56
327.228	98.56
327.457	79.56
327.686	78.56
327.914	92.56
328.143	98.56
328.372	99.56
328.6	86.56
328.829	87.56
329.058	90.56
329.287	92.56
329.515	83.56
329.744	97.56
329.972	101.56
330.201	87.56
330.43	79.56
330.658	85.56
330.887	91.56
331.115	100.56
331.344	80.56
331.572	93.56
331.801	105.56
332.03	86.56
332.258	98.56
332.486	91.56
332.715	82.56
332.943	79.56
333.172	87.56
333.4	95.56
333.629	85.56
333.857	82.56
334.085	100.56
334.314	82.56
334.542	86.56
334.771	108.56
334.999	75.56
335.227	86.56
335.455	81.56
335.684	86.56
335.912	80.56
336.14	72.56
336.369	90.56
336.597	90.56
336.825	85.56
337.053	90.56
337.281	92.56
337.51	95.56
337.738	94.56
337.966	90.56
338.194	67.56
338.422	79.56
338.65	85.56
338.878	85.56
339.106	82.56
339.334	106.56
339.562	87.56
339.79	97.56
340.018	96.56
340.246	81.56
340.474	70.56
340.702	76.56
340.93	86.56
341.158	96.56
341.386	85.56
341.614	94.56
341.842	82.56
342.07	78.56
342.298	89.56
342.526	89.56
342.754	81.56
342.981	86.56
343.209	96.56
343.437	97.56
343.665	89.56
343.893	102.56
344.12	94.56
344.348	81.56
344.576	73.56
344.804	85.56
345.031	92.56
345.259	92.56
345.487	90.56
345.714	81.56
345.942	86.56
346.17	89.56
346.397	84.56
346.625	102.56
346.853	86.56
347.08	79.56
347.308	82.56
347.535	83.56
347.763	82.56
347.99	93.56
348.218	100.56
348.445	85.56
348.673	84.56
348.9	108.56
349.128	90.56
349.355	90.56
349.583	92.56
349.81	83.56
350.037	79.56
350.265	92.56
350.492	87.56
350.72	69.56
350.947	94.56
351.174	90.56
351.402	74.56
351.629	79.56
351.856	99.56
352.083	84.56
352.311	87.56
352.538	90.56
352.765	76.56
352.992	83.56
353.22	93.56
353.447	88.56
353.674	74.56
353.901	93.56
354.128	86.56
354.355	69.56
354.583	91.56
354.81	93.56
355.037	82.56
355.264	101.56
355.491	93.56
355.718	83.56
355.945	84.56
356.172	82.56
356.399	87.56
356.626	79.56
356.853	84.56
357.08	82.56
357.307	78.56
357.534	82.56
357.761	80.56
357.988	92.56
358.215	88.56
358.441	81.56
358.668	73.56
358.895	86.56
359.122	97.56
359.349	84.56
359.576	82.56
359.802	91.56
360.029	96.56
360.256	87.56
360.483	92.56
360.709	85.56
360.936	84.56
361.163	90.56
361.39	99.56
361.616	82.56
361.843	87.56
362.07	104.56
362.296	77.56
362.523	88.56
362.749	75.56
362.976	84.56
363.203	93.56
363.429	92.56
363.656	86.56
363.882	86.56
364.109	80.56
364.335	91.56
364.562	90.56
364.788	89.56
365.015	84.56
365.241	78.56
365.468	78.56
365.694	88.56
365.92	83.56
366.147	84.56
366.373	85.56
366.599	86.56
366.826	92.56
367.052	77.56
367.278	80.56
367.505	106.56
367.731	97.56
367.957	82.56
368.184	77.56
368.41	97.56
368.636	119.56
368.862	85.56
369.089	92.56
369.315	99.56
369.541	99.56
369.767	89.56
369.993	88.56
370.219	97.56
370.445	101.56
370.672	89.56
370.898	87.56
371.124	94.56
371.35	89.56
371.576	86.56
371.802	77.56
372.028	97.56
372.254	76.56
372.48	94.56
372.706	92.56
372.932	102.56
373.158	92.56
373.384	97.56
373.61	100.56
373.835	93.56
374.061	97.56
374.287	90.56
374.513	90.56
374.739	91.56
374.965	93.56
375.191	83.56
375.416	98.56
375.642	93.56
375.868	88.56
376.094	103.56
376.319	85.56
376.545	93.56
376.771	100.56
376.997	88.56
377.222	78.56
377.448	93.56
377.674	95.56
377.899	96.56
378.125	87.56
378.35	98.56
378.576	97.56
378.802	93.56
379.027	90.56
379.253	102.56
379.478	94.56
379.704	81.56
379.929	105.56
380.155	101.56
380.38	100.56
380.606	109.56
380.831	107.56
381.057	87.56
381.282	78.56
381.507	94.56
381.733	97.56
381.958	102.56
382.184	101.56
382.409	85.56
382.634	85.56
382.86	83.56
383.085	100.56
383.31	102.56
383.535	86.56
383.761	98.56
383.986	97.56
384.211	102.56
384.436	91.56
384.662	98.56
384.887	97.56
385.112	100.56
385.337	100.56
385.562	79.56
385.787	103.56
386.013	106.56
386.238	94.56
386.463	102.56
386.688	102.56
386.913	117.56
387.138	105.56
387.363	95.56
387.588	101.56
387.813	98.56
388.038	101.56
388.263	105.56
388.488	91.56
388.713	109.56
388.938	102.56
389.163	89.56
389.387	104.56
389.612	95.56
389.837	99.56
390.062	96.56
390.287	105.56
390.512	100.56
390.736	114.56
390.961	111.56
391.186	116.56
391.411	99.56
391.636	105.56
391.86	107.56
392.085	122.56
392.31	117.56
392.534	104.56
392.759	99.56
392.984	100.56
393.208	98.56
393.433	105.56
393.658	114.56
393.882	102.56
394.107	103.56
394.331	110.56
394.556	102.56
394.78	97.56
395.005	96.56
395.229	100.56
395.454	109.56
395.678	105.56
395.903	105.56
396.127	122.56
396.352	123.56
396.576	100.56
396.801	109.56
397.025	106.56
397.249	109.56
397.474	113.56
397.698	113.56
397.922	121.56
398.147	106.56
398.371	106.56
398.595	107.56
398.82	96.56
399.044	118.56
399.268	109.56
399.492	97.56
399.717	101.56
399.941	109.56
400.165	105.56
400.389	113.56
400.613	121.56
400.837	103.56
401.062	108.56
401.286	112.56
401.51	107.56
401.734	113.56
401.958	106.56
402.182	120.56
402.406	104.56
402.63	114.56
402.854	111.56
403.078	103.56
403.302	122.56
403.526	113.56
403.75	115.56
403.974	115.56
404.198	103.56
404.422	115.56
404.645	115.56
404.869	115.56
405.093	118.56
405.317	114.56
405.541	116.56
405.765	123.56
405.988	119.56
406.212	119.56
406.436	111.56
406.66	119.56
406.883	119.56
407.107	130.56
407.331	110.56
407.555	129.56
407.778	117.56
408.002	111.56
408.226	109.56
408.449	120.56
408.673	123.56
408.896	121.56
409.12	117.56
409.344	125.56
409.567	121.56
409.791	118.56
410.014	121.56
410.238	129.56
410.461	113.56
410.685	118.56
410.908	131.56
411.132	119.56
411.355	131.56
411.578	119.56
411.802	122.56
412.025	104.56
412.249	118.56
412.472	113.56
412.695	129.56
412.919	125.56
413.142	123.56
413.365	111.56
413.589	113.56
413.812	131.56
414.035	119.56
414.258	126.56
414.482	110.56
414.705	123.56
414.928	117.56
415.151	126.56
415.374	126.56
415.597	122.56
415.821	129.56
416.044	126.56
416.267	124.56
416.49	124.56
416.713	127.56
416.936	125.56
417.159	127.56
417.382	134.56
417.605	119.56
417.828	126.56
418.051	133.56
418.274	136.56
418.497	134.56
418.72	124.56
418.943	127.56
419.166	125.56
419.389	130.56
419.611	129.56
419.834	135.56
420.057	133.56
420.28	136.56
420.503	136.56
420.726	132.56
420.948	126.56
421.171	133.56
421.394	139.56
421.617	129.56
421.839	146.56
422.062	152.56
422.285	133.56
422.507	142.56
422.73	132.56
422.953	129.56
423.175	130.56
423.398	118.56
423.621	123.56
423.843	138.56
424.066	133.56
424.288	139.56
424.511	133.56
424.733	135.56
424.956	151.56
425.178	143.56
425.401	146.56
425.623	147.56
425.846	131.56
426.068	143.56
426.291	141.56
426.513	134.56
426.735	131.56
426.958	126.56
427.18	126.56
427.402	134.56
427.625	136.56
427.847	138.56
428.069	126.56
428.292	138.56
428.514	122.56
428.736	131.56
428.958	125.56
429.181	120.56
429.403	129.56
429.625	131.56
429.847	129.56
430.069	127.56
430.292	116.56
430.514	117.56
430.736	127.56
430.958	126.56
431.18	139.56
431.402	139.56
431.624	127.56
431.846	113.56
432.068	96.56
432.29	100.56
432.512	117.56
432.734	126.56
432.956	139.56
433.178	143.56
433.4	139.56
433.622	140.56
433.844	127.56
434.066	103.56
434.287	104.56
434.509	92.56
434.731	103.56
434.953	105.56
435.175	125.56
435.397	121.56
435.618	116.56
435.84	117.56
436.062	118.56
436.284	133.56
436.505	133.56
436.727	116.56
436.949	135.56
437.17	153.56
437.392	125.56
437.614	127.56
437.835	132.56
438.057	95.56
438.278	124.56
438.5	134.56
438.721	120.56
438.943	131.56
439.165	133.56
439.386	143.56
439.608	156.56
439.829	149.56
440.05	138.56
440.272	154.56
440.493	140.56
440.715	142.56
440.936	144.56
441.158	135.56
441.379	135.56
441.6	149.56
441.822	135.56
442.043	138.56
442.264	143.56
442.486	140.56
442.707	136.56
442.928	129.56
443.149	134.56
443.371	130.56
443.592	128.56
443.813	141.56
444.034	150.56
444.255	144.56
444.476	142.56
444.698	143.56
444.919	143.56
445.14	259.56
445.361	180.56
445.582	139.56
445.803	147.56
446.024	143.56
446.245	149.56
446.466	139.56
446.687	151.56
446.908	151.56
447.129	144.56
447.35	150.56
447.571	140.56
447.792	148.56
448.013	148.56
448.234	146.56
448.455	143.56
448.675	137.56
448.896	141.56
449.117	148.56
449.338	126.56
449.559	133.56
449.779	142.56
450	142.56
450.221	138.56
450.442	148.56
450.662	136.56
450.883	147.56
451.104	132.56
451.324	137.56
451.545	132.56
451.766	125.56
451.986	133.56
452.207	133.56
452.428	128.56
452.648	118.56
452.869	124.56
453.089	128.56
453.31	113.56
453.53	114.56
453.751	121.56
453.971	104.56
454.192	108.56
454.412	116.56
454.633	113.56
454.853	109.56
455.073	119.56
455.294	121.56
455.514	134.56
455.734	111.56
455.955	117.56
456.175	118.56
456.395	109.56
456.616	107.56
456.836	113.56
457.056	107.56
457.276	107.56
457.497	118.56
457.717	104.56
457.937	116.56
458.157	110.56
458.377	107.56
458.598	110.56
458.818	100.56
459.038	87.56
459.258	101.56
459.478	92.56
459.698	105.56
459.918	103.56
460.138	104.56
460.358	100.56
460.578	104.56
460.798	107.56
461.018	111.56
461.238	121.56
461.458	107.56
461.678	122.56
461.898	113.56
462.118	114.56
462.338	114.56
462.558	114.56
462.777	110.56
462.997	117.56
463.217	113.56
463.437	116.56
463.657	96.56
463.876	109.56
464.096	115.56
464.316	94.56
464.536	110.56
464.755	106.56
464.975	110.56
465.195	123.56
465.414	125.56
465.634	114.56
465.854	114.56
466.073	129.56
466.293	118.56
466.512	121.56
466.732	127.56
466.951	132.56
467.171	131.56
467.391	123.56
467.61	129.56
467.829	116.56
468.049	143.56
468.268	145.56
468.488	133.56
468.707	142.56
468.927	129.56
469.146	136.56
469.365	121.56
469.585	125.56
469.804	124.56
470.023	137.56
470.243	130.56
470.462	147.56
470.681	131.56
470.901	148.56
471.12	133.56
471.339	144.56
471.558	142.56
471.777	137.56
471.997	143.56
472.216	126.56
472.435	130.56
472.654	108.56
472.873	121.56
473.092	114.56
473.311	129.56
473.53	138.56
473.749	134.56
473.968	132.56
474.187	133.56
474.406	125.56
474.625	126.56
474.844	134.56
475.063	124.56
475.282	122.56
475.501	130.56
475.72	142.56
475.939	121.56
476.158	138.56
476.377	133.56
476.596	130.56
476.814	118.56
477.033	119.56
477.252	120.56
477.471	125.56
477.69	134.56
477.908	139.56
478.127	131.56
478.346	138.56
478.564	139.56
478.783	131.56
479.002	142.56
479.22	151.56
479.439	138.56
479.658	156.56
479.876	134.56
480.095	116.56
480.313	121.56
480.532	99.56
480.751	110.56
480.969	85.56
481.188	97.56
481.406	99.56
481.624	91.56
481.843	111.56
482.061	87.56
482.28	110.56
482.498	115.56
482.717	100.56
482.935	123.56
483.153	145.56
483.372	147.56
483.59	146.56
483.808	150.56
484.027	130.56
484.245	129.56
484.463	149.56
484.681	159.56
484.9	160.56
485.118	146.56
485.336	129.56
485.554	114.56
485.772	113.56
485.99	119.56
486.209	111.56
486.427	117.56
486.645	125.56
486.863	124.56
487.081	142.56
487.299	139.56
487.517	138.56
487.735	171.56
487.953	186.56
488.171	170.56
488.389	180.56
488.607	165.56
488.825	148.56
489.043	132.56
489.261	142.56
489.479	141.56
489.696	153.56
489.914	165.56
490.132	155.56
490.35	174.56
490.568	149.56
490.786	158.56
491.003	179.56
491.221	183.56
491.439	187.56
491.657	196.56
491.874	203.56
492.092	224.56
492.31	247.56
492.527	215.56
492.745	209.56
492.963	186.56
493.18	195.56
493.398	180.56
493.615	175.56
493.833	162.56
494.05	178.56
494.268	173.56
494.485	161.56
494.703	160.56
494.92	165.56
495.138	170.56
495.355	157.56
495.573	162.56
495.79	157.56
496.008	166.56
496.225	169.56
496.442	153.56
496.66	172.56
496.877	161.56
497.094	163.56
497.312	171.56
497.529	151.56
497.746	148.56
497.963	155.56
498.181	152.56
498.398	124.56
498.615	119.56
498.832	120.56
499.049	129.56
499.267	118.56
499.484	133.56
499.701	137.56
499.918	126.56
500.135	116.56
500.352	131.56
500.569	131.56
500.786	151.56
501.003	151.56
501.22	126.56
501.437	152.56
501.654	137.56
501.871	137.56
502.088	133.56
502.305	139.56
502.522	137.56
502.739	132.56
502.956	127.56
503.172	130.56
503.389	117.56
503.606	124.56
503.823	130.56
504.04	117.56
504.256	126.56
504.473	123.56
504.69	110.56
504.907	129.56
505.123	115.56
505.34	125.56
505.557	122.56
505.773	130.56
505.99	126.56
506.207	130.56
506.423	130.56
506.64	115.56
506.856	110.56
507.073	126.56
507.289	130.56
507.506	125.56
507.722	128.56
507.939	108.56
508.155	116.56
508.372	110.56
508.588	111.56
508.805	118.56
509.021	115.56
509.238	116.56
509.454	109.56
509.67	90.56
509.887	97.56
510.103	110.56
510.319	111.56
510.536	96.56
510.752	84.56
510.968	91.56
511.184	89.56
