Data from Location4.07152019.Energy5.Lamp.07192019.3%Agarose_HRD10591_16-21-12-926.txt Node
Date: Fri Jul 19 16:21:12 EDT 2019
User: cochatt
Spectrometer: HR+D1059
Trigger mode: 1
Integration Time (sec): 1.000000E-1
Scans to average: 1
Electric dark correction enabled: true
Nonlinearity correction enabled: false
Boxcar width: 0
XAxis mode: Wavelengths
Number of Pixels in Spectrum: 2048
>>>>>Begin Spectral Data<<<<<
223.165	-21.25
223.4	-21.25
223.635	-21.25
223.869	-34.25
224.104	-25.25
224.338	-13.25
224.573	-19.25
224.808	-1.25
225.042	0.75
225.277	-3.25
225.511	2.75
225.746	4.75
225.98	10.75
226.215	5.75
226.449	24.75
226.683	25.75
226.918	13.75
227.152	28.75
227.387	29.75
227.621	18.75
227.856	35.75
228.09	39.75
228.324	45.75
228.559	48.75
228.793	54.75
229.027	58.75
229.262	62.75
229.496	74.75
229.73	61.75
229.964	72.75
230.199	62.75
230.433	71.75
230.667	59.75
230.901	83.75
231.136	62.75
231.37	71.75
231.604	68.75
231.838	74.75
232.072	85.75
232.306	98.75
232.541	97.75
232.775	93.75
233.009	80.75
233.243	75.75
233.477	70.75
233.711	75.75
233.945	67.75
234.179	78.75
234.413	70.75
234.647	80.75
234.881	82.75
235.115	75.75
235.349	86.75
235.583	79.75
235.817	66.75
236.051	66.75
236.285	89.75
236.519	74.75
236.753	99.75
236.987	66.75
237.221	76.75
237.455	79.75
237.689	77.75
237.922	71.75
238.156	62.75
238.39	74.75
238.624	65.75
238.858	67.75
239.091	65.75
239.325	75.75
239.559	63.75
239.793	69.75
240.027	66.75
240.26	65.75
240.494	70.75
240.728	73.75
240.961	73.75
241.195	71.75
241.429	66.75
241.662	71.75
241.896	72.75
242.13	75.75
242.363	65.75
242.597	64.75
242.83	83.75
243.064	75.75
243.298	87.75
243.531	71.75
243.765	57.75
243.998	68.75
244.232	65.75
244.465	66.75
244.699	69.75
244.932	71.75
245.166	75.75
245.399	77.75
245.633	75.75
245.866	81.75
246.099	93.75
246.333	74.75
246.566	60.75
246.8	62.75
247.033	68.75
247.266	74.75
247.5	60.75
247.733	71.75
247.966	76.75
248.2	79.75
248.433	93.75
248.666	59.75
248.899	74.75
249.133	84.75
249.366	78.75
249.599	76.75
249.832	75.75
250.066	75.75
250.299	87.75
250.532	87.75
250.765	74.75
250.998	66.75
251.231	78.75
251.465	75.75
251.698	89.75
251.931	67.75
252.164	76.75
252.397	82.75
252.63	67.75
252.863	80.75
253.096	70.75
253.329	82.75
253.562	77.75
253.795	75.75
254.028	72.75
254.261	72.75
254.494	74.75
254.727	82.75
254.96	72.75
255.193	82.75
255.426	83.75
255.659	72.75
255.892	71.75
256.124	75.75
256.357	77.75
256.59	95.75
256.823	77.75
257.056	80.75
257.289	71.75
257.521	72.75
257.754	83.75
257.987	87.75
258.22	68.75
258.452	75.75
258.685	57.75
258.918	76.75
259.151	69.75
259.383	80.75
259.616	81.75
259.849	74.75
260.081	65.75
260.314	77.75
260.547	83.75
260.779	73.75
261.012	74.75
261.244	84.75
261.477	77.75
261.71	76.75
261.942	75.75
262.175	89.75
262.407	65.75
262.64	77.75
262.872	84.75
263.105	71.75
263.337	78.75
263.57	72.75
263.802	80.75
264.035	62.75
264.267	79.75
264.499	81.75
264.732	90.75
264.964	71.75
265.197	69.75
265.429	74.75
265.661	81.75
265.894	83.75
266.126	92.75
266.358	75.75
266.591	84.75
266.823	61.75
267.055	77.75
267.287	78.75
267.52	74.75
267.752	85.75
267.984	80.75
268.216	77.75
268.448	82.75
268.681	74.75
268.913	82.75
269.145	87.75
269.377	76.75
269.609	69.75
269.841	71.75
270.073	90.75
270.306	85.75
270.538	77.75
270.77	72.75
271.002	80.75
271.234	74.75
271.466	77.75
271.698	68.75
271.93	83.75
272.162	65.75
272.394	93.75
272.626	76.75
272.858	69.75
273.09	71.75
273.322	71.75
273.553	86.75
273.785	80.75
274.017	78.75
274.249	68.75
274.481	80.75
274.713	70.75
274.945	76.75
275.176	89.75
275.408	102.75
275.64	74.75
275.872	82.75
276.104	84.75
276.335	69.75
276.567	79.75
276.799	61.75
277.031	81.75
277.262	73.75
277.494	79.75
277.726	72.75
277.957	75.75
278.189	72.75
278.421	80.75
278.652	74.75
278.884	71.75
279.115	70.75
279.347	70.75
279.579	68.75
279.81	77.75
280.042	84.75
280.273	76.75
280.505	75.75
280.736	80.75
280.968	84.75
281.199	83.75
281.431	58.75
281.662	71.75
281.894	69.75
282.125	70.75
282.356	81.75
282.588	70.75
282.819	67.75
283.051	78.75
283.282	95.75
283.513	93.75
283.745	77.75
283.976	83.75
284.207	82.75
284.439	83.75
284.67	76.75
284.901	66.75
285.132	66.75
285.364	71.75
285.595	93.75
285.826	76.75
286.057	83.75
286.288	80.75
286.52	80.75
286.751	95.75
286.982	75.75
287.213	75.75
287.444	73.75
287.675	70.75
287.906	71.75
288.138	71.75
288.369	77.75
288.6	76.75
288.831	77.75
289.062	64.75
289.293	81.75
289.524	70.75
289.755	77.75
289.986	74.75
290.217	72.75
290.448	71.75
290.679	83.75
290.91	89.75
291.141	80.75
291.371	72.75
291.602	75.75
291.833	83.75
292.064	85.75
292.295	94.75
292.526	78.75
292.757	72.75
292.987	102.75
293.218	73.75
293.449	77.75
293.68	84.75
293.91	86.75
294.141	70.75
294.372	69.75
294.603	79.75
294.833	69.75
295.064	61.75
295.295	87.75
295.525	77.75
295.756	71.75
295.987	68.75
296.217	78.75
296.448	80.75
296.679	73.75
296.909	73.75
297.14	89.75
297.37	55.75
297.601	80.75
297.831	65.75
298.062	81.75
298.292	80.75
298.523	75.75
298.753	61.75
298.984	81.75
299.214	89.75
299.445	82.75
299.675	90.75
299.905	77.75
300.136	74.75
300.366	73.75
300.597	85.75
300.827	74.75
301.057	68.75
301.288	71.75
301.518	71.75
301.748	82.75
301.979	79.75
302.209	81.75
302.439	78.75
302.669	81.75
302.9	78.75
303.13	85.75
303.36	76.75
303.59	83.75
303.82	85.75
304.051	77.75
304.281	87.75
304.511	93.75
304.741	85.75
304.971	86.75
305.201	87.75
305.431	85.75
305.661	80.75
305.891	87.75
306.121	73.75
306.352	78.75
306.582	75.75
306.812	78.75
307.042	83.75
307.272	77.75
307.502	77.75
307.731	76.75
307.961	83.75
308.191	87.75
308.421	76.75
308.651	79.75
308.881	91.75
309.111	76.75
309.341	77.75
309.571	86.75
309.8	70.75
310.03	79.75
310.26	80.75
310.49	87.75
310.72	82.75
310.949	78.75
311.179	81.75
311.409	73.75
311.639	82.75
311.868	73.75
312.098	67.75
312.328	79.75
312.557	76.75
312.787	78.75
313.017	85.75
313.246	78.75
313.476	78.75
313.706	77.75
313.935	71.75
314.165	66.75
314.394	88.75
314.624	74.75
314.853	83.75
315.083	89.75
315.312	84.75
315.542	75.75
315.771	80.75
316.001	73.75
316.23	81.75
316.46	79.75
316.689	93.75
316.919	79.75
317.148	68.75
317.377	75.75
317.607	75.75
317.836	77.75
318.065	74.75
318.295	83.75
318.524	85.75
318.753	78.75
318.983	82.75
319.212	84.75
319.441	82.75
319.67	77.75
319.9	87.75
320.129	85.75
320.358	75.75
320.587	72.75
320.816	70.75
321.046	71.75
321.275	82.75
321.504	88.75
321.733	94.75
321.962	75.75
322.191	68.75
322.42	82.75
322.649	81.75
322.878	67.75
323.108	76.75
323.337	69.75
323.566	74.75
323.795	83.75
324.024	76.75
324.253	76.75
324.482	77.75
324.71	84.75
324.939	86.75
325.168	86.75
325.397	80.75
325.626	83.75
325.855	83.75
326.084	71.75
326.313	91.75
326.542	76.75
326.77	83.75
326.999	89.75
327.228	77.75
327.457	78.75
327.686	83.75
327.914	77.75
328.143	74.75
328.372	80.75
328.6	81.75
328.829	84.75
329.058	71.75
329.287	76.75
329.515	86.75
329.744	99.75
329.972	80.75
330.201	81.75
330.43	72.75
330.658	82.75
330.887	68.75
331.115	71.75
331.344	78.75
331.572	77.75
331.801	80.75
332.03	75.75
332.258	87.75
332.486	71.75
332.715	86.75
332.943	78.75
333.172	85.75
333.4	76.75
333.629	81.75
333.857	71.75
334.085	81.75
334.314	78.75
334.542	81.75
334.771	73.75
334.999	79.75
335.227	75.75
335.455	80.75
335.684	71.75
335.912	79.75
336.14	64.75
336.369	77.75
336.597	82.75
336.825	73.75
337.053	63.75
337.281	85.75
337.51	81.75
337.738	83.75
337.966	81.75
338.194	66.75
338.422	78.75
338.65	70.75
338.878	86.75
339.106	82.75
339.334	92.75
339.562	70.75
339.79	70.75
340.018	78.75
340.246	72.75
340.474	95.75
340.702	91.75
340.93	73.75
341.158	73.75
341.386	91.75
341.614	83.75
341.842	74.75
342.07	71.75
342.298	74.75
342.526	81.75
342.754	80.75
342.981	78.75
343.209	85.75
343.437	75.75
343.665	96.75
343.893	77.75
344.12	80.75
344.348	82.75
344.576	78.75
344.804	74.75
345.031	76.75
345.259	85.75
345.487	91.75
345.714	95.75
345.942	82.75
346.17	81.75
346.397	86.75
346.625	82.75
346.853	79.75
347.08	78.75
347.308	86.75
347.535	83.75
347.763	86.75
347.99	76.75
348.218	87.75
348.445	80.75
348.673	77.75
348.9	78.75
349.128	71.75
349.355	79.75
349.583	73.75
349.81	86.75
350.037	82.75
350.265	90.75
350.492	80.75
350.72	69.75
350.947	69.75
351.174	70.75
351.402	65.75
351.629	64.75
351.856	56.75
352.083	85.75
352.311	75.75
352.538	82.75
352.765	69.75
352.992	79.75
353.22	76.75
353.447	71.75
353.674	81.75
353.901	87.75
354.128	80.75
354.355	87.75
354.583	74.75
354.81	75.75
355.037	78.75
355.264	76.75
355.491	64.75
355.718	74.75
355.945	92.75
356.172	86.75
356.399	68.75
356.626	79.75
356.853	71.75
357.08	78.75
357.307	74.75
357.534	71.75
357.761	67.75
357.988	77.75
358.215	90.75
358.441	66.75
358.668	79.75
358.895	85.75
359.122	72.75
359.349	78.75
359.576	78.75
359.802	77.75
360.029	81.75
360.256	78.75
360.483	75.75
360.709	68.75
360.936	95.75
361.163	85.75
361.39	62.75
361.616	65.75
361.843	68.75
362.07	93.75
362.296	79.75
362.523	78.75
362.749	88.75
362.976	78.75
363.203	83.75
363.429	69.75
363.656	81.75
363.882	83.75
364.109	85.75
364.335	80.75
364.562	81.75
364.788	67.75
365.015	79.75
365.241	81.75
365.468	90.75
365.694	71.75
365.92	88.75
366.147	86.75
366.373	81.75
366.599	91.75
366.826	95.75
367.052	86.75
367.278	78.75
367.505	69.75
367.731	86.75
367.957	87.75
368.184	82.75
368.41	73.75
368.636	84.75
368.862	90.75
369.089	90.75
369.315	76.75
369.541	74.75
369.767	78.75
369.993	77.75
370.219	98.75
370.445	100.75
370.672	89.75
370.898	88.75
371.124	67.75
371.35	72.75
371.576	81.75
371.802	70.75
372.028	80.75
372.254	74.75
372.48	83.75
372.706	68.75
372.932	80.75
373.158	83.75
373.384	84.75
373.61	84.75
373.835	71.75
374.061	87.75
374.287	83.75
374.513	79.75
374.739	85.75
374.965	97.75
375.191	70.75
375.416	93.75
375.642	102.75
375.868	90.75
376.094	82.75
376.319	89.75
376.545	79.75
376.771	92.75
376.997	85.75
377.222	82.75
377.448	86.75
377.674	72.75
377.899	88.75
378.125	105.75
378.35	92.75
378.576	85.75
378.802	85.75
379.027	83.75
379.253	91.75
379.478	86.75
379.704	99.75
379.929	78.75
380.155	89.75
380.38	93.75
380.606	82.75
380.831	101.75
381.057	97.75
381.282	94.75
381.507	84.75
381.733	99.75
381.958	97.75
382.184	82.75
382.409	84.75
382.634	90.75
382.86	89.75
383.085	80.75
383.31	82.75
383.535	84.75
383.761	73.75
383.986	82.75
384.211	99.75
384.436	88.75
384.662	92.75
384.887	93.75
385.112	61.75
385.337	91.75
385.562	72.75
385.787	93.75
386.013	93.75
386.238	83.75
386.463	89.75
386.688	99.75
386.913	85.75
387.138	94.75
387.363	100.75
387.588	103.75
387.813	100.75
388.038	93.75
388.263	87.75
388.488	93.75
388.713	81.75
388.938	89.75
389.163	90.75
389.387	90.75
389.612	115.75
389.837	99.75
390.062	101.75
390.287	113.75
390.512	106.75
390.736	95.75
390.961	89.75
391.186	86.75
391.411	78.75
391.636	85.75
391.86	99.75
392.085	103.75
392.31	84.75
392.534	89.75
392.759	100.75
392.984	85.75
393.208	93.75
393.433	97.75
393.658	92.75
393.882	107.75
394.107	104.75
394.331	97.75
394.556	100.75
394.78	91.75
395.005	113.75
395.229	113.75
395.454	92.75
395.678	95.75
395.903	97.75
396.127	95.75
396.352	97.75
396.576	108.75
396.801	97.75
397.025	86.75
397.249	95.75
397.474	102.75
397.698	105.75
397.922	101.75
398.147	91.75
398.371	86.75
398.595	101.75
398.82	113.75
399.044	86.75
399.268	86.75
399.492	105.75
399.717	108.75
399.941	109.75
400.165	105.75
400.389	94.75
400.613	109.75
400.837	111.75
401.062	96.75
401.286	111.75
401.51	102.75
401.734	102.75
401.958	100.75
402.182	97.75
402.406	107.75
402.63	110.75
402.854	95.75
403.078	105.75
403.302	94.75
403.526	105.75
403.75	109.75
403.974	113.75
404.198	97.75
404.422	101.75
404.645	97.75
404.869	95.75
405.093	107.75
405.317	99.75
405.541	101.75
405.765	117.75
405.988	111.75
406.212	122.75
406.436	108.75
406.66	108.75
406.883	97.75
407.107	113.75
407.331	100.75
407.555	94.75
407.778	117.75
408.002	117.75
408.226	105.75
408.449	107.75
408.673	95.75
408.896	121.75
409.12	117.75
409.344	116.75
409.567	118.75
409.791	117.75
410.014	114.75
410.238	112.75
410.461	101.75
410.685	118.75
410.908	119.75
411.132	129.75
411.355	120.75
411.578	124.75
411.802	109.75
412.025	103.75
412.249	103.75
412.472	103.75
412.695	95.75
412.919	108.75
413.142	127.75
413.365	109.75
413.589	118.75
413.812	127.75
414.035	106.75
414.258	105.75
414.482	101.75
414.705	113.75
414.928	117.75
415.151	110.75
415.374	116.75
415.597	116.75
415.821	117.75
416.044	103.75
416.267	116.75
416.49	116.75
416.713	107.75
416.936	105.75
417.159	114.75
417.382	109.75
417.605	119.75
417.828	118.75
418.051	123.75
418.274	113.75
418.497	115.75
418.72	117.75
418.943	117.75
419.166	127.75
419.389	125.75
419.611	121.75
419.834	115.75
420.057	136.75
420.28	139.75
420.503	126.75
420.726	135.75
420.948	121.75
421.171	120.75
421.394	140.75
421.617	127.75
421.839	134.75
422.062	122.75
422.285	128.75
422.507	118.75
422.73	113.75
422.953	103.75
423.175	107.75
423.398	119.75
423.621	132.75
423.843	129.75
424.066	135.75
424.288	141.75
424.511	145.75
424.733	134.75
424.956	131.75
425.178	132.75
425.401	121.75
425.623	117.75
425.846	117.75
426.068	122.75
426.291	119.75
426.513	115.75
426.735	118.75
426.958	125.75
427.18	133.75
427.402	116.75
427.625	118.75
427.847	109.75
428.069	111.75
428.292	107.75
428.514	129.75
428.736	119.75
428.958	121.75
429.181	122.75
429.403	120.75
429.625	106.75
429.847	114.75
430.069	107.75
430.292	130.75
430.514	133.75
430.736	122.75
430.958	123.75
431.18	127.75
431.402	124.75
431.624	102.75
431.846	97.75
432.068	85.75
432.29	91.75
432.512	101.75
432.734	105.75
432.956	117.75
433.178	125.75
433.4	127.75
433.622	121.75
433.844	118.75
434.066	109.75
434.287	119.75
434.509	89.75
434.731	102.75
434.953	99.75
435.175	111.75
435.397	118.75
435.618	106.75
435.84	92.75
436.062	119.75
436.284	110.75
436.505	115.75
436.727	102.75
436.949	102.75
437.17	127.75
437.392	109.75
437.614	121.75
437.835	99.75
438.057	99.75
438.278	99.75
438.5	117.75
438.721	116.75
438.943	123.75
439.165	128.75
439.386	124.75
439.608	141.75
439.829	145.75
440.05	126.75
440.272	126.75
440.493	123.75
440.715	147.75
440.936	129.75
441.158	146.75
441.379	124.75
441.6	108.75
441.822	128.75
442.043	134.75
442.264	138.75
442.486	133.75
442.707	117.75
442.928	125.75
443.149	137.75
443.371	128.75
443.592	127.75
443.813	133.75
444.034	137.75
444.255	137.75
444.476	117.75
444.698	124.75
444.919	133.75
445.14	255.75
445.361	195.75
445.582	143.75
445.803	139.75
446.024	131.75
446.245	160.75
446.466	147.75
446.687	149.75
446.908	132.75
447.129	139.75
447.35	151.75
447.571	154.75
447.792	131.75
448.013	122.75
448.234	138.75
448.455	126.75
448.675	121.75
448.896	127.75
449.117	124.75
449.338	114.75
449.559	150.75
449.779	134.75
450	127.75
450.221	118.75
450.442	138.75
450.662	127.75
450.883	119.75
451.104	134.75
451.324	97.75
451.545	121.75
451.766	130.75
451.986	122.75
452.207	129.75
452.428	129.75
452.648	117.75
452.869	112.75
453.089	114.75
453.31	98.75
453.53	98.75
453.751	95.75
453.971	98.75
454.192	77.75
454.412	119.75
454.633	120.75
454.853	113.75
455.073	111.75
455.294	117.75
455.514	111.75
455.734	123.75
455.955	110.75
456.175	111.75
456.395	95.75
456.616	97.75
456.836	101.75
457.056	110.75
457.276	109.75
457.497	102.75
457.717	105.75
457.937	107.75
458.157	109.75
458.377	84.75
458.598	96.75
458.818	83.75
459.038	80.75
459.258	85.75
459.478	79.75
459.698	102.75
459.918	95.75
460.138	104.75
460.358	103.75
460.578	133.75
460.798	122.75
461.018	117.75
461.238	119.75
461.458	118.75
461.678	102.75
461.898	104.75
462.118	113.75
462.338	107.75
462.558	101.75
462.777	113.75
462.997	101.75
463.217	103.75
463.437	111.75
463.657	104.75
463.876	98.75
464.096	96.75
464.316	111.75
464.536	101.75
464.755	107.75
464.975	99.75
465.195	109.75
465.414	94.75
465.634	84.75
465.854	107.75
466.073	113.75
466.293	111.75
466.512	124.75
466.732	118.75
466.951	127.75
467.171	133.75
467.391	131.75
467.61	121.75
467.829	126.75
468.049	119.75
468.268	124.75
468.488	122.75
468.707	146.75
468.927	122.75
469.146	117.75
469.365	121.75
469.585	125.75
469.804	136.75
470.023	133.75
470.243	144.75
470.462	131.75
470.681	131.75
470.901	132.75
471.12	135.75
471.339	118.75
471.558	135.75
471.777	128.75
471.997	123.75
472.216	118.75
472.435	131.75
472.654	116.75
472.873	110.75
473.092	98.75
473.311	108.75
473.53	112.75
473.749	117.75
473.968	118.75
474.187	116.75
474.406	118.75
474.625	107.75
474.844	122.75
475.063	136.75
475.282	130.75
475.501	123.75
475.72	99.75
475.939	121.75
476.158	129.75
476.377	117.75
476.596	111.75
476.814	112.75
477.033	115.75
477.252	115.75
477.471	117.75
477.69	131.75
477.908	123.75
478.127	121.75
478.346	129.75
478.564	128.75
478.783	124.75
479.002	144.75
479.22	118.75
479.439	125.75
479.658	100.75
479.876	95.75
480.095	95.75
480.313	99.75
480.532	111.75
480.751	103.75
480.969	78.75
481.188	69.75
481.406	66.75
481.624	65.75
481.843	69.75
482.061	92.75
482.28	113.75
482.498	99.75
482.717	102.75
482.935	113.75
483.153	131.75
483.372	143.75
483.59	147.75
483.808	139.75
484.027	137.75
484.245	129.75
484.463	143.75
484.681	148.75
484.9	129.75
485.118	138.75
485.336	122.75
485.554	101.75
485.772	106.75
485.99	109.75
486.209	104.75
486.427	101.75
486.645	128.75
486.863	130.75
487.081	135.75
487.299	117.75
487.517	130.75
487.735	161.75
487.953	184.75
488.171	178.75
488.389	161.75
488.607	151.75
488.825	143.75
489.043	135.75
489.261	114.75
489.479	131.75
489.696	145.75
489.914	134.75
490.132	144.75
490.35	146.75
490.568	146.75
490.786	176.75
491.003	155.75
491.221	179.75
491.439	181.75
491.657	163.75
491.874	195.75
492.092	203.75
492.31	234.75
492.527	224.75
492.745	185.75
492.963	176.75
493.18	182.75
493.398	153.75
493.615	165.75
493.833	174.75
494.05	155.75
494.268	151.75
494.485	156.75
494.703	161.75
494.92	161.75
495.138	165.75
495.355	174.75
495.573	172.75
495.79	166.75
496.008	155.75
496.225	164.75
496.442	153.75
496.66	164.75
496.877	167.75
497.094	151.75
497.312	163.75
497.529	141.75
497.746	143.75
497.963	135.75
498.181	116.75
498.398	129.75
498.615	112.75
498.832	106.75
499.049	129.75
499.267	121.75
499.484	123.75
499.701	128.75
499.918	135.75
500.135	138.75
500.352	139.75
500.569	126.75
500.786	131.75
501.003	139.75
501.22	143.75
501.437	130.75
501.654	124.75
501.871	124.75
502.088	146.75
502.305	149.75
502.522	118.75
502.739	119.75
502.956	130.75
503.172	123.75
503.389	122.75
503.606	119.75
503.823	111.75
504.04	111.75
504.256	113.75
504.473	114.75
504.69	110.75
504.907	121.75
505.123	119.75
505.34	112.75
505.557	112.75
505.773	107.75
505.99	106.75
506.207	101.75
506.423	109.75
506.64	119.75
506.856	112.75
507.073	118.75
507.289	125.75
507.506	105.75
507.722	128.75
507.939	109.75
508.155	110.75
508.372	84.75
508.588	119.75
508.805	101.75
509.021	115.75
509.238	125.75
509.454	100.75
509.67	78.75
509.887	100.75
510.103	79.75
510.319	89.75
510.536	82.75
510.752	91.75
510.968	83.75
511.184	71.75
511.401	79.75
511.617	79.75
511.833	90.75
512.049	101.75
512.265	106.75
512.481	99.75
512.698	84.75
