Data from Location4.07152019.Energy5.Lamp.07192019.3%Agarose_HRD10591_16-19-11-926.txt Node
Date: Fri Jul 19 16:19:11 EDT 2019
User: cochatt
Spectrometer: HR+D1059
Trigger mode: 1
Integration Time (sec): 1.000000E-1
Scans to average: 1
Electric dark correction enabled: true
Nonlinearity correction enabled: false
Boxcar width: 0
XAxis mode: Wavelengths
Number of Pixels in Spectrum: 2048
>>>>>Begin Spectral Data<<<<<
223.165	-15.38
223.4	-15.38
223.635	-15.38
223.869	-23.38
224.104	-20.38
224.338	-7.38
224.573	-6.38
224.808	-11.38
225.042	-12.38
225.277	-5.38
225.511	-6.38
225.746	7.62
225.98	20.62
226.215	8.62
226.449	16.62
226.683	15.62
226.918	15.62
227.152	23.62
227.387	30.62
227.621	51.62
227.856	46.62
228.09	42.62
228.324	66.62
228.559	56.62
228.793	69.62
229.027	62.62
229.262	69.62
229.496	71.62
229.73	76.62
229.964	74.62
230.199	94.62
230.433	79.62
230.667	70.62
230.901	91.62
231.136	74.62
231.37	76.62
231.604	89.62
231.838	85.62
232.072	86.62
232.306	80.62
232.541	93.62
232.775	82.62
233.009	91.62
233.243	87.62
233.477	91.62
233.711	71.62
233.945	91.62
234.179	88.62
234.413	83.62
234.647	98.62
234.881	72.62
235.115	92.62
235.349	86.62
235.583	72.62
235.817	71.62
236.051	77.62
236.285	88.62
236.519	79.62
236.753	80.62
236.987	89.62
237.221	93.62
237.455	71.62
237.689	80.62
237.922	74.62
238.156	67.62
238.39	76.62
238.624	76.62
238.858	82.62
239.091	77.62
239.325	88.62
239.559	85.62
239.793	86.62
240.027	88.62
240.26	73.62
240.494	86.62
240.728	87.62
240.961	88.62
241.195	85.62
241.429	77.62
241.662	75.62
241.896	67.62
242.13	72.62
242.363	75.62
242.597	89.62
242.83	76.62
243.064	86.62
243.298	86.62
243.531	70.62
243.765	76.62
243.998	76.62
244.232	72.62
244.465	84.62
244.699	84.62
244.932	83.62
245.166	85.62
245.399	99.62
245.633	90.62
245.866	76.62
246.099	75.62
246.333	87.62
246.566	77.62
246.8	90.62
247.033	86.62
247.266	80.62
247.5	74.62
247.733	78.62
247.966	81.62
248.2	83.62
248.433	66.62
248.666	80.62
248.899	74.62
249.133	88.62
249.366	89.62
249.599	81.62
249.832	82.62
250.066	84.62
250.299	78.62
250.532	77.62
250.765	79.62
250.998	90.62
251.231	86.62
251.465	74.62
251.698	82.62
251.931	86.62
252.164	71.62
252.397	78.62
252.63	94.62
252.863	78.62
253.096	79.62
253.329	84.62
253.562	87.62
253.795	70.62
254.028	82.62
254.261	94.62
254.494	87.62
254.727	80.62
254.96	87.62
255.193	79.62
255.426	81.62
255.659	81.62
255.892	91.62
256.124	76.62
256.357	77.62
256.59	78.62
256.823	90.62
257.056	83.62
257.289	79.62
257.521	80.62
257.754	89.62
257.987	87.62
258.22	79.62
258.452	81.62
258.685	84.62
258.918	85.62
259.151	80.62
259.383	88.62
259.616	79.62
259.849	93.62
260.081	81.62
260.314	81.62
260.547	79.62
260.779	90.62
261.012	87.62
261.244	79.62
261.477	75.62
261.71	91.62
261.942	89.62
262.175	89.62
262.407	93.62
262.64	70.62
262.872	88.62
263.105	86.62
263.337	86.62
263.57	82.62
263.802	80.62
264.035	84.62
264.267	88.62
264.499	88.62
264.732	94.62
264.964	98.62
265.197	83.62
265.429	79.62
265.661	86.62
265.894	85.62
266.126	84.62
266.358	84.62
266.591	81.62
266.823	77.62
267.055	89.62
267.287	98.62
267.52	75.62
267.752	81.62
267.984	85.62
268.216	100.62
268.448	85.62
268.681	83.62
268.913	91.62
269.145	93.62
269.377	83.62
269.609	84.62
269.841	75.62
270.073	84.62
270.306	84.62
270.538	67.62
270.77	83.62
271.002	90.62
271.234	88.62
271.466	74.62
271.698	86.62
271.93	89.62
272.162	91.62
272.394	80.62
272.626	90.62
272.858	84.62
273.09	80.62
273.322	82.62
273.553	100.62
273.785	87.62
274.017	75.62
274.249	81.62
274.481	89.62
274.713	92.62
274.945	82.62
275.176	77.62
275.408	71.62
275.64	86.62
275.872	81.62
276.104	80.62
276.335	68.62
276.567	76.62
276.799	90.62
277.031	95.62
277.262	83.62
277.494	95.62
277.726	84.62
277.957	79.62
278.189	80.62
278.421	82.62
278.652	94.62
278.884	82.62
279.115	85.62
279.347	92.62
279.579	86.62
279.81	102.62
280.042	92.62
280.273	80.62
280.505	82.62
280.736	84.62
280.968	83.62
281.199	88.62
281.431	79.62
281.662	90.62
281.894	86.62
282.125	83.62
282.356	92.62
282.588	85.62
282.819	83.62
283.051	89.62
283.282	69.62
283.513	91.62
283.745	93.62
283.976	86.62
284.207	81.62
284.439	78.62
284.67	76.62
284.901	106.62
285.132	94.62
285.364	88.62
285.595	91.62
285.826	80.62
286.057	96.62
286.288	85.62
286.52	74.62
286.751	97.62
286.982	79.62
287.213	95.62
287.444	93.62
287.675	93.62
287.906	92.62
288.138	96.62
288.369	96.62
288.6	94.62
288.831	86.62
289.062	79.62
289.293	89.62
289.524	76.62
289.755	83.62
289.986	105.62
290.217	81.62
290.448	85.62
290.679	79.62
290.91	86.62
291.141	81.62
291.371	92.62
291.602	87.62
291.833	88.62
292.064	73.62
292.295	88.62
292.526	84.62
292.757	104.62
292.987	91.62
293.218	92.62
293.449	76.62
293.68	76.62
293.91	90.62
294.141	91.62
294.372	86.62
294.603	92.62
294.833	100.62
295.064	91.62
295.295	87.62
295.525	77.62
295.756	89.62
295.987	93.62
296.217	80.62
296.448	84.62
296.679	84.62
296.909	90.62
297.14	88.62
297.37	101.62
297.601	86.62
297.831	89.62
298.062	91.62
298.292	88.62
298.523	83.62
298.753	93.62
298.984	76.62
299.214	106.62
299.445	102.62
299.675	102.62
299.905	94.62
300.136	99.62
300.366	78.62
300.597	90.62
300.827	79.62
301.057	85.62
301.288	84.62
301.518	83.62
301.748	98.62
301.979	80.62
302.209	87.62
302.439	75.62
302.669	87.62
302.9	82.62
303.13	86.62
303.36	83.62
303.59	91.62
303.82	98.62
304.051	80.62
304.281	79.62
304.511	86.62
304.741	88.62
304.971	76.62
305.201	84.62
305.431	88.62
305.661	90.62
305.891	88.62
306.121	99.62
306.352	92.62
306.582	89.62
306.812	86.62
307.042	84.62
307.272	89.62
307.502	75.62
307.731	91.62
307.961	83.62
308.191	79.62
308.421	85.62
308.651	97.62
308.881	96.62
309.111	95.62
309.341	86.62
309.571	94.62
309.8	78.62
310.03	83.62
310.26	88.62
310.49	85.62
310.72	102.62
310.949	80.62
311.179	76.62
311.409	77.62
311.639	89.62
311.868	81.62
312.098	77.62
312.328	83.62
312.557	74.62
312.787	77.62
313.017	85.62
313.246	88.62
313.476	80.62
313.706	91.62
313.935	98.62
314.165	86.62
314.394	100.62
314.624	89.62
314.853	91.62
315.083	90.62
315.312	87.62
315.542	103.62
315.771	86.62
316.001	84.62
316.23	83.62
316.46	96.62
316.689	95.62
316.919	80.62
317.148	90.62
317.377	104.62
317.607	83.62
317.836	88.62
318.065	84.62
318.295	76.62
318.524	87.62
318.753	87.62
318.983	87.62
319.212	94.62
319.441	85.62
319.67	92.62
319.9	102.62
320.129	84.62
320.358	77.62
320.587	77.62
320.816	90.62
321.046	98.62
321.275	81.62
321.504	87.62
321.733	77.62
321.962	93.62
322.191	96.62
322.42	90.62
322.649	92.62
322.878	100.62
323.108	83.62
323.337	82.62
323.566	88.62
323.795	81.62
324.024	76.62
324.253	94.62
324.482	72.62
324.71	83.62
324.939	95.62
325.168	91.62
325.397	87.62
325.626	82.62
325.855	89.62
326.084	77.62
326.313	98.62
326.542	84.62
326.77	83.62
326.999	89.62
327.228	91.62
327.457	95.62
327.686	79.62
327.914	63.62
328.143	92.62
328.372	79.62
328.6	98.62
328.829	80.62
329.058	90.62
329.287	86.62
329.515	92.62
329.744	90.62
329.972	84.62
330.201	90.62
330.43	86.62
330.658	85.62
330.887	84.62
331.115	100.62
331.344	93.62
331.572	109.62
331.801	82.62
332.03	92.62
332.258	99.62
332.486	91.62
332.715	89.62
332.943	82.62
333.172	87.62
333.4	85.62
333.629	94.62
333.857	86.62
334.085	98.62
334.314	95.62
334.542	86.62
334.771	90.62
334.999	81.62
335.227	90.62
335.455	89.62
335.684	92.62
335.912	88.62
336.14	94.62
336.369	81.62
336.597	85.62
336.825	98.62
337.053	103.62
337.281	90.62
337.51	86.62
337.738	100.62
337.966	83.62
338.194	90.62
338.422	102.62
338.65	83.62
338.878	94.62
339.106	94.62
339.334	85.62
339.562	94.62
339.79	80.62
340.018	98.62
340.246	98.62
340.474	97.62
340.702	92.62
340.93	90.62
341.158	76.62
341.386	75.62
341.614	92.62
341.842	70.62
342.07	93.62
342.298	86.62
342.526	79.62
342.754	101.62
342.981	98.62
343.209	89.62
343.437	70.62
343.665	85.62
343.893	85.62
344.12	90.62
344.348	88.62
344.576	87.62
344.804	73.62
345.031	71.62
345.259	86.62
345.487	98.62
345.714	82.62
345.942	83.62
346.17	100.62
346.397	98.62
346.625	95.62
346.853	87.62
347.08	83.62
347.308	94.62
347.535	82.62
347.763	83.62
347.99	80.62
348.218	86.62
348.445	101.62
348.673	89.62
348.9	83.62
349.128	85.62
349.355	75.62
349.583	88.62
349.81	84.62
350.037	95.62
350.265	100.62
350.492	92.62
350.72	90.62
350.947	84.62
351.174	75.62
351.402	84.62
351.629	74.62
351.856	90.62
352.083	78.62
352.311	87.62
352.538	93.62
352.765	70.62
352.992	102.62
353.22	83.62
353.447	93.62
353.674	92.62
353.901	78.62
354.128	76.62
354.355	86.62
354.583	79.62
354.81	88.62
355.037	98.62
355.264	92.62
355.491	89.62
355.718	92.62
355.945	99.62
356.172	76.62
356.399	89.62
356.626	93.62
356.853	87.62
357.08	89.62
357.307	74.62
357.534	84.62
357.761	102.62
357.988	75.62
358.215	88.62
358.441	96.62
358.668	91.62
358.895	91.62
359.122	85.62
359.349	74.62
359.576	90.62
359.802	82.62
360.029	77.62
360.256	96.62
360.483	82.62
360.709	88.62
360.936	101.62
361.163	87.62
361.39	76.62
361.616	91.62
361.843	94.62
362.07	87.62
362.296	86.62
362.523	87.62
362.749	89.62
362.976	88.62
363.203	84.62
363.429	99.62
363.656	77.62
363.882	88.62
364.109	98.62
364.335	77.62
364.562	78.62
364.788	72.62
365.015	94.62
365.241	84.62
365.468	101.62
365.694	86.62
365.92	88.62
366.147	94.62
366.373	84.62
366.599	78.62
366.826	79.62
367.052	82.62
367.278	98.62
367.505	94.62
367.731	86.62
367.957	83.62
368.184	88.62
368.41	90.62
368.636	90.62
368.862	87.62
369.089	95.62
369.315	98.62
369.541	93.62
369.767	84.62
369.993	94.62
370.219	93.62
370.445	87.62
370.672	103.62
370.898	94.62
371.124	83.62
371.35	99.62
371.576	98.62
371.802	87.62
372.028	91.62
372.254	89.62
372.48	112.62
372.706	102.62
372.932	111.62
373.158	84.62
373.384	99.62
373.61	99.62
373.835	99.62
374.061	90.62
374.287	95.62
374.513	99.62
374.739	95.62
374.965	90.62
375.191	92.62
375.416	99.62
375.642	101.62
375.868	110.62
376.094	87.62
376.319	102.62
376.545	89.62
376.771	88.62
376.997	93.62
377.222	106.62
377.448	107.62
377.674	99.62
377.899	87.62
378.125	95.62
378.35	111.62
378.576	102.62
378.802	100.62
379.027	84.62
379.253	103.62
379.478	95.62
379.704	88.62
379.929	97.62
380.155	91.62
380.38	99.62
380.606	89.62
380.831	109.62
381.057	110.62
381.282	90.62
381.507	95.62
381.733	105.62
381.958	80.62
382.184	94.62
382.409	96.62
382.634	107.62
382.86	94.62
383.085	90.62
383.31	99.62
383.535	101.62
383.761	80.62
383.986	100.62
384.211	96.62
384.436	98.62
384.662	94.62
384.887	107.62
385.112	97.62
385.337	111.62
385.562	87.62
385.787	101.62
386.013	118.62
386.238	101.62
386.463	105.62
386.688	110.62
386.913	88.62
387.138	103.62
387.363	95.62
387.588	103.62
387.813	92.62
388.038	110.62
388.263	110.62
388.488	107.62
388.713	100.62
388.938	105.62
389.163	92.62
389.387	103.62
389.612	106.62
389.837	95.62
390.062	106.62
390.287	88.62
390.512	113.62
390.736	106.62
390.961	111.62
391.186	102.62
391.411	107.62
391.636	101.62
391.86	93.62
392.085	107.62
392.31	92.62
392.534	101.62
392.759	109.62
392.984	91.62
393.208	109.62
393.433	112.62
393.658	114.62
393.882	101.62
394.107	108.62
394.331	90.62
394.556	99.62
394.78	110.62
395.005	92.62
395.229	105.62
395.454	118.62
395.678	107.62
395.903	104.62
396.127	123.62
396.352	101.62
396.576	104.62
396.801	114.62
397.025	115.62
397.249	102.62
397.474	119.62
397.698	104.62
397.922	112.62
398.147	114.62
398.371	111.62
398.595	104.62
398.82	114.62
399.044	110.62
399.268	121.62
399.492	107.62
399.717	122.62
399.941	109.62
400.165	112.62
400.389	126.62
400.613	123.62
400.837	111.62
401.062	103.62
401.286	118.62
401.51	116.62
401.734	115.62
401.958	106.62
402.182	128.62
402.406	124.62
402.63	126.62
402.854	119.62
403.078	116.62
403.302	117.62
403.526	110.62
403.75	125.62
403.974	116.62
404.198	118.62
404.422	112.62
404.645	128.62
404.869	120.62
405.093	122.62
405.317	108.62
405.541	120.62
405.765	104.62
405.988	124.62
406.212	123.62
406.436	108.62
406.66	122.62
406.883	114.62
407.107	130.62
407.331	121.62
407.555	116.62
407.778	119.62
408.002	122.62
408.226	107.62
408.449	116.62
408.673	109.62
408.896	119.62
409.12	111.62
409.344	118.62
409.567	116.62
409.791	114.62
410.014	119.62
410.238	121.62
410.461	121.62
410.685	125.62
410.908	114.62
411.132	124.62
411.355	115.62
411.578	124.62
411.802	123.62
412.025	122.62
412.249	103.62
412.472	114.62
412.695	140.62
412.919	135.62
413.142	119.62
413.365	125.62
413.589	117.62
413.812	131.62
414.035	128.62
414.258	127.62
414.482	110.62
414.705	130.62
414.928	115.62
415.151	116.62
415.374	133.62
415.597	120.62
415.821	123.62
416.044	131.62
416.267	130.62
416.49	123.62
416.713	114.62
416.936	108.62
417.159	126.62
417.382	112.62
417.605	130.62
417.828	126.62
418.051	130.62
418.274	128.62
418.497	134.62
418.72	138.62
418.943	139.62
419.166	127.62
419.389	142.62
419.611	135.62
419.834	126.62
420.057	145.62
420.28	133.62
420.503	136.62
420.726	138.62
420.948	126.62
421.171	135.62
421.394	130.62
421.617	142.62
421.839	146.62
422.062	125.62
422.285	137.62
422.507	135.62
422.73	132.62
422.953	127.62
423.175	121.62
423.398	121.62
423.621	123.62
423.843	128.62
424.066	128.62
424.288	125.62
424.511	132.62
424.733	144.62
424.956	163.62
425.178	147.62
425.401	139.62
425.623	123.62
425.846	146.62
426.068	141.62
426.291	123.62
426.513	125.62
426.735	125.62
426.958	130.62
427.18	131.62
427.402	124.62
427.625	134.62
427.847	126.62
428.069	131.62
428.292	143.62
428.514	136.62
428.736	136.62
428.958	124.62
429.181	132.62
429.403	131.62
429.625	127.62
429.847	117.62
430.069	122.62
430.292	130.62
430.514	125.62
430.736	120.62
430.958	144.62
431.18	130.62
431.402	128.62
431.624	122.62
431.846	108.62
432.068	100.62
432.29	100.62
432.512	120.62
432.734	129.62
432.956	139.62
433.178	130.62
433.4	133.62
433.622	140.62
433.844	130.62
434.066	115.62
434.287	122.62
434.509	110.62
434.731	105.62
434.953	98.62
435.175	116.62
435.397	118.62
435.618	117.62
435.84	117.62
436.062	115.62
436.284	117.62
436.505	121.62
436.727	128.62
436.949	124.62
437.17	136.62
437.392	130.62
437.614	125.62
437.835	118.62
438.057	117.62
438.278	116.62
438.5	116.62
438.721	132.62
438.943	137.62
439.165	124.62
439.386	150.62
439.608	144.62
439.829	142.62
440.05	139.62
440.272	125.62
440.493	150.62
440.715	131.62
440.936	130.62
441.158	130.62
441.379	142.62
441.6	149.62
441.822	152.62
442.043	153.62
442.264	142.62
442.486	126.62
442.707	142.62
442.928	141.62
443.149	134.62
443.371	122.62
443.592	138.62
443.813	137.62
444.034	143.62
444.255	151.62
444.476	143.62
444.698	155.62
444.919	152.62
445.14	283.62
445.361	192.62
445.582	154.62
445.803	156.62
446.024	142.62
446.245	156.62
446.466	158.62
446.687	154.62
446.908	159.62
447.129	154.62
447.35	148.62
447.571	147.62
447.792	148.62
448.013	130.62
448.234	124.62
448.455	138.62
448.675	139.62
448.896	136.62
449.117	142.62
449.338	132.62
449.559	144.62
449.779	131.62
450	133.62
450.221	135.62
450.442	150.62
450.662	144.62
450.883	122.62
451.104	144.62
451.324	135.62
451.545	125.62
451.766	126.62
451.986	113.62
452.207	122.62
452.428	125.62
452.648	142.62
452.869	126.62
453.089	127.62
453.31	117.62
453.53	119.62
453.751	95.62
453.971	114.62
454.192	105.62
454.412	106.62
454.633	122.62
454.853	119.62
455.073	122.62
455.294	134.62
455.514	128.62
455.734	119.62
455.955	120.62
456.175	115.62
456.395	102.62
456.616	105.62
456.836	116.62
457.056	116.62
457.276	118.62
457.497	99.62
457.717	121.62
457.937	115.62
458.157	108.62
458.377	92.62
458.598	107.62
458.818	86.62
459.038	86.62
459.258	89.62
459.478	77.62
459.698	96.62
459.918	111.62
460.138	108.62
460.358	123.62
460.578	115.62
460.798	101.62
461.018	102.62
461.238	136.62
461.458	126.62
461.678	122.62
461.898	118.62
462.118	91.62
462.338	121.62
462.558	116.62
462.777	120.62
462.997	126.62
463.217	102.62
463.437	95.62
463.657	107.62
463.876	110.62
464.096	118.62
464.316	114.62
464.536	119.62
464.755	123.62
464.975	132.62
465.195	127.62
465.414	115.62
465.634	115.62
465.854	120.62
466.073	122.62
466.293	125.62
466.512	128.62
466.732	118.62
466.951	122.62
467.171	107.62
467.391	121.62
467.61	140.62
467.829	144.62
468.049	149.62
468.268	123.62
468.488	138.62
468.707	144.62
468.927	129.62
469.146	131.62
469.365	138.62
469.585	124.62
469.804	135.62
470.023	136.62
470.243	136.62
470.462	132.62
470.681	142.62
470.901	131.62
471.12	147.62
471.339	143.62
471.558	123.62
471.777	135.62
471.997	121.62
472.216	128.62
472.435	122.62
472.654	117.62
472.873	107.62
473.092	118.62
473.311	121.62
473.53	121.62
473.749	139.62
473.968	145.62
474.187	122.62
474.406	123.62
474.625	126.62
474.844	130.62
475.063	136.62
475.282	128.62
475.501	108.62
475.72	123.62
475.939	124.62
476.158	127.62
476.377	123.62
476.596	131.62
476.814	118.62
477.033	101.62
477.252	111.62
477.471	128.62
477.69	136.62
477.908	130.62
478.127	145.62
478.346	142.62
478.564	137.62
478.783	150.62
479.002	130.62
479.22	148.62
479.439	145.62
479.658	117.62
479.876	125.62
480.095	119.62
480.313	111.62
480.532	130.62
480.751	109.62
480.969	97.62
481.188	94.62
481.406	96.62
481.624	89.62
481.843	103.62
482.061	84.62
482.28	120.62
482.498	106.62
482.717	98.62
482.935	101.62
483.153	148.62
483.372	165.62
483.59	142.62
483.808	146.62
484.027	124.62
484.245	136.62
484.463	148.62
484.681	165.62
484.9	139.62
485.118	147.62
485.336	151.62
485.554	115.62
485.772	116.62
485.99	100.62
486.209	108.62
486.427	104.62
486.645	112.62
486.863	135.62
487.081	142.62
487.299	119.62
487.517	143.62
487.735	168.62
487.953	177.62
488.171	178.62
488.389	166.62
488.607	158.62
488.825	137.62
489.043	139.62
489.261	136.62
489.479	139.62
489.696	138.62
489.914	135.62
490.132	154.62
490.35	161.62
490.568	165.62
490.786	161.62
491.003	184.62
491.221	184.62
491.439	174.62
491.657	196.62
491.874	211.62
492.092	220.62
492.31	238.62
492.527	230.62
492.745	204.62
492.963	184.62
493.18	183.62
493.398	188.62
493.615	192.62
493.833	179.62
494.05	170.62
494.268	183.62
494.485	177.62
494.703	175.62
494.92	176.62
495.138	173.62
495.355	186.62
495.573	174.62
495.79	166.62
496.008	174.62
496.225	163.62
496.442	170.62
496.66	159.62
496.877	156.62
497.094	169.62
497.312	159.62
497.529	168.62
497.746	144.62
497.963	139.62
498.181	123.62
498.398	132.62
498.615	130.62
498.832	122.62
499.049	123.62
499.267	124.62
499.484	118.62
499.701	126.62
499.918	131.62
500.135	140.62
500.352	156.62
500.569	153.62
500.786	140.62
501.003	148.62
501.22	161.62
501.437	134.62
501.654	140.62
501.871	137.62
502.088	147.62
502.305	137.62
502.522	133.62
502.739	130.62
502.956	139.62
503.172	133.62
503.389	122.62
503.606	118.62
503.823	124.62
504.04	126.62
504.256	131.62
504.473	130.62
504.69	127.62
504.907	121.62
505.123	120.62
505.34	120.62
505.557	119.62
505.773	138.62
505.99	130.62
506.207	128.62
506.423	106.62
506.64	131.62
506.856	132.62
507.073	118.62
507.289	128.62
507.506	116.62
507.722	118.62
507.939	123.62
508.155	124.62
508.372	127.62
508.588	118.62
508.805	107.62
509.021	111.62
509.238	111.62
509.454	98.62
509.67	111.62
509.887	111.62
510.103	117.62
510.319	101.62
510.536	88.62
510.752	71.62
510.968	95.62
