Data from Location4.07152019.Energy5.Lamp.07192019.3%Agarose_HRD10591_16-20-12-925.txt Node
Date: Fri Jul 19 16:20:12 EDT 2019
User: cochatt
Spectrometer: HR+D1059
Trigger mode: 1
Integration Time (sec): 1.000000E-1
Scans to average: 1
Electric dark correction enabled: true
Nonlinearity correction enabled: false
Boxcar width: 0
XAxis mode: Wavelengths
Number of Pixels in Spectrum: 2048
>>>>>Begin Spectral Data<<<<<
223.165	-4.75
223.4	-4.75
223.635	-4.75
223.869	-11.75
224.104	-15.75
224.338	-22.75
224.573	-7.75
224.808	-7.75
225.042	6.25
225.277	-16.75
225.511	-9.75
225.746	6.25
225.98	2.25
226.215	8.25
226.449	19.25
226.683	20.25
226.918	17.25
227.152	17.25
227.387	37.25
227.621	38.25
227.856	30.25
228.09	42.25
228.324	45.25
228.559	49.25
228.793	47.25
229.027	60.25
229.262	61.25
229.496	62.25
229.73	63.25
229.964	67.25
230.199	77.25
230.433	68.25
230.667	73.25
230.901	72.25
231.136	74.25
231.37	89.25
231.604	79.25
231.838	72.25
232.072	74.25
232.306	84.25
232.541	87.25
232.775	87.25
233.009	70.25
233.243	68.25
233.477	73.25
233.711	78.25
233.945	78.25
234.179	82.25
234.413	83.25
234.647	72.25
234.881	75.25
235.115	85.25
235.349	78.25
235.583	74.25
235.817	72.25
236.051	72.25
236.285	80.25
236.519	72.25
236.753	64.25
236.987	70.25
237.221	75.25
237.455	75.25
237.689	84.25
237.922	83.25
238.156	76.25
238.39	80.25
238.624	78.25
238.858	83.25
239.091	61.25
239.325	68.25
239.559	82.25
239.793	86.25
240.027	83.25
240.26	79.25
240.494	75.25
240.728	62.25
240.961	57.25
241.195	74.25
241.429	79.25
241.662	82.25
241.896	90.25
242.13	77.25
242.363	67.25
242.597	70.25
242.83	83.25
243.064	64.25
243.298	73.25
243.531	73.25
243.765	77.25
243.998	84.25
244.232	84.25
244.465	88.25
244.699	86.25
244.932	73.25
245.166	77.25
245.399	82.25
245.633	73.25
245.866	86.25
246.099	55.25
246.333	81.25
246.566	81.25
246.8	90.25
247.033	78.25
247.266	71.25
247.5	74.25
247.733	68.25
247.966	86.25
248.2	88.25
248.433	84.25
248.666	67.25
248.899	71.25
249.133	91.25
249.366	87.25
249.599	80.25
249.832	70.25
250.066	83.25
250.299	82.25
250.532	86.25
250.765	73.25
250.998	78.25
251.231	71.25
251.465	71.25
251.698	71.25
251.931	79.25
252.164	72.25
252.397	75.25
252.63	79.25
252.863	80.25
253.096	78.25
253.329	72.25
253.562	77.25
253.795	89.25
254.028	80.25
254.261	79.25
254.494	79.25
254.727	88.25
254.96	87.25
255.193	87.25
255.426	66.25
255.659	82.25
255.892	83.25
256.124	93.25
256.357	90.25
256.59	76.25
256.823	75.25
257.056	81.25
257.289	87.25
257.521	79.25
257.754	75.25
257.987	74.25
258.22	79.25
258.452	78.25
258.685	85.25
258.918	75.25
259.151	78.25
259.383	83.25
259.616	77.25
259.849	81.25
260.081	86.25
260.314	85.25
260.547	78.25
260.779	87.25
261.012	75.25
261.244	83.25
261.477	71.25
261.71	61.25
261.942	74.25
262.175	81.25
262.407	77.25
262.64	83.25
262.872	89.25
263.105	64.25
263.337	82.25
263.57	89.25
263.802	77.25
264.035	90.25
264.267	73.25
264.499	81.25
264.732	84.25
264.964	83.25
265.197	79.25
265.429	74.25
265.661	78.25
265.894	73.25
266.126	82.25
266.358	78.25
266.591	80.25
266.823	78.25
267.055	77.25
267.287	75.25
267.52	70.25
267.752	81.25
267.984	85.25
268.216	75.25
268.448	70.25
268.681	76.25
268.913	78.25
269.145	88.25
269.377	94.25
269.609	84.25
269.841	87.25
270.073	73.25
270.306	81.25
270.538	83.25
270.77	93.25
271.002	91.25
271.234	75.25
271.466	76.25
271.698	83.25
271.93	89.25
272.162	89.25
272.394	76.25
272.626	81.25
272.858	80.25
273.09	82.25
273.322	75.25
273.553	83.25
273.785	82.25
274.017	80.25
274.249	78.25
274.481	87.25
274.713	85.25
274.945	84.25
275.176	66.25
275.408	78.25
275.64	66.25
275.872	74.25
276.104	79.25
276.335	78.25
276.567	86.25
276.799	79.25
277.031	89.25
277.262	80.25
277.494	69.25
277.726	84.25
277.957	89.25
278.189	86.25
278.421	77.25
278.652	86.25
278.884	88.25
279.115	84.25
279.347	79.25
279.579	78.25
279.81	84.25
280.042	81.25
280.273	94.25
280.505	78.25
280.736	74.25
280.968	73.25
281.199	82.25
281.431	81.25
281.662	73.25
281.894	74.25
282.125	81.25
282.356	79.25
282.588	79.25
282.819	81.25
283.051	88.25
283.282	66.25
283.513	82.25
283.745	85.25
283.976	76.25
284.207	65.25
284.439	73.25
284.67	98.25
284.901	82.25
285.132	88.25
285.364	80.25
285.595	72.25
285.826	90.25
286.057	88.25
286.288	72.25
286.52	76.25
286.751	77.25
286.982	90.25
287.213	83.25
287.444	79.25
287.675	75.25
287.906	73.25
288.138	80.25
288.369	73.25
288.6	72.25
288.831	73.25
289.062	81.25
289.293	88.25
289.524	80.25
289.755	93.25
289.986	87.25
290.217	79.25
290.448	79.25
290.679	91.25
290.91	75.25
291.141	83.25
291.371	79.25
291.602	65.25
291.833	81.25
292.064	75.25
292.295	87.25
292.526	75.25
292.757	88.25
292.987	95.25
293.218	89.25
293.449	82.25
293.68	85.25
293.91	78.25
294.141	87.25
294.372	94.25
294.603	77.25
294.833	83.25
295.064	89.25
295.295	91.25
295.525	81.25
295.756	81.25
295.987	78.25
296.217	79.25
296.448	66.25
296.679	76.25
296.909	71.25
297.14	75.25
297.37	87.25
297.601	84.25
297.831	70.25
298.062	74.25
298.292	65.25
298.523	79.25
298.753	86.25
298.984	86.25
299.214	95.25
299.445	91.25
299.675	91.25
299.905	89.25
300.136	79.25
300.366	87.25
300.597	80.25
300.827	72.25
301.057	75.25
301.288	83.25
301.518	64.25
301.748	85.25
301.979	69.25
302.209	85.25
302.439	78.25
302.669	83.25
302.9	94.25
303.13	74.25
303.36	72.25
303.59	81.25
303.82	92.25
304.051	88.25
304.281	91.25
304.511	82.25
304.741	90.25
304.971	75.25
305.201	82.25
305.431	72.25
305.661	70.25
305.891	86.25
306.121	75.25
306.352	76.25
306.582	76.25
306.812	80.25
307.042	72.25
307.272	80.25
307.502	81.25
307.731	80.25
307.961	67.25
308.191	77.25
308.421	73.25
308.651	93.25
308.881	89.25
309.111	79.25
309.341	72.25
309.571	73.25
309.8	86.25
310.03	84.25
310.26	87.25
310.49	84.25
310.72	73.25
310.949	82.25
311.179	79.25
311.409	75.25
311.639	89.25
311.868	88.25
312.098	79.25
312.328	86.25
312.557	81.25
312.787	71.25
313.017	82.25
313.246	90.25
313.476	87.25
313.706	78.25
313.935	96.25
314.165	78.25
314.394	99.25
314.624	81.25
314.853	85.25
315.083	67.25
315.312	63.25
315.542	81.25
315.771	99.25
316.001	83.25
316.23	77.25
316.46	81.25
316.689	85.25
316.919	81.25
317.148	90.25
317.377	84.25
317.607	81.25
317.836	86.25
318.065	73.25
318.295	81.25
318.524	74.25
318.753	86.25
318.983	89.25
319.212	70.25
319.441	81.25
319.67	97.25
319.9	79.25
320.129	86.25
320.358	81.25
320.587	67.25
320.816	71.25
321.046	82.25
321.275	86.25
321.504	76.25
321.733	73.25
321.962	89.25
322.191	69.25
322.42	76.25
322.649	81.25
322.878	85.25
323.108	88.25
323.337	71.25
323.566	71.25
323.795	94.25
324.024	81.25
324.253	71.25
324.482	86.25
324.71	80.25
324.939	81.25
325.168	102.25
325.397	75.25
325.626	86.25
325.855	80.25
326.084	87.25
326.313	74.25
326.542	84.25
326.77	83.25
326.999	74.25
327.228	70.25
327.457	82.25
327.686	76.25
327.914	93.25
328.143	80.25
328.372	84.25
328.6	75.25
328.829	73.25
329.058	74.25
329.287	70.25
329.515	79.25
329.744	83.25
329.972	76.25
330.201	79.25
330.43	88.25
330.658	81.25
330.887	86.25
331.115	94.25
331.344	82.25
331.572	87.25
331.801	83.25
332.03	86.25
332.258	98.25
332.486	79.25
332.715	86.25
332.943	91.25
333.172	76.25
333.4	74.25
333.629	75.25
333.857	75.25
334.085	72.25
334.314	93.25
334.542	65.25
334.771	85.25
334.999	84.25
335.227	77.25
335.455	78.25
335.684	81.25
335.912	90.25
336.14	79.25
336.369	89.25
336.597	79.25
336.825	93.25
337.053	74.25
337.281	81.25
337.51	89.25
337.738	85.25
337.966	86.25
338.194	86.25
338.422	69.25
338.65	81.25
338.878	77.25
339.106	81.25
339.334	86.25
339.562	90.25
339.79	71.25
340.018	72.25
340.246	75.25
340.474	72.25
340.702	68.25
340.93	70.25
341.158	76.25
341.386	74.25
341.614	75.25
341.842	70.25
342.07	81.25
342.298	83.25
342.526	82.25
342.754	75.25
342.981	85.25
343.209	91.25
343.437	80.25
343.665	62.25
343.893	83.25
344.12	65.25
344.348	75.25
344.576	87.25
344.804	79.25
345.031	86.25
345.259	93.25
345.487	79.25
345.714	86.25
345.942	77.25
346.17	82.25
346.397	76.25
346.625	86.25
346.853	81.25
347.08	90.25
347.308	79.25
347.535	88.25
347.763	72.25
347.99	81.25
348.218	90.25
348.445	84.25
348.673	100.25
348.9	90.25
349.128	80.25
349.355	71.25
349.583	100.25
349.81	95.25
350.037	89.25
350.265	74.25
350.492	88.25
350.72	89.25
350.947	69.25
351.174	82.25
351.402	79.25
351.629	73.25
351.856	82.25
352.083	73.25
352.311	80.25
352.538	85.25
352.765	99.25
352.992	93.25
353.22	83.25
353.447	80.25
353.674	74.25
353.901	94.25
354.128	91.25
354.355	75.25
354.583	84.25
354.81	96.25
355.037	93.25
355.264	87.25
355.491	78.25
355.718	85.25
355.945	87.25
356.172	86.25
356.399	87.25
356.626	85.25
356.853	80.25
357.08	87.25
357.307	84.25
357.534	77.25
357.761	74.25
357.988	81.25
358.215	71.25
358.441	78.25
358.668	78.25
358.895	71.25
359.122	85.25
359.349	94.25
359.576	90.25
359.802	91.25
360.029	94.25
360.256	79.25
360.483	76.25
360.709	75.25
360.936	72.25
361.163	83.25
361.39	86.25
361.616	87.25
361.843	89.25
362.07	94.25
362.296	91.25
362.523	82.25
362.749	85.25
362.976	82.25
363.203	98.25
363.429	87.25
363.656	72.25
363.882	81.25
364.109	77.25
364.335	82.25
364.562	89.25
364.788	78.25
365.015	78.25
365.241	88.25
365.468	84.25
365.694	69.25
365.92	84.25
366.147	68.25
366.373	78.25
366.599	69.25
366.826	81.25
367.052	81.25
367.278	84.25
367.505	89.25
367.731	82.25
367.957	90.25
368.184	78.25
368.41	71.25
368.636	82.25
368.862	83.25
369.089	77.25
369.315	82.25
369.541	90.25
369.767	92.25
369.993	107.25
370.219	88.25
370.445	77.25
370.672	75.25
370.898	86.25
371.124	79.25
371.35	94.25
371.576	87.25
371.802	80.25
372.028	83.25
372.254	90.25
372.48	93.25
372.706	84.25
372.932	97.25
373.158	89.25
373.384	87.25
373.61	95.25
373.835	97.25
374.061	83.25
374.287	98.25
374.513	95.25
374.739	98.25
374.965	66.25
375.191	71.25
375.416	80.25
375.642	86.25
375.868	87.25
376.094	85.25
376.319	76.25
376.545	88.25
376.771	87.25
376.997	81.25
377.222	94.25
377.448	80.25
377.674	90.25
377.899	84.25
378.125	94.25
378.35	90.25
378.576	99.25
378.802	100.25
379.027	76.25
379.253	101.25
379.478	78.25
379.704	97.25
379.929	100.25
380.155	87.25
380.38	98.25
380.606	80.25
380.831	104.25
381.057	88.25
381.282	98.25
381.507	96.25
381.733	94.25
381.958	83.25
382.184	99.25
382.409	94.25
382.634	90.25
382.86	82.25
383.085	92.25
383.31	96.25
383.535	81.25
383.761	83.25
383.986	86.25
384.211	99.25
384.436	106.25
384.662	95.25
384.887	93.25
385.112	96.25
385.337	88.25
385.562	102.25
385.787	98.25
386.013	91.25
386.238	90.25
386.463	101.25
386.688	89.25
386.913	111.25
387.138	105.25
387.363	91.25
387.588	86.25
387.813	86.25
388.038	96.25
388.263	88.25
388.488	95.25
388.713	102.25
388.938	97.25
389.163	84.25
389.387	99.25
389.612	86.25
389.837	100.25
390.062	96.25
390.287	112.25
390.512	98.25
390.736	110.25
390.961	103.25
391.186	100.25
391.411	111.25
391.636	106.25
391.86	95.25
392.085	90.25
392.31	96.25
392.534	101.25
392.759	110.25
392.984	99.25
393.208	111.25
393.433	106.25
393.658	97.25
393.882	104.25
394.107	108.25
394.331	91.25
394.556	95.25
394.78	114.25
395.005	105.25
395.229	104.25
395.454	93.25
395.678	106.25
395.903	102.25
396.127	116.25
396.352	117.25
396.576	103.25
396.801	100.25
397.025	110.25
397.249	109.25
397.474	97.25
397.698	104.25
397.922	102.25
398.147	93.25
398.371	106.25
398.595	97.25
398.82	119.25
399.044	101.25
399.268	103.25
399.492	120.25
399.717	95.25
399.941	103.25
400.165	115.25
400.389	129.25
400.613	120.25
400.837	121.25
401.062	118.25
401.286	109.25
401.51	105.25
401.734	103.25
401.958	106.25
402.182	102.25
402.406	116.25
402.63	113.25
402.854	115.25
403.078	110.25
403.302	102.25
403.526	111.25
403.75	121.25
403.974	113.25
404.198	100.25
404.422	129.25
404.645	118.25
404.869	109.25
405.093	106.25
405.317	100.25
405.541	119.25
405.765	106.25
405.988	100.25
406.212	111.25
406.436	121.25
406.66	97.25
406.883	103.25
407.107	113.25
407.331	126.25
407.555	129.25
407.778	122.25
408.002	121.25
408.226	102.25
408.449	117.25
408.673	102.25
408.896	120.25
409.12	119.25
409.344	105.25
409.567	117.25
409.791	104.25
410.014	118.25
410.238	113.25
410.461	118.25
410.685	107.25
410.908	119.25
411.132	117.25
411.355	114.25
411.578	121.25
411.802	111.25
412.025	121.25
412.249	115.25
412.472	125.25
412.695	117.25
412.919	113.25
413.142	110.25
413.365	114.25
413.589	111.25
413.812	113.25
414.035	112.25
414.258	123.25
414.482	116.25
414.705	123.25
414.928	113.25
415.151	116.25
415.374	112.25
415.597	121.25
415.821	99.25
416.044	114.25
416.267	117.25
416.49	121.25
416.713	105.25
416.936	115.25
417.159	118.25
417.382	124.25
417.605	121.25
417.828	120.25
418.051	123.25
418.274	136.25
418.497	122.25
418.72	122.25
418.943	126.25
419.166	130.25
419.389	128.25
419.611	118.25
419.834	134.25
420.057	143.25
420.28	138.25
420.503	135.25
420.726	117.25
420.948	125.25
421.171	126.25
421.394	139.25
421.617	141.25
421.839	143.25
422.062	136.25
422.285	127.25
422.507	134.25
422.73	129.25
422.953	125.25
423.175	136.25
423.398	128.25
423.621	127.25
423.843	125.25
424.066	125.25
424.288	138.25
424.511	126.25
424.733	139.25
424.956	138.25
425.178	128.25
425.401	140.25
425.623	145.25
425.846	129.25
426.068	127.25
426.291	126.25
426.513	112.25
426.735	139.25
426.958	135.25
427.18	131.25
427.402	121.25
427.625	121.25
427.847	120.25
428.069	132.25
428.292	122.25
428.514	120.25
428.736	131.25
428.958	126.25
429.181	117.25
429.403	121.25
429.625	125.25
429.847	119.25
430.069	114.25
430.292	111.25
430.514	118.25
430.736	124.25
430.958	134.25
431.18	129.25
431.402	113.25
431.624	118.25
431.846	122.25
432.068	100.25
432.29	91.25
432.512	118.25
432.734	125.25
432.956	129.25
433.178	133.25
433.4	135.25
433.622	142.25
433.844	123.25
434.066	117.25
434.287	107.25
434.509	90.25
434.731	113.25
434.953	106.25
435.175	120.25
435.397	117.25
435.618	121.25
435.84	106.25
436.062	117.25
436.284	133.25
436.505	124.25
436.727	134.25
436.949	115.25
437.17	116.25
437.392	111.25
437.614	109.25
437.835	89.25
438.057	109.25
438.278	120.25
438.5	133.25
438.721	133.25
438.943	133.25
439.165	121.25
439.386	123.25
439.608	134.25
439.829	138.25
440.05	134.25
440.272	149.25
440.493	150.25
440.715	128.25
440.936	151.25
441.158	148.25
441.379	133.25
441.6	146.25
441.822	151.25
442.043	130.25
442.264	138.25
442.486	127.25
442.707	132.25
442.928	137.25
443.149	125.25
443.371	137.25
443.592	141.25
443.813	131.25
444.034	117.25
444.255	131.25
444.476	142.25
444.698	142.25
444.919	147.25
445.14	275.25
445.361	205.25
445.582	142.25
445.803	151.25
446.024	139.25
446.245	149.25
446.466	144.25
446.687	138.25
446.908	119.25
447.129	163.25
447.35	147.25
447.571	132.25
447.792	131.25
448.013	140.25
448.234	141.25
448.455	126.25
448.675	130.25
448.896	138.25
449.117	148.25
449.338	133.25
449.559	135.25
449.779	144.25
450	117.25
450.221	131.25
450.442	121.25
450.662	122.25
450.883	133.25
451.104	133.25
451.324	131.25
451.545	137.25
451.766	122.25
451.986	128.25
452.207	119.25
452.428	121.25
452.648	123.25
452.869	128.25
453.089	113.25
453.31	121.25
453.53	113.25
453.751	120.25
453.971	104.25
454.192	96.25
454.412	98.25
454.633	123.25
454.853	115.25
455.073	114.25
455.294	110.25
455.514	123.25
455.734	123.25
455.955	98.25
456.175	123.25
456.395	125.25
456.616	111.25
456.836	107.25
457.056	107.25
457.276	100.25
457.497	114.25
457.717	112.25
457.937	110.25
458.157	98.25
458.377	91.25
458.598	93.25
458.818	88.25
459.038	87.25
459.258	86.25
459.478	89.25
459.698	75.25
459.918	105.25
460.138	106.25
460.358	110.25
460.578	117.25
460.798	109.25
461.018	100.25
461.238	115.25
461.458	115.25
461.678	105.25
461.898	118.25
462.118	119.25
462.338	111.25
462.558	111.25
462.777	100.25
462.997	112.25
463.217	101.25
463.437	102.25
463.657	110.25
463.876	102.25
464.096	107.25
464.316	105.25
464.536	99.25
464.755	125.25
464.975	112.25
465.195	119.25
465.414	113.25
465.634	112.25
465.854	123.25
466.073	113.25
466.293	111.25
466.512	121.25
466.732	133.25
466.951	129.25
467.171	136.25
467.391	122.25
467.61	120.25
467.829	124.25
468.049	129.25
468.268	121.25
468.488	122.25
468.707	125.25
468.927	140.25
469.146	137.25
469.365	143.25
469.585	121.25
469.804	129.25
470.023	145.25
470.243	139.25
470.462	141.25
470.681	130.25
470.901	142.25
471.12	135.25
471.339	143.25
471.558	139.25
471.777	132.25
471.997	129.25
472.216	124.25
472.435	110.25
472.654	115.25
472.873	104.25
473.092	129.25
473.311	122.25
473.53	133.25
473.749	127.25
473.968	120.25
474.187	119.25
474.406	106.25
474.625	129.25
474.844	134.25
475.063	118.25
475.282	118.25
475.501	112.25
475.72	101.25
475.939	119.25
476.158	135.25
476.377	122.25
476.596	123.25
476.814	100.25
477.033	115.25
477.252	125.25
477.471	125.25
477.69	137.25
477.908	140.25
478.127	129.25
478.346	127.25
478.564	127.25
478.783	126.25
479.002	139.25
479.22	129.25
479.439	132.25
479.658	123.25
479.876	120.25
480.095	105.25
480.313	109.25
480.532	132.25
480.751	99.25
480.969	81.25
481.188	81.25
481.406	82.25
481.624	78.25
481.843	82.25
482.061	89.25
482.28	121.25
482.498	106.25
482.717	113.25
482.935	125.25
483.153	153.25
483.372	148.25
483.59	161.25
483.808	137.25
484.027	129.25
484.245	126.25
484.463	155.25
484.681	143.25
484.9	142.25
485.118	141.25
485.336	127.25
485.554	118.25
485.772	101.25
485.99	102.25
486.209	112.25
486.427	95.25
486.645	119.25
486.863	138.25
487.081	131.25
487.299	129.25
487.517	138.25
487.735	166.25
487.953	186.25
488.171	181.25
488.389	163.25
488.607	152.25
488.825	131.25
489.043	136.25
489.261	139.25
489.479	118.25
489.696	158.25
489.914	149.25
490.132	136.25
490.35	149.25
490.568	161.25
490.786	157.25
491.003	161.25
491.221	162.25
491.439	160.25
491.657	207.25
491.874	196.25
492.092	218.25
492.31	226.25
492.527	225.25
492.745	203.25
492.963	194.25
493.18	177.25
493.398	167.25
493.615	185.25
493.833	175.25
494.05	172.25
494.268	186.25
494.485	170.25
494.703	163.25
494.92	182.25
495.138	161.25
495.355	175.25
495.573	178.25
495.79	170.25
496.008	158.25
496.225	171.25
496.442	176.25
496.66	183.25
496.877	145.25
497.094	153.25
497.312	153.25
497.529	166.25
497.746	158.25
497.963	135.25
498.181	150.25
498.398	112.25
498.615	119.25
498.832	115.25
499.049	124.25
499.267	125.25
499.484	130.25
499.701	116.25
499.918	122.25
500.135	129.25
500.352	140.25
500.569	128.25
500.786	148.25
501.003	122.25
501.22	147.25
501.437	127.25
501.654	125.25
501.871	130.25
502.088	122.25
502.305	127.25
502.522	129.25
502.739	134.25
502.956	131.25
503.172	120.25
503.389	117.25
503.606	133.25
503.823	114.25
504.04	113.25
504.256	122.25
504.473	103.25
504.69	120.25
504.907	117.25
505.123	123.25
505.34	111.25
505.557	119.25
505.773	129.25
505.99	103.25
506.207	128.25
506.423	106.25
506.64	102.25
506.856	117.25
507.073	98.25
507.289	109.25
507.506	112.25
507.722	109.25
507.939	101.25
508.155	119.25
508.372	111.25
508.588	117.25
508.805	119.25
509.021	107.25
509.238	105.25
509.454	101.25
509.67	90.25
509.887	109.25
510.103	94.25
510.319	85.25
510.536	104.25
510.752	93.25
510.968	89.25
511.184	88.25
511.401	74.25
511.617	84.25
511.833	86.25
512.049	107.25
