Data from Location4.07152019.Energy5.Lamp.07192019.3%Agarose_HRD10591_16-18-58-925.txt Node
Date: Fri Jul 19 16:18:58 EDT 2019
User: cochatt
Spectrometer: HR+D1059
Trigger mode: 1
Integration Time (sec): 1.000000E-1
Scans to average: 1
Electric dark correction enabled: true
Nonlinearity correction enabled: false
Boxcar width: 0
XAxis mode: Wavelengths
Number of Pixels in Spectrum: 2048
>>>>>Begin Spectral Data<<<<<
223.165	-12.12
223.4	-12.12
223.635	-12.12
223.869	-12.12
224.104	-13.12
224.338	-5.12
224.573	-24.12
224.808	-21.12
225.042	6.88
225.277	-9.12
225.511	2.88
225.746	-12.12
225.98	6.88
226.215	16.88
226.449	21.88
226.683	18.88
226.918	10.88
227.152	23.88
227.387	30.88
227.621	30.88
227.856	40.88
228.09	47.88
228.324	49.88
228.559	54.88
228.793	74.88
229.027	66.88
229.262	70.88
229.496	59.88
229.73	56.88
229.964	76.88
230.199	76.88
230.433	81.88
230.667	83.88
230.901	82.88
231.136	78.88
231.37	84.88
231.604	81.88
231.838	85.88
232.072	75.88
232.306	78.88
232.541	69.88
232.775	87.88
233.009	82.88
233.243	82.88
233.477	81.88
233.711	92.88
233.945	75.88
234.179	86.88
234.413	89.88
234.647	89.88
234.881	93.88
235.115	79.88
235.349	91.88
235.583	78.88
235.817	84.88
236.051	72.88
236.285	76.88
236.519	84.88
236.753	95.88
236.987	90.88
237.221	78.88
237.455	78.88
237.689	82.88
237.922	86.88
238.156	78.88
238.39	86.88
238.624	65.88
238.858	87.88
239.091	81.88
239.325	84.88
239.559	86.88
239.793	92.88
240.027	78.88
240.26	73.88
240.494	84.88
240.728	77.88
240.961	100.88
241.195	86.88
241.429	77.88
241.662	81.88
241.896	83.88
242.13	75.88
242.363	75.88
242.597	77.88
242.83	66.88
243.064	77.88
243.298	79.88
243.531	79.88
243.765	92.88
243.998	77.88
244.232	72.88
244.465	79.88
244.699	77.88
244.932	76.88
245.166	79.88
245.399	80.88
245.633	78.88
245.866	66.88
246.099	70.88
246.333	71.88
246.566	71.88
246.8	78.88
247.033	87.88
247.266	76.88
247.5	87.88
247.733	75.88
247.966	72.88
248.2	83.88
248.433	70.88
248.666	72.88
248.899	76.88
249.133	74.88
249.366	78.88
249.599	77.88
249.832	79.88
250.066	80.88
250.299	87.88
250.532	87.88
250.765	86.88
250.998	90.88
251.231	91.88
251.465	86.88
251.698	79.88
251.931	87.88
252.164	78.88
252.397	83.88
252.63	77.88
252.863	87.88
253.096	87.88
253.329	77.88
253.562	95.88
253.795	83.88
254.028	78.88
254.261	84.88
254.494	94.88
254.727	79.88
254.96	68.88
255.193	75.88
255.426	78.88
255.659	76.88
255.892	84.88
256.124	79.88
256.357	75.88
256.59	87.88
256.823	79.88
257.056	87.88
257.289	99.88
257.521	98.88
257.754	71.88
257.987	76.88
258.22	70.88
258.452	77.88
258.685	84.88
258.918	85.88
259.151	88.88
259.383	79.88
259.616	94.88
259.849	79.88
260.081	71.88
260.314	72.88
260.547	73.88
260.779	78.88
261.012	91.88
261.244	77.88
261.477	91.88
261.71	87.88
261.942	82.88
262.175	81.88
262.407	92.88
262.64	87.88
262.872	83.88
263.105	97.88
263.337	91.88
263.57	92.88
263.802	87.88
264.035	87.88
264.267	93.88
264.499	88.88
264.732	93.88
264.964	85.88
265.197	71.88
265.429	85.88
265.661	88.88
265.894	92.88
266.126	86.88
266.358	92.88
266.591	88.88
266.823	85.88
267.055	98.88
267.287	104.88
267.52	91.88
267.752	78.88
267.984	96.88
268.216	69.88
268.448	100.88
268.681	93.88
268.913	94.88
269.145	79.88
269.377	79.88
269.609	102.88
269.841	79.88
270.073	80.88
270.306	97.88
270.538	86.88
270.77	82.88
271.002	96.88
271.234	85.88
271.466	85.88
271.698	76.88
271.93	98.88
272.162	91.88
272.394	105.88
272.626	95.88
272.858	82.88
273.09	86.88
273.322	85.88
273.553	95.88
273.785	95.88
274.017	71.88
274.249	91.88
274.481	78.88
274.713	81.88
274.945	94.88
275.176	79.88
275.408	95.88
275.64	85.88
275.872	73.88
276.104	78.88
276.335	66.88
276.567	87.88
276.799	68.88
277.031	79.88
277.262	77.88
277.494	95.88
277.726	68.88
277.957	98.88
278.189	86.88
278.421	93.88
278.652	73.88
278.884	81.88
279.115	87.88
279.347	86.88
279.579	86.88
279.81	97.88
280.042	109.88
280.273	79.88
280.505	87.88
280.736	77.88
280.968	99.88
281.199	88.88
281.431	72.88
281.662	89.88
281.894	90.88
282.125	85.88
282.356	74.88
282.588	88.88
282.819	89.88
283.051	80.88
283.282	91.88
283.513	72.88
283.745	76.88
283.976	88.88
284.207	76.88
284.439	89.88
284.67	85.88
284.901	94.88
285.132	82.88
285.364	79.88
285.595	88.88
285.826	96.88
286.057	80.88
286.288	72.88
286.52	95.88
286.751	95.88
286.982	96.88
287.213	83.88
287.444	68.88
287.675	87.88
287.906	79.88
288.138	87.88
288.369	70.88
288.6	71.88
288.831	86.88
289.062	87.88
289.293	95.88
289.524	79.88
289.755	93.88
289.986	87.88
290.217	83.88
290.448	103.88
290.679	73.88
290.91	79.88
291.141	81.88
291.371	94.88
291.602	86.88
291.833	92.88
292.064	95.88
292.295	82.88
292.526	96.88
292.757	79.88
292.987	93.88
293.218	87.88
293.449	106.88
293.68	88.88
293.91	81.88
294.141	82.88
294.372	86.88
294.603	79.88
294.833	89.88
295.064	89.88
295.295	93.88
295.525	98.88
295.756	85.88
295.987	86.88
296.217	93.88
296.448	86.88
296.679	68.88
296.909	89.88
297.14	80.88
297.37	93.88
297.601	98.88
297.831	83.88
298.062	82.88
298.292	93.88
298.523	88.88
298.753	96.88
298.984	73.88
299.214	90.88
299.445	79.88
299.675	88.88
299.905	83.88
300.136	94.88
300.366	93.88
300.597	96.88
300.827	96.88
301.057	85.88
301.288	80.88
301.518	86.88
301.748	91.88
301.979	90.88
302.209	107.88
302.439	88.88
302.669	82.88
302.9	84.88
303.13	93.88
303.36	72.88
303.59	74.88
303.82	84.88
304.051	87.88
304.281	94.88
304.511	81.88
304.741	75.88
304.971	80.88
305.201	96.88
305.431	93.88
305.661	88.88
305.891	62.88
306.121	91.88
306.352	92.88
306.582	89.88
306.812	86.88
307.042	98.88
307.272	93.88
307.502	92.88
307.731	95.88
307.961	95.88
308.191	101.88
308.421	92.88
308.651	77.88
308.881	88.88
309.111	90.88
309.341	85.88
309.571	101.88
309.8	75.88
310.03	90.88
310.26	92.88
310.49	91.88
310.72	82.88
310.949	87.88
311.179	87.88
311.409	71.88
311.639	82.88
311.868	93.88
312.098	95.88
312.328	81.88
312.557	85.88
312.787	90.88
313.017	74.88
313.246	87.88
313.476	102.88
313.706	83.88
313.935	72.88
314.165	83.88
314.394	89.88
314.624	87.88
314.853	98.88
315.083	93.88
315.312	83.88
315.542	86.88
315.771	90.88
316.001	94.88
316.23	87.88
316.46	85.88
316.689	73.88
316.919	81.88
317.148	97.88
317.377	106.88
317.607	87.88
317.836	100.88
318.065	97.88
318.295	83.88
318.524	81.88
318.753	72.88
318.983	92.88
319.212	88.88
319.441	88.88
319.67	81.88
319.9	86.88
320.129	75.88
320.358	87.88
320.587	97.88
320.816	89.88
321.046	99.88
321.275	90.88
321.504	93.88
321.733	80.88
321.962	98.88
322.191	76.88
322.42	68.88
322.649	89.88
322.878	82.88
323.108	67.88
323.337	93.88
323.566	82.88
323.795	76.88
324.024	82.88
324.253	89.88
324.482	88.88
324.71	90.88
324.939	91.88
325.168	85.88
325.397	94.88
325.626	91.88
325.855	94.88
326.084	83.88
326.313	102.88
326.542	79.88
326.77	95.88
326.999	95.88
327.228	99.88
327.457	84.88
327.686	87.88
327.914	78.88
328.143	94.88
328.372	89.88
328.6	88.88
328.829	72.88
329.058	75.88
329.287	79.88
329.515	84.88
329.744	90.88
329.972	91.88
330.201	86.88
330.43	87.88
330.658	71.88
330.887	92.88
331.115	83.88
331.344	83.88
331.572	92.88
331.801	74.88
332.03	84.88
332.258	82.88
332.486	86.88
332.715	89.88
332.943	84.88
333.172	84.88
333.4	69.88
333.629	100.88
333.857	86.88
334.085	89.88
334.314	86.88
334.542	75.88
334.771	84.88
334.999	92.88
335.227	82.88
335.455	85.88
335.684	86.88
335.912	94.88
336.14	78.88
336.369	82.88
336.597	98.88
336.825	75.88
337.053	92.88
337.281	89.88
337.51	78.88
337.738	90.88
337.966	88.88
338.194	101.88
338.422	95.88
338.65	91.88
338.878	94.88
339.106	88.88
339.334	83.88
339.562	83.88
339.79	89.88
340.018	84.88
340.246	95.88
340.474	79.88
340.702	100.88
340.93	94.88
341.158	92.88
341.386	76.88
341.614	76.88
341.842	74.88
342.07	86.88
342.298	85.88
342.526	84.88
342.754	94.88
342.981	99.88
343.209	84.88
343.437	88.88
343.665	95.88
343.893	76.88
344.12	84.88
344.348	82.88
344.576	104.88
344.804	76.88
345.031	88.88
345.259	90.88
345.487	91.88
345.714	88.88
345.942	86.88
346.17	75.88
346.397	96.88
346.625	66.88
346.853	94.88
347.08	88.88
347.308	88.88
347.535	79.88
347.763	91.88
347.99	87.88
348.218	92.88
348.445	79.88
348.673	86.88
348.9	90.88
349.128	91.88
349.355	75.88
349.583	80.88
349.81	96.88
350.037	104.88
350.265	75.88
350.492	86.88
350.72	95.88
350.947	89.88
351.174	85.88
351.402	88.88
351.629	88.88
351.856	90.88
352.083	89.88
352.311	97.88
352.538	95.88
352.765	79.88
352.992	83.88
353.22	82.88
353.447	102.88
353.674	75.88
353.901	87.88
354.128	96.88
354.355	85.88
354.583	75.88
354.81	80.88
355.037	79.88
355.264	95.88
355.491	85.88
355.718	86.88
355.945	76.88
356.172	94.88
356.399	86.88
356.626	76.88
356.853	82.88
357.08	96.88
357.307	88.88
357.534	84.88
357.761	91.88
357.988	93.88
358.215	98.88
358.441	80.88
358.668	90.88
358.895	88.88
359.122	90.88
359.349	90.88
359.576	79.88
359.802	84.88
360.029	97.88
360.256	90.88
360.483	80.88
360.709	91.88
360.936	82.88
361.163	85.88
361.39	89.88
361.616	84.88
361.843	97.88
362.07	92.88
362.296	95.88
362.523	87.88
362.749	69.88
362.976	85.88
363.203	85.88
363.429	83.88
363.656	85.88
363.882	85.88
364.109	80.88
364.335	90.88
364.562	87.88
364.788	85.88
365.015	94.88
365.241	79.88
365.468	92.88
365.694	71.88
365.92	77.88
366.147	78.88
366.373	99.88
366.599	82.88
366.826	80.88
367.052	86.88
367.278	92.88
367.505	94.88
367.731	93.88
367.957	86.88
368.184	86.88
368.41	80.88
368.636	91.88
368.862	84.88
369.089	88.88
369.315	89.88
369.541	91.88
369.767	98.88
369.993	100.88
370.219	100.88
370.445	101.88
370.672	93.88
370.898	91.88
371.124	78.88
371.35	91.88
371.576	87.88
371.802	75.88
372.028	96.88
372.254	77.88
372.48	86.88
372.706	87.88
372.932	93.88
373.158	82.88
373.384	90.88
373.61	94.88
373.835	76.88
374.061	72.88
374.287	87.88
374.513	91.88
374.739	85.88
374.965	94.88
375.191	94.88
375.416	103.88
375.642	95.88
375.868	118.88
376.094	102.88
376.319	98.88
376.545	92.88
376.771	95.88
376.997	108.88
377.222	97.88
377.448	88.88
377.674	97.88
377.899	95.88
378.125	89.88
378.35	87.88
378.576	93.88
378.802	84.88
379.027	107.88
379.253	104.88
379.478	100.88
379.704	95.88
379.929	103.88
380.155	98.88
380.38	71.88
380.606	99.88
380.831	101.88
381.057	93.88
381.282	101.88
381.507	95.88
381.733	106.88
381.958	101.88
382.184	91.88
382.409	97.88
382.634	105.88
382.86	99.88
383.085	94.88
383.31	84.88
383.535	89.88
383.761	108.88
383.986	90.88
384.211	92.88
384.436	101.88
384.662	98.88
384.887	94.88
385.112	96.88
385.337	93.88
385.562	103.88
385.787	108.88
386.013	111.88
386.238	102.88
386.463	114.88
386.688	99.88
386.913	100.88
387.138	107.88
387.363	100.88
387.588	111.88
387.813	93.88
388.038	89.88
388.263	104.88
388.488	101.88
388.713	112.88
388.938	114.88
389.163	87.88
389.387	106.88
389.612	107.88
389.837	103.88
390.062	89.88
390.287	112.88
390.512	123.88
390.736	119.88
390.961	103.88
391.186	122.88
391.411	94.88
391.636	114.88
391.86	109.88
392.085	106.88
392.31	107.88
392.534	98.88
392.759	108.88
392.984	101.88
393.208	100.88
393.433	116.88
393.658	116.88
393.882	92.88
394.107	95.88
394.331	110.88
394.556	114.88
394.78	109.88
395.005	107.88
395.229	116.88
395.454	102.88
395.678	102.88
395.903	95.88
396.127	94.88
396.352	115.88
396.576	102.88
396.801	132.88
397.025	107.88
397.249	96.88
397.474	102.88
397.698	120.88
397.922	120.88
398.147	112.88
398.371	130.88
398.595	108.88
398.82	112.88
399.044	112.88
399.268	107.88
399.492	117.88
399.717	101.88
399.941	103.88
400.165	112.88
400.389	123.88
400.613	111.88
400.837	108.88
401.062	109.88
401.286	104.88
401.51	115.88
401.734	106.88
401.958	119.88
402.182	116.88
402.406	115.88
402.63	111.88
402.854	115.88
403.078	111.88
403.302	113.88
403.526	115.88
403.75	111.88
403.974	128.88
404.198	122.88
404.422	119.88
404.645	98.88
404.869	114.88
405.093	116.88
405.317	121.88
405.541	119.88
405.765	119.88
405.988	114.88
406.212	120.88
406.436	119.88
406.66	115.88
406.883	113.88
407.107	110.88
407.331	124.88
407.555	126.88
407.778	106.88
408.002	124.88
408.226	109.88
408.449	114.88
408.673	104.88
408.896	125.88
409.12	120.88
409.344	119.88
409.567	118.88
409.791	111.88
410.014	120.88
410.238	111.88
410.461	123.88
410.685	120.88
410.908	124.88
411.132	130.88
411.355	101.88
411.578	121.88
411.802	122.88
412.025	131.88
412.249	123.88
412.472	111.88
412.695	116.88
412.919	124.88
413.142	130.88
413.365	132.88
413.589	115.88
413.812	129.88
414.035	132.88
414.258	123.88
414.482	116.88
414.705	123.88
414.928	132.88
415.151	116.88
415.374	123.88
415.597	120.88
415.821	120.88
416.044	125.88
416.267	127.88
416.49	130.88
416.713	130.88
416.936	123.88
417.159	134.88
417.382	132.88
417.605	123.88
417.828	123.88
418.051	131.88
418.274	125.88
418.497	123.88
418.72	138.88
418.943	128.88
419.166	136.88
419.389	140.88
419.611	145.88
419.834	124.88
420.057	130.88
420.28	123.88
420.503	137.88
420.726	134.88
420.948	137.88
421.171	135.88
421.394	132.88
421.617	140.88
421.839	139.88
422.062	136.88
422.285	135.88
422.507	148.88
422.73	136.88
422.953	118.88
423.175	133.88
423.398	142.88
423.621	128.88
423.843	141.88
424.066	158.88
424.288	130.88
424.511	150.88
424.733	136.88
424.956	135.88
425.178	145.88
425.401	139.88
425.623	134.88
425.846	139.88
426.068	140.88
426.291	124.88
426.513	135.88
426.735	107.88
426.958	130.88
427.18	127.88
427.402	134.88
427.625	150.88
427.847	132.88
428.069	132.88
428.292	119.88
428.514	117.88
428.736	125.88
428.958	132.88
429.181	137.88
429.403	130.88
429.625	123.88
429.847	130.88
430.069	138.88
430.292	146.88
430.514	130.88
430.736	132.88
430.958	135.88
431.18	126.88
431.402	132.88
431.624	117.88
431.846	119.88
432.068	104.88
432.29	95.88
432.512	111.88
432.734	131.88
432.956	125.88
433.178	148.88
433.4	134.88
433.622	126.88
433.844	127.88
434.066	118.88
434.287	117.88
434.509	107.88
434.731	111.88
434.953	114.88
435.175	126.88
435.397	133.88
435.618	117.88
435.84	110.88
436.062	136.88
436.284	132.88
436.505	120.88
436.727	136.88
436.949	131.88
437.17	141.88
437.392	137.88
437.614	121.88
437.835	99.88
438.057	107.88
438.278	115.88
438.5	141.88
438.721	126.88
438.943	144.88
439.165	136.88
439.386	146.88
439.608	146.88
439.829	141.88
440.05	146.88
440.272	146.88
440.493	142.88
440.715	130.88
440.936	128.88
441.158	141.88
441.379	152.88
441.6	161.88
441.822	140.88
442.043	158.88
442.264	146.88
442.486	149.88
442.707	142.88
442.928	134.88
443.149	128.88
443.371	149.88
443.592	134.88
443.813	131.88
444.034	149.88
444.255	155.88
444.476	127.88
444.698	145.88
444.919	150.88
445.14	283.88
445.361	204.88
445.582	174.88
445.803	146.88
446.024	163.88
446.245	155.88
446.466	152.88
446.687	141.88
446.908	165.88
447.129	158.88
447.35	163.88
447.571	134.88
447.792	158.88
448.013	145.88
448.234	148.88
448.455	142.88
448.675	124.88
448.896	130.88
449.117	150.88
449.338	146.88
449.559	139.88
449.779	138.88
450	144.88
450.221	133.88
450.442	136.88
450.662	145.88
450.883	124.88
451.104	122.88
451.324	138.88
451.545	143.88
451.766	126.88
451.986	133.88
452.207	142.88
452.428	127.88
452.648	123.88
452.869	118.88
453.089	138.88
453.31	114.88
453.53	110.88
453.751	90.88
453.971	111.88
454.192	102.88
454.412	117.88
454.633	122.88
454.853	124.88
455.073	125.88
455.294	128.88
455.514	115.88
455.734	126.88
455.955	118.88
456.175	131.88
456.395	108.88
456.616	122.88
456.836	116.88
457.056	104.88
457.276	108.88
457.497	126.88
457.717	100.88
457.937	110.88
458.157	118.88
458.377	103.88
458.598	101.88
458.818	95.88
459.038	83.88
459.258	75.88
459.478	99.88
459.698	98.88
459.918	91.88
460.138	107.88
460.358	127.88
460.578	126.88
460.798	124.88
461.018	111.88
461.238	116.88
461.458	118.88
461.678	118.88
461.898	120.88
462.118	107.88
462.338	110.88
462.558	107.88
462.777	122.88
462.997	111.88
463.217	118.88
463.437	110.88
463.657	98.88
463.876	109.88
464.096	116.88
464.316	101.88
464.536	115.88
464.755	130.88
464.975	116.88
465.195	121.88
465.414	121.88
465.634	116.88
465.854	131.88
466.073	103.88
466.293	128.88
466.512	141.88
466.732	131.88
466.951	138.88
467.171	135.88
467.391	137.88
467.61	135.88
467.829	138.88
468.049	154.88
468.268	145.88
468.488	127.88
468.707	130.88
468.927	140.88
469.146	149.88
469.365	138.88
469.585	141.88
469.804	150.88
470.023	157.88
470.243	138.88
470.462	147.88
470.681	154.88
470.901	135.88
471.12	141.88
471.339	126.88
471.558	133.88
471.777	147.88
471.997	146.88
472.216	130.88
472.435	118.88
472.654	103.88
472.873	108.88
473.092	117.88
473.311	126.88
473.53	127.88
473.749	135.88
473.968	142.88
474.187	129.88
474.406	121.88
474.625	118.88
474.844	140.88
475.063	126.88
475.282	116.88
475.501	120.88
475.72	126.88
475.939	122.88
476.158	117.88
476.377	135.88
476.596	112.88
476.814	102.88
477.033	99.88
477.252	103.88
477.471	125.88
477.69	123.88
477.908	139.88
478.127	136.88
478.346	138.88
478.564	136.88
478.783	144.88
479.002	132.88
479.22	134.88
479.439	145.88
479.658	134.88
479.876	125.88
480.095	109.88
480.313	120.88
480.532	127.88
480.751	121.88
480.969	98.88
481.188	80.88
481.406	101.88
481.624	86.88
481.843	94.88
482.061	93.88
482.28	117.88
482.498	122.88
482.717	85.88
482.935	126.88
483.153	141.88
483.372	149.88
483.59	151.88
483.808	151.88
484.027	128.88
484.245	134.88
484.463	147.88
484.681	151.88
484.9	155.88
485.118	132.88
485.336	121.88
485.554	118.88
485.772	103.88
485.99	106.88
486.209	116.88
486.427	118.88
486.645	127.88
486.863	134.88
487.081	140.88
487.299	126.88
487.517	138.88
487.735	166.88
487.953	195.88
488.171	173.88
488.389	180.88
488.607	173.88
488.825	140.88
489.043	142.88
489.261	143.88
489.479	138.88
489.696	132.88
489.914	160.88
490.132	146.88
490.35	154.88
490.568	168.88
490.786	166.88
491.003	190.88
491.221	167.88
491.439	170.88
491.657	187.88
491.874	220.88
492.092	216.88
492.31	232.88
492.527	230.88
492.745	208.88
492.963	206.88
493.18	183.88
493.398	175.88
493.615	168.88
493.833	174.88
494.05	172.88
494.268	156.88
494.485	169.88
494.703	187.88
494.92	151.88
495.138	169.88
495.355	171.88
495.573	164.88
495.79	167.88
496.008	152.88
496.225	159.88
496.442	171.88
496.66	185.88
496.877	162.88
497.094	177.88
497.312	158.88
497.529	172.88
497.746	159.88
497.963	149.88
498.181	135.88
498.398	109.88
498.615	120.88
498.832	119.88
499.049	112.88
499.267	127.88
499.484	121.88
499.701	116.88
499.918	123.88
500.135	130.88
500.352	141.88
500.569	141.88
500.786	148.88
501.003	155.88
501.22	127.88
501.437	122.88
501.654	139.88
501.871	130.88
502.088	129.88
502.305	134.88
502.522	125.88
502.739	132.88
502.956	126.88
503.172	127.88
503.389	135.88
503.606	126.88
503.823	127.88
504.04	126.88
504.256	132.88
504.473	123.88
504.69	118.88
504.907	129.88
505.123	131.88
505.34	128.88
505.557	128.88
505.773	118.88
505.99	124.88
506.207	130.88
506.423	132.88
506.64	116.88
506.856	120.88
507.073	116.88
507.289	106.88
507.506	118.88
507.722	116.88
507.939	112.88
508.155	119.88
508.372	126.88
508.588	116.88
508.805	109.88
509.021	118.88
509.238	107.88
509.454	112.88
509.67	123.88
509.887	107.88
510.103	89.88
510.319	99.88
510.536	91.88
510.752	91.88
510.968	73.88
511.184	87.88
