Data from Location4.07152019.Energy5.Lamp.07192019.3%Agarose_HRD10591_16-20-41-926.txt Node
Date: Fri Jul 19 16:20:41 EDT 2019
User: cochatt
Spectrometer: HR+D1059
Trigger mode: 1
Integration Time (sec): 1.000000E-1
Scans to average: 1
Electric dark correction enabled: true
Nonlinearity correction enabled: false
Boxcar width: 0
XAxis mode: Wavelengths
Number of Pixels in Spectrum: 2048
>>>>>Begin Spectral Data<<<<<
223.165	-6.81
223.4	-6.81
223.635	-6.81
223.869	-11.81
224.104	-10.81
224.338	-13.81
224.573	-18.81
224.808	-8.81
225.042	-5.81
225.277	-9.81
225.511	-9.81
225.746	-7.81
225.98	10.19
226.215	16.19
226.449	10.19
226.683	29.19
226.918	16.19
227.152	22.19
227.387	27.19
227.621	32.19
227.856	36.19
228.09	44.19
228.324	39.19
228.559	66.19
228.793	60.19
229.027	64.19
229.262	80.19
229.496	61.19
229.73	66.19
229.964	89.19
230.199	63.19
230.433	70.19
230.667	69.19
230.901	81.19
231.136	68.19
231.37	84.19
231.604	73.19
231.838	75.19
232.072	70.19
232.306	78.19
232.541	72.19
232.775	94.19
233.009	97.19
233.243	91.19
233.477	88.19
233.711	73.19
233.945	78.19
234.179	79.19
234.413	75.19
234.647	71.19
234.881	93.19
235.115	79.19
235.349	80.19
235.583	78.19
235.817	64.19
236.051	92.19
236.285	86.19
236.519	82.19
236.753	74.19
236.987	84.19
237.221	81.19
237.455	83.19
237.689	84.19
237.922	74.19
238.156	85.19
238.39	74.19
238.624	78.19
238.858	85.19
239.091	81.19
239.325	73.19
239.559	81.19
239.793	87.19
240.027	68.19
240.26	92.19
240.494	82.19
240.728	68.19
240.961	89.19
241.195	81.19
241.429	79.19
241.662	79.19
241.896	86.19
242.13	71.19
242.363	85.19
242.597	78.19
242.83	74.19
243.064	86.19
243.298	73.19
243.531	86.19
243.765	101.19
243.998	89.19
244.232	79.19
244.465	83.19
244.699	64.19
244.932	85.19
245.166	91.19
245.399	70.19
245.633	81.19
245.866	91.19
246.099	90.19
246.333	83.19
246.566	86.19
246.8	86.19
247.033	89.19
247.266	83.19
247.5	77.19
247.733	77.19
247.966	80.19
248.2	78.19
248.433	82.19
248.666	64.19
248.899	77.19
249.133	92.19
249.366	90.19
249.599	80.19
249.832	70.19
250.066	82.19
250.299	90.19
250.532	72.19
250.765	80.19
250.998	103.19
251.231	98.19
251.465	90.19
251.698	75.19
251.931	99.19
252.164	69.19
252.397	71.19
252.63	89.19
252.863	81.19
253.096	69.19
253.329	75.19
253.562	84.19
253.795	100.19
254.028	84.19
254.261	78.19
254.494	83.19
254.727	85.19
254.96	92.19
255.193	89.19
255.426	71.19
255.659	86.19
255.892	78.19
256.124	78.19
256.357	89.19
256.59	93.19
256.823	91.19
257.056	86.19
257.289	81.19
257.521	77.19
257.754	80.19
257.987	84.19
258.22	87.19
258.452	78.19
258.685	94.19
258.918	76.19
259.151	75.19
259.383	72.19
259.616	72.19
259.849	101.19
260.081	87.19
260.314	92.19
260.547	78.19
260.779	75.19
261.012	95.19
261.244	83.19
261.477	97.19
261.71	97.19
261.942	78.19
262.175	83.19
262.407	92.19
262.64	70.19
262.872	83.19
263.105	95.19
263.337	85.19
263.57	68.19
263.802	92.19
264.035	94.19
264.267	80.19
264.499	90.19
264.732	79.19
264.964	86.19
265.197	98.19
265.429	87.19
265.661	84.19
265.894	84.19
266.126	91.19
266.358	94.19
266.591	88.19
266.823	86.19
267.055	80.19
267.287	79.19
267.52	87.19
267.752	83.19
267.984	77.19
268.216	88.19
268.448	67.19
268.681	77.19
268.913	80.19
269.145	93.19
269.377	87.19
269.609	90.19
269.841	90.19
270.073	73.19
270.306	74.19
270.538	70.19
270.77	86.19
271.002	82.19
271.234	90.19
271.466	91.19
271.698	89.19
271.93	88.19
272.162	88.19
272.394	83.19
272.626	77.19
272.858	93.19
273.09	89.19
273.322	95.19
273.553	76.19
273.785	94.19
274.017	82.19
274.249	71.19
274.481	95.19
274.713	71.19
274.945	96.19
275.176	85.19
275.408	89.19
275.64	92.19
275.872	87.19
276.104	99.19
276.335	90.19
276.567	84.19
276.799	76.19
277.031	83.19
277.262	82.19
277.494	90.19
277.726	87.19
277.957	86.19
278.189	85.19
278.421	89.19
278.652	100.19
278.884	83.19
279.115	86.19
279.347	87.19
279.579	83.19
279.81	80.19
280.042	89.19
280.273	92.19
280.505	81.19
280.736	86.19
280.968	86.19
281.199	106.19
281.431	73.19
281.662	93.19
281.894	87.19
282.125	86.19
282.356	85.19
282.588	77.19
282.819	78.19
283.051	81.19
283.282	74.19
283.513	79.19
283.745	88.19
283.976	86.19
284.207	78.19
284.439	93.19
284.67	88.19
284.901	83.19
285.132	80.19
285.364	92.19
285.595	94.19
285.826	94.19
286.057	75.19
286.288	86.19
286.52	88.19
286.751	78.19
286.982	97.19
287.213	98.19
287.444	103.19
287.675	88.19
287.906	81.19
288.138	86.19
288.369	87.19
288.6	89.19
288.831	101.19
289.062	88.19
289.293	89.19
289.524	76.19
289.755	83.19
289.986	94.19
290.217	84.19
290.448	92.19
290.679	75.19
290.91	85.19
291.141	82.19
291.371	73.19
291.602	85.19
291.833	80.19
292.064	98.19
292.295	95.19
292.526	77.19
292.757	83.19
292.987	87.19
293.218	80.19
293.449	89.19
293.68	85.19
293.91	94.19
294.141	87.19
294.372	96.19
294.603	80.19
294.833	79.19
295.064	78.19
295.295	75.19
295.525	90.19
295.756	79.19
295.987	90.19
296.217	86.19
296.448	78.19
296.679	92.19
296.909	85.19
297.14	92.19
297.37	74.19
297.601	86.19
297.831	87.19
298.062	87.19
298.292	92.19
298.523	98.19
298.753	81.19
298.984	98.19
299.214	88.19
299.445	100.19
299.675	86.19
299.905	85.19
300.136	92.19
300.366	75.19
300.597	81.19
300.827	81.19
301.057	77.19
301.288	90.19
301.518	82.19
301.748	83.19
301.979	84.19
302.209	81.19
302.439	90.19
302.669	88.19
302.9	92.19
303.13	93.19
303.36	90.19
303.59	83.19
303.82	93.19
304.051	100.19
304.281	95.19
304.511	75.19
304.741	86.19
304.971	86.19
305.201	84.19
305.431	84.19
305.661	80.19
305.891	82.19
306.121	77.19
306.352	82.19
306.582	87.19
306.812	95.19
307.042	92.19
307.272	88.19
307.502	93.19
307.731	76.19
307.961	81.19
308.191	84.19
308.421	85.19
308.651	69.19
308.881	83.19
309.111	82.19
309.341	84.19
309.571	68.19
309.8	88.19
310.03	89.19
310.26	93.19
310.49	90.19
310.72	90.19
310.949	77.19
311.179	58.19
311.409	70.19
311.639	88.19
311.868	86.19
312.098	76.19
312.328	89.19
312.557	98.19
312.787	93.19
313.017	77.19
313.246	85.19
313.476	85.19
313.706	90.19
313.935	87.19
314.165	86.19
314.394	89.19
314.624	92.19
314.853	71.19
315.083	86.19
315.312	88.19
315.542	78.19
315.771	91.19
316.001	86.19
316.23	87.19
316.46	80.19
316.689	90.19
316.919	89.19
317.148	94.19
317.377	96.19
317.607	89.19
317.836	99.19
318.065	92.19
318.295	79.19
318.524	91.19
318.753	84.19
318.983	77.19
319.212	97.19
319.441	86.19
319.67	82.19
319.9	89.19
320.129	98.19
320.358	86.19
320.587	80.19
320.816	84.19
321.046	85.19
321.275	84.19
321.504	84.19
321.733	88.19
321.962	76.19
322.191	80.19
322.42	90.19
322.649	89.19
322.878	89.19
323.108	95.19
323.337	85.19
323.566	93.19
323.795	86.19
324.024	88.19
324.253	87.19
324.482	87.19
324.71	88.19
324.939	95.19
325.168	72.19
325.397	94.19
325.626	115.19
325.855	76.19
326.084	86.19
326.313	89.19
326.542	80.19
326.77	90.19
326.999	76.19
327.228	81.19
327.457	86.19
327.686	91.19
327.914	90.19
328.143	87.19
328.372	88.19
328.6	82.19
328.829	95.19
329.058	76.19
329.287	93.19
329.515	87.19
329.744	86.19
329.972	80.19
330.201	92.19
330.43	87.19
330.658	86.19
330.887	91.19
331.115	80.19
331.344	83.19
331.572	82.19
331.801	100.19
332.03	95.19
332.258	92.19
332.486	84.19
332.715	88.19
332.943	80.19
333.172	89.19
333.4	90.19
333.629	90.19
333.857	84.19
334.085	86.19
334.314	79.19
334.542	88.19
334.771	84.19
334.999	83.19
335.227	78.19
335.455	86.19
335.684	98.19
335.912	86.19
336.14	62.19
336.369	97.19
336.597	83.19
336.825	82.19
337.053	104.19
337.281	91.19
337.51	80.19
337.738	95.19
337.966	87.19
338.194	86.19
338.422	84.19
338.65	84.19
338.878	91.19
339.106	82.19
339.334	100.19
339.562	90.19
339.79	94.19
340.018	90.19
340.246	90.19
340.474	92.19
340.702	85.19
340.93	90.19
341.158	97.19
341.386	80.19
341.614	94.19
341.842	91.19
342.07	88.19
342.298	86.19
342.526	92.19
342.754	96.19
342.981	94.19
343.209	95.19
343.437	108.19
343.665	90.19
343.893	80.19
344.12	91.19
344.348	83.19
344.576	75.19
344.804	71.19
345.031	78.19
345.259	96.19
345.487	96.19
345.714	93.19
345.942	103.19
346.17	88.19
346.397	87.19
346.625	88.19
346.853	99.19
347.08	79.19
347.308	94.19
347.535	80.19
347.763	82.19
347.99	91.19
348.218	92.19
348.445	85.19
348.673	84.19
348.9	88.19
349.128	93.19
349.355	86.19
349.583	85.19
349.81	93.19
350.037	94.19
350.265	74.19
350.492	101.19
350.72	83.19
350.947	95.19
351.174	89.19
351.402	77.19
351.629	99.19
351.856	84.19
352.083	99.19
352.311	91.19
352.538	91.19
352.765	90.19
352.992	103.19
353.22	90.19
353.447	100.19
353.674	103.19
353.901	83.19
354.128	86.19
354.355	86.19
354.583	89.19
354.81	102.19
355.037	85.19
355.264	83.19
355.491	69.19
355.718	85.19
355.945	72.19
356.172	80.19
356.399	80.19
356.626	78.19
356.853	77.19
357.08	78.19
357.307	98.19
357.534	75.19
357.761	88.19
357.988	89.19
358.215	77.19
358.441	78.19
358.668	72.19
358.895	64.19
359.122	79.19
359.349	95.19
359.576	83.19
359.802	91.19
360.029	94.19
360.256	99.19
360.483	87.19
360.709	97.19
360.936	76.19
361.163	85.19
361.39	96.19
361.616	93.19
361.843	79.19
362.07	84.19
362.296	92.19
362.523	84.19
362.749	91.19
362.976	68.19
363.203	80.19
363.429	84.19
363.656	84.19
363.882	90.19
364.109	92.19
364.335	93.19
364.562	95.19
364.788	83.19
365.015	87.19
365.241	81.19
365.468	84.19
365.694	82.19
365.92	78.19
366.147	91.19
366.373	99.19
366.599	89.19
366.826	71.19
367.052	87.19
367.278	95.19
367.505	94.19
367.731	102.19
367.957	83.19
368.184	85.19
368.41	86.19
368.636	100.19
368.862	80.19
369.089	94.19
369.315	89.19
369.541	94.19
369.767	98.19
369.993	96.19
370.219	102.19
370.445	102.19
370.672	91.19
370.898	90.19
371.124	96.19
371.35	91.19
371.576	93.19
371.802	88.19
372.028	88.19
372.254	90.19
372.48	101.19
372.706	99.19
372.932	97.19
373.158	110.19
373.384	101.19
373.61	101.19
373.835	88.19
374.061	107.19
374.287	83.19
374.513	92.19
374.739	97.19
374.965	97.19
375.191	95.19
375.416	78.19
375.642	110.19
375.868	99.19
376.094	95.19
376.319	98.19
376.545	85.19
376.771	96.19
376.997	90.19
377.222	91.19
377.448	94.19
377.674	93.19
377.899	99.19
378.125	106.19
378.35	114.19
378.576	96.19
378.802	90.19
379.027	96.19
379.253	83.19
379.478	84.19
379.704	94.19
379.929	93.19
380.155	108.19
380.38	94.19
380.606	87.19
380.831	92.19
381.057	98.19
381.282	85.19
381.507	100.19
381.733	94.19
381.958	93.19
382.184	105.19
382.409	77.19
382.634	117.19
382.86	104.19
383.085	113.19
383.31	96.19
383.535	88.19
383.761	100.19
383.986	90.19
384.211	89.19
384.436	101.19
384.662	98.19
384.887	104.19
385.112	91.19
385.337	105.19
385.562	103.19
385.787	105.19
386.013	99.19
386.238	110.19
386.463	108.19
386.688	95.19
386.913	102.19
387.138	110.19
387.363	96.19
387.588	108.19
387.813	94.19
388.038	84.19
388.263	107.19
388.488	106.19
388.713	104.19
388.938	118.19
389.163	100.19
389.387	105.19
389.612	99.19
389.837	94.19
390.062	100.19
390.287	101.19
390.512	107.19
390.736	105.19
390.961	110.19
391.186	113.19
391.411	106.19
391.636	101.19
391.86	114.19
392.085	88.19
392.31	106.19
392.534	95.19
392.759	88.19
392.984	115.19
393.208	106.19
393.433	114.19
393.658	101.19
393.882	109.19
394.107	120.19
394.331	114.19
394.556	95.19
394.78	114.19
395.005	100.19
395.229	109.19
395.454	100.19
395.678	116.19
395.903	109.19
396.127	121.19
396.352	101.19
396.576	110.19
396.801	115.19
397.025	104.19
397.249	114.19
397.474	122.19
397.698	115.19
397.922	114.19
398.147	125.19
398.371	119.19
398.595	115.19
398.82	111.19
399.044	111.19
399.268	119.19
399.492	114.19
399.717	122.19
399.941	116.19
400.165	120.19
400.389	97.19
400.613	104.19
400.837	104.19
401.062	111.19
401.286	98.19
401.51	130.19
401.734	110.19
401.958	109.19
402.182	114.19
402.406	111.19
402.63	104.19
402.854	113.19
403.078	104.19
403.302	109.19
403.526	124.19
403.75	118.19
403.974	100.19
404.198	102.19
404.422	111.19
404.645	109.19
404.869	122.19
405.093	112.19
405.317	116.19
405.541	110.19
405.765	108.19
405.988	125.19
406.212	124.19
406.436	121.19
406.66	116.19
406.883	130.19
407.107	133.19
407.331	122.19
407.555	110.19
407.778	127.19
408.002	132.19
408.226	108.19
408.449	126.19
408.673	125.19
408.896	115.19
409.12	118.19
409.344	104.19
409.567	127.19
409.791	117.19
410.014	109.19
410.238	100.19
410.461	116.19
410.685	120.19
410.908	124.19
411.132	118.19
411.355	123.19
411.578	125.19
411.802	118.19
412.025	124.19
412.249	134.19
412.472	107.19
412.695	138.19
412.919	114.19
413.142	110.19
413.365	123.19
413.589	124.19
413.812	126.19
414.035	109.19
414.258	107.19
414.482	120.19
414.705	128.19
414.928	124.19
415.151	129.19
415.374	122.19
415.597	134.19
415.821	115.19
416.044	120.19
416.267	122.19
416.49	104.19
416.713	123.19
416.936	112.19
417.159	127.19
417.382	140.19
417.605	121.19
417.828	130.19
418.051	132.19
418.274	148.19
418.497	140.19
418.72	119.19
418.943	131.19
419.166	140.19
419.389	125.19
419.611	130.19
419.834	138.19
420.057	141.19
420.28	131.19
420.503	128.19
420.726	126.19
420.948	120.19
421.171	134.19
421.394	135.19
421.617	139.19
421.839	129.19
422.062	144.19
422.285	125.19
422.507	140.19
422.73	131.19
422.953	137.19
423.175	130.19
423.398	123.19
423.621	141.19
423.843	126.19
424.066	134.19
424.288	139.19
424.511	142.19
424.733	150.19
424.956	141.19
425.178	128.19
425.401	126.19
425.623	144.19
425.846	130.19
426.068	138.19
426.291	132.19
426.513	128.19
426.735	133.19
426.958	132.19
427.18	126.19
427.402	142.19
427.625	130.19
427.847	137.19
428.069	135.19
428.292	144.19
428.514	120.19
428.736	125.19
428.958	123.19
429.181	128.19
429.403	126.19
429.625	136.19
429.847	132.19
430.069	128.19
430.292	130.19
430.514	128.19
430.736	116.19
430.958	143.19
431.18	127.19
431.402	132.19
431.624	110.19
431.846	95.19
432.068	77.19
432.29	108.19
432.512	103.19
432.734	128.19
432.956	119.19
433.178	141.19
433.4	140.19
433.622	123.19
433.844	132.19
434.066	127.19
434.287	103.19
434.509	93.19
434.731	102.19
434.953	112.19
435.175	130.19
435.397	132.19
435.618	118.19
435.84	125.19
436.062	122.19
436.284	127.19
436.505	123.19
436.727	140.19
436.949	119.19
437.17	141.19
437.392	115.19
437.614	130.19
437.835	111.19
438.057	115.19
438.278	120.19
438.5	123.19
438.721	152.19
438.943	122.19
439.165	134.19
439.386	132.19
439.608	155.19
439.829	148.19
440.05	164.19
440.272	148.19
440.493	131.19
440.715	122.19
440.936	157.19
441.158	129.19
441.379	141.19
441.6	138.19
441.822	150.19
442.043	135.19
442.264	135.19
442.486	127.19
442.707	137.19
442.928	140.19
443.149	139.19
443.371	143.19
443.592	137.19
443.813	134.19
444.034	136.19
444.255	142.19
444.476	144.19
444.698	163.19
444.919	126.19
445.14	266.19
445.361	210.19
445.582	142.19
445.803	142.19
446.024	150.19
446.245	138.19
446.466	145.19
446.687	150.19
446.908	151.19
447.129	145.19
447.35	147.19
447.571	152.19
447.792	140.19
448.013	134.19
448.234	144.19
448.455	145.19
448.675	139.19
448.896	136.19
449.117	136.19
449.338	145.19
449.559	129.19
449.779	135.19
450	138.19
450.221	128.19
450.442	132.19
450.662	128.19
450.883	136.19
451.104	155.19
451.324	139.19
451.545	142.19
451.766	136.19
451.986	123.19
452.207	126.19
452.428	126.19
452.648	124.19
452.869	138.19
453.089	117.19
453.31	130.19
453.53	101.19
453.751	111.19
453.971	108.19
454.192	102.19
454.412	112.19
454.633	118.19
454.853	122.19
455.073	128.19
455.294	124.19
455.514	120.19
455.734	121.19
455.955	114.19
456.175	108.19
456.395	110.19
456.616	120.19
456.836	126.19
457.056	114.19
457.276	105.19
457.497	99.19
457.717	111.19
457.937	117.19
458.157	111.19
458.377	92.19
458.598	93.19
458.818	88.19
459.038	85.19
459.258	86.19
459.478	93.19
459.698	88.19
459.918	97.19
460.138	111.19
460.358	127.19
460.578	124.19
460.798	110.19
461.018	109.19
461.238	118.19
461.458	111.19
461.678	124.19
461.898	134.19
462.118	124.19
462.338	98.19
462.558	108.19
462.777	116.19
462.997	98.19
463.217	106.19
463.437	118.19
463.657	104.19
463.876	113.19
464.096	107.19
464.316	112.19
464.536	124.19
464.755	126.19
464.975	123.19
465.195	130.19
465.414	124.19
465.634	132.19
465.854	108.19
466.073	118.19
466.293	126.19
466.512	126.19
466.732	130.19
466.951	135.19
467.171	122.19
467.391	121.19
467.61	156.19
467.829	126.19
468.049	134.19
468.268	151.19
468.488	142.19
468.707	130.19
468.927	123.19
469.146	124.19
469.365	134.19
469.585	132.19
469.804	130.19
470.023	132.19
470.243	158.19
470.462	145.19
470.681	146.19
470.901	155.19
471.12	142.19
471.339	145.19
471.558	145.19
471.777	149.19
471.997	156.19
472.216	123.19
472.435	101.19
472.654	105.19
472.873	109.19
473.092	105.19
473.311	114.19
473.53	115.19
473.749	133.19
473.968	126.19
474.187	102.19
474.406	121.19
474.625	126.19
474.844	119.19
475.063	137.19
475.282	128.19
475.501	113.19
475.72	118.19
475.939	126.19
476.158	130.19
476.377	122.19
476.596	124.19
476.814	113.19
477.033	122.19
477.252	112.19
477.471	116.19
477.69	144.19
477.908	133.19
478.127	149.19
478.346	137.19
478.564	134.19
478.783	132.19
479.002	148.19
479.22	142.19
479.439	140.19
479.658	122.19
479.876	104.19
480.095	104.19
480.313	111.19
480.532	124.19
480.751	102.19
480.969	104.19
481.188	91.19
481.406	93.19
481.624	84.19
481.843	87.19
482.061	89.19
482.28	104.19
482.498	114.19
482.717	116.19
482.935	126.19
483.153	139.19
483.372	156.19
483.59	145.19
483.808	148.19
484.027	140.19
484.245	132.19
484.463	142.19
484.681	183.19
484.9	155.19
485.118	134.19
485.336	130.19
485.554	109.19
485.772	130.19
485.99	120.19
486.209	105.19
486.427	106.19
486.645	120.19
486.863	137.19
487.081	135.19
487.299	128.19
487.517	138.19
487.735	164.19
487.953	183.19
488.171	173.19
488.389	167.19
488.607	169.19
488.825	144.19
489.043	127.19
489.261	135.19
489.479	139.19
489.696	134.19
489.914	142.19
490.132	142.19
490.35	156.19
490.568	150.19
490.786	172.19
491.003	162.19
491.221	174.19
491.439	184.19
491.657	193.19
491.874	186.19
492.092	223.19
492.31	235.19
492.527	212.19
492.745	206.19
492.963	194.19
493.18	179.19
493.398	185.19
493.615	176.19
493.833	174.19
494.05	182.19
494.268	171.19
494.485	182.19
494.703	164.19
494.92	186.19
495.138	177.19
495.355	178.19
495.573	175.19
495.79	173.19
496.008	167.19
496.225	170.19
496.442	168.19
496.66	168.19
496.877	171.19
497.094	183.19
497.312	164.19
497.529	160.19
497.746	143.19
497.963	132.19
498.181	138.19
498.398	128.19
498.615	132.19
498.832	124.19
499.049	114.19
499.267	119.19
499.484	122.19
499.701	136.19
499.918	135.19
500.135	132.19
500.352	150.19
500.569	134.19
500.786	149.19
501.003	140.19
501.22	138.19
501.437	158.19
501.654	133.19
501.871	130.19
502.088	119.19
502.305	131.19
502.522	127.19
502.739	137.19
502.956	126.19
503.172	115.19
503.389	126.19
503.606	122.19
503.823	102.19
504.04	109.19
504.256	117.19
504.473	116.19
504.69	120.19
504.907	118.19
505.123	144.19
505.34	120.19
505.557	108.19
505.773	126.19
505.99	127.19
506.207	119.19
506.423	138.19
506.64	135.19
506.856	109.19
507.073	115.19
507.289	110.19
507.506	109.19
507.722	121.19
507.939	114.19
508.155	131.19
508.372	121.19
508.588	114.19
508.805	125.19
509.021	101.19
509.238	95.19
509.454	93.19
509.67	95.19
509.887	88.19
510.103	101.19
510.319	89.19
510.536	99.19
510.752	100.19
510.968	83.19
511.184	80.19
