Data from Location4.07152019.Energy5.Lamp.07192019.3%Agarose_HRD10591_16-19-37-925.txt Node
Date: Fri Jul 19 16:19:37 EDT 2019
User: cochatt
Spectrometer: HR+D1059
Trigger mode: 1
Integration Time (sec): 1.000000E-1
Scans to average: 1
Electric dark correction enabled: true
Nonlinearity correction enabled: false
Boxcar width: 0
XAxis mode: Wavelengths
Number of Pixels in Spectrum: 2048
>>>>>Begin Spectral Data<<<<<
223.165	-26.75
223.4	-26.75
223.635	-26.75
223.869	-24.75
224.104	-14.75
224.338	-2.75
224.573	-6.75
224.808	-7.75
225.042	-8.75
225.277	-16.75
225.511	-1.75
225.746	3.25
225.98	6.25
226.215	11.25
226.449	5.25
226.683	24.25
226.918	21.25
227.152	39.25
227.387	38.25
227.621	19.25
227.856	33.25
228.09	18.25
228.324	47.25
228.559	53.25
228.793	47.25
229.027	45.25
229.262	56.25
229.496	63.25
229.73	70.25
229.964	72.25
230.199	60.25
230.433	82.25
230.667	75.25
230.901	79.25
231.136	69.25
231.37	73.25
231.604	76.25
231.838	78.25
232.072	83.25
232.306	77.25
232.541	82.25
232.775	75.25
233.009	73.25
233.243	66.25
233.477	75.25
233.711	68.25
233.945	72.25
234.179	62.25
234.413	83.25
234.647	86.25
234.881	79.25
235.115	86.25
235.349	84.25
235.583	84.25
235.817	67.25
236.051	80.25
236.285	76.25
236.519	76.25
236.753	80.25
236.987	84.25
237.221	76.25
237.455	75.25
237.689	73.25
237.922	69.25
238.156	78.25
238.39	68.25
238.624	80.25
238.858	73.25
239.091	68.25
239.325	72.25
239.559	79.25
239.793	74.25
240.027	77.25
240.26	68.25
240.494	79.25
240.728	68.25
240.961	75.25
241.195	77.25
241.429	70.25
241.662	76.25
241.896	79.25
242.13	65.25
242.363	76.25
242.597	71.25
242.83	73.25
243.064	80.25
243.298	60.25
243.531	74.25
243.765	86.25
243.998	77.25
244.232	86.25
244.465	70.25
244.699	76.25
244.932	66.25
245.166	73.25
245.399	71.25
245.633	62.25
245.866	73.25
246.099	75.25
246.333	63.25
246.566	80.25
246.8	74.25
247.033	83.25
247.266	81.25
247.5	80.25
247.733	72.25
247.966	72.25
248.2	77.25
248.433	79.25
248.666	75.25
248.899	74.25
249.133	78.25
249.366	83.25
249.599	66.25
249.832	83.25
250.066	80.25
250.299	75.25
250.532	72.25
250.765	85.25
250.998	83.25
251.231	79.25
251.465	84.25
251.698	71.25
251.931	85.25
252.164	87.25
252.397	68.25
252.63	82.25
252.863	74.25
253.096	89.25
253.329	81.25
253.562	76.25
253.795	79.25
254.028	67.25
254.261	74.25
254.494	87.25
254.727	69.25
254.96	95.25
255.193	69.25
255.426	90.25
255.659	73.25
255.892	77.25
256.124	71.25
256.357	80.25
256.59	73.25
256.823	77.25
257.056	83.25
257.289	70.25
257.521	77.25
257.754	72.25
257.987	82.25
258.22	71.25
258.452	78.25
258.685	75.25
258.918	70.25
259.151	84.25
259.383	74.25
259.616	70.25
259.849	71.25
260.081	77.25
260.314	83.25
260.547	67.25
260.779	89.25
261.012	74.25
261.244	83.25
261.477	83.25
261.71	77.25
261.942	78.25
262.175	88.25
262.407	80.25
262.64	72.25
262.872	78.25
263.105	74.25
263.337	77.25
263.57	84.25
263.802	80.25
264.035	81.25
264.267	76.25
264.499	80.25
264.732	69.25
264.964	90.25
265.197	89.25
265.429	90.25
265.661	80.25
265.894	84.25
266.126	87.25
266.358	73.25
266.591	88.25
266.823	73.25
267.055	72.25
267.287	85.25
267.52	92.25
267.752	80.25
267.984	74.25
268.216	86.25
268.448	76.25
268.681	81.25
268.913	78.25
269.145	74.25
269.377	76.25
269.609	80.25
269.841	73.25
270.073	80.25
270.306	83.25
270.538	66.25
270.77	88.25
271.002	75.25
271.234	88.25
271.466	84.25
271.698	76.25
271.93	84.25
272.162	75.25
272.394	87.25
272.626	78.25
272.858	82.25
273.09	74.25
273.322	74.25
273.553	74.25
273.785	75.25
274.017	76.25
274.249	90.25
274.481	81.25
274.713	82.25
274.945	80.25
275.176	75.25
275.408	78.25
275.64	73.25
275.872	74.25
276.104	81.25
276.335	81.25
276.567	82.25
276.799	88.25
277.031	77.25
277.262	82.25
277.494	69.25
277.726	72.25
277.957	80.25
278.189	82.25
278.421	82.25
278.652	83.25
278.884	83.25
279.115	94.25
279.347	94.25
279.579	80.25
279.81	79.25
280.042	89.25
280.273	88.25
280.505	65.25
280.736	74.25
280.968	74.25
281.199	75.25
281.431	94.25
281.662	88.25
281.894	93.25
282.125	89.25
282.356	88.25
282.588	90.25
282.819	88.25
283.051	88.25
283.282	90.25
283.513	78.25
283.745	82.25
283.976	97.25
284.207	79.25
284.439	87.25
284.67	82.25
284.901	86.25
285.132	78.25
285.364	76.25
285.595	83.25
285.826	84.25
286.057	87.25
286.288	88.25
286.52	81.25
286.751	78.25
286.982	83.25
287.213	83.25
287.444	82.25
287.675	72.25
287.906	75.25
288.138	88.25
288.369	70.25
288.6	80.25
288.831	89.25
289.062	84.25
289.293	78.25
289.524	68.25
289.755	73.25
289.986	83.25
290.217	65.25
290.448	81.25
290.679	81.25
290.91	110.25
291.141	82.25
291.371	69.25
291.602	74.25
291.833	82.25
292.064	80.25
292.295	64.25
292.526	76.25
292.757	86.25
292.987	84.25
293.218	85.25
293.449	71.25
293.68	79.25
293.91	74.25
294.141	76.25
294.372	74.25
294.603	77.25
294.833	92.25
295.064	89.25
295.295	75.25
295.525	86.25
295.756	88.25
295.987	90.25
296.217	75.25
296.448	70.25
296.679	83.25
296.909	82.25
297.14	77.25
297.37	85.25
297.601	88.25
297.831	80.25
298.062	75.25
298.292	87.25
298.523	80.25
298.753	74.25
298.984	67.25
299.214	73.25
299.445	97.25
299.675	79.25
299.905	91.25
300.136	91.25
300.366	79.25
300.597	85.25
300.827	81.25
301.057	87.25
301.288	90.25
301.518	91.25
301.748	83.25
301.979	77.25
302.209	87.25
302.439	75.25
302.669	82.25
302.9	78.25
303.13	84.25
303.36	83.25
303.59	84.25
303.82	78.25
304.051	80.25
304.281	77.25
304.511	89.25
304.741	87.25
304.971	90.25
305.201	92.25
305.431	84.25
305.661	83.25
305.891	76.25
306.121	80.25
306.352	77.25
306.582	69.25
306.812	75.25
307.042	74.25
307.272	80.25
307.502	71.25
307.731	91.25
307.961	72.25
308.191	89.25
308.421	100.25
308.651	76.25
308.881	86.25
309.111	81.25
309.341	74.25
309.571	75.25
309.8	87.25
310.03	77.25
310.26	73.25
310.49	84.25
310.72	74.25
310.949	70.25
311.179	88.25
311.409	83.25
311.639	90.25
311.868	86.25
312.098	85.25
312.328	78.25
312.557	83.25
312.787	74.25
313.017	84.25
313.246	82.25
313.476	86.25
313.706	76.25
313.935	78.25
314.165	82.25
314.394	85.25
314.624	86.25
314.853	75.25
315.083	81.25
315.312	87.25
315.542	75.25
315.771	81.25
316.001	86.25
316.23	75.25
316.46	74.25
316.689	80.25
316.919	96.25
317.148	71.25
317.377	80.25
317.607	94.25
317.836	84.25
318.065	78.25
318.295	64.25
318.524	80.25
318.753	73.25
318.983	82.25
319.212	81.25
319.441	82.25
319.67	82.25
319.9	82.25
320.129	87.25
320.358	68.25
320.587	89.25
320.816	79.25
321.046	99.25
321.275	73.25
321.504	84.25
321.733	77.25
321.962	74.25
322.191	88.25
322.42	68.25
322.649	89.25
322.878	91.25
323.108	77.25
323.337	90.25
323.566	79.25
323.795	80.25
324.024	75.25
324.253	81.25
324.482	81.25
324.71	88.25
324.939	81.25
325.168	76.25
325.397	68.25
325.626	88.25
325.855	88.25
326.084	100.25
326.313	82.25
326.542	70.25
326.77	63.25
326.999	81.25
327.228	76.25
327.457	76.25
327.686	95.25
327.914	90.25
328.143	67.25
328.372	84.25
328.6	90.25
328.829	87.25
329.058	70.25
329.287	74.25
329.515	91.25
329.744	83.25
329.972	70.25
330.201	67.25
330.43	85.25
330.658	79.25
330.887	87.25
331.115	90.25
331.344	66.25
331.572	82.25
331.801	87.25
332.03	74.25
332.258	89.25
332.486	67.25
332.715	75.25
332.943	91.25
333.172	84.25
333.4	76.25
333.629	73.25
333.857	89.25
334.085	82.25
334.314	91.25
334.542	74.25
334.771	92.25
334.999	80.25
335.227	85.25
335.455	83.25
335.684	89.25
335.912	91.25
336.14	89.25
336.369	79.25
336.597	89.25
336.825	78.25
337.053	87.25
337.281	88.25
337.51	73.25
337.738	91.25
337.966	89.25
338.194	87.25
338.422	83.25
338.65	82.25
338.878	68.25
339.106	75.25
339.334	80.25
339.562	75.25
339.79	62.25
340.018	73.25
340.246	83.25
340.474	73.25
340.702	83.25
340.93	85.25
341.158	87.25
341.386	75.25
341.614	78.25
341.842	83.25
342.07	80.25
342.298	87.25
342.526	92.25
342.754	86.25
342.981	66.25
343.209	75.25
343.437	76.25
343.665	73.25
343.893	102.25
344.12	78.25
344.348	93.25
344.576	88.25
344.804	79.25
345.031	93.25
345.259	87.25
345.487	98.25
345.714	90.25
345.942	84.25
346.17	74.25
346.397	91.25
346.625	83.25
346.853	86.25
347.08	82.25
347.308	88.25
347.535	76.25
347.763	84.25
347.99	99.25
348.218	82.25
348.445	86.25
348.673	91.25
348.9	93.25
349.128	81.25
349.355	75.25
349.583	86.25
349.81	100.25
350.037	86.25
350.265	90.25
350.492	89.25
350.72	87.25
350.947	79.25
351.174	92.25
351.402	100.25
351.629	90.25
351.856	82.25
352.083	82.25
352.311	75.25
352.538	84.25
352.765	87.25
352.992	74.25
353.22	78.25
353.447	80.25
353.674	85.25
353.901	83.25
354.128	82.25
354.355	72.25
354.583	75.25
354.81	88.25
355.037	79.25
355.264	82.25
355.491	63.25
355.718	84.25
355.945	70.25
356.172	89.25
356.399	86.25
356.626	93.25
356.853	71.25
357.08	81.25
357.307	81.25
357.534	80.25
357.761	94.25
357.988	66.25
358.215	79.25
358.441	80.25
358.668	78.25
358.895	80.25
359.122	67.25
359.349	82.25
359.576	83.25
359.802	79.25
360.029	85.25
360.256	78.25
360.483	92.25
360.709	89.25
360.936	97.25
361.163	81.25
361.39	81.25
361.616	79.25
361.843	79.25
362.07	82.25
362.296	87.25
362.523	83.25
362.749	73.25
362.976	72.25
363.203	76.25
363.429	76.25
363.656	79.25
363.882	82.25
364.109	95.25
364.335	89.25
364.562	74.25
364.788	80.25
365.015	95.25
365.241	78.25
365.468	93.25
365.694	90.25
365.92	84.25
366.147	84.25
366.373	88.25
366.599	67.25
366.826	76.25
367.052	69.25
367.278	65.25
367.505	82.25
367.731	93.25
367.957	94.25
368.184	90.25
368.41	86.25
368.636	91.25
368.862	83.25
369.089	86.25
369.315	84.25
369.541	90.25
369.767	99.25
369.993	95.25
370.219	88.25
370.445	73.25
370.672	87.25
370.898	86.25
371.124	80.25
371.35	87.25
371.576	97.25
371.802	86.25
372.028	88.25
372.254	79.25
372.48	90.25
372.706	77.25
372.932	85.25
373.158	79.25
373.384	80.25
373.61	103.25
373.835	86.25
374.061	90.25
374.287	91.25
374.513	87.25
374.739	88.25
374.965	92.25
375.191	99.25
375.416	94.25
375.642	92.25
375.868	93.25
376.094	94.25
376.319	82.25
376.545	92.25
376.771	97.25
376.997	93.25
377.222	106.25
377.448	103.25
377.674	107.25
377.899	89.25
378.125	88.25
378.35	101.25
378.576	100.25
378.802	87.25
379.027	88.25
379.253	97.25
379.478	100.25
379.704	102.25
379.929	94.25
380.155	90.25
380.38	92.25
380.606	93.25
380.831	88.25
381.057	102.25
381.282	88.25
381.507	86.25
381.733	88.25
381.958	98.25
382.184	87.25
382.409	83.25
382.634	99.25
382.86	95.25
383.085	110.25
383.31	96.25
383.535	101.25
383.761	92.25
383.986	94.25
384.211	84.25
384.436	86.25
384.662	82.25
384.887	95.25
385.112	86.25
385.337	87.25
385.562	91.25
385.787	98.25
386.013	110.25
386.238	114.25
386.463	100.25
386.688	103.25
386.913	107.25
387.138	107.25
387.363	99.25
387.588	99.25
387.813	80.25
388.038	91.25
388.263	103.25
388.488	82.25
388.713	93.25
388.938	92.25
389.163	76.25
389.387	89.25
389.612	101.25
389.837	101.25
390.062	101.25
390.287	103.25
390.512	99.25
390.736	105.25
390.961	103.25
391.186	102.25
391.411	107.25
391.636	90.25
391.86	99.25
392.085	103.25
392.31	93.25
392.534	91.25
392.759	107.25
392.984	96.25
393.208	97.25
393.433	97.25
393.658	111.25
393.882	94.25
394.107	85.25
394.331	108.25
394.556	106.25
394.78	97.25
395.005	113.25
395.229	102.25
395.454	98.25
395.678	91.25
395.903	113.25
396.127	99.25
396.352	116.25
396.576	110.25
396.801	104.25
397.025	103.25
397.249	116.25
397.474	105.25
397.698	105.25
397.922	111.25
398.147	110.25
398.371	112.25
398.595	105.25
398.82	116.25
399.044	105.25
399.268	114.25
399.492	106.25
399.717	114.25
399.941	108.25
400.165	103.25
400.389	98.25
400.613	112.25
400.837	114.25
401.062	110.25
401.286	106.25
401.51	99.25
401.734	117.25
401.958	113.25
402.182	101.25
402.406	107.25
402.63	107.25
402.854	106.25
403.078	116.25
403.302	110.25
403.526	107.25
403.75	128.25
403.974	117.25
404.198	101.25
404.422	124.25
404.645	114.25
404.869	107.25
405.093	118.25
405.317	115.25
405.541	104.25
405.765	104.25
405.988	121.25
406.212	124.25
406.436	114.25
406.66	106.25
406.883	119.25
407.107	120.25
407.331	119.25
407.555	111.25
407.778	121.25
408.002	109.25
408.226	119.25
408.449	106.25
408.673	117.25
408.896	118.25
409.12	114.25
409.344	115.25
409.567	98.25
409.791	122.25
410.014	115.25
410.238	115.25
410.461	114.25
410.685	112.25
410.908	120.25
411.132	122.25
411.355	126.25
411.578	140.25
411.802	118.25
412.025	121.25
412.249	124.25
412.472	103.25
412.695	128.25
412.919	122.25
413.142	105.25
413.365	115.25
413.589	114.25
413.812	110.25
414.035	132.25
414.258	114.25
414.482	112.25
414.705	115.25
414.928	125.25
415.151	126.25
415.374	103.25
415.597	110.25
415.821	115.25
416.044	122.25
416.267	120.25
416.49	119.25
416.713	122.25
416.936	138.25
417.159	114.25
417.382	118.25
417.605	114.25
417.828	121.25
418.051	139.25
418.274	122.25
418.497	121.25
418.72	142.25
418.943	122.25
419.166	126.25
419.389	131.25
419.611	127.25
419.834	144.25
420.057	117.25
420.28	135.25
420.503	108.25
420.726	119.25
420.948	130.25
421.171	124.25
421.394	137.25
421.617	140.25
421.839	141.25
422.062	136.25
422.285	133.25
422.507	122.25
422.73	136.25
422.953	122.25
423.175	123.25
423.398	114.25
423.621	118.25
423.843	115.25
424.066	112.25
424.288	136.25
424.511	136.25
424.733	126.25
424.956	133.25
425.178	148.25
425.401	134.25
425.623	136.25
425.846	135.25
426.068	130.25
426.291	126.25
426.513	115.25
426.735	125.25
426.958	128.25
427.18	117.25
427.402	128.25
427.625	144.25
427.847	122.25
428.069	119.25
428.292	122.25
428.514	114.25
428.736	131.25
428.958	121.25
429.181	123.25
429.403	131.25
429.625	116.25
429.847	129.25
430.069	134.25
430.292	124.25
430.514	117.25
430.736	127.25
430.958	112.25
431.18	117.25
431.402	124.25
431.624	98.25
431.846	121.25
432.068	97.25
432.29	104.25
432.512	105.25
432.734	100.25
432.956	123.25
433.178	142.25
433.4	135.25
433.622	140.25
433.844	134.25
434.066	124.25
434.287	104.25
434.509	100.25
434.731	90.25
434.953	105.25
435.175	113.25
435.397	115.25
435.618	116.25
435.84	114.25
436.062	112.25
436.284	120.25
436.505	113.25
436.727	130.25
436.949	122.25
437.17	116.25
437.392	126.25
437.614	109.25
437.835	98.25
438.057	110.25
438.278	102.25
438.5	107.25
438.721	126.25
438.943	146.25
439.165	130.25
439.386	131.25
439.608	126.25
439.829	137.25
440.05	150.25
440.272	138.25
440.493	134.25
440.715	147.25
440.936	142.25
441.158	134.25
441.379	135.25
441.6	137.25
441.822	129.25
442.043	153.25
442.264	140.25
442.486	144.25
442.707	126.25
442.928	127.25
443.149	138.25
443.371	128.25
443.592	144.25
443.813	135.25
444.034	134.25
444.255	125.25
444.476	132.25
444.698	132.25
444.919	137.25
445.14	280.25
445.361	201.25
445.582	154.25
445.803	129.25
446.024	138.25
446.245	152.25
446.466	156.25
446.687	157.25
446.908	170.25
447.129	158.25
447.35	145.25
447.571	149.25
447.792	153.25
448.013	134.25
448.234	145.25
448.455	139.25
448.675	135.25
448.896	133.25
449.117	139.25
449.338	138.25
449.559	136.25
449.779	132.25
450	128.25
450.221	124.25
450.442	132.25
450.662	122.25
450.883	128.25
451.104	123.25
451.324	122.25
451.545	128.25
451.766	144.25
451.986	139.25
452.207	124.25
452.428	123.25
452.648	114.25
452.869	113.25
453.089	113.25
453.31	124.25
453.53	112.25
453.751	116.25
453.971	105.25
454.192	110.25
454.412	110.25
454.633	125.25
454.853	124.25
455.073	106.25
455.294	123.25
455.514	124.25
455.734	129.25
455.955	134.25
456.175	115.25
456.395	124.25
456.616	122.25
456.836	118.25
457.056	112.25
457.276	106.25
457.497	117.25
457.717	109.25
457.937	97.25
458.157	107.25
458.377	107.25
458.598	89.25
458.818	80.25
459.038	83.25
459.258	96.25
459.478	82.25
459.698	101.25
459.918	102.25
460.138	112.25
460.358	122.25
460.578	114.25
460.798	112.25
461.018	118.25
461.238	115.25
461.458	119.25
461.678	119.25
461.898	116.25
462.118	122.25
462.338	114.25
462.558	114.25
462.777	110.25
462.997	132.25
463.217	103.25
463.437	107.25
463.657	106.25
463.876	112.25
464.096	110.25
464.316	103.25
464.536	104.25
464.755	103.25
464.975	111.25
465.195	111.25
465.414	126.25
465.634	113.25
465.854	110.25
466.073	113.25
466.293	131.25
466.512	122.25
466.732	120.25
466.951	137.25
467.171	132.25
467.391	128.25
467.61	125.25
467.829	112.25
468.049	129.25
468.268	128.25
468.488	133.25
468.707	144.25
468.927	138.25
469.146	128.25
469.365	147.25
469.585	127.25
469.804	140.25
470.023	139.25
470.243	139.25
470.462	139.25
470.681	131.25
470.901	134.25
471.12	144.25
471.339	142.25
471.558	130.25
471.777	134.25
471.997	143.25
472.216	131.25
472.435	114.25
472.654	103.25
472.873	104.25
473.092	107.25
473.311	120.25
473.53	124.25
473.749	127.25
473.968	122.25
474.187	131.25
474.406	109.25
474.625	116.25
474.844	145.25
475.063	125.25
475.282	118.25
475.501	132.25
475.72	120.25
475.939	122.25
476.158	127.25
476.377	121.25
476.596	124.25
476.814	114.25
477.033	102.25
477.252	111.25
477.471	135.25
477.69	138.25
477.908	127.25
478.127	146.25
478.346	134.25
478.564	127.25
478.783	113.25
479.002	122.25
479.22	125.25
479.439	131.25
479.658	130.25
479.876	102.25
480.095	103.25
480.313	98.25
480.532	123.25
480.751	101.25
480.969	92.25
481.188	97.25
481.406	87.25
481.624	90.25
481.843	80.25
482.061	96.25
482.28	116.25
482.498	110.25
482.717	123.25
482.935	111.25
483.153	133.25
483.372	147.25
483.59	150.25
483.808	144.25
484.027	119.25
484.245	126.25
484.463	154.25
484.681	154.25
484.9	152.25
485.118	128.25
485.336	132.25
485.554	117.25
485.772	102.25
485.99	112.25
486.209	103.25
486.427	110.25
486.645	114.25
486.863	134.25
487.081	129.25
487.299	124.25
487.517	140.25
487.735	175.25
487.953	181.25
488.171	171.25
488.389	166.25
488.607	150.25
488.825	138.25
489.043	119.25
489.261	144.25
489.479	148.25
489.696	124.25
489.914	145.25
490.132	139.25
490.35	141.25
490.568	162.25
490.786	158.25
491.003	153.25
491.221	164.25
491.439	163.25
491.657	173.25
491.874	189.25
492.092	214.25
492.31	225.25
492.527	214.25
492.745	191.25
492.963	194.25
493.18	176.25
493.398	175.25
493.615	176.25
493.833	186.25
494.05	179.25
494.268	166.25
494.485	192.25
494.703	164.25
494.92	170.25
495.138	158.25
495.355	167.25
495.573	169.25
495.79	175.25
496.008	156.25
496.225	144.25
496.442	149.25
496.66	174.25
496.877	140.25
497.094	143.25
497.312	164.25
497.529	147.25
497.746	152.25
497.963	145.25
498.181	135.25
498.398	117.25
498.615	122.25
498.832	104.25
499.049	104.25
499.267	125.25
499.484	115.25
499.701	136.25
499.918	128.25
500.135	119.25
500.352	137.25
500.569	124.25
500.786	132.25
501.003	139.25
501.22	127.25
501.437	130.25
501.654	130.25
501.871	140.25
502.088	125.25
502.305	128.25
502.522	123.25
502.739	127.25
502.956	117.25
503.172	122.25
503.389	108.25
503.606	103.25
503.823	131.25
504.04	120.25
504.256	114.25
504.473	116.25
504.69	123.25
504.907	123.25
505.123	106.25
505.34	126.25
505.557	113.25
505.773	112.25
505.99	118.25
506.207	117.25
506.423	107.25
506.64	110.25
506.856	114.25
507.073	120.25
507.289	119.25
507.506	126.25
507.722	113.25
507.939	121.25
508.155	106.25
508.372	97.25
508.588	106.25
508.805	98.25
509.021	103.25
509.238	104.25
509.454	113.25
509.67	85.25
509.887	101.25
510.103	89.25
510.319	81.25
510.536	95.25
510.752	90.25
510.968	81.25
511.184	90.25
511.401	88.25
511.617	91.25
511.833	80.25
