Data from Location4.07152019.Energy5.Lamp.07192019.3%Agarose_HRD10591_16-19-36-925.txt Node
Date: Fri Jul 19 16:19:36 EDT 2019
User: cochatt
Spectrometer: HR+D1059
Trigger mode: 1
Integration Time (sec): 1.000000E-1
Scans to average: 1
Electric dark correction enabled: true
Nonlinearity correction enabled: false
Boxcar width: 0
XAxis mode: Wavelengths
Number of Pixels in Spectrum: 2048
>>>>>Begin Spectral Data<<<<<
223.165	-8
223.4	-8
223.635	-8
223.869	-20
224.104	-28
224.338	-14
224.573	-6
224.808	2
225.042	-12
225.277	-5
225.511	-15
225.746	12
225.98	6
226.215	13
226.449	10
226.683	18
226.918	15
227.152	32
227.387	30
227.621	45
227.856	46
228.09	49
228.324	49
228.559	63
228.793	73
229.027	47
229.262	58
229.496	55
229.73	74
229.964	66
230.199	77
230.433	76
230.667	72
230.901	76
231.136	76
231.37	69
231.604	70
231.838	60
232.072	60
232.306	93
232.541	76
232.775	87
233.009	88
233.243	85
233.477	80
233.711	90
233.945	90
234.179	82
234.413	82
234.647	82
234.881	85
235.115	81
235.349	78
235.583	91
235.817	69
236.051	85
236.285	80
236.519	86
236.753	71
236.987	73
237.221	76
237.455	66
237.689	84
237.922	77
238.156	65
238.39	56
238.624	82
238.858	78
239.091	63
239.325	71
239.559	76
239.793	74
240.027	73
240.26	87
240.494	93
240.728	82
240.961	71
241.195	76
241.429	71
241.662	65
241.896	56
242.13	67
242.363	69
242.597	72
242.83	75
243.064	83
243.298	79
243.531	77
243.765	75
243.998	76
244.232	90
244.465	87
244.699	90
244.932	79
245.166	75
245.399	73
245.633	87
245.866	67
246.099	88
246.333	81
246.566	64
246.8	77
247.033	68
247.266	78
247.5	69
247.733	75
247.966	85
248.2	76
248.433	77
248.666	77
248.899	81
249.133	85
249.366	70
249.599	70
249.832	79
250.066	67
250.299	73
250.532	80
250.765	82
250.998	82
251.231	74
251.465	86
251.698	82
251.931	71
252.164	68
252.397	98
252.63	74
252.863	70
253.096	74
253.329	76
253.562	71
253.795	71
254.028	76
254.261	78
254.494	86
254.727	68
254.96	72
255.193	73
255.426	69
255.659	87
255.892	79
256.124	76
256.357	58
256.59	91
256.823	93
257.056	78
257.289	79
257.521	86
257.754	82
257.987	79
258.22	90
258.452	95
258.685	76
258.918	84
259.151	90
259.383	71
259.616	90
259.849	82
260.081	81
260.314	82
260.547	89
260.779	92
261.012	88
261.244	68
261.477	89
261.71	87
261.942	79
262.175	88
262.407	80
262.64	81
262.872	97
263.105	78
263.337	87
263.57	77
263.802	78
264.035	81
264.267	66
264.499	73
264.732	77
264.964	82
265.197	89
265.429	76
265.661	87
265.894	80
266.126	94
266.358	87
266.591	82
266.823	86
267.055	85
267.287	91
267.52	85
267.752	80
267.984	83
268.216	92
268.448	80
268.681	95
268.913	86
269.145	94
269.377	55
269.609	89
269.841	85
270.073	91
270.306	88
270.538	64
270.77	95
271.002	75
271.234	72
271.466	91
271.698	87
271.93	83
272.162	81
272.394	92
272.626	82
272.858	77
273.09	78
273.322	67
273.553	74
273.785	78
274.017	88
274.249	97
274.481	73
274.713	83
274.945	83
275.176	74
275.408	90
275.64	80
275.872	86
276.104	91
276.335	78
276.567	77
276.799	92
277.031	85
277.262	82
277.494	76
277.726	98
277.957	76
278.189	81
278.421	72
278.652	84
278.884	70
279.115	86
279.347	86
279.579	91
279.81	91
280.042	97
280.273	76
280.505	86
280.736	87
280.968	90
281.199	91
281.431	86
281.662	87
281.894	72
282.125	74
282.356	75
282.588	70
282.819	83
283.051	87
283.282	74
283.513	83
283.745	89
283.976	81
284.207	84
284.439	75
284.67	89
284.901	91
285.132	87
285.364	87
285.595	82
285.826	73
286.057	85
286.288	78
286.52	72
286.751	81
286.982	70
287.213	85
287.444	97
287.675	85
287.906	72
288.138	87
288.369	81
288.6	85
288.831	95
289.062	68
289.293	67
289.524	61
289.755	83
289.986	81
290.217	94
290.448	88
290.679	86
290.91	90
291.141	98
291.371	67
291.602	84
291.833	92
292.064	74
292.295	81
292.526	86
292.757	83
292.987	76
293.218	81
293.449	82
293.68	86
293.91	76
294.141	86
294.372	81
294.603	85
294.833	97
295.064	89
295.295	78
295.525	93
295.756	72
295.987	86
296.217	76
296.448	94
296.679	75
296.909	85
297.14	82
297.37	75
297.601	99
297.831	83
298.062	91
298.292	84
298.523	82
298.753	80
298.984	81
299.214	88
299.445	84
299.675	91
299.905	88
300.136	84
300.366	94
300.597	86
300.827	80
301.057	75
301.288	81
301.518	84
301.748	92
301.979	75
302.209	86
302.439	91
302.669	74
302.9	74
303.13	79
303.36	81
303.59	79
303.82	86
304.051	71
304.281	100
304.511	82
304.741	104
304.971	73
305.201	72
305.431	87
305.661	76
305.891	84
306.121	78
306.352	79
306.582	78
306.812	91
307.042	94
307.272	82
307.502	96
307.731	74
307.961	88
308.191	79
308.421	81
308.651	84
308.881	91
309.111	102
309.341	89
309.571	88
309.8	91
310.03	82
310.26	83
310.49	66
310.72	84
310.949	74
311.179	85
311.409	89
311.639	90
311.868	80
312.098	80
312.328	81
312.557	90
312.787	82
313.017	94
313.246	80
313.476	81
313.706	76
313.935	85
314.165	77
314.394	93
314.624	84
314.853	80
315.083	76
315.312	83
315.542	88
315.771	90
316.001	79
316.23	81
316.46	80
316.689	76
316.919	74
317.148	82
317.377	86
317.607	92
317.836	77
318.065	77
318.295	81
318.524	84
318.753	62
318.983	65
319.212	61
319.441	76
319.67	81
319.9	80
320.129	91
320.358	87
320.587	81
320.816	72
321.046	92
321.275	87
321.504	78
321.733	86
321.962	89
322.191	82
322.42	95
322.649	95
322.878	83
323.108	88
323.337	91
323.566	74
323.795	92
324.024	75
324.253	78
324.482	75
324.71	97
324.939	86
325.168	102
325.397	89
325.626	90
325.855	100
326.084	101
326.313	90
326.542	94
326.77	82
326.999	82
327.228	90
327.457	88
327.686	84
327.914	98
328.143	88
328.372	79
328.6	75
328.829	92
329.058	78
329.287	82
329.515	102
329.744	88
329.972	100
330.201	76
330.43	88
330.658	73
330.887	84
331.115	84
331.344	84
331.572	98
331.801	86
332.03	94
332.258	89
332.486	84
332.715	72
332.943	84
333.172	83
333.4	94
333.629	94
333.857	65
334.085	88
334.314	87
334.542	82
334.771	100
334.999	76
335.227	92
335.455	86
335.684	94
335.912	93
336.14	74
336.369	90
336.597	80
336.825	74
337.053	72
337.281	70
337.51	77
337.738	92
337.966	86
338.194	84
338.422	95
338.65	87
338.878	87
339.106	70
339.334	85
339.562	84
339.79	72
340.018	90
340.246	78
340.474	73
340.702	89
340.93	92
341.158	82
341.386	88
341.614	89
341.842	80
342.07	71
342.298	81
342.526	84
342.754	83
342.981	84
343.209	84
343.437	79
343.665	65
343.893	69
344.12	84
344.348	76
344.576	81
344.804	82
345.031	92
345.259	94
345.487	87
345.714	92
345.942	82
346.17	86
346.397	87
346.625	96
346.853	88
347.08	95
347.308	72
347.535	97
347.763	84
347.99	91
348.218	79
348.445	63
348.673	83
348.9	90
349.128	106
349.355	83
349.583	83
349.81	87
350.037	99
350.265	84
350.492	106
350.72	92
350.947	75
351.174	86
351.402	84
351.629	93
351.856	87
352.083	83
352.311	78
352.538	80
352.765	80
352.992	79
353.22	92
353.447	97
353.674	83
353.901	96
354.128	95
354.355	95
354.583	84
354.81	86
355.037	96
355.264	87
355.491	79
355.718	89
355.945	82
356.172	80
356.399	73
356.626	82
356.853	76
357.08	79
357.307	94
357.534	78
357.761	82
357.988	93
358.215	86
358.441	93
358.668	83
358.895	77
359.122	84
359.349	87
359.576	75
359.802	83
360.029	82
360.256	80
360.483	92
360.709	81
360.936	92
361.163	82
361.39	63
361.616	76
361.843	72
362.07	79
362.296	86
362.523	89
362.749	82
362.976	80
363.203	81
363.429	87
363.656	80
363.882	90
364.109	85
364.335	99
364.562	87
364.788	97
365.015	77
365.241	91
365.468	90
365.694	92
365.92	86
366.147	94
366.373	86
366.599	82
366.826	86
367.052	84
367.278	90
367.505	90
367.731	87
367.957	85
368.184	86
368.41	86
368.636	91
368.862	98
369.089	89
369.315	83
369.541	95
369.767	105
369.993	100
370.219	99
370.445	68
370.672	93
370.898	94
371.124	77
371.35	92
371.576	83
371.802	91
372.028	103
372.254	87
372.48	84
372.706	96
372.932	97
373.158	87
373.384	98
373.61	87
373.835	88
374.061	97
374.287	88
374.513	94
374.739	99
374.965	87
375.191	85
375.416	72
375.642	98
375.868	95
376.094	106
376.319	87
376.545	94
376.771	86
376.997	95
377.222	105
377.448	90
377.674	88
377.899	93
378.125	92
378.35	80
378.576	96
378.802	93
379.027	92
379.253	96
379.478	96
379.704	86
379.929	87
380.155	96
380.38	100
380.606	100
380.831	80
381.057	91
381.282	109
381.507	103
381.733	112
381.958	104
382.184	103
382.409	87
382.634	90
382.86	94
383.085	107
383.31	89
383.535	94
383.761	103
383.986	115
384.211	107
384.436	98
384.662	94
384.887	93
385.112	114
385.337	112
385.562	97
385.787	105
386.013	93
386.238	101
386.463	96
386.688	88
386.913	100
387.138	96
387.363	97
387.588	101
387.813	104
388.038	103
388.263	89
388.488	98
388.713	85
388.938	81
389.163	92
389.387	110
389.612	96
389.837	88
390.062	98
390.287	98
390.512	96
390.736	102
390.961	105
391.186	114
391.411	94
391.636	93
391.86	97
392.085	98
392.31	105
392.534	103
392.759	106
392.984	97
393.208	107
393.433	104
393.658	109
393.882	97
394.107	110
394.331	113
394.556	103
394.78	100
395.005	95
395.229	82
395.454	89
395.678	101
395.903	115
396.127	94
396.352	94
396.576	106
396.801	117
397.025	107
397.249	102
397.474	122
397.698	103
397.922	114
398.147	100
398.371	95
398.595	88
398.82	113
399.044	107
399.268	112
399.492	114
399.717	108
399.941	113
400.165	102
400.389	114
400.613	108
400.837	118
401.062	100
401.286	110
401.51	111
401.734	90
401.958	99
402.182	99
402.406	107
402.63	118
402.854	126
403.078	103
403.302	112
403.526	107
403.75	110
403.974	107
404.198	97
404.422	119
404.645	102
404.869	121
405.093	116
405.317	108
405.541	115
405.765	98
405.988	104
406.212	118
406.436	106
406.66	122
406.883	122
407.107	123
407.331	117
407.555	122
407.778	118
408.002	106
408.226	115
408.449	119
408.673	122
408.896	119
409.12	119
409.344	113
409.567	120
409.791	118
410.014	125
410.238	131
410.461	117
410.685	142
410.908	120
411.132	117
411.355	120
411.578	118
411.802	119
412.025	116
412.249	113
412.472	120
412.695	119
412.919	111
413.142	107
413.365	104
413.589	106
413.812	104
414.035	112
414.258	130
414.482	121
414.705	94
414.928	124
415.151	123
415.374	131
415.597	111
415.821	112
416.044	133
416.267	120
416.49	131
416.713	126
416.936	114
417.159	117
417.382	122
417.605	123
417.828	120
418.051	117
418.274	118
418.497	147
418.72	128
418.943	124
419.166	127
419.389	107
419.611	119
419.834	125
420.057	134
420.28	133
420.503	116
420.726	122
420.948	126
421.171	136
421.394	137
421.617	126
421.839	154
422.062	142
422.285	133
422.507	131
422.73	125
422.953	124
423.175	120
423.398	110
423.621	127
423.843	101
424.066	128
424.288	133
424.511	132
424.733	130
424.956	147
425.178	134
425.401	145
425.623	141
425.846	130
426.068	113
426.291	121
426.513	136
426.735	124
426.958	137
427.18	119
427.402	126
427.625	123
427.847	125
428.069	126
428.292	123
428.514	115
428.736	125
428.958	126
429.181	134
429.403	135
429.625	137
429.847	124
430.069	124
430.292	130
430.514	124
430.736	116
430.958	125
431.18	120
431.402	117
431.624	119
431.846	111
432.068	85
432.29	90
432.512	103
432.734	113
432.956	129
433.178	127
433.4	140
433.622	140
433.844	127
434.066	115
434.287	107
434.509	97
434.731	92
434.953	118
435.175	120
435.397	127
435.618	119
435.84	107
436.062	105
436.284	117
436.505	123
436.727	119
436.949	144
437.17	128
437.392	111
437.614	111
437.835	95
438.057	111
438.278	128
438.5	121
438.721	137
438.943	153
439.165	135
439.386	130
439.608	132
439.829	135
440.05	115
440.272	139
440.493	147
440.715	137
440.936	139
441.158	147
441.379	146
441.6	138
441.822	128
442.043	142
442.264	130
442.486	144
442.707	138
442.928	130
443.149	131
443.371	116
443.592	134
443.813	127
444.034	141
444.255	133
444.476	126
444.698	136
444.919	142
445.14	261
445.361	202
445.582	146
445.803	156
446.024	139
446.245	146
446.466	132
446.687	169
446.908	150
447.129	160
447.35	152
447.571	159
447.792	147
448.013	131
448.234	145
448.455	132
448.675	134
448.896	157
449.117	133
449.338	129
449.559	131
449.779	133
450	123
450.221	135
450.442	131
450.662	131
450.883	131
451.104	138
451.324	119
451.545	119
451.766	122
451.986	123
452.207	118
452.428	119
452.648	115
452.869	120
453.089	120
453.31	104
453.53	118
453.751	106
453.971	101
454.192	106
454.412	118
454.633	111
454.853	130
455.073	122
455.294	120
455.514	124
455.734	123
455.955	117
456.175	120
456.395	120
456.616	113
456.836	130
457.056	130
457.276	106
457.497	103
457.717	117
457.937	126
458.157	110
458.377	115
458.598	119
458.818	102
459.038	95
459.258	89
459.478	86
459.698	82
459.918	90
460.138	107
460.358	111
460.578	121
460.798	123
461.018	116
461.238	122
461.458	111
461.678	99
461.898	116
462.118	111
462.338	113
462.558	119
462.777	120
462.997	99
463.217	102
463.437	105
463.657	108
463.876	98
464.096	94
464.316	96
464.536	98
464.755	128
464.975	128
465.195	107
465.414	120
465.634	124
465.854	122
466.073	113
466.293	118
466.512	115
466.732	139
466.951	121
467.171	139
467.391	141
467.61	126
467.829	126
468.049	133
468.268	127
468.488	112
468.707	128
468.927	130
469.146	122
469.365	130
469.585	131
469.804	118
470.023	140
470.243	124
470.462	147
470.681	146
470.901	128
471.12	142
471.339	146
471.558	128
471.777	137
471.997	146
472.216	143
472.435	126
472.654	115
472.873	127
473.092	108
473.311	134
473.53	130
473.749	127
473.968	123
474.187	98
474.406	119
474.625	109
474.844	134
475.063	142
475.282	121
475.501	105
475.72	120
475.939	129
476.158	124
476.377	137
476.596	118
476.814	114
477.033	109
477.252	110
477.471	108
477.69	135
477.908	138
478.127	141
478.346	118
478.564	124
478.783	131
479.002	140
479.22	131
479.439	132
479.658	130
479.876	118
480.095	113
480.313	118
480.532	113
480.751	104
480.969	90
481.188	106
481.406	94
481.624	86
481.843	75
482.061	92
482.28	115
482.498	116
482.717	98
482.935	110
483.153	160
483.372	133
483.59	128
483.808	142
484.027	142
484.245	135
484.463	142
484.681	161
484.9	146
485.118	140
485.336	130
485.554	102
485.772	102
485.99	91
486.209	97
486.427	96
486.645	119
486.863	144
487.081	150
487.299	131
487.517	162
487.735	178
487.953	178
488.171	185
488.389	177
488.607	160
488.825	146
489.043	121
489.261	138
489.479	130
489.696	143
489.914	146
490.132	134
490.35	145
490.568	169
490.786	150
491.003	189
491.221	171
491.439	176
491.657	178
491.874	198
492.092	198
492.31	244
492.527	214
492.745	189
492.963	190
493.18	189
493.398	163
493.615	179
493.833	168
494.05	164
494.268	171
494.485	175
494.703	158
494.92	172
495.138	162
495.355	174
495.573	163
495.79	166
496.008	169
496.225	168
496.442	162
496.66	160
496.877	161
497.094	166
497.312	171
497.529	158
497.746	148
497.963	116
498.181	118
498.398	118
498.615	125
498.832	128
499.049	113
499.267	115
499.484	118
499.701	130
499.918	129
500.135	130
500.352	140
500.569	138
500.786	141
501.003	143
501.22	138
501.437	133
501.654	136
501.871	118
502.088	125
502.305	121
502.522	129
502.739	123
502.956	125
503.172	121
503.389	116
503.606	104
503.823	123
504.04	116
504.256	119
504.473	114
504.69	114
504.907	124
505.123	118
505.34	117
505.557	115
505.773	119
505.99	124
506.207	113
506.423	114
506.64	131
506.856	115
507.073	106
507.289	120
507.506	103
507.722	106
507.939	107
508.155	118
508.372	110
508.588	110
508.805	107
509.021	98
509.238	116
509.454	111
509.67	89
509.887	107
510.103	100
510.319	102
510.536	87
510.752	95
510.968	88
511.184	92
511.401	79
511.617	91
511.833	88
512.049	93
512.265	104
512.481	117
512.698	86
512.914	86
513.13	87
513.346	75
513.562	105
513.778	98
513.994	84
514.21	91
514.426	90
514.642	80
514.858	77
515.074	83
515.29	86
515.506	91
515.721	78
515.937	90
516.153	81
516.369	82
516.585	80
516.801	80
517.016	91
517.232	90
517.448	97
517.664	89
517.879	84
518.095	101
518.311	96
518.527	94
518.742	101
518.958	114
519.173	106
519.389	106
519.605	115
519.82	96
520.036	113
520.251	100
520.467	108
520.682	108
520.898	97
521.113	90
521.329	92
521.544	73
521.76	85
521.975	103
522.19	81
522.406	84
522.621	90
522.836	103
523.052	103
523.267	111
523.482	110
523.698	103
523.913	110
524.128	113
524.343	101
524.559	120
524.774	129
524.989	122
525.204	113
525.419	99
525.634	116
525.849	113
526.064	106
526.28	117
526.495	80
526.71	88
526.925	79
527.14	91
527.355	95
527.57	79
527.785	79
527.999	82
528.214	115
528.429	115
528.644	112
528.859	134
529.074	130
529.289	159
529.503	159
529.718	129
529.933	125
530.148	101
530.363	96
530.577	88
530.792	92
531.007	74
531.221	80
531.436	79
531.651	79
531.865	83
532.08	72
532.295	82
532.509	80
532.724	85
532.938	85
533.153	106
533.367	117
533.582	132
533.796	105
534.011	106
534.225	102
534.44	85
534.654	81
534.868	88
535.083	98
535.297	90
535.511	99
535.726	109
535.94	116
536.154	97
536.369	88
536.583	66
536.797	94
537.011	96
537.225	81
537.44	82
537.654	93
537.868	104
538.082	99
538.296	85
538.51	114
538.724	108
538.938	116
539.153	118
539.367	122
539.581	103
539.795	110
540.009	93
540.222	91
540.436	115
540.65	102
540.864	123
541.078	138
541.292	144
541.506	146
541.72	174
541.934	173
542.147	201
542.361	178
542.575	179
542.789	159
543.002	150
543.216	123
543.43	128
543.644	131
543.857	148
544.071	162
544.285	181
544.498	155
544.712	155
544.925	150
545.139	156
545.352	164
545.566	158
545.779	176
545.993	171
546.206	152
546.42	177
546.633	164
546.847	151
547.06	156
547.274	176
547.487	171
547.7	182
547.914	176
548.127	166
548.34	152
548.554	138
548.767	133
548.98	154
549.193	158
549.407	143
549.62	148
549.833	148
550.046	150
550.259	137
550.473	140
550.686	147
550.899	153
551.112	129
551.325	126
551.538	130
551.751	121
551.964	131
552.177	133
552.39	126
552.603	129
552.816	152
553.029	148
553.242	153
553.455	156
553.667	154
553.88	152
554.093	159
554.306	136
554.519	138
554.732	135
554.944	148
555.157	135
555.37	137
555.583	140
555.795	150
556.008	144
556.221	131
556.433	146
556.646	127
556.859	141
557.071	140
557.284	115
557.496	131
557.709	141
557.921	142
558.134	131
558.346	140
558.559	145
558.771	147
558.984	138
559.196	128
559.409	120
559.621	123
559.833	118
560.046	115
560.258	117
560.47	137
560.683	133
560.895	126
561.107	132
561.32	126
561.532	128
561.744	135
561.956	149
562.168	138
562.381	129
562.593	133
562.805	121
563.017	137
563.229	133
563.441	122
563.653	128
563.865	117
564.077	116
564.289	114
564.501	116
564.713	131
564.925	122
565.137	130
565.349	118
565.561	129
565.773	110
565.985	125
566.197	121
566.408	123
566.62	138
566.832	115
567.044	105
567.255	114
567.467	126
567.679	117
567.891	106
568.102	88
568.314	92
568.526	88
568.737	92
568.949	87
569.161	83
569.372	81
569.584	99
569.795	86
570.007	97
570.218	86
570.43	95
570.641	99
570.853	96
571.064	121
571.276	109
571.487	113
571.698	94
571.91	102
572.121	98
572.333	97
572.544	101
572.755	97
572.966	87
573.178	88
573.389	87
573.6	88
573.811	90
574.023	87
574.234	82
574.445	82
574.656	84
574.867	86
575.078	91
575.289	106
575.501	76
575.712	88
575.923	74
576.134	96
576.345	103
576.556	107
576.767	88
576.978	87
577.188	104
577.399	97
