Data from Location4.07152019.Energy5.Lamp.07192019.3%Agarose_HRD10591_16-19-05-926.txt Node
Date: Fri Jul 19 16:19:05 EDT 2019
User: cochatt
Spectrometer: HR+D1059
Trigger mode: 1
Integration Time (sec): 1.000000E-1
Scans to average: 1
Electric dark correction enabled: true
Nonlinearity correction enabled: false
Boxcar width: 0
XAxis mode: Wavelengths
Number of Pixels in Spectrum: 2048
>>>>>Begin Spectral Data<<<<<
223.165	-11.44
223.4	-11.44
223.635	-11.44
223.869	-14.44
224.104	-25.44
224.338	-25.44
224.573	-19.44
224.808	-3.44
225.042	0.56
225.277	4.56
225.511	-18.44
225.746	20.56
225.98	19.56
226.215	9.56
226.449	14.56
226.683	10.56
226.918	18.56
227.152	19.56
227.387	20.56
227.621	51.56
227.856	47.56
228.09	44.56
228.324	46.56
228.559	34.56
228.793	48.56
229.027	50.56
229.262	63.56
229.496	55.56
229.73	66.56
229.964	69.56
230.199	71.56
230.433	66.56
230.667	75.56
230.901	76.56
231.136	80.56
231.37	77.56
231.604	83.56
231.838	80.56
232.072	79.56
232.306	66.56
232.541	68.56
232.775	84.56
233.009	81.56
233.243	71.56
233.477	68.56
233.711	77.56
233.945	70.56
234.179	78.56
234.413	75.56
234.647	65.56
234.881	77.56
235.115	84.56
235.349	72.56
235.583	74.56
235.817	65.56
236.051	77.56
236.285	64.56
236.519	67.56
236.753	72.56
236.987	70.56
237.221	78.56
237.455	82.56
237.689	85.56
237.922	66.56
238.156	70.56
238.39	65.56
238.624	68.56
238.858	76.56
239.091	66.56
239.325	84.56
239.559	76.56
239.793	79.56
240.027	70.56
240.26	86.56
240.494	74.56
240.728	66.56
240.961	57.56
241.195	73.56
241.429	85.56
241.662	69.56
241.896	68.56
242.13	77.56
242.363	73.56
242.597	72.56
242.83	64.56
243.064	74.56
243.298	82.56
243.531	67.56
243.765	77.56
243.998	78.56
244.232	83.56
244.465	66.56
244.699	72.56
244.932	74.56
245.166	74.56
245.399	73.56
245.633	71.56
245.866	73.56
246.099	72.56
246.333	81.56
246.566	57.56
246.8	79.56
247.033	67.56
247.266	80.56
247.5	64.56
247.733	70.56
247.966	71.56
248.2	69.56
248.433	63.56
248.666	79.56
248.899	69.56
249.133	71.56
249.366	87.56
249.599	68.56
249.832	73.56
250.066	78.56
250.299	80.56
250.532	93.56
250.765	74.56
250.998	86.56
251.231	82.56
251.465	65.56
251.698	63.56
251.931	83.56
252.164	75.56
252.397	72.56
252.63	80.56
252.863	60.56
253.096	77.56
253.329	82.56
253.562	74.56
253.795	80.56
254.028	63.56
254.261	64.56
254.494	72.56
254.727	82.56
254.96	77.56
255.193	74.56
255.426	86.56
255.659	72.56
255.892	77.56
256.124	69.56
256.357	86.56
256.59	75.56
256.823	81.56
257.056	73.56
257.289	84.56
257.521	92.56
257.754	79.56
257.987	73.56
258.22	81.56
258.452	69.56
258.685	58.56
258.918	68.56
259.151	80.56
259.383	72.56
259.616	73.56
259.849	86.56
260.081	87.56
260.314	79.56
260.547	81.56
260.779	72.56
261.012	78.56
261.244	66.56
261.477	89.56
261.71	76.56
261.942	68.56
262.175	67.56
262.407	98.56
262.64	78.56
262.872	82.56
263.105	79.56
263.337	71.56
263.57	71.56
263.802	60.56
264.035	86.56
264.267	77.56
264.499	81.56
264.732	86.56
264.964	80.56
265.197	72.56
265.429	79.56
265.661	80.56
265.894	86.56
266.126	85.56
266.358	90.56
266.591	78.56
266.823	76.56
267.055	76.56
267.287	74.56
267.52	69.56
267.752	74.56
267.984	86.56
268.216	82.56
268.448	78.56
268.681	67.56
268.913	80.56
269.145	81.56
269.377	82.56
269.609	86.56
269.841	82.56
270.073	92.56
270.306	84.56
270.538	80.56
270.77	73.56
271.002	77.56
271.234	77.56
271.466	71.56
271.698	78.56
271.93	82.56
272.162	84.56
272.394	82.56
272.626	87.56
272.858	80.56
273.09	92.56
273.322	74.56
273.553	76.56
273.785	83.56
274.017	76.56
274.249	91.56
274.481	75.56
274.713	91.56
274.945	87.56
275.176	95.56
275.408	85.56
275.64	82.56
275.872	93.56
276.104	89.56
276.335	99.56
276.567	86.56
276.799	81.56
277.031	66.56
277.262	71.56
277.494	87.56
277.726	88.56
277.957	88.56
278.189	80.56
278.421	86.56
278.652	86.56
278.884	82.56
279.115	82.56
279.347	74.56
279.579	82.56
279.81	67.56
280.042	95.56
280.273	92.56
280.505	85.56
280.736	75.56
280.968	89.56
281.199	90.56
281.431	72.56
281.662	66.56
281.894	82.56
282.125	92.56
282.356	67.56
282.588	84.56
282.819	82.56
283.051	82.56
283.282	79.56
283.513	77.56
283.745	74.56
283.976	68.56
284.207	84.56
284.439	88.56
284.67	80.56
284.901	82.56
285.132	79.56
285.364	74.56
285.595	84.56
285.826	76.56
286.057	84.56
286.288	73.56
286.52	81.56
286.751	75.56
286.982	74.56
287.213	78.56
287.444	78.56
287.675	89.56
287.906	81.56
288.138	77.56
288.369	83.56
288.6	78.56
288.831	76.56
289.062	86.56
289.293	85.56
289.524	92.56
289.755	74.56
289.986	78.56
290.217	75.56
290.448	84.56
290.679	83.56
290.91	84.56
291.141	82.56
291.371	87.56
291.602	78.56
291.833	89.56
292.064	81.56
292.295	77.56
292.526	81.56
292.757	82.56
292.987	77.56
293.218	67.56
293.449	83.56
293.68	88.56
293.91	90.56
294.141	95.56
294.372	94.56
294.603	81.56
294.833	78.56
295.064	95.56
295.295	85.56
295.525	88.56
295.756	73.56
295.987	77.56
296.217	73.56
296.448	85.56
296.679	80.56
296.909	90.56
297.14	88.56
297.37	78.56
297.601	93.56
297.831	79.56
298.062	76.56
298.292	71.56
298.523	83.56
298.753	68.56
298.984	71.56
299.214	80.56
299.445	79.56
299.675	66.56
299.905	77.56
300.136	80.56
300.366	82.56
300.597	71.56
300.827	73.56
301.057	92.56
301.288	78.56
301.518	82.56
301.748	84.56
301.979	67.56
302.209	79.56
302.439	78.56
302.669	82.56
302.9	92.56
303.13	76.56
303.36	74.56
303.59	74.56
303.82	89.56
304.051	83.56
304.281	75.56
304.511	75.56
304.741	90.56
304.971	80.56
305.201	87.56
305.431	85.56
305.661	84.56
305.891	84.56
306.121	80.56
306.352	75.56
306.582	90.56
306.812	76.56
307.042	87.56
307.272	81.56
307.502	70.56
307.731	71.56
307.961	80.56
308.191	74.56
308.421	70.56
308.651	79.56
308.881	76.56
309.111	87.56
309.341	94.56
309.571	73.56
309.8	76.56
310.03	94.56
310.26	84.56
310.49	78.56
310.72	76.56
310.949	71.56
311.179	65.56
311.409	96.56
311.639	84.56
311.868	67.56
312.098	81.56
312.328	86.56
312.557	79.56
312.787	77.56
313.017	72.56
313.246	81.56
313.476	89.56
313.706	83.56
313.935	75.56
314.165	73.56
314.394	81.56
314.624	73.56
314.853	88.56
315.083	78.56
315.312	78.56
315.542	74.56
315.771	73.56
316.001	95.56
316.23	77.56
316.46	65.56
316.689	96.56
316.919	63.56
317.148	76.56
317.377	82.56
317.607	78.56
317.836	68.56
318.065	78.56
318.295	76.56
318.524	77.56
318.753	81.56
318.983	80.56
319.212	83.56
319.441	82.56
319.67	78.56
319.9	76.56
320.129	78.56
320.358	71.56
320.587	79.56
320.816	74.56
321.046	80.56
321.275	83.56
321.504	67.56
321.733	81.56
321.962	91.56
322.191	81.56
322.42	82.56
322.649	84.56
322.878	77.56
323.108	78.56
323.337	81.56
323.566	77.56
323.795	87.56
324.024	77.56
324.253	86.56
324.482	67.56
324.71	76.56
324.939	83.56
325.168	84.56
325.397	74.56
325.626	84.56
325.855	88.56
326.084	69.56
326.313	76.56
326.542	72.56
326.77	78.56
326.999	81.56
327.228	70.56
327.457	68.56
327.686	92.56
327.914	84.56
328.143	93.56
328.372	89.56
328.6	82.56
328.829	96.56
329.058	74.56
329.287	74.56
329.515	73.56
329.744	79.56
329.972	91.56
330.201	87.56
330.43	81.56
330.658	77.56
330.887	60.56
331.115	84.56
331.344	81.56
331.572	80.56
331.801	84.56
332.03	63.56
332.258	71.56
332.486	85.56
332.715	71.56
332.943	77.56
333.172	82.56
333.4	80.56
333.629	66.56
333.857	82.56
334.085	63.56
334.314	73.56
334.542	95.56
334.771	65.56
334.999	70.56
335.227	78.56
335.455	94.56
335.684	85.56
335.912	81.56
336.14	81.56
336.369	84.56
336.597	83.56
336.825	73.56
337.053	83.56
337.281	90.56
337.51	98.56
337.738	80.56
337.966	77.56
338.194	80.56
338.422	89.56
338.65	65.56
338.878	91.56
339.106	82.56
339.334	82.56
339.562	80.56
339.79	81.56
340.018	82.56
340.246	83.56
340.474	85.56
340.702	82.56
340.93	87.56
341.158	86.56
341.386	77.56
341.614	92.56
341.842	79.56
342.07	71.56
342.298	81.56
342.526	72.56
342.754	80.56
342.981	76.56
343.209	68.56
343.437	82.56
343.665	90.56
343.893	73.56
344.12	86.56
344.348	82.56
344.576	75.56
344.804	97.56
345.031	75.56
345.259	77.56
345.487	73.56
345.714	83.56
345.942	84.56
346.17	89.56
346.397	84.56
346.625	80.56
346.853	86.56
347.08	89.56
347.308	79.56
347.535	89.56
347.763	93.56
347.99	81.56
348.218	84.56
348.445	87.56
348.673	86.56
348.9	85.56
349.128	91.56
349.355	89.56
349.583	94.56
349.81	62.56
350.037	81.56
350.265	89.56
350.492	84.56
350.72	76.56
350.947	80.56
351.174	86.56
351.402	82.56
351.629	88.56
351.856	78.56
352.083	69.56
352.311	71.56
352.538	97.56
352.765	86.56
352.992	62.56
353.22	63.56
353.447	88.56
353.674	86.56
353.901	71.56
354.128	75.56
354.355	75.56
354.583	76.56
354.81	74.56
355.037	88.56
355.264	81.56
355.491	73.56
355.718	68.56
355.945	78.56
356.172	85.56
356.399	67.56
356.626	83.56
356.853	74.56
357.08	77.56
357.307	78.56
357.534	70.56
357.761	81.56
357.988	81.56
358.215	88.56
358.441	76.56
358.668	68.56
358.895	78.56
359.122	85.56
359.349	72.56
359.576	85.56
359.802	76.56
360.029	86.56
360.256	77.56
360.483	71.56
360.709	76.56
360.936	71.56
361.163	79.56
361.39	79.56
361.616	74.56
361.843	69.56
362.07	75.56
362.296	80.56
362.523	75.56
362.749	92.56
362.976	67.56
363.203	79.56
363.429	87.56
363.656	97.56
363.882	70.56
364.109	80.56
364.335	82.56
364.562	88.56
364.788	74.56
365.015	78.56
365.241	80.56
365.468	77.56
365.694	89.56
365.92	68.56
366.147	73.56
366.373	95.56
366.599	90.56
366.826	88.56
367.052	79.56
367.278	83.56
367.505	77.56
367.731	99.56
367.957	78.56
368.184	88.56
368.41	83.56
368.636	85.56
368.862	77.56
369.089	85.56
369.315	76.56
369.541	79.56
369.767	85.56
369.993	84.56
370.219	84.56
370.445	89.56
370.672	89.56
370.898	86.56
371.124	88.56
371.35	83.56
371.576	81.56
371.802	73.56
372.028	77.56
372.254	86.56
372.48	84.56
372.706	89.56
372.932	87.56
373.158	86.56
373.384	89.56
373.61	89.56
373.835	82.56
374.061	90.56
374.287	85.56
374.513	86.56
374.739	87.56
374.965	90.56
375.191	83.56
375.416	85.56
375.642	93.56
375.868	86.56
376.094	72.56
376.319	89.56
376.545	91.56
376.771	98.56
376.997	74.56
377.222	84.56
377.448	106.56
377.674	86.56
377.899	72.56
378.125	91.56
378.35	97.56
378.576	90.56
378.802	85.56
379.027	93.56
379.253	95.56
379.478	83.56
379.704	89.56
379.929	91.56
380.155	99.56
380.38	86.56
380.606	88.56
380.831	96.56
381.057	100.56
381.282	92.56
381.507	90.56
381.733	101.56
381.958	88.56
382.184	100.56
382.409	98.56
382.634	97.56
382.86	95.56
383.085	106.56
383.31	84.56
383.535	84.56
383.761	91.56
383.986	100.56
384.211	106.56
384.436	100.56
384.662	84.56
384.887	95.56
385.112	89.56
385.337	96.56
385.562	84.56
385.787	98.56
386.013	105.56
386.238	99.56
386.463	91.56
386.688	93.56
386.913	105.56
387.138	86.56
387.363	90.56
387.588	98.56
387.813	100.56
388.038	101.56
388.263	101.56
388.488	92.56
388.713	96.56
388.938	101.56
389.163	105.56
389.387	97.56
389.612	97.56
389.837	96.56
390.062	102.56
390.287	89.56
390.512	103.56
390.736	104.56
390.961	103.56
391.186	88.56
391.411	101.56
391.636	92.56
391.86	88.56
392.085	97.56
392.31	102.56
392.534	92.56
392.759	96.56
392.984	93.56
393.208	98.56
393.433	99.56
393.658	92.56
393.882	103.56
394.107	90.56
394.331	93.56
394.556	100.56
394.78	103.56
395.005	103.56
395.229	93.56
395.454	111.56
395.678	88.56
395.903	106.56
396.127	106.56
396.352	103.56
396.576	112.56
396.801	108.56
397.025	101.56
397.249	94.56
397.474	95.56
397.698	112.56
397.922	99.56
398.147	92.56
398.371	91.56
398.595	109.56
398.82	120.56
399.044	108.56
399.268	106.56
399.492	105.56
399.717	109.56
399.941	108.56
400.165	92.56
400.389	95.56
400.613	114.56
400.837	103.56
401.062	83.56
401.286	108.56
401.51	100.56
401.734	107.56
401.958	105.56
402.182	108.56
402.406	104.56
402.63	128.56
402.854	100.56
403.078	109.56
403.302	110.56
403.526	123.56
403.75	113.56
403.974	117.56
404.198	113.56
404.422	109.56
404.645	112.56
404.869	101.56
405.093	97.56
405.317	102.56
405.541	118.56
405.765	110.56
405.988	108.56
406.212	96.56
406.436	124.56
406.66	106.56
406.883	106.56
407.107	109.56
407.331	106.56
407.555	105.56
407.778	112.56
408.002	112.56
408.226	100.56
408.449	113.56
408.673	112.56
408.896	119.56
409.12	120.56
409.344	119.56
409.567	114.56
409.791	128.56
410.014	105.56
410.238	118.56
410.461	112.56
410.685	99.56
410.908	122.56
411.132	125.56
411.355	124.56
411.578	111.56
411.802	122.56
412.025	113.56
412.249	123.56
412.472	120.56
412.695	120.56
412.919	124.56
413.142	130.56
413.365	109.56
413.589	128.56
413.812	138.56
414.035	118.56
414.258	115.56
414.482	118.56
414.705	122.56
414.928	121.56
415.151	124.56
415.374	115.56
415.597	133.56
415.821	118.56
416.044	125.56
416.267	106.56
416.49	118.56
416.713	125.56
416.936	122.56
417.159	116.56
417.382	123.56
417.605	116.56
417.828	124.56
418.051	132.56
418.274	114.56
418.497	128.56
418.72	119.56
418.943	125.56
419.166	116.56
419.389	120.56
419.611	125.56
419.834	124.56
420.057	137.56
420.28	129.56
420.503	120.56
420.726	122.56
420.948	112.56
421.171	118.56
421.394	122.56
421.617	128.56
421.839	136.56
422.062	142.56
422.285	115.56
422.507	127.56
422.73	124.56
422.953	118.56
423.175	115.56
423.398	110.56
423.621	119.56
423.843	128.56
424.066	117.56
424.288	132.56
424.511	138.56
424.733	131.56
424.956	122.56
425.178	120.56
425.401	129.56
425.623	138.56
425.846	126.56
426.068	128.56
426.291	120.56
426.513	116.56
426.735	123.56
426.958	115.56
427.18	130.56
427.402	112.56
427.625	129.56
427.847	127.56
428.069	133.56
428.292	118.56
428.514	142.56
428.736	122.56
428.958	119.56
429.181	110.56
429.403	118.56
429.625	130.56
429.847	124.56
430.069	122.56
430.292	123.56
430.514	111.56
430.736	111.56
430.958	127.56
431.18	131.56
431.402	123.56
431.624	110.56
431.846	110.56
432.068	96.56
432.29	87.56
432.512	108.56
432.734	122.56
432.956	121.56
433.178	135.56
433.4	142.56
433.622	140.56
433.844	119.56
434.066	116.56
434.287	102.56
434.509	93.56
434.731	93.56
434.953	105.56
435.175	96.56
435.397	126.56
435.618	114.56
435.84	102.56
436.062	116.56
436.284	136.56
436.505	128.56
436.727	125.56
436.949	112.56
437.17	134.56
437.392	120.56
437.614	130.56
437.835	106.56
438.057	118.56
438.278	110.56
438.5	122.56
438.721	124.56
438.943	132.56
439.165	129.56
439.386	133.56
439.608	127.56
439.829	133.56
440.05	138.56
440.272	128.56
440.493	148.56
440.715	135.56
440.936	133.56
441.158	128.56
441.379	127.56
441.6	140.56
441.822	155.56
442.043	136.56
442.264	119.56
442.486	145.56
442.707	125.56
442.928	128.56
443.149	118.56
443.371	142.56
443.592	128.56
443.813	132.56
444.034	134.56
444.255	137.56
444.476	136.56
444.698	141.56
444.919	137.56
445.14	274.56
445.361	202.56
445.582	137.56
445.803	139.56
446.024	137.56
446.245	142.56
446.466	160.56
446.687	144.56
446.908	161.56
447.129	152.56
447.35	145.56
447.571	145.56
447.792	129.56
448.013	136.56
448.234	134.56
448.455	130.56
448.675	129.56
448.896	137.56
449.117	138.56
449.338	130.56
449.559	123.56
449.779	125.56
450	129.56
450.221	126.56
450.442	129.56
450.662	134.56
450.883	125.56
451.104	136.56
451.324	130.56
451.545	133.56
451.766	125.56
451.986	119.56
452.207	127.56
452.428	111.56
452.648	123.56
452.869	105.56
453.089	111.56
453.31	105.56
453.53	99.56
453.751	94.56
453.971	98.56
454.192	94.56
454.412	105.56
454.633	101.56
454.853	103.56
455.073	105.56
455.294	124.56
455.514	120.56
455.734	99.56
455.955	94.56
456.175	120.56
456.395	105.56
456.616	99.56
456.836	92.56
457.056	99.56
457.276	80.56
457.497	110.56
457.717	108.56
457.937	115.56
458.157	88.56
458.377	96.56
458.598	110.56
458.818	94.56
459.038	94.56
459.258	83.56
459.478	84.56
459.698	91.56
459.918	94.56
460.138	109.56
460.358	106.56
460.578	112.56
460.798	114.56
461.018	105.56
461.238	121.56
461.458	120.56
461.678	110.56
461.898	127.56
462.118	116.56
462.338	110.56
462.558	98.56
462.777	101.56
462.997	99.56
463.217	93.56
463.437	86.56
463.657	88.56
463.876	113.56
464.096	114.56
464.316	100.56
464.536	101.56
464.755	107.56
464.975	109.56
465.195	112.56
465.414	125.56
465.634	109.56
465.854	111.56
466.073	118.56
466.293	124.56
466.512	114.56
466.732	127.56
466.951	121.56
467.171	113.56
467.391	115.56
467.61	122.56
467.829	130.56
468.049	142.56
468.268	117.56
468.488	135.56
468.707	134.56
468.927	124.56
469.146	120.56
469.365	124.56
469.585	133.56
469.804	142.56
470.023	120.56
470.243	134.56
470.462	138.56
470.681	139.56
470.901	128.56
471.12	132.56
471.339	124.56
471.558	137.56
471.777	131.56
471.997	138.56
472.216	130.56
472.435	119.56
472.654	111.56
472.873	98.56
473.092	104.56
473.311	112.56
473.53	114.56
473.749	132.56
473.968	138.56
474.187	125.56
474.406	118.56
474.625	130.56
474.844	126.56
475.063	124.56
475.282	135.56
475.501	102.56
475.72	124.56
475.939	117.56
476.158	108.56
476.377	127.56
476.596	115.56
476.814	111.56
477.033	112.56
477.252	119.56
477.471	129.56
477.69	120.56
477.908	140.56
478.127	135.56
478.346	154.56
478.564	120.56
478.783	120.56
479.002	135.56
479.22	139.56
479.439	128.56
479.658	118.56
479.876	118.56
480.095	108.56
480.313	102.56
480.532	111.56
480.751	105.56
480.969	91.56
481.188	97.56
481.406	73.56
481.624	79.56
481.843	99.56
482.061	89.56
482.28	110.56
482.498	102.56
482.717	113.56
482.935	120.56
483.153	132.56
483.372	139.56
483.59	127.56
483.808	132.56
484.027	135.56
484.245	129.56
484.463	159.56
484.681	147.56
484.9	140.56
485.118	139.56
485.336	127.56
485.554	100.56
485.772	97.56
485.99	111.56
486.209	97.56
486.427	115.56
486.645	120.56
486.863	130.56
487.081	130.56
487.299	135.56
487.517	135.56
487.735	152.56
487.953	182.56
488.171	181.56
488.389	163.56
488.607	138.56
488.825	124.56
489.043	119.56
489.261	120.56
489.479	143.56
489.696	146.56
489.914	144.56
490.132	150.56
490.35	154.56
490.568	165.56
490.786	145.56
491.003	175.56
491.221	174.56
491.439	182.56
491.657	199.56
491.874	197.56
492.092	213.56
492.31	233.56
492.527	240.56
492.745	208.56
492.963	194.56
493.18	182.56
493.398	174.56
493.615	170.56
493.833	155.56
494.05	158.56
494.268	167.56
494.485	170.56
494.703	165.56
494.92	151.56
495.138	158.56
495.355	165.56
495.573	170.56
495.79	166.56
496.008	158.56
496.225	176.56
496.442	167.56
496.66	158.56
496.877	150.56
497.094	153.56
497.312	147.56
497.529	154.56
497.746	149.56
497.963	134.56
498.181	136.56
498.398	112.56
498.615	111.56
498.832	99.56
499.049	109.56
499.267	111.56
499.484	121.56
499.701	128.56
499.918	139.56
500.135	147.56
500.352	142.56
500.569	130.56
500.786	142.56
501.003	115.56
501.22	136.56
501.437	132.56
501.654	119.56
501.871	122.56
502.088	121.56
502.305	133.56
502.522	117.56
502.739	122.56
502.956	102.56
503.172	112.56
503.389	122.56
503.606	123.56
503.823	116.56
504.04	118.56
504.256	110.56
504.473	121.56
504.69	113.56
504.907	113.56
505.123	110.56
505.34	127.56
505.557	124.56
505.773	114.56
505.99	118.56
506.207	112.56
506.423	110.56
506.64	122.56
506.856	105.56
507.073	118.56
507.289	112.56
507.506	118.56
507.722	113.56
507.939	106.56
508.155	114.56
508.372	129.56
508.588	109.56
508.805	116.56
509.021	98.56
509.238	94.56
509.454	98.56
509.67	105.56
509.887	101.56
510.103	88.56
510.319	94.56
510.536	98.56
510.752	82.56
510.968	96.56
511.184	71.56
511.401	82.56
511.617	89.56
511.833	79.56
512.049	91.56
512.265	76.56
512.481	98.56
