Data from Location4.07152019.Energy5.Lamp.07192019.3%Agarose_HRD10591_16-19-16-926.txt Node
Date: Fri Jul 19 16:19:16 EDT 2019
User: cochatt
Spectrometer: HR+D1059
Trigger mode: 1
Integration Time (sec): 1.000000E-1
Scans to average: 1
Electric dark correction enabled: true
Nonlinearity correction enabled: false
Boxcar width: 0
XAxis mode: Wavelengths
Number of Pixels in Spectrum: 2048
>>>>>Begin Spectral Data<<<<<
223.165	-23.44
223.4	-23.44
223.635	-23.44
223.869	-13.44
224.104	-14.44
224.338	-15.44
224.573	2.56
224.808	-28.44
225.042	-15.44
225.277	-17.44
225.511	-0.44
225.746	3.56
225.98	14.56
226.215	16.56
226.449	2.56
226.683	31.56
226.918	28.56
227.152	28.56
227.387	32.56
227.621	26.56
227.856	32.56
228.09	46.56
228.324	46.56
228.559	61.56
228.793	58.56
229.027	57.56
229.262	68.56
229.496	79.56
229.73	62.56
229.964	69.56
230.199	70.56
230.433	59.56
230.667	80.56
230.901	79.56
231.136	84.56
231.37	80.56
231.604	77.56
231.838	74.56
232.072	74.56
232.306	85.56
232.541	79.56
232.775	79.56
233.009	76.56
233.243	93.56
233.477	79.56
233.711	86.56
233.945	83.56
234.179	77.56
234.413	78.56
234.647	67.56
234.881	77.56
235.115	79.56
235.349	76.56
235.583	90.56
235.817	79.56
236.051	82.56
236.285	81.56
236.519	72.56
236.753	77.56
236.987	73.56
237.221	71.56
237.455	75.56
237.689	66.56
237.922	72.56
238.156	72.56
238.39	69.56
238.624	59.56
238.858	68.56
239.091	67.56
239.325	59.56
239.559	62.56
239.793	68.56
240.027	86.56
240.26	66.56
240.494	65.56
240.728	62.56
240.961	71.56
241.195	80.56
241.429	80.56
241.662	80.56
241.896	72.56
242.13	84.56
242.363	74.56
242.597	64.56
242.83	63.56
243.064	65.56
243.298	65.56
243.531	89.56
243.765	82.56
243.998	82.56
244.232	89.56
244.465	86.56
244.699	78.56
244.932	66.56
245.166	67.56
245.399	72.56
245.633	73.56
245.866	73.56
246.099	76.56
246.333	78.56
246.566	63.56
246.8	88.56
247.033	70.56
247.266	65.56
247.5	66.56
247.733	80.56
247.966	70.56
248.2	75.56
248.433	72.56
248.666	69.56
248.899	76.56
249.133	83.56
249.366	75.56
249.599	75.56
249.832	66.56
250.066	97.56
250.299	74.56
250.532	82.56
250.765	72.56
250.998	80.56
251.231	78.56
251.465	80.56
251.698	87.56
251.931	73.56
252.164	79.56
252.397	90.56
252.63	83.56
252.863	76.56
253.096	98.56
253.329	74.56
253.562	83.56
253.795	72.56
254.028	82.56
254.261	78.56
254.494	75.56
254.727	76.56
254.96	65.56
255.193	73.56
255.426	62.56
255.659	79.56
255.892	76.56
256.124	82.56
256.357	90.56
256.59	78.56
256.823	64.56
257.056	85.56
257.289	84.56
257.521	81.56
257.754	83.56
257.987	76.56
258.22	87.56
258.452	88.56
258.685	83.56
258.918	77.56
259.151	86.56
259.383	68.56
259.616	88.56
259.849	83.56
260.081	77.56
260.314	82.56
260.547	70.56
260.779	85.56
261.012	84.56
261.244	94.56
261.477	86.56
261.71	64.56
261.942	70.56
262.175	83.56
262.407	82.56
262.64	89.56
262.872	96.56
263.105	83.56
263.337	66.56
263.57	67.56
263.802	89.56
264.035	75.56
264.267	79.56
264.499	73.56
264.732	76.56
264.964	82.56
265.197	69.56
265.429	74.56
265.661	86.56
265.894	76.56
266.126	80.56
266.358	74.56
266.591	83.56
266.823	82.56
267.055	78.56
267.287	88.56
267.52	79.56
267.752	91.56
267.984	79.56
268.216	79.56
268.448	84.56
268.681	82.56
268.913	87.56
269.145	77.56
269.377	92.56
269.609	77.56
269.841	80.56
270.073	79.56
270.306	77.56
270.538	88.56
270.77	80.56
271.002	90.56
271.234	81.56
271.466	71.56
271.698	83.56
271.93	84.56
272.162	92.56
272.394	74.56
272.626	82.56
272.858	81.56
273.09	74.56
273.322	87.56
273.553	80.56
273.785	81.56
274.017	69.56
274.249	86.56
274.481	83.56
274.713	69.56
274.945	75.56
275.176	76.56
275.408	65.56
275.64	75.56
275.872	76.56
276.104	75.56
276.335	80.56
276.567	76.56
276.799	85.56
277.031	86.56
277.262	92.56
277.494	81.56
277.726	82.56
277.957	81.56
278.189	83.56
278.421	79.56
278.652	94.56
278.884	87.56
279.115	83.56
279.347	68.56
279.579	90.56
279.81	83.56
280.042	68.56
280.273	76.56
280.505	70.56
280.736	72.56
280.968	80.56
281.199	74.56
281.431	85.56
281.662	76.56
281.894	84.56
282.125	82.56
282.356	82.56
282.588	72.56
282.819	66.56
283.051	70.56
283.282	72.56
283.513	83.56
283.745	75.56
283.976	78.56
284.207	100.56
284.439	82.56
284.67	94.56
284.901	73.56
285.132	74.56
285.364	76.56
285.595	73.56
285.826	79.56
286.057	64.56
286.288	82.56
286.52	101.56
286.751	94.56
286.982	82.56
287.213	85.56
287.444	82.56
287.675	90.56
287.906	72.56
288.138	77.56
288.369	76.56
288.6	78.56
288.831	87.56
289.062	84.56
289.293	98.56
289.524	86.56
289.755	83.56
289.986	82.56
290.217	82.56
290.448	67.56
290.679	95.56
290.91	83.56
291.141	79.56
291.371	66.56
291.602	82.56
291.833	82.56
292.064	83.56
292.295	67.56
292.526	76.56
292.757	84.56
292.987	87.56
293.218	80.56
293.449	73.56
293.68	88.56
293.91	80.56
294.141	79.56
294.372	76.56
294.603	80.56
294.833	81.56
295.064	82.56
295.295	84.56
295.525	77.56
295.756	83.56
295.987	86.56
296.217	82.56
296.448	86.56
296.679	91.56
296.909	94.56
297.14	70.56
297.37	77.56
297.601	81.56
297.831	80.56
298.062	71.56
298.292	89.56
298.523	95.56
298.753	81.56
298.984	81.56
299.214	72.56
299.445	83.56
299.675	71.56
299.905	82.56
300.136	65.56
300.366	87.56
300.597	82.56
300.827	88.56
301.057	97.56
301.288	78.56
301.518	88.56
301.748	91.56
301.979	85.56
302.209	96.56
302.439	94.56
302.669	90.56
302.9	86.56
303.13	91.56
303.36	82.56
303.59	85.56
303.82	86.56
304.051	95.56
304.281	90.56
304.511	93.56
304.741	80.56
304.971	90.56
305.201	115.56
305.431	107.56
305.661	83.56
305.891	76.56
306.121	80.56
306.352	76.56
306.582	84.56
306.812	88.56
307.042	81.56
307.272	85.56
307.502	73.56
307.731	84.56
307.961	86.56
308.191	80.56
308.421	79.56
308.651	80.56
308.881	81.56
309.111	88.56
309.341	95.56
309.571	77.56
309.8	60.56
310.03	81.56
310.26	80.56
310.49	97.56
310.72	72.56
310.949	87.56
311.179	77.56
311.409	82.56
311.639	94.56
311.868	91.56
312.098	77.56
312.328	79.56
312.557	82.56
312.787	83.56
313.017	95.56
313.246	89.56
313.476	86.56
313.706	97.56
313.935	93.56
314.165	94.56
314.394	86.56
314.624	68.56
314.853	92.56
315.083	63.56
315.312	77.56
315.542	74.56
315.771	84.56
316.001	79.56
316.23	86.56
316.46	88.56
316.689	98.56
316.919	75.56
317.148	90.56
317.377	91.56
317.607	102.56
317.836	71.56
318.065	86.56
318.295	95.56
318.524	83.56
318.753	76.56
318.983	93.56
319.212	88.56
319.441	92.56
319.67	78.56
319.9	96.56
320.129	75.56
320.358	77.56
320.587	78.56
320.816	92.56
321.046	86.56
321.275	78.56
321.504	86.56
321.733	82.56
321.962	92.56
322.191	88.56
322.42	98.56
322.649	78.56
322.878	82.56
323.108	91.56
323.337	68.56
323.566	87.56
323.795	82.56
324.024	88.56
324.253	73.56
324.482	68.56
324.71	85.56
324.939	92.56
325.168	84.56
325.397	83.56
325.626	82.56
325.855	82.56
326.084	80.56
326.313	86.56
326.542	72.56
326.77	70.56
326.999	80.56
327.228	99.56
327.457	76.56
327.686	81.56
327.914	81.56
328.143	94.56
328.372	86.56
328.6	85.56
328.829	72.56
329.058	85.56
329.287	84.56
329.515	79.56
329.744	68.56
329.972	87.56
330.201	75.56
330.43	75.56
330.658	91.56
330.887	71.56
331.115	73.56
331.344	95.56
331.572	86.56
331.801	87.56
332.03	84.56
332.258	77.56
332.486	77.56
332.715	86.56
332.943	89.56
333.172	88.56
333.4	87.56
333.629	88.56
333.857	89.56
334.085	68.56
334.314	95.56
334.542	98.56
334.771	76.56
334.999	67.56
335.227	88.56
335.455	83.56
335.684	77.56
335.912	83.56
336.14	80.56
336.369	82.56
336.597	81.56
336.825	85.56
337.053	90.56
337.281	78.56
337.51	87.56
337.738	91.56
337.966	81.56
338.194	100.56
338.422	93.56
338.65	83.56
338.878	72.56
339.106	70.56
339.334	80.56
339.562	76.56
339.79	81.56
340.018	69.56
340.246	86.56
340.474	73.56
340.702	79.56
340.93	86.56
341.158	73.56
341.386	90.56
341.614	85.56
341.842	93.56
342.07	74.56
342.298	80.56
342.526	97.56
342.754	94.56
342.981	83.56
343.209	78.56
343.437	90.56
343.665	87.56
343.893	78.56
344.12	81.56
344.348	88.56
344.576	80.56
344.804	86.56
345.031	92.56
345.259	94.56
345.487	88.56
345.714	78.56
345.942	80.56
346.17	87.56
346.397	84.56
346.625	92.56
346.853	83.56
347.08	81.56
347.308	73.56
347.535	85.56
347.763	76.56
347.99	86.56
348.218	97.56
348.445	82.56
348.673	99.56
348.9	86.56
349.128	74.56
349.355	90.56
349.583	77.56
349.81	85.56
350.037	81.56
350.265	87.56
350.492	74.56
350.72	101.56
350.947	106.56
351.174	87.56
351.402	83.56
351.629	75.56
351.856	75.56
352.083	91.56
352.311	72.56
352.538	92.56
352.765	88.56
352.992	82.56
353.22	80.56
353.447	72.56
353.674	67.56
353.901	84.56
354.128	81.56
354.355	80.56
354.583	74.56
354.81	71.56
355.037	86.56
355.264	79.56
355.491	90.56
355.718	66.56
355.945	86.56
356.172	84.56
356.399	81.56
356.626	98.56
356.853	91.56
357.08	79.56
357.307	76.56
357.534	91.56
357.761	86.56
357.988	86.56
358.215	97.56
358.441	81.56
358.668	93.56
358.895	86.56
359.122	82.56
359.349	78.56
359.576	80.56
359.802	79.56
360.029	78.56
360.256	89.56
360.483	81.56
360.709	82.56
360.936	96.56
361.163	83.56
361.39	74.56
361.616	94.56
361.843	89.56
362.07	80.56
362.296	75.56
362.523	83.56
362.749	76.56
362.976	86.56
363.203	94.56
363.429	92.56
363.656	94.56
363.882	88.56
364.109	92.56
364.335	73.56
364.562	102.56
364.788	66.56
365.015	100.56
365.241	101.56
365.468	78.56
365.694	86.56
365.92	81.56
366.147	78.56
366.373	79.56
366.599	85.56
366.826	81.56
367.052	85.56
367.278	87.56
367.505	90.56
367.731	78.56
367.957	87.56
368.184	93.56
368.41	73.56
368.636	85.56
368.862	89.56
369.089	87.56
369.315	82.56
369.541	87.56
369.767	91.56
369.993	76.56
370.219	84.56
370.445	87.56
370.672	90.56
370.898	80.56
371.124	84.56
371.35	73.56
371.576	92.56
371.802	84.56
372.028	97.56
372.254	87.56
372.48	91.56
372.706	93.56
372.932	88.56
373.158	103.56
373.384	77.56
373.61	75.56
373.835	99.56
374.061	87.56
374.287	83.56
374.513	92.56
374.739	79.56
374.965	102.56
375.191	105.56
375.416	99.56
375.642	103.56
375.868	93.56
376.094	89.56
376.319	96.56
376.545	79.56
376.771	100.56
376.997	96.56
377.222	98.56
377.448	100.56
377.674	87.56
377.899	97.56
378.125	102.56
378.35	80.56
378.576	84.56
378.802	92.56
379.027	101.56
379.253	104.56
379.478	98.56
379.704	93.56
379.929	101.56
380.155	97.56
380.38	92.56
380.606	76.56
380.831	91.56
381.057	93.56
381.282	101.56
381.507	106.56
381.733	89.56
381.958	95.56
382.184	91.56
382.409	96.56
382.634	74.56
382.86	95.56
383.085	109.56
383.31	94.56
383.535	97.56
383.761	93.56
383.986	104.56
384.211	92.56
384.436	89.56
384.662	98.56
384.887	88.56
385.112	90.56
385.337	90.56
385.562	104.56
385.787	101.56
386.013	94.56
386.238	92.56
386.463	105.56
386.688	89.56
386.913	94.56
387.138	98.56
387.363	95.56
387.588	94.56
387.813	96.56
388.038	99.56
388.263	110.56
388.488	91.56
388.713	90.56
388.938	87.56
389.163	99.56
389.387	98.56
389.612	105.56
389.837	115.56
390.062	121.56
390.287	98.56
390.512	98.56
390.736	93.56
390.961	109.56
391.186	97.56
391.411	120.56
391.636	117.56
391.86	109.56
392.085	101.56
392.31	118.56
392.534	104.56
392.759	103.56
392.984	117.56
393.208	89.56
393.433	110.56
393.658	98.56
393.882	94.56
394.107	97.56
394.331	99.56
394.556	88.56
394.78	111.56
395.005	105.56
395.229	105.56
395.454	104.56
395.678	117.56
395.903	85.56
396.127	90.56
396.352	108.56
396.576	105.56
396.801	105.56
397.025	102.56
397.249	96.56
397.474	114.56
397.698	105.56
397.922	112.56
398.147	98.56
398.371	104.56
398.595	96.56
398.82	106.56
399.044	97.56
399.268	104.56
399.492	108.56
399.717	107.56
399.941	104.56
400.165	113.56
400.389	116.56
400.613	91.56
400.837	106.56
401.062	101.56
401.286	112.56
401.51	105.56
401.734	100.56
401.958	104.56
402.182	103.56
402.406	105.56
402.63	118.56
402.854	112.56
403.078	113.56
403.302	114.56
403.526	127.56
403.75	120.56
403.974	112.56
404.198	100.56
404.422	113.56
404.645	115.56
404.869	123.56
405.093	115.56
405.317	95.56
405.541	128.56
405.765	103.56
405.988	112.56
406.212	124.56
406.436	116.56
406.66	116.56
406.883	112.56
407.107	100.56
407.331	106.56
407.555	122.56
407.778	111.56
408.002	126.56
408.226	128.56
408.449	127.56
408.673	127.56
408.896	115.56
409.12	124.56
409.344	110.56
409.567	110.56
409.791	121.56
410.014	128.56
410.238	125.56
410.461	116.56
410.685	123.56
410.908	107.56
411.132	127.56
411.355	116.56
411.578	104.56
411.802	108.56
412.025	124.56
412.249	114.56
412.472	115.56
412.695	119.56
412.919	116.56
413.142	103.56
413.365	116.56
413.589	110.56
413.812	118.56
414.035	113.56
414.258	118.56
414.482	119.56
414.705	117.56
414.928	120.56
415.151	116.56
415.374	122.56
415.597	112.56
415.821	122.56
416.044	128.56
416.267	126.56
416.49	111.56
416.713	122.56
416.936	131.56
417.159	137.56
417.382	126.56
417.605	120.56
417.828	106.56
418.051	106.56
418.274	117.56
418.497	132.56
418.72	133.56
418.943	117.56
419.166	111.56
419.389	132.56
419.611	126.56
419.834	121.56
420.057	135.56
420.28	117.56
420.503	116.56
420.726	139.56
420.948	141.56
421.171	120.56
421.394	127.56
421.617	122.56
421.839	152.56
422.062	145.56
422.285	124.56
422.507	130.56
422.73	122.56
422.953	121.56
423.175	122.56
423.398	129.56
423.621	128.56
423.843	138.56
424.066	123.56
424.288	131.56
424.511	122.56
424.733	124.56
424.956	144.56
425.178	134.56
425.401	127.56
425.623	133.56
425.846	124.56
426.068	131.56
426.291	123.56
426.513	131.56
426.735	121.56
426.958	124.56
427.18	124.56
427.402	121.56
427.625	140.56
427.847	113.56
428.069	123.56
428.292	118.56
428.514	120.56
428.736	114.56
428.958	126.56
429.181	122.56
429.403	121.56
429.625	125.56
429.847	132.56
430.069	122.56
430.292	120.56
430.514	111.56
430.736	135.56
430.958	112.56
431.18	115.56
431.402	118.56
431.624	123.56
431.846	111.56
432.068	100.56
432.29	88.56
432.512	107.56
432.734	114.56
432.956	130.56
433.178	145.56
433.4	137.56
433.622	128.56
433.844	138.56
434.066	109.56
434.287	108.56
434.509	80.56
434.731	97.56
434.953	93.56
435.175	120.56
435.397	126.56
435.618	114.56
435.84	107.56
436.062	99.56
436.284	122.56
436.505	125.56
436.727	122.56
436.949	124.56
437.17	135.56
437.392	132.56
437.614	112.56
437.835	111.56
438.057	115.56
438.278	118.56
438.5	124.56
438.721	115.56
438.943	132.56
439.165	132.56
439.386	138.56
439.608	141.56
439.829	131.56
440.05	134.56
440.272	147.56
440.493	150.56
440.715	124.56
440.936	140.56
441.158	131.56
441.379	120.56
441.6	142.56
441.822	134.56
442.043	127.56
442.264	139.56
442.486	138.56
442.707	142.56
442.928	144.56
443.149	121.56
443.371	134.56
443.592	123.56
443.813	133.56
444.034	144.56
444.255	126.56
444.476	122.56
444.698	131.56
444.919	142.56
445.14	287.56
445.361	208.56
445.582	152.56
445.803	150.56
446.024	129.56
446.245	152.56
446.466	148.56
446.687	156.56
446.908	151.56
447.129	138.56
447.35	143.56
447.571	144.56
447.792	136.56
448.013	136.56
448.234	121.56
448.455	144.56
448.675	134.56
448.896	146.56
449.117	122.56
449.338	134.56
449.559	124.56
449.779	145.56
450	140.56
450.221	130.56
450.442	125.56
450.662	122.56
450.883	116.56
451.104	148.56
451.324	110.56
451.545	121.56
451.766	130.56
451.986	126.56
452.207	120.56
452.428	114.56
452.648	107.56
452.869	129.56
453.089	107.56
453.31	101.56
453.53	110.56
453.751	107.56
453.971	112.56
454.192	116.56
454.412	111.56
454.633	119.56
454.853	102.56
455.073	128.56
455.294	118.56
455.514	123.56
455.734	110.56
455.955	99.56
456.175	122.56
456.395	102.56
456.616	120.56
456.836	126.56
457.056	114.56
457.276	97.56
457.497	112.56
457.717	106.56
457.937	110.56
458.157	113.56
458.377	85.56
458.598	106.56
458.818	98.56
459.038	74.56
459.258	72.56
459.478	87.56
459.698	95.56
459.918	97.56
460.138	111.56
460.358	108.56
460.578	115.56
460.798	110.56
461.018	114.56
461.238	107.56
461.458	126.56
461.678	101.56
461.898	123.56
462.118	118.56
462.338	113.56
462.558	119.56
462.777	115.56
462.997	114.56
463.217	108.56
463.437	101.56
463.657	97.56
463.876	104.56
464.096	95.56
464.316	104.56
464.536	119.56
464.755	108.56
464.975	108.56
465.195	116.56
465.414	110.56
465.634	120.56
465.854	118.56
466.073	93.56
466.293	128.56
466.512	115.56
466.732	122.56
466.951	138.56
467.171	115.56
467.391	121.56
467.61	131.56
467.829	139.56
468.049	126.56
468.268	114.56
468.488	115.56
468.707	122.56
468.927	133.56
469.146	140.56
469.365	135.56
469.585	130.56
469.804	126.56
470.023	129.56
470.243	143.56
470.462	130.56
470.681	143.56
470.901	134.56
471.12	124.56
471.339	134.56
471.558	132.56
471.777	134.56
471.997	131.56
472.216	124.56
472.435	113.56
472.654	100.56
472.873	119.56
473.092	105.56
473.311	118.56
473.53	128.56
473.749	128.56
473.968	118.56
474.187	118.56
474.406	113.56
474.625	126.56
474.844	135.56
475.063	126.56
475.282	115.56
475.501	119.56
475.72	114.56
475.939	126.56
476.158	124.56
476.377	134.56
476.596	107.56
476.814	123.56
477.033	105.56
477.252	103.56
477.471	109.56
477.69	126.56
477.908	137.56
478.127	147.56
478.346	139.56
478.564	130.56
478.783	143.56
479.002	131.56
479.22	121.56
479.439	136.56
479.658	132.56
479.876	120.56
480.095	109.56
480.313	103.56
480.532	122.56
480.751	117.56
480.969	85.56
481.188	86.56
481.406	98.56
481.624	92.56
481.843	96.56
482.061	82.56
482.28	109.56
482.498	123.56
482.717	103.56
482.935	126.56
483.153	139.56
483.372	129.56
483.59	136.56
483.808	132.56
484.027	128.56
484.245	133.56
484.463	151.56
484.681	139.56
484.9	157.56
485.118	136.56
485.336	125.56
485.554	112.56
485.772	96.56
485.99	95.56
486.209	103.56
486.427	108.56
486.645	126.56
486.863	138.56
487.081	146.56
487.299	128.56
487.517	137.56
487.735	146.56
487.953	182.56
488.171	187.56
488.389	159.56
488.607	149.56
488.825	141.56
489.043	131.56
489.261	140.56
489.479	114.56
489.696	129.56
489.914	129.56
490.132	141.56
490.35	140.56
490.568	160.56
490.786	153.56
491.003	168.56
491.221	174.56
491.439	171.56
491.657	196.56
491.874	209.56
492.092	194.56
492.31	214.56
492.527	207.56
492.745	201.56
492.963	186.56
493.18	179.56
493.398	179.56
493.615	164.56
493.833	180.56
494.05	157.56
494.268	162.56
494.485	176.56
494.703	176.56
494.92	166.56
495.138	162.56
495.355	158.56
495.573	170.56
495.79	176.56
496.008	180.56
496.225	168.56
496.442	162.56
496.66	164.56
496.877	147.56
497.094	156.56
497.312	166.56
497.529	155.56
497.746	156.56
497.963	155.56
498.181	122.56
498.398	124.56
498.615	122.56
498.832	110.56
499.049	110.56
499.267	110.56
499.484	128.56
499.701	139.56
499.918	138.56
500.135	129.56
500.352	131.56
500.569	138.56
500.786	147.56
501.003	134.56
501.22	114.56
501.437	140.56
501.654	139.56
501.871	121.56
502.088	128.56
502.305	135.56
502.522	126.56
502.739	133.56
502.956	130.56
503.172	137.56
503.389	124.56
503.606	122.56
503.823	104.56
504.04	128.56
504.256	104.56
504.473	124.56
504.69	111.56
504.907	116.56
505.123	122.56
505.34	110.56
505.557	119.56
505.773	116.56
505.99	136.56
506.207	121.56
506.423	104.56
506.64	110.56
506.856	114.56
507.073	120.56
507.289	108.56
507.506	113.56
507.722	114.56
507.939	121.56
508.155	122.56
508.372	101.56
508.588	104.56
508.805	110.56
509.021	107.56
509.238	105.56
509.454	104.56
509.67	90.56
509.887	100.56
510.103	90.56
510.319	92.56
510.536	95.56
510.752	107.56
510.968	88.56
511.184	86.56
511.401	75.56
511.617	86.56
511.833	88.56
