Data from Location4.07152019.Energy5.Lamp.07192019.3%Agarose_HRD10591_16-19-12-931.txt Node
Date: Fri Jul 19 16:19:12 EDT 2019
User: cochatt
Spectrometer: HR+D1059
Trigger mode: 1
Integration Time (sec): 1.000000E-1
Scans to average: 1
Electric dark correction enabled: true
Nonlinearity correction enabled: false
Boxcar width: 0
XAxis mode: Wavelengths
Number of Pixels in Spectrum: 2048
>>>>>Begin Spectral Data<<<<<
223.165	-17.12
223.4	-17.12
223.635	-17.12
223.869	-14.12
224.104	-14.12
224.338	-15.12
224.573	-15.12
224.808	-11.12
225.042	-8.12
225.277	-1.12
225.511	-13.12
225.746	9.88
225.98	2.88
226.215	9.88
226.449	13.88
226.683	8.88
226.918	38.88
227.152	24.88
227.387	25.88
227.621	38.88
227.856	34.88
228.09	25.88
228.324	42.88
228.559	51.88
228.793	46.88
229.027	44.88
229.262	61.88
229.496	74.88
229.73	58.88
229.964	66.88
230.199	66.88
230.433	63.88
230.667	79.88
230.901	60.88
231.136	77.88
231.37	84.88
231.604	72.88
231.838	79.88
232.072	73.88
232.306	63.88
232.541	78.88
232.775	78.88
233.009	93.88
233.243	68.88
233.477	78.88
233.711	76.88
233.945	78.88
234.179	88.88
234.413	73.88
234.647	85.88
234.881	84.88
235.115	82.88
235.349	66.88
235.583	70.88
235.817	73.88
236.051	68.88
236.285	80.88
236.519	79.88
236.753	66.88
236.987	71.88
237.221	64.88
237.455	65.88
237.689	66.88
237.922	74.88
238.156	76.88
238.39	83.88
238.624	70.88
238.858	72.88
239.091	66.88
239.325	69.88
239.559	70.88
239.793	78.88
240.027	79.88
240.26	65.88
240.494	69.88
240.728	72.88
240.961	82.88
241.195	78.88
241.429	64.88
241.662	72.88
241.896	66.88
242.13	84.88
242.363	60.88
242.597	70.88
242.83	67.88
243.064	68.88
243.298	76.88
243.531	84.88
243.765	77.88
243.998	80.88
244.232	74.88
244.465	66.88
244.699	66.88
244.932	74.88
245.166	63.88
245.399	63.88
245.633	80.88
245.866	80.88
246.099	77.88
246.333	85.88
246.566	61.88
246.8	71.88
247.033	84.88
247.266	84.88
247.5	70.88
247.733	70.88
247.966	81.88
248.2	84.88
248.433	91.88
248.666	102.88
248.899	78.88
249.133	76.88
249.366	74.88
249.599	81.88
249.832	73.88
250.066	72.88
250.299	73.88
250.532	70.88
250.765	73.88
250.998	84.88
251.231	71.88
251.465	77.88
251.698	85.88
251.931	61.88
252.164	82.88
252.397	66.88
252.63	92.88
252.863	79.88
253.096	75.88
253.329	79.88
253.562	84.88
253.795	71.88
254.028	89.88
254.261	79.88
254.494	77.88
254.727	76.88
254.96	76.88
255.193	58.88
255.426	82.88
255.659	90.88
255.892	82.88
256.124	80.88
256.357	77.88
256.59	66.88
256.823	64.88
257.056	84.88
257.289	78.88
257.521	88.88
257.754	78.88
257.987	84.88
258.22	75.88
258.452	72.88
258.685	66.88
258.918	69.88
259.151	72.88
259.383	72.88
259.616	75.88
259.849	68.88
260.081	75.88
260.314	80.88
260.547	63.88
260.779	62.88
261.012	73.88
261.244	78.88
261.477	84.88
261.71	79.88
261.942	69.88
262.175	75.88
262.407	72.88
262.64	69.88
262.872	78.88
263.105	74.88
263.337	70.88
263.57	65.88
263.802	69.88
264.035	89.88
264.267	82.88
264.499	84.88
264.732	84.88
264.964	85.88
265.197	68.88
265.429	88.88
265.661	71.88
265.894	70.88
266.126	64.88
266.358	65.88
266.591	67.88
266.823	80.88
267.055	76.88
267.287	79.88
267.52	64.88
267.752	75.88
267.984	80.88
268.216	80.88
268.448	65.88
268.681	65.88
268.913	73.88
269.145	85.88
269.377	76.88
269.609	73.88
269.841	81.88
270.073	65.88
270.306	77.88
270.538	78.88
270.77	85.88
271.002	80.88
271.234	76.88
271.466	77.88
271.698	75.88
271.93	83.88
272.162	79.88
272.394	80.88
272.626	68.88
272.858	63.88
273.09	87.88
273.322	67.88
273.553	70.88
273.785	79.88
274.017	85.88
274.249	94.88
274.481	78.88
274.713	77.88
274.945	75.88
275.176	78.88
275.408	77.88
275.64	85.88
275.872	87.88
276.104	86.88
276.335	65.88
276.567	84.88
276.799	74.88
277.031	68.88
277.262	65.88
277.494	75.88
277.726	85.88
277.957	90.88
278.189	91.88
278.421	97.88
278.652	81.88
278.884	81.88
279.115	81.88
279.347	93.88
279.579	73.88
279.81	81.88
280.042	71.88
280.273	69.88
280.505	79.88
280.736	87.88
280.968	77.88
281.199	84.88
281.431	68.88
281.662	75.88
281.894	79.88
282.125	82.88
282.356	76.88
282.588	75.88
282.819	72.88
283.051	73.88
283.282	86.88
283.513	70.88
283.745	78.88
283.976	84.88
284.207	65.88
284.439	81.88
284.67	82.88
284.901	90.88
285.132	73.88
285.364	78.88
285.595	74.88
285.826	74.88
286.057	64.88
286.288	89.88
286.52	80.88
286.751	71.88
286.982	86.88
287.213	87.88
287.444	81.88
287.675	70.88
287.906	81.88
288.138	79.88
288.369	85.88
288.6	88.88
288.831	84.88
289.062	85.88
289.293	71.88
289.524	89.88
289.755	86.88
289.986	71.88
290.217	75.88
290.448	93.88
290.679	85.88
290.91	77.88
291.141	71.88
291.371	78.88
291.602	80.88
291.833	73.88
292.064	80.88
292.295	73.88
292.526	89.88
292.757	81.88
292.987	72.88
293.218	67.88
293.449	66.88
293.68	76.88
293.91	84.88
294.141	74.88
294.372	83.88
294.603	85.88
294.833	76.88
295.064	73.88
295.295	80.88
295.525	76.88
295.756	88.88
295.987	76.88
296.217	87.88
296.448	84.88
296.679	77.88
296.909	86.88
297.14	85.88
297.37	82.88
297.601	92.88
297.831	79.88
298.062	80.88
298.292	73.88
298.523	78.88
298.753	83.88
298.984	86.88
299.214	73.88
299.445	90.88
299.675	72.88
299.905	69.88
300.136	83.88
300.366	78.88
300.597	84.88
300.827	84.88
301.057	57.88
301.288	76.88
301.518	85.88
301.748	72.88
301.979	82.88
302.209	84.88
302.439	78.88
302.669	85.88
302.9	78.88
303.13	82.88
303.36	77.88
303.59	89.88
303.82	89.88
304.051	79.88
304.281	73.88
304.511	82.88
304.741	80.88
304.971	63.88
305.201	73.88
305.431	68.88
305.661	82.88
305.891	82.88
306.121	83.88
306.352	82.88
306.582	88.88
306.812	85.88
307.042	82.88
307.272	103.88
307.502	66.88
307.731	84.88
307.961	72.88
308.191	77.88
308.421	70.88
308.651	72.88
308.881	77.88
309.111	76.88
309.341	84.88
309.571	78.88
309.8	76.88
310.03	83.88
310.26	88.88
310.49	86.88
310.72	84.88
310.949	80.88
311.179	75.88
311.409	114.88
311.639	75.88
311.868	78.88
312.098	91.88
312.328	83.88
312.557	93.88
312.787	73.88
313.017	77.88
313.246	81.88
313.476	82.88
313.706	78.88
313.935	87.88
314.165	87.88
314.394	75.88
314.624	86.88
314.853	88.88
315.083	82.88
315.312	81.88
315.542	72.88
315.771	71.88
316.001	87.88
316.23	75.88
316.46	83.88
316.689	94.88
316.919	81.88
317.148	80.88
317.377	90.88
317.607	80.88
317.836	78.88
318.065	86.88
318.295	86.88
318.524	79.88
318.753	87.88
318.983	82.88
319.212	86.88
319.441	80.88
319.67	88.88
319.9	84.88
320.129	75.88
320.358	73.88
320.587	79.88
320.816	78.88
321.046	78.88
321.275	90.88
321.504	79.88
321.733	87.88
321.962	92.88
322.191	81.88
322.42	85.88
322.649	80.88
322.878	79.88
323.108	78.88
323.337	89.88
323.566	82.88
323.795	84.88
324.024	90.88
324.253	74.88
324.482	73.88
324.71	81.88
324.939	67.88
325.168	79.88
325.397	88.88
325.626	78.88
325.855	75.88
326.084	86.88
326.313	83.88
326.542	77.88
326.77	91.88
326.999	76.88
327.228	70.88
327.457	89.88
327.686	80.88
327.914	76.88
328.143	87.88
328.372	89.88
328.6	101.88
328.829	70.88
329.058	86.88
329.287	84.88
329.515	70.88
329.744	81.88
329.972	88.88
330.201	98.88
330.43	81.88
330.658	87.88
330.887	73.88
331.115	85.88
331.344	88.88
331.572	81.88
331.801	80.88
332.03	85.88
332.258	75.88
332.486	79.88
332.715	90.88
332.943	89.88
333.172	99.88
333.4	85.88
333.629	83.88
333.857	74.88
334.085	82.88
334.314	69.88
334.542	82.88
334.771	78.88
334.999	82.88
335.227	77.88
335.455	85.88
335.684	93.88
335.912	78.88
336.14	78.88
336.369	79.88
336.597	77.88
336.825	72.88
337.053	88.88
337.281	93.88
337.51	86.88
337.738	78.88
337.966	87.88
338.194	81.88
338.422	86.88
338.65	86.88
338.878	88.88
339.106	71.88
339.334	84.88
339.562	83.88
339.79	86.88
340.018	91.88
340.246	82.88
340.474	80.88
340.702	68.88
340.93	74.88
341.158	84.88
341.386	75.88
341.614	84.88
341.842	76.88
342.07	77.88
342.298	87.88
342.526	85.88
342.754	73.88
342.981	88.88
343.209	89.88
343.437	79.88
343.665	85.88
343.893	88.88
344.12	84.88
344.348	92.88
344.576	83.88
344.804	79.88
345.031	63.88
345.259	83.88
345.487	81.88
345.714	92.88
345.942	82.88
346.17	88.88
346.397	95.88
346.625	84.88
346.853	84.88
347.08	96.88
347.308	74.88
347.535	84.88
347.763	76.88
347.99	78.88
348.218	83.88
348.445	76.88
348.673	73.88
348.9	89.88
349.128	94.88
349.355	96.88
349.583	88.88
349.81	78.88
350.037	84.88
350.265	91.88
350.492	79.88
350.72	84.88
350.947	86.88
351.174	76.88
351.402	86.88
351.629	69.88
351.856	77.88
352.083	78.88
352.311	78.88
352.538	64.88
352.765	74.88
352.992	90.88
353.22	91.88
353.447	96.88
353.674	84.88
353.901	93.88
354.128	91.88
354.355	89.88
354.583	79.88
354.81	82.88
355.037	81.88
355.264	74.88
355.491	84.88
355.718	92.88
355.945	83.88
356.172	89.88
356.399	97.88
356.626	91.88
356.853	64.88
357.08	77.88
357.307	81.88
357.534	80.88
357.761	82.88
357.988	87.88
358.215	86.88
358.441	79.88
358.668	88.88
358.895	73.88
359.122	89.88
359.349	77.88
359.576	90.88
359.802	76.88
360.029	97.88
360.256	83.88
360.483	90.88
360.709	74.88
360.936	94.88
361.163	81.88
361.39	78.88
361.616	72.88
361.843	85.88
362.07	83.88
362.296	89.88
362.523	75.88
362.749	86.88
362.976	78.88
363.203	90.88
363.429	96.88
363.656	86.88
363.882	72.88
364.109	89.88
364.335	74.88
364.562	84.88
364.788	80.88
365.015	82.88
365.241	81.88
365.468	74.88
365.694	74.88
365.92	80.88
366.147	77.88
366.373	79.88
366.599	87.88
366.826	89.88
367.052	81.88
367.278	79.88
367.505	93.88
367.731	99.88
367.957	84.88
368.184	76.88
368.41	86.88
368.636	88.88
368.862	90.88
369.089	87.88
369.315	81.88
369.541	97.88
369.767	95.88
369.993	82.88
370.219	72.88
370.445	88.88
370.672	80.88
370.898	86.88
371.124	86.88
371.35	71.88
371.576	104.88
371.802	89.88
372.028	84.88
372.254	82.88
372.48	97.88
372.706	88.88
372.932	81.88
373.158	81.88
373.384	88.88
373.61	86.88
373.835	86.88
374.061	88.88
374.287	95.88
374.513	86.88
374.739	96.88
374.965	86.88
375.191	87.88
375.416	80.88
375.642	81.88
375.868	74.88
376.094	85.88
376.319	87.88
376.545	85.88
376.771	98.88
376.997	87.88
377.222	89.88
377.448	76.88
377.674	83.88
377.899	75.88
378.125	87.88
378.35	88.88
378.576	99.88
378.802	83.88
379.027	98.88
379.253	93.88
379.478	95.88
379.704	98.88
379.929	91.88
380.155	97.88
380.38	90.88
380.606	90.88
380.831	89.88
381.057	104.88
381.282	74.88
381.507	88.88
381.733	95.88
381.958	94.88
382.184	85.88
382.409	93.88
382.634	116.88
382.86	98.88
383.085	94.88
383.31	90.88
383.535	88.88
383.761	84.88
383.986	90.88
384.211	94.88
384.436	104.88
384.662	91.88
384.887	98.88
385.112	100.88
385.337	103.88
385.562	103.88
385.787	89.88
386.013	108.88
386.238	100.88
386.463	101.88
386.688	84.88
386.913	87.88
387.138	104.88
387.363	97.88
387.588	90.88
387.813	98.88
388.038	78.88
388.263	90.88
388.488	93.88
388.713	87.88
388.938	107.88
389.163	92.88
389.387	96.88
389.612	101.88
389.837	93.88
390.062	89.88
390.287	93.88
390.512	93.88
390.736	102.88
390.961	97.88
391.186	104.88
391.411	100.88
391.636	95.88
391.86	102.88
392.085	96.88
392.31	97.88
392.534	88.88
392.759	113.88
392.984	102.88
393.208	106.88
393.433	102.88
393.658	115.88
393.882	106.88
394.107	93.88
394.331	119.88
394.556	87.88
394.78	103.88
395.005	109.88
395.229	120.88
395.454	112.88
395.678	109.88
395.903	112.88
396.127	104.88
396.352	98.88
396.576	105.88
396.801	102.88
397.025	89.88
397.249	96.88
397.474	103.88
397.698	94.88
397.922	102.88
398.147	114.88
398.371	116.88
398.595	105.88
398.82	118.88
399.044	94.88
399.268	93.88
399.492	107.88
399.717	101.88
399.941	102.88
400.165	120.88
400.389	123.88
400.613	119.88
400.837	118.88
401.062	108.88
401.286	109.88
401.51	100.88
401.734	96.88
401.958	110.88
402.182	114.88
402.406	120.88
402.63	105.88
402.854	108.88
403.078	116.88
403.302	109.88
403.526	105.88
403.75	128.88
403.974	109.88
404.198	109.88
404.422	113.88
404.645	114.88
404.869	110.88
405.093	119.88
405.317	126.88
405.541	119.88
405.765	111.88
405.988	109.88
406.212	119.88
406.436	122.88
406.66	120.88
406.883	118.88
407.107	121.88
407.331	121.88
407.555	118.88
407.778	102.88
408.002	105.88
408.226	111.88
408.449	119.88
408.673	124.88
408.896	137.88
409.12	111.88
409.344	116.88
409.567	118.88
409.791	117.88
410.014	126.88
410.238	121.88
410.461	117.88
410.685	117.88
410.908	115.88
411.132	117.88
411.355	119.88
411.578	117.88
411.802	120.88
412.025	116.88
412.249	116.88
412.472	111.88
412.695	110.88
412.919	124.88
413.142	109.88
413.365	120.88
413.589	126.88
413.812	105.88
414.035	114.88
414.258	125.88
414.482	101.88
414.705	113.88
414.928	129.88
415.151	117.88
415.374	105.88
415.597	120.88
415.821	116.88
416.044	114.88
416.267	116.88
416.49	105.88
416.713	124.88
416.936	120.88
417.159	115.88
417.382	105.88
417.605	118.88
417.828	118.88
418.051	130.88
418.274	123.88
418.497	130.88
418.72	122.88
418.943	113.88
419.166	132.88
419.389	123.88
419.611	123.88
419.834	124.88
420.057	121.88
420.28	125.88
420.503	123.88
420.726	133.88
420.948	131.88
421.171	130.88
421.394	125.88
421.617	137.88
421.839	142.88
422.062	138.88
422.285	120.88
422.507	125.88
422.73	121.88
422.953	121.88
423.175	131.88
423.398	121.88
423.621	129.88
423.843	116.88
424.066	152.88
424.288	130.88
424.511	136.88
424.733	133.88
424.956	132.88
425.178	145.88
425.401	140.88
425.623	134.88
425.846	126.88
426.068	134.88
426.291	111.88
426.513	114.88
426.735	122.88
426.958	143.88
427.18	117.88
427.402	128.88
427.625	118.88
427.847	109.88
428.069	127.88
428.292	134.88
428.514	130.88
428.736	134.88
428.958	124.88
429.181	131.88
429.403	115.88
429.625	111.88
429.847	129.88
430.069	126.88
430.292	127.88
430.514	129.88
430.736	130.88
430.958	126.88
431.18	126.88
431.402	137.88
431.624	124.88
431.846	107.88
432.068	98.88
432.29	94.88
432.512	103.88
432.734	116.88
432.956	124.88
433.178	132.88
433.4	129.88
433.622	136.88
433.844	128.88
434.066	118.88
434.287	97.88
434.509	100.88
434.731	116.88
434.953	103.88
435.175	136.88
435.397	126.88
435.618	123.88
435.84	112.88
436.062	109.88
436.284	116.88
436.505	116.88
436.727	114.88
436.949	133.88
437.17	125.88
437.392	119.88
437.614	118.88
437.835	93.88
438.057	103.88
438.278	111.88
438.5	116.88
438.721	99.88
438.943	138.88
439.165	135.88
439.386	142.88
439.608	132.88
439.829	127.88
440.05	144.88
440.272	158.88
440.493	142.88
440.715	124.88
440.936	127.88
441.158	136.88
441.379	136.88
441.6	142.88
441.822	141.88
442.043	147.88
442.264	129.88
442.486	120.88
442.707	136.88
442.928	130.88
443.149	136.88
443.371	139.88
443.592	128.88
443.813	132.88
444.034	131.88
444.255	142.88
444.476	137.88
444.698	144.88
444.919	148.88
445.14	261.88
445.361	204.88
445.582	148.88
445.803	134.88
446.024	149.88
446.245	138.88
446.466	150.88
446.687	146.88
446.908	153.88
447.129	151.88
447.35	145.88
447.571	138.88
447.792	133.88
448.013	141.88
448.234	143.88
448.455	125.88
448.675	134.88
448.896	130.88
449.117	121.88
449.338	145.88
449.559	129.88
449.779	133.88
450	137.88
450.221	125.88
450.442	135.88
450.662	124.88
450.883	137.88
451.104	135.88
451.324	106.88
451.545	108.88
451.766	132.88
451.986	125.88
452.207	116.88
452.428	125.88
452.648	125.88
452.869	113.88
453.089	97.88
453.31	91.88
453.53	109.88
453.751	100.88
453.971	105.88
454.192	91.88
454.412	108.88
454.633	116.88
454.853	116.88
455.073	134.88
455.294	124.88
455.514	120.88
455.734	113.88
455.955	110.88
456.175	111.88
456.395	105.88
456.616	116.88
456.836	100.88
457.056	105.88
457.276	99.88
457.497	115.88
457.717	98.88
457.937	101.88
458.157	114.88
458.377	92.88
458.598	105.88
458.818	93.88
459.038	77.88
459.258	86.88
459.478	93.88
459.698	104.88
459.918	89.88
460.138	101.88
460.358	119.88
460.578	101.88
460.798	112.88
461.018	107.88
461.238	110.88
461.458	124.88
461.678	110.88
461.898	101.88
462.118	100.88
462.338	93.88
462.558	115.88
462.777	97.88
462.997	92.88
463.217	114.88
463.437	105.88
463.657	114.88
463.876	98.88
464.096	108.88
464.316	94.88
464.536	100.88
464.755	110.88
464.975	97.88
465.195	121.88
465.414	102.88
465.634	107.88
465.854	126.88
466.073	128.88
466.293	128.88
466.512	123.88
466.732	123.88
466.951	133.88
467.171	128.88
467.391	130.88
467.61	133.88
467.829	137.88
468.049	129.88
468.268	137.88
468.488	118.88
468.707	148.88
468.927	131.88
469.146	124.88
469.365	120.88
469.585	126.88
469.804	141.88
470.023	142.88
470.243	126.88
470.462	121.88
470.681	139.88
470.901	144.88
471.12	130.88
471.339	145.88
471.558	136.88
471.777	138.88
471.997	134.88
472.216	133.88
472.435	111.88
472.654	93.88
472.873	103.88
473.092	112.88
473.311	113.88
473.53	126.88
473.749	112.88
473.968	126.88
474.187	120.88
474.406	103.88
474.625	130.88
474.844	133.88
475.063	132.88
475.282	108.88
475.501	122.88
475.72	124.88
475.939	124.88
476.158	122.88
476.377	121.88
476.596	129.88
476.814	123.88
477.033	118.88
477.252	113.88
477.471	122.88
477.69	132.88
477.908	115.88
478.127	139.88
478.346	126.88
478.564	124.88
478.783	138.88
479.002	135.88
479.22	147.88
479.439	134.88
479.658	124.88
479.876	120.88
480.095	109.88
480.313	114.88
480.532	116.88
480.751	105.88
480.969	96.88
481.188	85.88
481.406	108.88
481.624	84.88
481.843	84.88
482.061	85.88
482.28	86.88
482.498	94.88
482.717	119.88
482.935	131.88
483.153	142.88
483.372	145.88
483.59	134.88
483.808	136.88
484.027	117.88
484.245	112.88
484.463	136.88
484.681	154.88
484.9	136.88
485.118	141.88
485.336	131.88
485.554	122.88
485.772	88.88
485.99	97.88
486.209	96.88
486.427	109.88
486.645	111.88
486.863	124.88
487.081	128.88
487.299	135.88
487.517	136.88
487.735	152.88
487.953	179.88
488.171	167.88
488.389	176.88
488.607	152.88
488.825	142.88
489.043	138.88
489.261	143.88
489.479	122.88
489.696	126.88
489.914	141.88
490.132	135.88
490.35	151.88
490.568	166.88
490.786	161.88
491.003	158.88
491.221	178.88
491.439	184.88
491.657	196.88
491.874	189.88
492.092	204.88
492.31	252.88
492.527	223.88
492.745	199.88
492.963	166.88
493.18	172.88
493.398	178.88
493.615	180.88
493.833	164.88
494.05	176.88
494.268	164.88
494.485	154.88
494.703	159.88
494.92	165.88
495.138	156.88
495.355	160.88
495.573	169.88
495.79	180.88
496.008	154.88
496.225	164.88
496.442	158.88
496.66	150.88
496.877	161.88
497.094	169.88
497.312	161.88
497.529	141.88
497.746	156.88
497.963	144.88
498.181	128.88
498.398	125.88
498.615	132.88
498.832	124.88
499.049	112.88
499.267	113.88
499.484	119.88
499.701	148.88
499.918	128.88
500.135	125.88
500.352	132.88
500.569	124.88
500.786	141.88
501.003	130.88
501.22	137.88
501.437	143.88
501.654	134.88
501.871	130.88
502.088	133.88
502.305	134.88
502.522	136.88
502.739	136.88
502.956	125.88
503.172	119.88
503.389	119.88
503.606	104.88
503.823	130.88
504.04	126.88
504.256	126.88
504.473	115.88
504.69	130.88
504.907	122.88
505.123	118.88
505.34	102.88
505.557	104.88
505.773	122.88
505.99	128.88
506.207	111.88
506.423	122.88
506.64	109.88
506.856	114.88
507.073	117.88
507.289	109.88
507.506	110.88
507.722	109.88
507.939	110.88
508.155	122.88
508.372	119.88
508.588	107.88
508.805	112.88
509.021	124.88
509.238	110.88
509.454	104.88
509.67	97.88
509.887	82.88
510.103	87.88
510.319	87.88
510.536	95.88
510.752	83.88
510.968	89.88
511.184	77.88
511.401	88.88
511.617	90.88
511.833	90.88
512.049	94.88
512.265	96.88
