Data from Location4.07152019.Energy5.Lamp.07192019.3%Agarose_HRD10591_16-19-49-925.txt Node
Date: Fri Jul 19 16:19:49 EDT 2019
User: cochatt
Spectrometer: HR+D1059
Trigger mode: 1
Integration Time (sec): 1.000000E-1
Scans to average: 1
Electric dark correction enabled: true
Nonlinearity correction enabled: false
Boxcar width: 0
XAxis mode: Wavelengths
Number of Pixels in Spectrum: 2048
>>>>>Begin Spectral Data<<<<<
223.165	-10.44
223.4	-10.44
223.635	-10.44
223.869	-10.44
224.104	-16.44
224.338	-16.44
224.573	-6.44
224.808	-19.44
225.042	1.56
225.277	-4.44
225.511	11.56
225.746	-0.44
225.98	-16.44
226.215	8.56
226.449	9.56
226.683	29.56
226.918	20.56
227.152	19.56
227.387	26.56
227.621	39.56
227.856	44.56
228.09	51.56
228.324	55.56
228.559	52.56
228.793	51.56
229.027	48.56
229.262	69.56
229.496	73.56
229.73	72.56
229.964	65.56
230.199	77.56
230.433	74.56
230.667	75.56
230.901	94.56
231.136	77.56
231.37	67.56
231.604	96.56
231.838	83.56
232.072	82.56
232.306	77.56
232.541	83.56
232.775	76.56
233.009	71.56
233.243	79.56
233.477	76.56
233.711	92.56
233.945	77.56
234.179	69.56
234.413	88.56
234.647	76.56
234.881	77.56
235.115	88.56
235.349	79.56
235.583	79.56
235.817	83.56
236.051	75.56
236.285	59.56
236.519	78.56
236.753	93.56
236.987	81.56
237.221	71.56
237.455	75.56
237.689	81.56
237.922	75.56
238.156	77.56
238.39	81.56
238.624	74.56
238.858	83.56
239.091	74.56
239.325	75.56
239.559	84.56
239.793	69.56
240.027	70.56
240.26	75.56
240.494	79.56
240.728	90.56
240.961	71.56
241.195	65.56
241.429	70.56
241.662	65.56
241.896	87.56
242.13	74.56
242.363	76.56
242.597	81.56
242.83	74.56
243.064	86.56
243.298	73.56
243.531	69.56
243.765	81.56
243.998	87.56
244.232	70.56
244.465	83.56
244.699	79.56
244.932	83.56
245.166	88.56
245.399	85.56
245.633	71.56
245.866	82.56
246.099	89.56
246.333	73.56
246.566	88.56
246.8	82.56
247.033	88.56
247.266	81.56
247.5	92.56
247.733	75.56
247.966	82.56
248.2	72.56
248.433	82.56
248.666	76.56
248.899	81.56
249.133	73.56
249.366	68.56
249.599	75.56
249.832	85.56
250.066	79.56
250.299	69.56
250.532	82.56
250.765	72.56
250.998	76.56
251.231	77.56
251.465	67.56
251.698	87.56
251.931	73.56
252.164	79.56
252.397	93.56
252.63	75.56
252.863	86.56
253.096	75.56
253.329	82.56
253.562	74.56
253.795	87.56
254.028	87.56
254.261	92.56
254.494	73.56
254.727	75.56
254.96	68.56
255.193	85.56
255.426	76.56
255.659	78.56
255.892	87.56
256.124	72.56
256.357	90.56
256.59	75.56
256.823	89.56
257.056	79.56
257.289	74.56
257.521	89.56
257.754	71.56
257.987	80.56
258.22	91.56
258.452	87.56
258.685	82.56
258.918	78.56
259.151	86.56
259.383	97.56
259.616	74.56
259.849	81.56
260.081	71.56
260.314	81.56
260.547	89.56
260.779	81.56
261.012	82.56
261.244	83.56
261.477	75.56
261.71	78.56
261.942	74.56
262.175	66.56
262.407	78.56
262.64	88.56
262.872	69.56
263.105	86.56
263.337	92.56
263.57	75.56
263.802	93.56
264.035	85.56
264.267	82.56
264.499	83.56
264.732	86.56
264.964	85.56
265.197	85.56
265.429	72.56
265.661	77.56
265.894	87.56
266.126	80.56
266.358	92.56
266.591	86.56
266.823	89.56
267.055	89.56
267.287	84.56
267.52	82.56
267.752	89.56
267.984	91.56
268.216	76.56
268.448	85.56
268.681	75.56
268.913	90.56
269.145	82.56
269.377	86.56
269.609	77.56
269.841	78.56
270.073	97.56
270.306	81.56
270.538	81.56
270.77	72.56
271.002	74.56
271.234	79.56
271.466	78.56
271.698	77.56
271.93	86.56
272.162	88.56
272.394	87.56
272.626	72.56
272.858	72.56
273.09	82.56
273.322	88.56
273.553	75.56
273.785	71.56
274.017	88.56
274.249	91.56
274.481	80.56
274.713	75.56
274.945	77.56
275.176	81.56
275.408	97.56
275.64	78.56
275.872	75.56
276.104	87.56
276.335	89.56
276.567	94.56
276.799	95.56
277.031	83.56
277.262	88.56
277.494	90.56
277.726	88.56
277.957	76.56
278.189	80.56
278.421	76.56
278.652	87.56
278.884	91.56
279.115	103.56
279.347	78.56
279.579	88.56
279.81	79.56
280.042	93.56
280.273	85.56
280.505	79.56
280.736	90.56
280.968	81.56
281.199	83.56
281.431	79.56
281.662	96.56
281.894	90.56
282.125	91.56
282.356	89.56
282.588	90.56
282.819	71.56
283.051	84.56
283.282	82.56
283.513	87.56
283.745	85.56
283.976	84.56
284.207	108.56
284.439	82.56
284.67	76.56
284.901	89.56
285.132	84.56
285.364	95.56
285.595	91.56
285.826	81.56
286.057	90.56
286.288	76.56
286.52	84.56
286.751	82.56
286.982	77.56
287.213	68.56
287.444	85.56
287.675	83.56
287.906	71.56
288.138	78.56
288.369	96.56
288.6	89.56
288.831	74.56
289.062	95.56
289.293	69.56
289.524	81.56
289.755	75.56
289.986	69.56
290.217	98.56
290.448	78.56
290.679	90.56
290.91	84.56
291.141	82.56
291.371	84.56
291.602	87.56
291.833	91.56
292.064	89.56
292.295	83.56
292.526	87.56
292.757	92.56
292.987	89.56
293.218	77.56
293.449	88.56
293.68	97.56
293.91	100.56
294.141	89.56
294.372	72.56
294.603	90.56
294.833	84.56
295.064	81.56
295.295	79.56
295.525	76.56
295.756	84.56
295.987	88.56
296.217	68.56
296.448	92.56
296.679	92.56
296.909	83.56
297.14	85.56
297.37	90.56
297.601	105.56
297.831	85.56
298.062	93.56
298.292	89.56
298.523	83.56
298.753	81.56
298.984	84.56
299.214	75.56
299.445	86.56
299.675	78.56
299.905	75.56
300.136	87.56
300.366	94.56
300.597	91.56
300.827	69.56
301.057	73.56
301.288	82.56
301.518	88.56
301.748	88.56
301.979	94.56
302.209	80.56
302.439	101.56
302.669	92.56
302.9	76.56
303.13	92.56
303.36	80.56
303.59	86.56
303.82	84.56
304.051	93.56
304.281	99.56
304.511	90.56
304.741	84.56
304.971	87.56
305.201	88.56
305.431	100.56
305.661	95.56
305.891	80.56
306.121	80.56
306.352	73.56
306.582	85.56
306.812	89.56
307.042	86.56
307.272	92.56
307.502	84.56
307.731	81.56
307.961	71.56
308.191	92.56
308.421	76.56
308.651	100.56
308.881	90.56
309.111	91.56
309.341	74.56
309.571	84.56
309.8	88.56
310.03	89.56
310.26	78.56
310.49	74.56
310.72	83.56
310.949	81.56
311.179	89.56
311.409	83.56
311.639	92.56
311.868	84.56
312.098	98.56
312.328	91.56
312.557	83.56
312.787	77.56
313.017	95.56
313.246	92.56
313.476	92.56
313.706	91.56
313.935	80.56
314.165	84.56
314.394	77.56
314.624	91.56
314.853	85.56
315.083	92.56
315.312	89.56
315.542	97.56
315.771	94.56
316.001	96.56
316.23	87.56
316.46	76.56
316.689	75.56
316.919	78.56
317.148	99.56
317.377	89.56
317.607	99.56
317.836	90.56
318.065	78.56
318.295	73.56
318.524	84.56
318.753	96.56
318.983	96.56
319.212	70.56
319.441	78.56
319.67	89.56
319.9	83.56
320.129	72.56
320.358	76.56
320.587	75.56
320.816	77.56
321.046	79.56
321.275	94.56
321.504	87.56
321.733	90.56
321.962	89.56
322.191	103.56
322.42	95.56
322.649	92.56
322.878	73.56
323.108	85.56
323.337	83.56
323.566	82.56
323.795	90.56
324.024	102.56
324.253	96.56
324.482	80.56
324.71	87.56
324.939	87.56
325.168	89.56
325.397	73.56
325.626	77.56
325.855	87.56
326.084	95.56
326.313	91.56
326.542	96.56
326.77	94.56
326.999	81.56
327.228	67.56
327.457	92.56
327.686	84.56
327.914	83.56
328.143	93.56
328.372	96.56
328.6	92.56
328.829	92.56
329.058	86.56
329.287	83.56
329.515	93.56
329.744	88.56
329.972	81.56
330.201	81.56
330.43	84.56
330.658	80.56
330.887	70.56
331.115	84.56
331.344	91.56
331.572	82.56
331.801	81.56
332.03	84.56
332.258	91.56
332.486	82.56
332.715	86.56
332.943	88.56
333.172	88.56
333.4	90.56
333.629	85.56
333.857	78.56
334.085	87.56
334.314	99.56
334.542	91.56
334.771	81.56
334.999	72.56
335.227	83.56
335.455	78.56
335.684	99.56
335.912	82.56
336.14	85.56
336.369	87.56
336.597	81.56
336.825	75.56
337.053	91.56
337.281	91.56
337.51	82.56
337.738	91.56
337.966	96.56
338.194	84.56
338.422	88.56
338.65	96.56
338.878	100.56
339.106	89.56
339.334	78.56
339.562	88.56
339.79	85.56
340.018	71.56
340.246	88.56
340.474	71.56
340.702	92.56
340.93	94.56
341.158	87.56
341.386	88.56
341.614	82.56
341.842	74.56
342.07	78.56
342.298	85.56
342.526	76.56
342.754	96.56
342.981	98.56
343.209	84.56
343.437	103.56
343.665	82.56
343.893	83.56
344.12	89.56
344.348	90.56
344.576	103.56
344.804	92.56
345.031	85.56
345.259	96.56
345.487	93.56
345.714	86.56
345.942	81.56
346.17	91.56
346.397	87.56
346.625	87.56
346.853	96.56
347.08	75.56
347.308	90.56
347.535	72.56
347.763	89.56
347.99	101.56
348.218	93.56
348.445	86.56
348.673	76.56
348.9	83.56
349.128	91.56
349.355	70.56
349.583	86.56
349.81	92.56
350.037	86.56
350.265	90.56
350.492	85.56
350.72	75.56
350.947	91.56
351.174	84.56
351.402	77.56
351.629	81.56
351.856	75.56
352.083	81.56
352.311	83.56
352.538	86.56
352.765	83.56
352.992	85.56
353.22	81.56
353.447	84.56
353.674	81.56
353.901	71.56
354.128	88.56
354.355	69.56
354.583	79.56
354.81	75.56
355.037	94.56
355.264	84.56
355.491	90.56
355.718	80.56
355.945	74.56
356.172	72.56
356.399	88.56
356.626	90.56
356.853	76.56
357.08	96.56
357.307	77.56
357.534	77.56
357.761	95.56
357.988	101.56
358.215	88.56
358.441	90.56
358.668	73.56
358.895	96.56
359.122	83.56
359.349	88.56
359.576	90.56
359.802	81.56
360.029	83.56
360.256	81.56
360.483	87.56
360.709	88.56
360.936	96.56
361.163	90.56
361.39	81.56
361.616	92.56
361.843	80.56
362.07	76.56
362.296	81.56
362.523	86.56
362.749	75.56
362.976	69.56
363.203	82.56
363.429	77.56
363.656	72.56
363.882	80.56
364.109	98.56
364.335	94.56
364.562	81.56
364.788	78.56
365.015	94.56
365.241	74.56
365.468	91.56
365.694	91.56
365.92	88.56
366.147	95.56
366.373	88.56
366.599	96.56
366.826	90.56
367.052	90.56
367.278	85.56
367.505	82.56
367.731	83.56
367.957	94.56
368.184	96.56
368.41	80.56
368.636	87.56
368.862	91.56
369.089	90.56
369.315	102.56
369.541	104.56
369.767	93.56
369.993	92.56
370.219	90.56
370.445	73.56
370.672	107.56
370.898	74.56
371.124	81.56
371.35	71.56
371.576	86.56
371.802	99.56
372.028	90.56
372.254	81.56
372.48	97.56
372.706	91.56
372.932	76.56
373.158	89.56
373.384	75.56
373.61	85.56
373.835	102.56
374.061	89.56
374.287	91.56
374.513	104.56
374.739	98.56
374.965	84.56
375.191	107.56
375.416	100.56
375.642	99.56
375.868	92.56
376.094	88.56
376.319	81.56
376.545	100.56
376.771	75.56
376.997	95.56
377.222	84.56
377.448	84.56
377.674	93.56
377.899	99.56
378.125	106.56
378.35	96.56
378.576	96.56
378.802	89.56
379.027	87.56
379.253	95.56
379.478	87.56
379.704	92.56
379.929	92.56
380.155	95.56
380.38	91.56
380.606	89.56
380.831	99.56
381.057	113.56
381.282	95.56
381.507	93.56
381.733	94.56
381.958	79.56
382.184	82.56
382.409	96.56
382.634	103.56
382.86	94.56
383.085	108.56
383.31	102.56
383.535	89.56
383.761	95.56
383.986	99.56
384.211	89.56
384.436	94.56
384.662	98.56
384.887	91.56
385.112	89.56
385.337	98.56
385.562	79.56
385.787	89.56
386.013	99.56
386.238	93.56
386.463	93.56
386.688	86.56
386.913	104.56
387.138	112.56
387.363	97.56
387.588	108.56
387.813	113.56
388.038	101.56
388.263	89.56
388.488	98.56
388.713	113.56
388.938	100.56
389.163	90.56
389.387	98.56
389.612	97.56
389.837	94.56
390.062	99.56
390.287	115.56
390.512	97.56
390.736	107.56
390.961	91.56
391.186	106.56
391.411	101.56
391.636	93.56
391.86	106.56
392.085	115.56
392.31	101.56
392.534	106.56
392.759	106.56
392.984	86.56
393.208	98.56
393.433	88.56
393.658	102.56
393.882	107.56
394.107	109.56
394.331	113.56
394.556	106.56
394.78	106.56
395.005	116.56
395.229	94.56
395.454	95.56
395.678	104.56
395.903	112.56
396.127	106.56
396.352	101.56
396.576	113.56
396.801	103.56
397.025	113.56
397.249	117.56
397.474	100.56
397.698	111.56
397.922	103.56
398.147	117.56
398.371	118.56
398.595	93.56
398.82	113.56
399.044	103.56
399.268	120.56
399.492	117.56
399.717	113.56
399.941	124.56
400.165	105.56
400.389	115.56
400.613	96.56
400.837	122.56
401.062	103.56
401.286	119.56
401.51	111.56
401.734	111.56
401.958	121.56
402.182	113.56
402.406	95.56
402.63	103.56
402.854	124.56
403.078	116.56
403.302	106.56
403.526	109.56
403.75	115.56
403.974	111.56
404.198	113.56
404.422	121.56
404.645	114.56
404.869	108.56
405.093	128.56
405.317	117.56
405.541	125.56
405.765	116.56
405.988	109.56
406.212	115.56
406.436	105.56
406.66	114.56
406.883	106.56
407.107	124.56
407.331	104.56
407.555	117.56
407.778	115.56
408.002	113.56
408.226	123.56
408.449	122.56
408.673	117.56
408.896	104.56
409.12	126.56
409.344	121.56
409.567	119.56
409.791	103.56
410.014	110.56
410.238	114.56
410.461	119.56
410.685	129.56
410.908	126.56
411.132	114.56
411.355	125.56
411.578	121.56
411.802	124.56
412.025	111.56
412.249	108.56
412.472	115.56
412.695	105.56
412.919	107.56
413.142	124.56
413.365	126.56
413.589	121.56
413.812	123.56
414.035	123.56
414.258	116.56
414.482	112.56
414.705	126.56
414.928	110.56
415.151	127.56
415.374	109.56
415.597	128.56
415.821	133.56
416.044	124.56
416.267	118.56
416.49	113.56
416.713	114.56
416.936	125.56
417.159	116.56
417.382	117.56
417.605	135.56
417.828	119.56
418.051	123.56
418.274	143.56
418.497	123.56
418.72	124.56
418.943	145.56
419.166	129.56
419.389	114.56
419.611	130.56
419.834	127.56
420.057	132.56
420.28	135.56
420.503	135.56
420.726	120.56
420.948	127.56
421.171	139.56
421.394	142.56
421.617	129.56
421.839	137.56
422.062	153.56
422.285	135.56
422.507	106.56
422.73	119.56
422.953	117.56
423.175	114.56
423.398	115.56
423.621	118.56
423.843	112.56
424.066	137.56
424.288	127.56
424.511	140.56
424.733	143.56
424.956	137.56
425.178	135.56
425.401	137.56
425.623	118.56
425.846	130.56
426.068	128.56
426.291	114.56
426.513	131.56
426.735	131.56
426.958	136.56
427.18	113.56
427.402	127.56
427.625	115.56
427.847	122.56
428.069	129.56
428.292	122.56
428.514	123.56
428.736	134.56
428.958	124.56
429.181	125.56
429.403	114.56
429.625	107.56
429.847	137.56
430.069	129.56
430.292	133.56
430.514	124.56
430.736	119.56
430.958	133.56
431.18	121.56
431.402	115.56
431.624	111.56
431.846	93.56
432.068	95.56
432.29	108.56
432.512	103.56
432.734	123.56
432.956	114.56
433.178	131.56
433.4	120.56
433.622	137.56
433.844	129.56
434.066	119.56
434.287	115.56
434.509	105.56
434.731	91.56
434.953	127.56
435.175	129.56
435.397	123.56
435.618	119.56
435.84	118.56
436.062	118.56
436.284	124.56
436.505	131.56
436.727	114.56
436.949	131.56
437.17	131.56
437.392	120.56
437.614	117.56
437.835	109.56
438.057	94.56
438.278	104.56
438.5	100.56
438.721	115.56
438.943	123.56
439.165	132.56
439.386	129.56
439.608	125.56
439.829	144.56
440.05	135.56
440.272	134.56
440.493	143.56
440.715	141.56
440.936	169.56
441.158	133.56
441.379	147.56
441.6	141.56
441.822	146.56
442.043	139.56
442.264	137.56
442.486	146.56
442.707	135.56
442.928	136.56
443.149	138.56
443.371	138.56
443.592	133.56
443.813	131.56
444.034	133.56
444.255	145.56
444.476	136.56
444.698	129.56
444.919	152.56
445.14	273.56
445.361	205.56
445.582	147.56
445.803	142.56
446.024	133.56
446.245	155.56
446.466	149.56
446.687	152.56
446.908	151.56
447.129	160.56
447.35	153.56
447.571	153.56
447.792	146.56
448.013	131.56
448.234	142.56
448.455	136.56
448.675	152.56
448.896	119.56
449.117	131.56
449.338	130.56
449.559	131.56
449.779	128.56
450	133.56
450.221	147.56
450.442	123.56
450.662	124.56
450.883	117.56
451.104	151.56
451.324	128.56
451.545	124.56
451.766	136.56
451.986	123.56
452.207	129.56
452.428	139.56
452.648	122.56
452.869	115.56
453.089	119.56
453.31	113.56
453.53	108.56
453.751	124.56
453.971	99.56
454.192	91.56
454.412	112.56
454.633	123.56
454.853	114.56
455.073	128.56
455.294	122.56
455.514	127.56
455.734	104.56
455.955	106.56
456.175	133.56
456.395	121.56
456.616	108.56
456.836	99.56
457.056	108.56
457.276	88.56
457.497	107.56
457.717	105.56
457.937	113.56
458.157	97.56
458.377	107.56
458.598	96.56
458.818	77.56
459.038	83.56
459.258	97.56
459.478	81.56
459.698	97.56
459.918	85.56
460.138	96.56
460.358	113.56
460.578	117.56
460.798	121.56
461.018	103.56
461.238	121.56
461.458	116.56
461.678	115.56
461.898	104.56
462.118	105.56
462.338	112.56
462.558	109.56
462.777	116.56
462.997	99.56
463.217	111.56
463.437	97.56
463.657	102.56
463.876	103.56
464.096	115.56
464.316	112.56
464.536	104.56
464.755	118.56
464.975	101.56
465.195	109.56
465.414	117.56
465.634	117.56
465.854	116.56
466.073	127.56
466.293	121.56
466.512	133.56
466.732	145.56
466.951	143.56
467.171	141.56
467.391	145.56
467.61	143.56
467.829	123.56
468.049	131.56
468.268	122.56
468.488	127.56
468.707	129.56
468.927	149.56
469.146	137.56
469.365	138.56
469.585	126.56
469.804	121.56
470.023	129.56
470.243	134.56
470.462	143.56
470.681	133.56
470.901	138.56
471.12	147.56
471.339	127.56
471.558	136.56
471.777	124.56
471.997	127.56
472.216	145.56
472.435	124.56
472.654	102.56
472.873	107.56
473.092	122.56
473.311	135.56
473.53	140.56
473.749	121.56
473.968	124.56
474.187	123.56
474.406	139.56
474.625	134.56
474.844	115.56
475.063	121.56
475.282	122.56
475.501	109.56
475.72	119.56
475.939	117.56
476.158	125.56
476.377	127.56
476.596	115.56
476.814	117.56
477.033	114.56
477.252	107.56
477.471	118.56
477.69	126.56
477.908	152.56
478.127	136.56
478.346	125.56
478.564	129.56
478.783	129.56
479.002	136.56
479.22	130.56
479.439	146.56
479.658	134.56
479.876	106.56
480.095	106.56
480.313	120.56
480.532	115.56
480.751	106.56
480.969	98.56
481.188	90.56
481.406	86.56
481.624	98.56
481.843	80.56
482.061	99.56
482.28	115.56
482.498	117.56
482.717	101.56
482.935	108.56
483.153	144.56
483.372	148.56
483.59	152.56
483.808	138.56
484.027	125.56
484.245	131.56
484.463	143.56
484.681	149.56
484.9	132.56
485.118	151.56
485.336	125.56
485.554	98.56
485.772	101.56
485.99	105.56
486.209	117.56
486.427	108.56
486.645	115.56
486.863	127.56
487.081	151.56
487.299	132.56
487.517	131.56
487.735	157.56
487.953	190.56
488.171	173.56
488.389	177.56
488.607	159.56
488.825	130.56
489.043	123.56
489.261	128.56
489.479	139.56
489.696	147.56
489.914	131.56
490.132	124.56
490.35	144.56
490.568	162.56
490.786	168.56
491.003	167.56
491.221	174.56
491.439	179.56
491.657	187.56
491.874	202.56
492.092	232.56
492.31	251.56
492.527	226.56
492.745	199.56
492.963	185.56
493.18	208.56
493.398	182.56
493.615	168.56
493.833	147.56
494.05	179.56
494.268	167.56
494.485	173.56
494.703	151.56
494.92	160.56
495.138	152.56
495.355	157.56
495.573	168.56
495.79	152.56
496.008	154.56
496.225	153.56
496.442	156.56
496.66	155.56
496.877	164.56
497.094	149.56
497.312	168.56
497.529	149.56
497.746	153.56
497.963	121.56
498.181	134.56
498.398	123.56
498.615	133.56
498.832	131.56
499.049	116.56
499.267	123.56
499.484	123.56
499.701	114.56
499.918	131.56
500.135	136.56
500.352	138.56
500.569	142.56
500.786	131.56
501.003	142.56
501.22	124.56
501.437	122.56
501.654	127.56
501.871	133.56
502.088	135.56
502.305	131.56
502.522	125.56
502.739	124.56
502.956	124.56
503.172	113.56
503.389	116.56
503.606	118.56
503.823	131.56
504.04	130.56
504.256	104.56
504.473	107.56
504.69	123.56
504.907	133.56
505.123	132.56
505.34	129.56
505.557	128.56
505.773	120.56
505.99	119.56
506.207	123.56
506.423	124.56
506.64	107.56
506.856	111.56
507.073	105.56
507.289	121.56
507.506	117.56
507.722	105.56
507.939	122.56
508.155	109.56
508.372	111.56
508.588	115.56
508.805	100.56
509.021	112.56
509.238	96.56
509.454	103.56
509.67	103.56
509.887	89.56
510.103	95.56
510.319	96.56
510.536	86.56
510.752	101.56
510.968	85.56
511.184	84.56
511.401	79.56
511.617	87.56
511.833	94.56
