Data from Location4.07152019.Energy5.Lamp.07192019.3%Agarose_HRD10591_16-19-32-925.txt Node
Date: Fri Jul 19 16:19:32 EDT 2019
User: cochatt
Spectrometer: HR+D1059
Trigger mode: 1
Integration Time (sec): 1.000000E-1
Scans to average: 1
Electric dark correction enabled: true
Nonlinearity correction enabled: false
Boxcar width: 0
XAxis mode: Wavelengths
Number of Pixels in Spectrum: 2048
>>>>>Begin Spectral Data<<<<<
223.165	-22.56
223.4	-22.56
223.635	-22.56
223.869	-27.56
224.104	-23.56
224.338	-4.56
224.573	-7.56
224.808	-3.56
225.042	-6.56
225.277	-22.56
225.511	-6.56
225.746	6.44
225.98	12.44
226.215	7.44
226.449	22.44
226.683	30.44
226.918	26.44
227.152	19.44
227.387	36.44
227.621	24.44
227.856	29.44
228.09	40.44
228.324	48.44
228.559	48.44
228.793	76.44
229.027	76.44
229.262	68.44
229.496	64.44
229.73	62.44
229.964	60.44
230.199	65.44
230.433	71.44
230.667	70.44
230.901	76.44
231.136	68.44
231.37	99.44
231.604	77.44
231.838	70.44
232.072	69.44
232.306	71.44
232.541	80.44
232.775	78.44
233.009	74.44
233.243	87.44
233.477	79.44
233.711	82.44
233.945	90.44
234.179	83.44
234.413	86.44
234.647	76.44
234.881	94.44
235.115	64.44
235.349	74.44
235.583	75.44
235.817	82.44
236.051	68.44
236.285	79.44
236.519	77.44
236.753	69.44
236.987	66.44
237.221	80.44
237.455	83.44
237.689	78.44
237.922	76.44
238.156	74.44
238.39	76.44
238.624	69.44
238.858	69.44
239.091	80.44
239.325	78.44
239.559	71.44
239.793	58.44
240.027	95.44
240.26	69.44
240.494	80.44
240.728	64.44
240.961	82.44
241.195	80.44
241.429	72.44
241.662	73.44
241.896	79.44
242.13	72.44
242.363	87.44
242.597	72.44
242.83	69.44
243.064	82.44
243.298	77.44
243.531	84.44
243.765	69.44
243.998	70.44
244.232	79.44
244.465	76.44
244.699	72.44
244.932	67.44
245.166	79.44
245.399	83.44
245.633	79.44
245.866	76.44
246.099	65.44
246.333	95.44
246.566	67.44
246.8	79.44
247.033	91.44
247.266	94.44
247.5	88.44
247.733	73.44
247.966	80.44
248.2	71.44
248.433	88.44
248.666	78.44
248.899	85.44
249.133	73.44
249.366	90.44
249.599	85.44
249.832	71.44
250.066	88.44
250.299	85.44
250.532	71.44
250.765	74.44
250.998	69.44
251.231	64.44
251.465	81.44
251.698	71.44
251.931	68.44
252.164	81.44
252.397	68.44
252.63	78.44
252.863	71.44
253.096	73.44
253.329	78.44
253.562	83.44
253.795	79.44
254.028	86.44
254.261	86.44
254.494	73.44
254.727	74.44
254.96	88.44
255.193	74.44
255.426	82.44
255.659	81.44
255.892	95.44
256.124	62.44
256.357	87.44
256.59	81.44
256.823	92.44
257.056	80.44
257.289	73.44
257.521	86.44
257.754	89.44
257.987	74.44
258.22	76.44
258.452	78.44
258.685	75.44
258.918	85.44
259.151	79.44
259.383	97.44
259.616	72.44
259.849	83.44
260.081	81.44
260.314	73.44
260.547	82.44
260.779	89.44
261.012	71.44
261.244	90.44
261.477	72.44
261.71	83.44
261.942	93.44
262.175	72.44
262.407	84.44
262.64	74.44
262.872	85.44
263.105	72.44
263.337	83.44
263.57	77.44
263.802	76.44
264.035	73.44
264.267	88.44
264.499	90.44
264.732	86.44
264.964	94.44
265.197	74.44
265.429	68.44
265.661	99.44
265.894	88.44
266.126	86.44
266.358	75.44
266.591	85.44
266.823	87.44
267.055	74.44
267.287	81.44
267.52	70.44
267.752	63.44
267.984	74.44
268.216	63.44
268.448	74.44
268.681	71.44
268.913	91.44
269.145	70.44
269.377	68.44
269.609	77.44
269.841	88.44
270.073	81.44
270.306	80.44
270.538	78.44
270.77	91.44
271.002	88.44
271.234	71.44
271.466	77.44
271.698	76.44
271.93	87.44
272.162	76.44
272.394	75.44
272.626	73.44
272.858	83.44
273.09	98.44
273.322	88.44
273.553	82.44
273.785	89.44
274.017	72.44
274.249	74.44
274.481	71.44
274.713	70.44
274.945	70.44
275.176	84.44
275.408	76.44
275.64	85.44
275.872	76.44
276.104	93.44
276.335	80.44
276.567	73.44
276.799	88.44
277.031	85.44
277.262	82.44
277.494	82.44
277.726	84.44
277.957	83.44
278.189	89.44
278.421	85.44
278.652	84.44
278.884	78.44
279.115	88.44
279.347	92.44
279.579	73.44
279.81	84.44
280.042	72.44
280.273	76.44
280.505	89.44
280.736	80.44
280.968	84.44
281.199	74.44
281.431	90.44
281.662	78.44
281.894	77.44
282.125	83.44
282.356	92.44
282.588	63.44
282.819	82.44
283.051	97.44
283.282	89.44
283.513	85.44
283.745	76.44
283.976	80.44
284.207	76.44
284.439	76.44
284.67	92.44
284.901	85.44
285.132	70.44
285.364	67.44
285.595	91.44
285.826	96.44
286.057	76.44
286.288	88.44
286.52	83.44
286.751	86.44
286.982	95.44
287.213	72.44
287.444	77.44
287.675	91.44
287.906	90.44
288.138	86.44
288.369	106.44
288.6	79.44
288.831	85.44
289.062	87.44
289.293	81.44
289.524	74.44
289.755	73.44
289.986	69.44
290.217	83.44
290.448	79.44
290.679	93.44
290.91	87.44
291.141	82.44
291.371	98.44
291.602	93.44
291.833	85.44
292.064	70.44
292.295	86.44
292.526	77.44
292.757	79.44
292.987	86.44
293.218	95.44
293.449	74.44
293.68	86.44
293.91	81.44
294.141	83.44
294.372	72.44
294.603	83.44
294.833	83.44
295.064	84.44
295.295	83.44
295.525	88.44
295.756	84.44
295.987	74.44
296.217	82.44
296.448	79.44
296.679	66.44
296.909	92.44
297.14	83.44
297.37	75.44
297.601	84.44
297.831	74.44
298.062	86.44
298.292	96.44
298.523	87.44
298.753	89.44
298.984	92.44
299.214	86.44
299.445	91.44
299.675	85.44
299.905	87.44
300.136	71.44
300.366	76.44
300.597	85.44
300.827	81.44
301.057	80.44
301.288	98.44
301.518	90.44
301.748	89.44
301.979	92.44
302.209	89.44
302.439	75.44
302.669	78.44
302.9	94.44
303.13	76.44
303.36	79.44
303.59	77.44
303.82	72.44
304.051	92.44
304.281	78.44
304.511	81.44
304.741	80.44
304.971	81.44
305.201	82.44
305.431	88.44
305.661	84.44
305.891	99.44
306.121	86.44
306.352	92.44
306.582	79.44
306.812	87.44
307.042	83.44
307.272	79.44
307.502	80.44
307.731	80.44
307.961	82.44
308.191	79.44
308.421	90.44
308.651	76.44
308.881	87.44
309.111	70.44
309.341	70.44
309.571	85.44
309.8	92.44
310.03	78.44
310.26	87.44
310.49	64.44
310.72	67.44
310.949	84.44
311.179	86.44
311.409	100.44
311.639	78.44
311.868	77.44
312.098	73.44
312.328	87.44
312.557	92.44
312.787	72.44
313.017	84.44
313.246	88.44
313.476	85.44
313.706	77.44
313.935	64.44
314.165	73.44
314.394	84.44
314.624	88.44
314.853	81.44
315.083	87.44
315.312	73.44
315.542	95.44
315.771	80.44
316.001	91.44
316.23	62.44
316.46	85.44
316.689	93.44
316.919	87.44
317.148	73.44
317.377	103.44
317.607	83.44
317.836	79.44
318.065	84.44
318.295	75.44
318.524	82.44
318.753	72.44
318.983	92.44
319.212	93.44
319.441	88.44
319.67	83.44
319.9	95.44
320.129	76.44
320.358	82.44
320.587	91.44
320.816	67.44
321.046	86.44
321.275	77.44
321.504	67.44
321.733	70.44
321.962	77.44
322.191	85.44
322.42	81.44
322.649	84.44
322.878	85.44
323.108	97.44
323.337	88.44
323.566	94.44
323.795	75.44
324.024	74.44
324.253	87.44
324.482	89.44
324.71	82.44
324.939	73.44
325.168	89.44
325.397	71.44
325.626	86.44
325.855	91.44
326.084	95.44
326.313	89.44
326.542	86.44
326.77	84.44
326.999	78.44
327.228	97.44
327.457	83.44
327.686	87.44
327.914	89.44
328.143	100.44
328.372	87.44
328.6	74.44
328.829	88.44
329.058	73.44
329.287	84.44
329.515	86.44
329.744	84.44
329.972	84.44
330.201	89.44
330.43	95.44
330.658	90.44
330.887	85.44
331.115	91.44
331.344	84.44
331.572	84.44
331.801	82.44
332.03	97.44
332.258	88.44
332.486	83.44
332.715	81.44
332.943	81.44
333.172	88.44
333.4	75.44
333.629	87.44
333.857	87.44
334.085	81.44
334.314	85.44
334.542	80.44
334.771	80.44
334.999	86.44
335.227	87.44
335.455	79.44
335.684	87.44
335.912	86.44
336.14	79.44
336.369	94.44
336.597	85.44
336.825	87.44
337.053	74.44
337.281	82.44
337.51	87.44
337.738	84.44
337.966	85.44
338.194	83.44
338.422	86.44
338.65	84.44
338.878	98.44
339.106	98.44
339.334	70.44
339.562	81.44
339.79	83.44
340.018	82.44
340.246	93.44
340.474	80.44
340.702	70.44
340.93	83.44
341.158	83.44
341.386	93.44
341.614	98.44
341.842	79.44
342.07	75.44
342.298	84.44
342.526	75.44
342.754	89.44
342.981	87.44
343.209	77.44
343.437	83.44
343.665	87.44
343.893	91.44
344.12	88.44
344.348	92.44
344.576	68.44
344.804	62.44
345.031	66.44
345.259	92.44
345.487	81.44
345.714	81.44
345.942	74.44
346.17	84.44
346.397	84.44
346.625	84.44
346.853	84.44
347.08	92.44
347.308	95.44
347.535	87.44
347.763	73.44
347.99	59.44
348.218	84.44
348.445	79.44
348.673	81.44
348.9	91.44
349.128	82.44
349.355	79.44
349.583	84.44
349.81	85.44
350.037	81.44
350.265	99.44
350.492	89.44
350.72	81.44
350.947	76.44
351.174	77.44
351.402	77.44
351.629	83.44
351.856	88.44
352.083	83.44
352.311	90.44
352.538	60.44
352.765	91.44
352.992	81.44
353.22	79.44
353.447	82.44
353.674	79.44
353.901	90.44
354.128	78.44
354.355	82.44
354.583	86.44
354.81	82.44
355.037	70.44
355.264	84.44
355.491	93.44
355.718	77.44
355.945	87.44
356.172	86.44
356.399	62.44
356.626	77.44
356.853	81.44
357.08	98.44
357.307	90.44
357.534	68.44
357.761	84.44
357.988	87.44
358.215	79.44
358.441	88.44
358.668	87.44
358.895	82.44
359.122	83.44
359.349	86.44
359.576	74.44
359.802	79.44
360.029	86.44
360.256	78.44
360.483	74.44
360.709	80.44
360.936	77.44
361.163	88.44
361.39	80.44
361.616	98.44
361.843	83.44
362.07	92.44
362.296	83.44
362.523	67.44
362.749	76.44
362.976	77.44
363.203	80.44
363.429	74.44
363.656	86.44
363.882	75.44
364.109	98.44
364.335	85.44
364.562	87.44
364.788	80.44
365.015	91.44
365.241	100.44
365.468	85.44
365.694	75.44
365.92	75.44
366.147	102.44
366.373	87.44
366.599	86.44
366.826	87.44
367.052	79.44
367.278	82.44
367.505	75.44
367.731	75.44
367.957	95.44
368.184	90.44
368.41	89.44
368.636	92.44
368.862	96.44
369.089	86.44
369.315	84.44
369.541	98.44
369.767	79.44
369.993	84.44
370.219	94.44
370.445	80.44
370.672	72.44
370.898	104.44
371.124	92.44
371.35	93.44
371.576	105.44
371.802	88.44
372.028	99.44
372.254	87.44
372.48	76.44
372.706	109.44
372.932	95.44
373.158	90.44
373.384	94.44
373.61	106.44
373.835	101.44
374.061	91.44
374.287	99.44
374.513	96.44
374.739	88.44
374.965	97.44
375.191	89.44
375.416	94.44
375.642	97.44
375.868	82.44
376.094	86.44
376.319	94.44
376.545	88.44
376.771	92.44
376.997	92.44
377.222	90.44
377.448	91.44
377.674	93.44
377.899	92.44
378.125	87.44
378.35	99.44
378.576	101.44
378.802	95.44
379.027	100.44
379.253	110.44
379.478	102.44
379.704	99.44
379.929	89.44
380.155	104.44
380.38	92.44
380.606	89.44
380.831	91.44
381.057	98.44
381.282	97.44
381.507	105.44
381.733	117.44
381.958	99.44
382.184	92.44
382.409	90.44
382.634	104.44
382.86	92.44
383.085	96.44
383.31	100.44
383.535	105.44
383.761	95.44
383.986	116.44
384.211	90.44
384.436	101.44
384.662	89.44
384.887	88.44
385.112	83.44
385.337	105.44
385.562	88.44
385.787	87.44
386.013	103.44
386.238	93.44
386.463	92.44
386.688	94.44
386.913	109.44
387.138	109.44
387.363	105.44
387.588	104.44
387.813	90.44
388.038	94.44
388.263	106.44
388.488	101.44
388.713	96.44
388.938	100.44
389.163	92.44
389.387	104.44
389.612	101.44
389.837	108.44
390.062	106.44
390.287	98.44
390.512	91.44
390.736	97.44
390.961	112.44
391.186	106.44
391.411	104.44
391.636	94.44
391.86	90.44
392.085	111.44
392.31	102.44
392.534	104.44
392.759	94.44
392.984	110.44
393.208	98.44
393.433	116.44
393.658	106.44
393.882	101.44
394.107	101.44
394.331	120.44
394.556	104.44
394.78	107.44
395.005	104.44
395.229	99.44
395.454	114.44
395.678	111.44
395.903	104.44
396.127	113.44
396.352	115.44
396.576	112.44
396.801	95.44
397.025	103.44
397.249	95.44
397.474	103.44
397.698	106.44
397.922	105.44
398.147	111.44
398.371	112.44
398.595	112.44
398.82	105.44
399.044	104.44
399.268	111.44
399.492	106.44
399.717	110.44
399.941	115.44
400.165	110.44
400.389	112.44
400.613	110.44
400.837	106.44
401.062	126.44
401.286	108.44
401.51	102.44
401.734	104.44
401.958	119.44
402.182	104.44
402.406	114.44
402.63	112.44
402.854	109.44
403.078	103.44
403.302	117.44
403.526	112.44
403.75	112.44
403.974	120.44
404.198	121.44
404.422	114.44
404.645	119.44
404.869	107.44
405.093	118.44
405.317	118.44
405.541	114.44
405.765	114.44
405.988	107.44
406.212	115.44
406.436	122.44
406.66	119.44
406.883	106.44
407.107	118.44
407.331	111.44
407.555	112.44
407.778	121.44
408.002	118.44
408.226	111.44
408.449	140.44
408.673	122.44
408.896	123.44
409.12	128.44
409.344	104.44
409.567	123.44
409.791	132.44
410.014	114.44
410.238	120.44
410.461	111.44
410.685	131.44
410.908	133.44
411.132	127.44
411.355	125.44
411.578	136.44
411.802	129.44
412.025	111.44
412.249	112.44
412.472	135.44
412.695	122.44
412.919	117.44
413.142	119.44
413.365	119.44
413.589	117.44
413.812	124.44
414.035	128.44
414.258	121.44
414.482	113.44
414.705	130.44
414.928	129.44
415.151	121.44
415.374	109.44
415.597	129.44
415.821	115.44
416.044	116.44
416.267	115.44
416.49	120.44
416.713	116.44
416.936	119.44
417.159	115.44
417.382	126.44
417.605	128.44
417.828	132.44
418.051	128.44
418.274	133.44
418.497	134.44
418.72	132.44
418.943	147.44
419.166	126.44
419.389	140.44
419.611	138.44
419.834	138.44
420.057	134.44
420.28	122.44
420.503	124.44
420.726	127.44
420.948	136.44
421.171	119.44
421.394	146.44
421.617	126.44
421.839	155.44
422.062	135.44
422.285	138.44
422.507	136.44
422.73	130.44
422.953	130.44
423.175	124.44
423.398	122.44
423.621	138.44
423.843	129.44
424.066	135.44
424.288	131.44
424.511	125.44
424.733	125.44
424.956	133.44
425.178	144.44
425.401	144.44
425.623	128.44
425.846	135.44
426.068	128.44
426.291	132.44
426.513	132.44
426.735	133.44
426.958	134.44
427.18	114.44
427.402	128.44
427.625	124.44
427.847	120.44
428.069	124.44
428.292	117.44
428.514	131.44
428.736	112.44
428.958	126.44
429.181	134.44
429.403	120.44
429.625	123.44
429.847	130.44
430.069	125.44
430.292	119.44
430.514	137.44
430.736	126.44
430.958	116.44
431.18	113.44
431.402	120.44
431.624	110.44
431.846	98.44
432.068	98.44
432.29	85.44
432.512	107.44
432.734	115.44
432.956	134.44
433.178	134.44
433.4	135.44
433.622	115.44
433.844	130.44
434.066	115.44
434.287	97.44
434.509	107.44
434.731	113.44
434.953	116.44
435.175	132.44
435.397	127.44
435.618	111.44
435.84	126.44
436.062	117.44
436.284	117.44
436.505	122.44
436.727	128.44
436.949	123.44
437.17	131.44
437.392	132.44
437.614	119.44
437.835	113.44
438.057	111.44
438.278	110.44
438.5	121.44
438.721	124.44
438.943	128.44
439.165	138.44
439.386	134.44
439.608	150.44
439.829	127.44
440.05	140.44
440.272	139.44
440.493	157.44
440.715	146.44
440.936	143.44
441.158	150.44
441.379	123.44
441.6	136.44
441.822	143.44
442.043	131.44
442.264	131.44
442.486	140.44
442.707	141.44
442.928	150.44
443.149	145.44
443.371	134.44
443.592	134.44
443.813	137.44
444.034	123.44
444.255	144.44
444.476	136.44
444.698	148.44
444.919	139.44
445.14	247.44
445.361	196.44
445.582	140.44
445.803	143.44
446.024	145.44
446.245	149.44
446.466	140.44
446.687	150.44
446.908	136.44
447.129	155.44
447.35	139.44
447.571	149.44
447.792	145.44
448.013	143.44
448.234	146.44
448.455	142.44
448.675	144.44
448.896	126.44
449.117	141.44
449.338	122.44
449.559	124.44
449.779	137.44
450	131.44
450.221	135.44
450.442	136.44
450.662	136.44
450.883	131.44
451.104	134.44
451.324	118.44
451.545	106.44
451.766	140.44
451.986	125.44
452.207	130.44
452.428	131.44
452.648	112.44
452.869	131.44
453.089	108.44
453.31	114.44
453.53	117.44
453.751	90.44
453.971	99.44
454.192	114.44
454.412	107.44
454.633	130.44
454.853	126.44
455.073	126.44
455.294	112.44
455.514	120.44
455.734	104.44
455.955	130.44
456.175	115.44
456.395	123.44
456.616	118.44
456.836	106.44
457.056	112.44
457.276	111.44
457.497	107.44
457.717	103.44
457.937	101.44
458.157	95.44
458.377	102.44
458.598	102.44
458.818	81.44
459.038	97.44
459.258	93.44
459.478	94.44
459.698	97.44
459.918	100.44
460.138	118.44
460.358	116.44
460.578	118.44
460.798	121.44
461.018	110.44
461.238	134.44
461.458	126.44
461.678	115.44
461.898	104.44
462.118	116.44
462.338	104.44
462.558	128.44
462.777	126.44
462.997	116.44
463.217	101.44
463.437	120.44
463.657	116.44
463.876	105.44
464.096	126.44
464.316	120.44
464.536	117.44
464.755	126.44
464.975	110.44
465.195	107.44
465.414	118.44
465.634	118.44
465.854	114.44
466.073	130.44
466.293	127.44
466.512	130.44
466.732	126.44
466.951	137.44
467.171	121.44
467.391	145.44
467.61	132.44
467.829	136.44
468.049	127.44
468.268	138.44
468.488	118.44
468.707	139.44
468.927	147.44
469.146	126.44
469.365	140.44
469.585	130.44
469.804	128.44
470.023	130.44
470.243	138.44
470.462	131.44
470.681	135.44
470.901	140.44
471.12	148.44
471.339	139.44
471.558	139.44
471.777	136.44
471.997	123.44
472.216	124.44
472.435	122.44
472.654	106.44
472.873	108.44
473.092	111.44
473.311	128.44
473.53	127.44
473.749	130.44
473.968	130.44
474.187	135.44
474.406	127.44
474.625	133.44
474.844	119.44
475.063	135.44
475.282	135.44
475.501	116.44
475.72	130.44
475.939	123.44
476.158	129.44
476.377	130.44
476.596	120.44
476.814	121.44
477.033	107.44
477.252	116.44
477.471	122.44
477.69	129.44
477.908	133.44
478.127	141.44
478.346	142.44
478.564	121.44
478.783	119.44
479.002	147.44
479.22	133.44
479.439	137.44
479.658	119.44
479.876	120.44
480.095	100.44
480.313	128.44
480.532	117.44
480.751	102.44
480.969	110.44
481.188	84.44
481.406	94.44
481.624	92.44
481.843	100.44
482.061	98.44
482.28	107.44
482.498	126.44
482.717	106.44
482.935	121.44
483.153	118.44
483.372	151.44
483.59	138.44
483.808	147.44
484.027	141.44
484.245	136.44
484.463	132.44
484.681	171.44
484.9	154.44
485.118	154.44
485.336	130.44
485.554	120.44
485.772	99.44
485.99	106.44
486.209	103.44
486.427	103.44
486.645	127.44
486.863	126.44
487.081	156.44
487.299	139.44
487.517	140.44
487.735	157.44
487.953	172.44
488.171	185.44
488.389	163.44
488.607	151.44
488.825	139.44
489.043	147.44
489.261	151.44
489.479	131.44
489.696	152.44
489.914	136.44
490.132	121.44
490.35	140.44
490.568	154.44
490.786	154.44
491.003	158.44
491.221	167.44
491.439	182.44
491.657	189.44
491.874	208.44
492.092	217.44
492.31	229.44
492.527	231.44
492.745	208.44
492.963	180.44
493.18	195.44
493.398	187.44
493.615	169.44
493.833	166.44
494.05	178.44
494.268	179.44
494.485	152.44
494.703	169.44
494.92	161.44
495.138	181.44
495.355	167.44
495.573	160.44
495.79	160.44
496.008	179.44
496.225	166.44
496.442	147.44
496.66	152.44
496.877	166.44
497.094	161.44
497.312	171.44
497.529	146.44
497.746	156.44
497.963	135.44
498.181	138.44
498.398	130.44
498.615	120.44
498.832	122.44
499.049	104.44
499.267	108.44
499.484	131.44
499.701	144.44
499.918	148.44
500.135	149.44
500.352	132.44
500.569	138.44
500.786	141.44
501.003	138.44
501.22	131.44
501.437	142.44
501.654	128.44
501.871	144.44
502.088	134.44
502.305	123.44
502.522	133.44
502.739	136.44
502.956	136.44
503.172	130.44
503.389	131.44
503.606	118.44
503.823	124.44
504.04	126.44
504.256	117.44
504.473	105.44
504.69	111.44
504.907	112.44
505.123	122.44
505.34	134.44
505.557	106.44
505.773	117.44
505.99	129.44
506.207	118.44
506.423	112.44
506.64	129.44
506.856	129.44
507.073	118.44
507.289	121.44
507.506	131.44
507.722	126.44
507.939	119.44
508.155	127.44
508.372	113.44
508.588	119.44
508.805	118.44
509.021	107.44
509.238	92.44
509.454	107.44
509.67	106.44
509.887	95.44
510.103	91.44
510.319	93.44
510.536	98.44
510.752	94.44
510.968	84.44
511.184	89.44
511.401	83.44
511.617	89.44
