Data from Location4.07152019.Energy5.Lamp.07192019.3%Agarose_HRD10591_16-20-14-926.txt Node
Date: Fri Jul 19 16:20:14 EDT 2019
User: cochatt
Spectrometer: HR+D1059
Trigger mode: 1
Integration Time (sec): 1.000000E-1
Scans to average: 1
Electric dark correction enabled: true
Nonlinearity correction enabled: false
Boxcar width: 0
XAxis mode: Wavelengths
Number of Pixels in Spectrum: 2048
>>>>>Begin Spectral Data<<<<<
223.165	-2.38
223.4	-2.38
223.635	-2.38
223.869	-13.38
224.104	-23.38
224.338	-10.38
224.573	-9.38
224.808	-11.38
225.042	-3.38
225.277	-7.38
225.511	-19.38
225.746	-0.38
225.98	6.62
226.215	19.62
226.449	20.62
226.683	6.62
226.918	24.62
227.152	22.62
227.387	27.62
227.621	40.62
227.856	50.62
228.09	47.62
228.324	64.62
228.559	46.62
228.793	63.62
229.027	61.62
229.262	54.62
229.496	66.62
229.73	65.62
229.964	80.62
230.199	67.62
230.433	83.62
230.667	89.62
230.901	78.62
231.136	77.62
231.37	73.62
231.604	85.62
231.838	79.62
232.072	86.62
232.306	71.62
232.541	83.62
232.775	86.62
233.009	89.62
233.243	76.62
233.477	87.62
233.711	90.62
233.945	74.62
234.179	82.62
234.413	73.62
234.647	75.62
234.881	80.62
235.115	85.62
235.349	86.62
235.583	73.62
235.817	92.62
236.051	75.62
236.285	87.62
236.519	82.62
236.753	89.62
236.987	77.62
237.221	88.62
237.455	82.62
237.689	82.62
237.922	64.62
238.156	71.62
238.39	82.62
238.624	57.62
238.858	71.62
239.091	77.62
239.325	71.62
239.559	80.62
239.793	78.62
240.027	75.62
240.26	90.62
240.494	88.62
240.728	75.62
240.961	67.62
241.195	79.62
241.429	71.62
241.662	90.62
241.896	79.62
242.13	78.62
242.363	73.62
242.597	86.62
242.83	75.62
243.064	85.62
243.298	74.62
243.531	84.62
243.765	83.62
243.998	93.62
244.232	76.62
244.465	64.62
244.699	74.62
244.932	93.62
245.166	70.62
245.399	92.62
245.633	74.62
245.866	83.62
246.099	82.62
246.333	73.62
246.566	79.62
246.8	70.62
247.033	73.62
247.266	97.62
247.5	73.62
247.733	85.62
247.966	76.62
248.2	82.62
248.433	85.62
248.666	83.62
248.899	74.62
249.133	82.62
249.366	78.62
249.599	90.62
249.832	86.62
250.066	74.62
250.299	77.62
250.532	77.62
250.765	86.62
250.998	74.62
251.231	83.62
251.465	87.62
251.698	80.62
251.931	74.62
252.164	83.62
252.397	81.62
252.63	80.62
252.863	84.62
253.096	76.62
253.329	77.62
253.562	77.62
253.795	83.62
254.028	73.62
254.261	76.62
254.494	84.62
254.727	78.62
254.96	84.62
255.193	91.62
255.426	93.62
255.659	84.62
255.892	77.62
256.124	87.62
256.357	70.62
256.59	85.62
256.823	75.62
257.056	79.62
257.289	82.62
257.521	87.62
257.754	88.62
257.987	83.62
258.22	76.62
258.452	80.62
258.685	78.62
258.918	76.62
259.151	76.62
259.383	72.62
259.616	81.62
259.849	78.62
260.081	88.62
260.314	87.62
260.547	93.62
260.779	77.62
261.012	65.62
261.244	68.62
261.477	78.62
261.71	86.62
261.942	83.62
262.175	72.62
262.407	81.62
262.64	101.62
262.872	75.62
263.105	63.62
263.337	87.62
263.57	52.62
263.802	88.62
264.035	92.62
264.267	90.62
264.499	83.62
264.732	79.62
264.964	79.62
265.197	94.62
265.429	92.62
265.661	78.62
265.894	90.62
266.126	84.62
266.358	72.62
266.591	76.62
266.823	80.62
267.055	77.62
267.287	81.62
267.52	80.62
267.752	84.62
267.984	85.62
268.216	86.62
268.448	85.62
268.681	91.62
268.913	76.62
269.145	83.62
269.377	76.62
269.609	81.62
269.841	83.62
270.073	88.62
270.306	77.62
270.538	75.62
270.77	79.62
271.002	86.62
271.234	101.62
271.466	96.62
271.698	84.62
271.93	73.62
272.162	76.62
272.394	88.62
272.626	78.62
272.858	64.62
273.09	80.62
273.322	81.62
273.553	93.62
273.785	89.62
274.017	97.62
274.249	87.62
274.481	84.62
274.713	92.62
274.945	92.62
275.176	79.62
275.408	83.62
275.64	77.62
275.872	75.62
276.104	94.62
276.335	93.62
276.567	97.62
276.799	86.62
277.031	81.62
277.262	89.62
277.494	73.62
277.726	97.62
277.957	97.62
278.189	84.62
278.421	83.62
278.652	88.62
278.884	82.62
279.115	90.62
279.347	81.62
279.579	106.62
279.81	93.62
280.042	82.62
280.273	97.62
280.505	83.62
280.736	73.62
280.968	75.62
281.199	88.62
281.431	72.62
281.662	82.62
281.894	83.62
282.125	83.62
282.356	80.62
282.588	98.62
282.819	75.62
283.051	77.62
283.282	91.62
283.513	90.62
283.745	79.62
283.976	79.62
284.207	72.62
284.439	89.62
284.67	88.62
284.901	81.62
285.132	75.62
285.364	86.62
285.595	88.62
285.826	83.62
286.057	91.62
286.288	87.62
286.52	79.62
286.751	87.62
286.982	83.62
287.213	66.62
287.444	81.62
287.675	89.62
287.906	85.62
288.138	87.62
288.369	96.62
288.6	84.62
288.831	77.62
289.062	80.62
289.293	75.62
289.524	88.62
289.755	83.62
289.986	75.62
290.217	83.62
290.448	87.62
290.679	79.62
290.91	86.62
291.141	77.62
291.371	77.62
291.602	83.62
291.833	88.62
292.064	86.62
292.295	71.62
292.526	87.62
292.757	77.62
292.987	76.62
293.218	102.62
293.449	96.62
293.68	82.62
293.91	83.62
294.141	85.62
294.372	75.62
294.603	83.62
294.833	82.62
295.064	81.62
295.295	85.62
295.525	96.62
295.756	97.62
295.987	86.62
296.217	91.62
296.448	89.62
296.679	80.62
296.909	83.62
297.14	90.62
297.37	78.62
297.601	88.62
297.831	90.62
298.062	71.62
298.292	81.62
298.523	85.62
298.753	71.62
298.984	87.62
299.214	89.62
299.445	84.62
299.675	86.62
299.905	95.62
300.136	87.62
300.366	77.62
300.597	92.62
300.827	81.62
301.057	86.62
301.288	77.62
301.518	74.62
301.748	73.62
301.979	87.62
302.209	74.62
302.439	68.62
302.669	72.62
302.9	86.62
303.13	86.62
303.36	88.62
303.59	80.62
303.82	83.62
304.051	84.62
304.281	83.62
304.511	88.62
304.741	90.62
304.971	68.62
305.201	77.62
305.431	86.62
305.661	83.62
305.891	88.62
306.121	87.62
306.352	91.62
306.582	84.62
306.812	93.62
307.042	90.62
307.272	82.62
307.502	79.62
307.731	90.62
307.961	81.62
308.191	87.62
308.421	88.62
308.651	98.62
308.881	84.62
309.111	102.62
309.341	96.62
309.571	93.62
309.8	93.62
310.03	77.62
310.26	82.62
310.49	83.62
310.72	97.62
310.949	85.62
311.179	90.62
311.409	92.62
311.639	83.62
311.868	96.62
312.098	78.62
312.328	87.62
312.557	74.62
312.787	88.62
313.017	78.62
313.246	73.62
313.476	74.62
313.706	80.62
313.935	70.62
314.165	89.62
314.394	98.62
314.624	86.62
314.853	91.62
315.083	94.62
315.312	74.62
315.542	83.62
315.771	83.62
316.001	75.62
316.23	76.62
316.46	93.62
316.689	82.62
316.919	84.62
317.148	70.62
317.377	78.62
317.607	83.62
317.836	87.62
318.065	91.62
318.295	82.62
318.524	73.62
318.753	87.62
318.983	87.62
319.212	83.62
319.441	95.62
319.67	91.62
319.9	87.62
320.129	96.62
320.358	77.62
320.587	71.62
320.816	83.62
321.046	87.62
321.275	84.62
321.504	77.62
321.733	82.62
321.962	87.62
322.191	79.62
322.42	95.62
322.649	73.62
322.878	79.62
323.108	79.62
323.337	83.62
323.566	94.62
323.795	81.62
324.024	77.62
324.253	87.62
324.482	82.62
324.71	79.62
324.939	98.62
325.168	75.62
325.397	81.62
325.626	75.62
325.855	72.62
326.084	91.62
326.313	69.62
326.542	77.62
326.77	90.62
326.999	84.62
327.228	92.62
327.457	79.62
327.686	80.62
327.914	72.62
328.143	73.62
328.372	77.62
328.6	72.62
328.829	76.62
329.058	94.62
329.287	98.62
329.515	91.62
329.744	91.62
329.972	76.62
330.201	76.62
330.43	91.62
330.658	88.62
330.887	65.62
331.115	74.62
331.344	85.62
331.572	81.62
331.801	80.62
332.03	89.62
332.258	83.62
332.486	90.62
332.715	74.62
332.943	83.62
333.172	89.62
333.4	79.62
333.629	77.62
333.857	77.62
334.085	81.62
334.314	82.62
334.542	87.62
334.771	78.62
334.999	81.62
335.227	87.62
335.455	100.62
335.684	85.62
335.912	96.62
336.14	95.62
336.369	75.62
336.597	97.62
336.825	94.62
337.053	75.62
337.281	72.62
337.51	87.62
337.738	82.62
337.966	84.62
338.194	74.62
338.422	86.62
338.65	84.62
338.878	77.62
339.106	82.62
339.334	90.62
339.562	82.62
339.79	75.62
340.018	85.62
340.246	79.62
340.474	81.62
340.702	76.62
340.93	90.62
341.158	86.62
341.386	88.62
341.614	81.62
341.842	78.62
342.07	79.62
342.298	89.62
342.526	81.62
342.754	75.62
342.981	92.62
343.209	77.62
343.437	88.62
343.665	81.62
343.893	71.62
344.12	81.62
344.348	79.62
344.576	84.62
344.804	94.62
345.031	92.62
345.259	79.62
345.487	72.62
345.714	82.62
345.942	89.62
346.17	63.62
346.397	88.62
346.625	73.62
346.853	85.62
347.08	76.62
347.308	100.62
347.535	78.62
347.763	73.62
347.99	59.62
348.218	92.62
348.445	71.62
348.673	92.62
348.9	89.62
349.128	82.62
349.355	91.62
349.583	88.62
349.81	76.62
350.037	82.62
350.265	89.62
350.492	82.62
350.72	74.62
350.947	88.62
351.174	105.62
351.402	80.62
351.629	81.62
351.856	77.62
352.083	80.62
352.311	78.62
352.538	81.62
352.765	76.62
352.992	77.62
353.22	75.62
353.447	68.62
353.674	91.62
353.901	94.62
354.128	75.62
354.355	78.62
354.583	74.62
354.81	80.62
355.037	81.62
355.264	73.62
355.491	74.62
355.718	95.62
355.945	84.62
356.172	82.62
356.399	77.62
356.626	84.62
356.853	86.62
357.08	81.62
357.307	86.62
357.534	93.62
357.761	82.62
357.988	83.62
358.215	97.62
358.441	75.62
358.668	83.62
358.895	79.62
359.122	92.62
359.349	81.62
359.576	93.62
359.802	90.62
360.029	84.62
360.256	72.62
360.483	81.62
360.709	87.62
360.936	93.62
361.163	79.62
361.39	76.62
361.616	75.62
361.843	85.62
362.07	74.62
362.296	83.62
362.523	87.62
362.749	76.62
362.976	81.62
363.203	87.62
363.429	71.62
363.656	72.62
363.882	74.62
364.109	87.62
364.335	82.62
364.562	92.62
364.788	88.62
365.015	83.62
365.241	79.62
365.468	87.62
365.694	73.62
365.92	97.62
366.147	80.62
366.373	78.62
366.599	92.62
366.826	87.62
367.052	87.62
367.278	84.62
367.505	77.62
367.731	95.62
367.957	91.62
368.184	96.62
368.41	89.62
368.636	98.62
368.862	103.62
369.089	90.62
369.315	99.62
369.541	86.62
369.767	89.62
369.993	80.62
370.219	84.62
370.445	83.62
370.672	86.62
370.898	85.62
371.124	86.62
371.35	80.62
371.576	96.62
371.802	94.62
372.028	90.62
372.254	81.62
372.48	105.62
372.706	85.62
372.932	94.62
373.158	95.62
373.384	91.62
373.61	103.62
373.835	97.62
374.061	90.62
374.287	82.62
374.513	104.62
374.739	91.62
374.965	95.62
375.191	90.62
375.416	98.62
375.642	98.62
375.868	107.62
376.094	100.62
376.319	92.62
376.545	91.62
376.771	87.62
376.997	88.62
377.222	87.62
377.448	85.62
377.674	99.62
377.899	87.62
378.125	97.62
378.35	84.62
378.576	92.62
378.802	79.62
379.027	82.62
379.253	95.62
379.478	88.62
379.704	79.62
379.929	89.62
380.155	85.62
380.38	98.62
380.606	96.62
380.831	97.62
381.057	96.62
381.282	90.62
381.507	104.62
381.733	88.62
381.958	84.62
382.184	91.62
382.409	107.62
382.634	102.62
382.86	97.62
383.085	110.62
383.31	91.62
383.535	115.62
383.761	88.62
383.986	98.62
384.211	83.62
384.436	89.62
384.662	105.62
384.887	99.62
385.112	86.62
385.337	96.62
385.562	101.62
385.787	101.62
386.013	108.62
386.238	101.62
386.463	101.62
386.688	96.62
386.913	98.62
387.138	83.62
387.363	97.62
387.588	112.62
387.813	103.62
388.038	101.62
388.263	89.62
388.488	104.62
388.713	110.62
388.938	94.62
389.163	93.62
389.387	101.62
389.612	90.62
389.837	98.62
390.062	94.62
390.287	87.62
390.512	102.62
390.736	95.62
390.961	107.62
391.186	114.62
391.411	104.62
391.636	107.62
391.86	102.62
392.085	112.62
392.31	86.62
392.534	105.62
392.759	91.62
392.984	82.62
393.208	97.62
393.433	98.62
393.658	102.62
393.882	95.62
394.107	98.62
394.331	94.62
394.556	101.62
394.78	101.62
395.005	122.62
395.229	98.62
395.454	116.62
395.678	100.62
395.903	108.62
396.127	89.62
396.352	105.62
396.576	111.62
396.801	100.62
397.025	100.62
397.249	118.62
397.474	113.62
397.698	116.62
397.922	100.62
398.147	107.62
398.371	105.62
398.595	108.62
398.82	100.62
399.044	112.62
399.268	101.62
399.492	103.62
399.717	112.62
399.941	109.62
400.165	109.62
400.389	108.62
400.613	105.62
400.837	103.62
401.062	100.62
401.286	109.62
401.51	113.62
401.734	112.62
401.958	97.62
402.182	106.62
402.406	116.62
402.63	104.62
402.854	107.62
403.078	118.62
403.302	115.62
403.526	95.62
403.75	99.62
403.974	122.62
404.198	129.62
404.422	113.62
404.645	130.62
404.869	122.62
405.093	120.62
405.317	123.62
405.541	114.62
405.765	118.62
405.988	117.62
406.212	104.62
406.436	107.62
406.66	115.62
406.883	114.62
407.107	125.62
407.331	111.62
407.555	106.62
407.778	115.62
408.002	123.62
408.226	112.62
408.449	118.62
408.673	111.62
408.896	122.62
409.12	129.62
409.344	124.62
409.567	121.62
409.791	113.62
410.014	116.62
410.238	113.62
410.461	127.62
410.685	116.62
410.908	109.62
411.132	122.62
411.355	119.62
411.578	120.62
411.802	127.62
412.025	104.62
412.249	127.62
412.472	106.62
412.695	115.62
412.919	107.62
413.142	99.62
413.365	117.62
413.589	111.62
413.812	105.62
414.035	135.62
414.258	121.62
414.482	117.62
414.705	128.62
414.928	107.62
415.151	121.62
415.374	121.62
415.597	128.62
415.821	105.62
416.044	122.62
416.267	121.62
416.49	117.62
416.713	123.62
416.936	116.62
417.159	115.62
417.382	119.62
417.605	121.62
417.828	123.62
418.051	126.62
418.274	133.62
418.497	138.62
418.72	130.62
418.943	128.62
419.166	121.62
419.389	128.62
419.611	140.62
419.834	127.62
420.057	127.62
420.28	127.62
420.503	129.62
420.726	128.62
420.948	111.62
421.171	139.62
421.394	134.62
421.617	127.62
421.839	139.62
422.062	113.62
422.285	129.62
422.507	143.62
422.73	124.62
422.953	123.62
423.175	124.62
423.398	132.62
423.621	153.62
423.843	135.62
424.066	139.62
424.288	130.62
424.511	146.62
424.733	147.62
424.956	137.62
425.178	141.62
425.401	134.62
425.623	125.62
425.846	148.62
426.068	126.62
426.291	136.62
426.513	139.62
426.735	128.62
426.958	135.62
427.18	136.62
427.402	127.62
427.625	120.62
427.847	132.62
428.069	117.62
428.292	136.62
428.514	118.62
428.736	129.62
428.958	113.62
429.181	131.62
429.403	125.62
429.625	127.62
429.847	117.62
430.069	130.62
430.292	127.62
430.514	127.62
430.736	124.62
430.958	125.62
431.18	126.62
431.402	137.62
431.624	115.62
431.846	111.62
432.068	97.62
432.29	87.62
432.512	107.62
432.734	118.62
432.956	121.62
433.178	132.62
433.4	147.62
433.622	143.62
433.844	135.62
434.066	121.62
434.287	97.62
434.509	98.62
434.731	96.62
434.953	114.62
435.175	123.62
435.397	121.62
435.618	120.62
435.84	113.62
436.062	126.62
436.284	126.62
436.505	137.62
436.727	136.62
436.949	119.62
437.17	113.62
437.392	117.62
437.614	127.62
437.835	103.62
438.057	88.62
438.278	103.62
438.5	117.62
438.721	123.62
438.943	129.62
439.165	133.62
439.386	144.62
439.608	140.62
439.829	140.62
440.05	142.62
440.272	141.62
440.493	151.62
440.715	140.62
440.936	145.62
441.158	138.62
441.379	131.62
441.6	156.62
441.822	132.62
442.043	139.62
442.264	135.62
442.486	148.62
442.707	125.62
442.928	137.62
443.149	138.62
443.371	123.62
443.592	140.62
443.813	135.62
444.034	127.62
444.255	147.62
444.476	144.62
444.698	143.62
444.919	156.62
445.14	278.62
445.361	212.62
445.582	151.62
445.803	149.62
446.024	143.62
446.245	145.62
446.466	153.62
446.687	134.62
446.908	155.62
447.129	142.62
447.35	156.62
447.571	148.62
447.792	130.62
448.013	137.62
448.234	145.62
448.455	123.62
448.675	138.62
448.896	131.62
449.117	135.62
449.338	137.62
449.559	126.62
449.779	133.62
450	127.62
450.221	142.62
450.442	124.62
450.662	155.62
450.883	149.62
451.104	125.62
451.324	138.62
451.545	124.62
451.766	129.62
451.986	132.62
452.207	124.62
452.428	124.62
452.648	127.62
452.869	127.62
453.089	114.62
453.31	107.62
453.53	105.62
453.751	108.62
453.971	102.62
454.192	114.62
454.412	127.62
454.633	135.62
454.853	121.62
455.073	124.62
455.294	145.62
455.514	129.62
455.734	130.62
455.955	122.62
456.175	114.62
456.395	115.62
456.616	113.62
456.836	109.62
457.056	107.62
457.276	105.62
457.497	106.62
457.717	111.62
457.937	111.62
458.157	120.62
458.377	96.62
458.598	97.62
458.818	87.62
459.038	76.62
459.258	74.62
459.478	81.62
459.698	96.62
459.918	95.62
460.138	116.62
460.358	122.62
460.578	106.62
460.798	118.62
461.018	111.62
461.238	128.62
461.458	112.62
461.678	114.62
461.898	115.62
462.118	123.62
462.338	108.62
462.558	107.62
462.777	101.62
462.997	109.62
463.217	112.62
463.437	113.62
463.657	98.62
463.876	111.62
464.096	110.62
464.316	103.62
464.536	111.62
464.755	102.62
464.975	120.62
465.195	105.62
465.414	102.62
465.634	124.62
465.854	125.62
466.073	117.62
466.293	125.62
466.512	123.62
466.732	130.62
466.951	140.62
467.171	128.62
467.391	127.62
467.61	136.62
467.829	125.62
468.049	139.62
468.268	121.62
468.488	135.62
468.707	141.62
468.927	128.62
469.146	136.62
469.365	144.62
469.585	147.62
469.804	138.62
470.023	132.62
470.243	147.62
470.462	145.62
470.681	133.62
470.901	115.62
471.12	135.62
471.339	138.62
471.558	134.62
471.777	136.62
471.997	137.62
472.216	113.62
472.435	126.62
472.654	97.62
472.873	111.62
473.092	117.62
473.311	128.62
473.53	123.62
473.749	135.62
473.968	121.62
474.187	114.62
474.406	118.62
474.625	136.62
474.844	140.62
475.063	134.62
475.282	116.62
475.501	118.62
475.72	128.62
475.939	128.62
476.158	123.62
476.377	122.62
476.596	122.62
476.814	119.62
477.033	89.62
477.252	121.62
477.471	127.62
477.69	124.62
477.908	131.62
478.127	132.62
478.346	124.62
478.564	131.62
478.783	129.62
479.002	138.62
479.22	153.62
479.439	141.62
479.658	120.62
479.876	127.62
480.095	122.62
480.313	120.62
480.532	113.62
480.751	99.62
480.969	100.62
481.188	94.62
481.406	77.62
481.624	104.62
481.843	75.62
482.061	83.62
482.28	119.62
482.498	100.62
482.717	104.62
482.935	136.62
483.153	151.62
483.372	151.62
483.59	138.62
483.808	132.62
484.027	143.62
484.245	137.62
484.463	145.62
484.681	164.62
484.9	153.62
485.118	125.62
485.336	125.62
485.554	115.62
485.772	106.62
485.99	106.62
486.209	107.62
486.427	113.62
486.645	119.62
486.863	137.62
487.081	138.62
487.299	131.62
487.517	120.62
487.735	170.62
487.953	161.62
488.171	184.62
488.389	169.62
488.607	164.62
488.825	142.62
489.043	128.62
489.261	139.62
489.479	137.62
489.696	144.62
489.914	143.62
490.132	128.62
490.35	159.62
490.568	160.62
490.786	185.62
491.003	177.62
491.221	180.62
491.439	191.62
491.657	185.62
491.874	197.62
492.092	232.62
492.31	234.62
492.527	230.62
492.745	201.62
492.963	198.62
493.18	189.62
493.398	179.62
493.615	166.62
493.833	173.62
494.05	182.62
494.268	185.62
494.485	170.62
494.703	179.62
494.92	175.62
495.138	163.62
495.355	157.62
495.573	168.62
495.79	177.62
496.008	155.62
496.225	155.62
496.442	169.62
496.66	175.62
496.877	172.62
497.094	160.62
497.312	169.62
497.529	151.62
497.746	161.62
497.963	138.62
498.181	131.62
498.398	123.62
498.615	133.62
498.832	108.62
499.049	121.62
499.267	113.62
499.484	122.62
499.701	122.62
499.918	136.62
500.135	150.62
500.352	129.62
500.569	149.62
500.786	143.62
501.003	146.62
501.22	130.62
501.437	133.62
501.654	127.62
501.871	141.62
502.088	151.62
502.305	123.62
502.522	127.62
502.739	132.62
502.956	131.62
503.172	131.62
503.389	117.62
503.606	122.62
503.823	121.62
504.04	122.62
504.256	123.62
504.473	121.62
504.69	131.62
504.907	129.62
505.123	118.62
505.34	128.62
505.557	137.62
505.773	137.62
505.99	136.62
506.207	115.62
506.423	119.62
506.64	115.62
506.856	120.62
507.073	112.62
507.289	111.62
507.506	106.62
507.722	113.62
507.939	121.62
508.155	122.62
508.372	121.62
508.588	112.62
508.805	118.62
509.021	108.62
509.238	95.62
509.454	111.62
509.67	104.62
509.887	98.62
510.103	99.62
510.319	95.62
510.536	98.62
510.752	96.62
510.968	81.62
511.184	93.62
511.401	95.62
511.617	91.62
511.833	93.62
