Data from Location4.07152019.Energy5.Lamp.07192019.3%Agarose_HRD10591_16-19-34-925.txt Node
Date: Fri Jul 19 16:19:34 EDT 2019
User: cochatt
Spectrometer: HR+D1059
Trigger mode: 1
Integration Time (sec): 1.000000E-1
Scans to average: 1
Electric dark correction enabled: true
Nonlinearity correction enabled: false
Boxcar width: 0
XAxis mode: Wavelengths
Number of Pixels in Spectrum: 2048
>>>>>Begin Spectral Data<<<<<
223.165	-28
223.4	-28
223.635	-28
223.869	-25
224.104	-30
224.338	-26
224.573	-10
224.808	7
225.042	-2
225.277	2
225.511	-9
225.746	-4
225.98	10
226.215	4
226.449	23
226.683	16
226.918	30
227.152	42
227.387	27
227.621	33
227.856	54
228.09	42
228.324	63
228.559	56
228.793	47
229.027	65
229.262	70
229.496	67
229.73	71
229.964	73
230.199	71
230.433	76
230.667	69
230.901	69
231.136	74
231.37	72
231.604	86
231.838	81
232.072	70
232.306	80
232.541	86
232.775	90
233.009	94
233.243	75
233.477	76
233.711	87
233.945	88
234.179	73
234.413	78
234.647	87
234.881	77
235.115	82
235.349	80
235.583	87
235.817	64
236.051	68
236.285	76
236.519	80
236.753	75
236.987	92
237.221	83
237.455	67
237.689	76
237.922	83
238.156	85
238.39	74
238.624	80
238.858	64
239.091	87
239.325	68
239.559	83
239.793	90
240.027	66
240.26	67
240.494	88
240.728	68
240.961	76
241.195	89
241.429	78
241.662	76
241.896	73
242.13	74
242.363	79
242.597	70
242.83	79
243.064	67
243.298	76
243.531	75
243.765	77
243.998	71
244.232	78
244.465	77
244.699	78
244.932	75
245.166	70
245.399	72
245.633	80
245.866	75
246.099	72
246.333	84
246.566	76
246.8	81
247.033	86
247.266	72
247.5	89
247.733	86
247.966	87
248.2	85
248.433	79
248.666	79
248.899	76
249.133	75
249.366	68
249.599	77
249.832	78
250.066	83
250.299	85
250.532	76
250.765	60
250.998	84
251.231	79
251.465	74
251.698	94
251.931	83
252.164	73
252.397	88
252.63	72
252.863	65
253.096	80
253.329	81
253.562	84
253.795	79
254.028	71
254.261	77
254.494	82
254.727	89
254.96	89
255.193	89
255.426	75
255.659	72
255.892	95
256.124	71
256.357	81
256.59	71
256.823	73
257.056	76
257.289	72
257.521	72
257.754	84
257.987	82
258.22	98
258.452	99
258.685	92
258.918	86
259.151	73
259.383	88
259.616	78
259.849	90
260.081	80
260.314	74
260.547	86
260.779	78
261.012	70
261.244	68
261.477	70
261.71	83
261.942	93
262.175	85
262.407	81
262.64	86
262.872	76
263.105	78
263.337	78
263.57	87
263.802	79
264.035	87
264.267	85
264.499	71
264.732	95
264.964	72
265.197	80
265.429	82
265.661	79
265.894	88
266.126	75
266.358	77
266.591	86
266.823	69
267.055	87
267.287	76
267.52	91
267.752	95
267.984	89
268.216	75
268.448	66
268.681	79
268.913	82
269.145	90
269.377	89
269.609	89
269.841	84
270.073	85
270.306	83
270.538	75
270.77	88
271.002	83
271.234	76
271.466	80
271.698	76
271.93	94
272.162	68
272.394	80
272.626	76
272.858	86
273.09	80
273.322	78
273.553	68
273.785	90
274.017	83
274.249	92
274.481	82
274.713	79
274.945	82
275.176	82
275.408	91
275.64	82
275.872	90
276.104	81
276.335	89
276.567	86
276.799	80
277.031	84
277.262	99
277.494	90
277.726	98
277.957	85
278.189	92
278.421	92
278.652	83
278.884	81
279.115	79
279.347	86
279.579	90
279.81	83
280.042	82
280.273	83
280.505	85
280.736	99
280.968	100
281.199	91
281.431	93
281.662	80
281.894	76
282.125	87
282.356	91
282.588	80
282.819	76
283.051	67
283.282	67
283.513	88
283.745	95
283.976	83
284.207	83
284.439	81
284.67	83
284.901	102
285.132	83
285.364	100
285.595	75
285.826	84
286.057	71
286.288	84
286.52	86
286.751	73
286.982	81
287.213	86
287.444	96
287.675	81
287.906	80
288.138	67
288.369	83
288.6	83
288.831	76
289.062	91
289.293	95
289.524	80
289.755	81
289.986	83
290.217	90
290.448	70
290.679	86
290.91	84
291.141	81
291.371	66
291.602	82
291.833	91
292.064	88
292.295	82
292.526	78
292.757	79
292.987	68
293.218	71
293.449	83
293.68	88
293.91	80
294.141	84
294.372	79
294.603	82
294.833	83
295.064	78
295.295	78
295.525	75
295.756	73
295.987	85
296.217	97
296.448	84
296.679	92
296.909	94
297.14	82
297.37	79
297.601	88
297.831	72
298.062	80
298.292	76
298.523	79
298.753	90
298.984	88
299.214	81
299.445	82
299.675	88
299.905	91
300.136	75
300.366	73
300.597	84
300.827	80
301.057	73
301.288	81
301.518	85
301.748	79
301.979	82
302.209	79
302.439	101
302.669	86
302.9	88
303.13	68
303.36	83
303.59	74
303.82	89
304.051	81
304.281	79
304.511	76
304.741	82
304.971	68
305.201	85
305.431	89
305.661	91
305.891	80
306.121	80
306.352	81
306.582	82
306.812	82
307.042	87
307.272	76
307.502	97
307.731	85
307.961	86
308.191	86
308.421	85
308.651	82
308.881	83
309.111	87
309.341	75
309.571	86
309.8	81
310.03	73
310.26	68
310.49	79
310.72	84
310.949	92
311.179	80
311.409	87
311.639	77
311.868	90
312.098	94
312.328	95
312.557	82
312.787	88
313.017	85
313.246	72
313.476	75
313.706	93
313.935	88
314.165	74
314.394	84
314.624	82
314.853	80
315.083	92
315.312	87
315.542	91
315.771	86
316.001	82
316.23	77
316.46	81
316.689	84
316.919	106
317.148	82
317.377	87
317.607	94
317.836	81
318.065	91
318.295	100
318.524	77
318.753	92
318.983	95
319.212	86
319.441	78
319.67	91
319.9	85
320.129	71
320.358	82
320.587	86
320.816	78
321.046	85
321.275	87
321.504	95
321.733	99
321.962	90
322.191	70
322.42	92
322.649	92
322.878	94
323.108	105
323.337	92
323.566	85
323.795	81
324.024	79
324.253	84
324.482	91
324.71	84
324.939	77
325.168	71
325.397	78
325.626	88
325.855	81
326.084	84
326.313	84
326.542	80
326.77	99
326.999	88
327.228	75
327.457	78
327.686	80
327.914	83
328.143	85
328.372	76
328.6	80
328.829	79
329.058	82
329.287	92
329.515	98
329.744	80
329.972	83
330.201	81
330.43	67
330.658	88
330.887	82
331.115	90
331.344	82
331.572	81
331.801	71
332.03	92
332.258	83
332.486	87
332.715	72
332.943	83
333.172	80
333.4	87
333.629	88
333.857	98
334.085	73
334.314	82
334.542	90
334.771	78
334.999	94
335.227	98
335.455	91
335.684	96
335.912	70
336.14	85
336.369	73
336.597	95
336.825	80
337.053	89
337.281	94
337.51	86
337.738	91
337.966	89
338.194	74
338.422	80
338.65	73
338.878	85
339.106	89
339.334	76
339.562	77
339.79	90
340.018	77
340.246	92
340.474	96
340.702	86
340.93	94
341.158	85
341.386	91
341.614	68
341.842	74
342.07	78
342.298	91
342.526	93
342.754	77
342.981	85
343.209	70
343.437	72
343.665	85
343.893	84
344.12	78
344.348	75
344.576	78
344.804	88
345.031	88
345.259	77
345.487	83
345.714	90
345.942	86
346.17	78
346.397	90
346.625	75
346.853	72
347.08	91
347.308	56
347.535	86
347.763	85
347.99	96
348.218	76
348.445	79
348.673	79
348.9	85
349.128	96
349.355	89
349.583	80
349.81	80
350.037	70
350.265	78
350.492	84
350.72	89
350.947	84
351.174	73
351.402	75
351.629	84
351.856	78
352.083	87
352.311	94
352.538	81
352.765	77
352.992	84
353.22	76
353.447	90
353.674	86
353.901	82
354.128	105
354.355	76
354.583	79
354.81	93
355.037	83
355.264	83
355.491	87
355.718	66
355.945	76
356.172	87
356.399	71
356.626	85
356.853	82
357.08	74
357.307	92
357.534	71
357.761	82
357.988	87
358.215	99
358.441	77
358.668	85
358.895	86
359.122	84
359.349	91
359.576	84
359.802	91
360.029	88
360.256	103
360.483	84
360.709	76
360.936	82
361.163	87
361.39	73
361.616	82
361.843	60
362.07	80
362.296	78
362.523	74
362.749	84
362.976	74
363.203	86
363.429	86
363.656	91
363.882	94
364.109	81
364.335	70
364.562	91
364.788	81
365.015	88
365.241	97
365.468	89
365.694	99
365.92	77
366.147	75
366.373	78
366.599	88
366.826	83
367.052	90
367.278	95
367.505	88
367.731	118
367.957	86
368.184	91
368.41	83
368.636	89
368.862	81
369.089	93
369.315	82
369.541	104
369.767	90
369.993	92
370.219	82
370.445	98
370.672	71
370.898	86
371.124	82
371.35	86
371.576	98
371.802	90
372.028	85
372.254	83
372.48	99
372.706	91
372.932	97
373.158	107
373.384	92
373.61	97
373.835	94
374.061	88
374.287	88
374.513	95
374.739	95
374.965	85
375.191	82
375.416	91
375.642	95
375.868	96
376.094	93
376.319	81
376.545	102
376.771	86
376.997	90
377.222	95
377.448	85
377.674	103
377.899	113
378.125	104
378.35	96
378.576	89
378.802	99
379.027	90
379.253	96
379.478	85
379.704	81
379.929	87
380.155	106
380.38	101
380.606	83
380.831	96
381.057	95
381.282	84
381.507	85
381.733	110
381.958	100
382.184	96
382.409	108
382.634	101
382.86	73
383.085	103
383.31	101
383.535	93
383.761	108
383.986	115
384.211	101
384.436	96
384.662	107
384.887	98
385.112	97
385.337	90
385.562	87
385.787	91
386.013	102
386.238	89
386.463	99
386.688	104
386.913	105
387.138	87
387.363	106
387.588	97
387.813	105
388.038	103
388.263	108
388.488	104
388.713	95
388.938	101
389.163	97
389.387	99
389.612	98
389.837	105
390.062	93
390.287	89
390.512	102
390.736	97
390.961	90
391.186	91
391.411	102
391.636	104
391.86	97
392.085	109
392.31	93
392.534	105
392.759	98
392.984	100
393.208	103
393.433	103
393.658	99
393.882	101
394.107	91
394.331	102
394.556	106
394.78	113
395.005	110
395.229	104
395.454	99
395.678	108
395.903	98
396.127	106
396.352	101
396.576	90
396.801	108
397.025	91
397.249	112
397.474	112
397.698	117
397.922	107
398.147	106
398.371	105
398.595	103
398.82	106
399.044	98
399.268	102
399.492	106
399.717	95
399.941	107
400.165	95
400.389	110
400.613	101
400.837	107
401.062	96
401.286	104
401.51	96
401.734	109
401.958	123
402.182	110
402.406	101
402.63	106
402.854	105
403.078	101
403.302	105
403.526	106
403.75	116
403.974	121
404.198	103
404.422	110
404.645	122
404.869	107
405.093	115
405.317	118
405.541	116
405.765	122
405.988	118
406.212	103
406.436	106
406.66	116
406.883	110
407.107	116
407.331	107
407.555	101
407.778	119
408.002	112
408.226	119
408.449	120
408.673	120
408.896	118
409.12	110
409.344	111
409.567	115
409.791	105
410.014	122
410.238	117
410.461	107
410.685	101
410.908	112
411.132	120
411.355	128
411.578	110
411.802	120
412.025	108
412.249	106
412.472	119
412.695	104
412.919	114
413.142	120
413.365	104
413.589	110
413.812	118
414.035	106
414.258	114
414.482	110
414.705	116
414.928	119
415.151	130
415.374	121
415.597	116
415.821	114
416.044	127
416.267	135
416.49	129
416.713	121
416.936	122
417.159	125
417.382	127
417.605	121
417.828	115
418.051	123
418.274	130
418.497	122
418.72	128
418.943	124
419.166	127
419.389	121
419.611	122
419.834	131
420.057	134
420.28	138
420.503	131
420.726	141
420.948	120
421.171	120
421.394	130
421.617	130
421.839	138
422.062	140
422.285	131
422.507	127
422.73	125
422.953	114
423.175	125
423.398	128
423.621	112
423.843	142
424.066	132
424.288	129
424.511	131
424.733	149
424.956	139
425.178	123
425.401	136
425.623	133
425.846	127
426.068	137
426.291	128
426.513	139
426.735	126
426.958	128
427.18	120
427.402	119
427.625	121
427.847	123
428.069	142
428.292	136
428.514	143
428.736	122
428.958	132
429.181	127
429.403	117
429.625	123
429.847	138
430.069	133
430.292	134
430.514	132
430.736	143
430.958	139
431.18	131
431.402	116
431.624	120
431.846	106
432.068	99
432.29	98
432.512	94
432.734	124
432.956	132
433.178	140
433.4	130
433.622	131
433.844	114
434.066	130
434.287	112
434.509	89
434.731	87
434.953	99
435.175	104
435.397	127
435.618	116
435.84	114
436.062	123
436.284	118
436.505	120
436.727	104
436.949	128
437.17	130
437.392	136
437.614	116
437.835	108
438.057	122
438.278	110
438.5	130
438.721	121
438.943	132
439.165	144
439.386	136
439.608	131
439.829	148
440.05	157
440.272	150
440.493	141
440.715	144
440.936	140
441.158	137
441.379	142
441.6	154
441.822	147
442.043	144
442.264	134
442.486	125
442.707	147
442.928	123
443.149	134
443.371	130
443.592	128
443.813	135
444.034	122
444.255	141
444.476	141
444.698	126
444.919	142
445.14	245
445.361	190
445.582	148
445.803	139
446.024	162
446.245	139
446.466	142
446.687	134
446.908	144
447.129	142
447.35	154
447.571	154
447.792	132
448.013	148
448.234	152
448.455	138
448.675	146
448.896	139
449.117	134
449.338	132
449.559	140
449.779	128
450	126
450.221	135
450.442	122
450.662	137
450.883	130
451.104	135
451.324	131
451.545	130
451.766	122
451.986	130
452.207	119
452.428	134
452.648	134
452.869	113
453.089	124
453.31	116
453.53	111
453.751	108
453.971	108
454.192	101
454.412	107
454.633	112
454.853	126
455.073	123
455.294	124
455.514	119
455.734	122
455.955	120
456.175	120
456.395	107
456.616	99
456.836	107
457.056	120
457.276	110
457.497	100
457.717	105
457.937	107
458.157	99
458.377	94
458.598	102
458.818	96
459.038	90
459.258	96
459.478	87
459.698	77
459.918	105
460.138	98
460.358	104
460.578	107
460.798	110
461.018	119
461.238	111
461.458	112
461.678	130
461.898	112
462.118	108
462.338	134
462.558	108
462.777	115
462.997	118
463.217	108
463.437	115
463.657	105
463.876	112
464.096	96
464.316	110
464.536	125
464.755	114
464.975	118
465.195	132
465.414	115
465.634	108
465.854	122
466.073	120
466.293	114
466.512	130
466.732	130
466.951	140
467.171	138
467.391	135
467.61	131
467.829	114
468.049	120
468.268	137
468.488	142
468.707	139
468.927	141
469.146	117
469.365	140
469.585	138
469.804	134
470.023	132
470.243	135
470.462	127
470.681	153
470.901	153
471.12	140
471.339	148
471.558	144
471.777	123
471.997	138
472.216	110
472.435	116
472.654	114
472.873	117
473.092	112
473.311	122
473.53	131
473.749	122
473.968	121
474.187	119
474.406	118
474.625	128
474.844	152
475.063	127
475.282	114
475.501	108
475.72	105
475.939	111
476.158	120
476.377	131
476.596	119
476.814	111
477.033	114
477.252	108
477.471	120
477.69	123
477.908	136
478.127	142
478.346	135
478.564	144
478.783	131
479.002	129
479.22	107
479.439	122
479.658	120
479.876	122
480.095	112
480.313	113
480.532	113
480.751	103
480.969	95
481.188	98
481.406	99
481.624	82
481.843	85
482.061	110
482.28	104
482.498	119
482.717	92
482.935	115
483.153	132
483.372	152
483.59	134
483.808	133
484.027	131
484.245	121
484.463	153
484.681	145
484.9	139
485.118	132
485.336	123
485.554	104
485.772	102
485.99	96
486.209	108
486.427	120
486.645	110
486.863	134
487.081	142
487.299	146
487.517	144
487.735	153
487.953	166
488.171	163
488.389	168
488.607	155
488.825	141
489.043	137
489.261	119
489.479	134
489.696	131
489.914	141
490.132	132
490.35	152
490.568	154
490.786	161
491.003	168
491.221	177
491.439	176
491.657	174
491.874	211
492.092	208
492.31	224
492.527	209
492.745	215
492.963	188
493.18	178
493.398	182
493.615	170
493.833	180
494.05	189
494.268	164
494.485	165
494.703	158
494.92	169
495.138	163
495.355	148
495.573	151
495.79	164
496.008	177
496.225	179
496.442	159
496.66	184
496.877	144
497.094	152
497.312	162
497.529	159
497.746	148
497.963	152
498.181	126
498.398	124
498.615	115
498.832	108
499.049	114
499.267	113
499.484	136
499.701	130
499.918	135
500.135	149
500.352	144
500.569	124
500.786	143
501.003	140
501.22	129
501.437	131
501.654	117
501.871	134
502.088	134
502.305	131
502.522	132
502.739	143
502.956	118
503.172	130
503.389	112
503.606	122
503.823	119
504.04	120
504.256	114
504.473	101
504.69	110
504.907	125
505.123	123
505.34	126
505.557	130
505.773	121
505.99	104
506.207	105
506.423	126
506.64	120
506.856	120
507.073	121
507.289	117
507.506	112
507.722	112
507.939	123
508.155	111
508.372	118
508.588	117
508.805	109
509.021	113
509.238	115
509.454	106
509.67	114
509.887	78
510.103	103
510.319	91
510.536	98
510.752	85
510.968	81
511.184	98
511.401	87
511.617	92
511.833	67
512.049	82
512.265	94
512.481	100
512.698	89
512.914	93
513.13	100
513.346	99
513.562	91
513.778	90
513.994	86
514.21	94
514.426	95
514.642	89
514.858	104
515.074	95
515.29	83
515.506	82
515.721	111
515.937	89
516.153	83
516.369	83
516.585	96
516.801	93
517.016	84
517.232	92
517.448	92
517.664	95
517.879	106
518.095	87
518.311	93
518.527	86
518.742	91
518.958	106
519.173	115
519.389	117
519.605	111
519.82	111
520.036	90
520.251	103
520.467	94
520.682	94
520.898	91
521.113	96
521.329	85
521.544	92
521.76	86
521.975	92
522.19	97
522.406	88
522.621	99
522.836	93
523.052	115
523.267	109
523.482	124
523.698	111
523.913	120
524.128	100
524.343	111
524.559	110
524.774	115
524.989	134
525.204	120
525.419	105
525.634	124
525.849	122
526.064	117
526.28	94
526.495	113
526.71	80
526.925	88
527.14	82
527.355	91
527.57	90
527.785	90
527.999	95
528.214	117
528.429	125
528.644	120
528.859	140
529.074	129
529.289	163
529.503	143
529.718	143
529.933	127
530.148	101
530.363	88
530.577	97
530.792	88
531.007	81
531.221	97
531.436	83
531.651	89
531.865	100
532.08	73
532.295	101
532.509	108
532.724	72
532.938	102
533.153	95
533.367	95
533.582	119
533.796	116
534.011	123
534.225	101
534.44	94
534.654	101
534.868	89
535.083	93
535.297	95
535.511	95
535.726	93
535.94	98
536.154	106
536.369	92
536.583	93
536.797	86
537.011	86
537.225	89
537.44	98
537.654	100
537.868	102
538.082	99
538.296	95
538.51	105
538.724	116
538.938	129
539.153	144
539.367	121
539.581	108
539.795	104
540.009	99
540.222	93
540.436	121
540.65	116
540.864	126
541.078	137
541.292	146
541.506	163
541.72	166
541.934	185
542.147	196
542.361	181
542.575	155
542.789	155
543.002	143
543.216	134
543.43	130
543.644	128
543.857	131
544.071	151
544.285	153
544.498	140
544.712	151
544.925	165
545.139	157
545.352	151
545.566	154
545.779	148
545.993	136
546.206	158
546.42	158
546.633	155
546.847	160
547.06	155
547.274	171
547.487	176
547.7	176
547.914	169
548.127	156
548.34	159
548.554	155
548.767	137
548.98	156
549.193	161
549.407	155
549.62	141
549.833	141
550.046	152
550.259	136
550.473	145
550.686	146
550.899	147
551.112	131
551.325	131
551.538	129
551.751	120
551.964	114
552.177	122
552.39	131
552.603	160
552.816	170
553.029	145
553.242	152
553.455	151
553.667	139
553.88	153
554.093	151
554.306	152
554.519	140
554.732	149
554.944	132
555.157	136
555.37	134
555.583	138
555.795	146
556.008	134
556.221	112
556.433	129
556.646	126
556.859	139
557.071	130
557.284	132
557.496	127
557.709	148
557.921	128
558.134	137
558.346	135
558.559	130
558.771	135
558.984	125
559.196	130
559.409	125
559.621	130
559.833	130
560.046	133
560.258	122
560.47	132
560.683	135
560.895	142
561.107	129
561.32	113
561.532	116
561.744	129
561.956	137
562.168	136
562.381	124
562.593	132
562.805	126
563.017	133
563.229	134
563.441	127
563.653	121
563.865	120
564.077	121
564.289	124
564.501	116
564.713	107
564.925	124
565.137	125
565.349	126
565.561	121
565.773	122
565.985	121
566.197	120
566.408	123
566.62	120
566.832	115
567.044	94
567.255	116
567.467	104
567.679	127
567.891	114
568.102	122
568.314	92
568.526	84
568.737	93
568.949	87
569.161	82
569.372	77
569.584	87
569.795	87
570.007	90
570.218	92
570.43	85
570.641	96
570.853	89
571.064	104
571.276	103
571.487	115
571.698	111
571.91	106
572.121	100
572.333	102
572.544	99
572.755	101
572.966	85
573.178	80
573.389	79
573.6	94
573.811	87
574.023	81
574.234	89
574.445	99
574.656	83
574.867	87
575.078	101
575.289	100
575.501	101
575.712	75
575.923	92
576.134	100
576.345	88
576.556	101
576.767	82
576.978	93
577.188	105
