Data from Location4.07152019.Energy5.Lamp.07192019.3%Agarose_HRD10591_16-18-23-925.txt Node
Date: Fri Jul 19 16:18:23 EDT 2019
User: cochatt
Spectrometer: HR+D1059
Trigger mode: 1
Integration Time (sec): 1.000000E-1
Scans to average: 1
Electric dark correction enabled: true
Nonlinearity correction enabled: false
Boxcar width: 0
XAxis mode: Wavelengths
Number of Pixels in Spectrum: 2048
>>>>>Begin Spectral Data<<<<<
223.165	-15.5
223.4	-15.5
223.635	-15.5
223.869	-0.5
224.104	-11.5
224.338	-11.5
224.573	-1.5
224.808	-14.5
225.042	-13.5
225.277	-6.5
225.511	-12.5
225.746	-11.5
225.98	8.5
226.215	9.5
226.449	18.5
226.683	15.5
226.918	22.5
227.152	24.5
227.387	12.5
227.621	39.5
227.856	41.5
228.09	32.5
228.324	66.5
228.559	52.5
228.793	66.5
229.027	54.5
229.262	63.5
229.496	70.5
229.73	66.5
229.964	65.5
230.199	72.5
230.433	77.5
230.667	68.5
230.901	79.5
231.136	71.5
231.37	86.5
231.604	67.5
231.838	74.5
232.072	73.5
232.306	71.5
232.541	80.5
232.775	78.5
233.009	75.5
233.243	92.5
233.477	73.5
233.711	85.5
233.945	80.5
234.179	77.5
234.413	85.5
234.647	77.5
234.881	67.5
235.115	66.5
235.349	92.5
235.583	65.5
235.817	73.5
236.051	84.5
236.285	63.5
236.519	76.5
236.753	70.5
236.987	62.5
237.221	70.5
237.455	75.5
237.689	78.5
237.922	76.5
238.156	69.5
238.39	77.5
238.624	65.5
238.858	80.5
239.091	74.5
239.325	80.5
239.559	84.5
239.793	82.5
240.027	78.5
240.26	72.5
240.494	83.5
240.728	74.5
240.961	64.5
241.195	80.5
241.429	76.5
241.662	74.5
241.896	66.5
242.13	81.5
242.363	61.5
242.597	74.5
242.83	75.5
243.064	77.5
243.298	75.5
243.531	82.5
243.765	68.5
243.998	79.5
244.232	72.5
244.465	67.5
244.699	61.5
244.932	63.5
245.166	79.5
245.399	70.5
245.633	72.5
245.866	81.5
246.099	63.5
246.333	65.5
246.566	82.5
246.8	58.5
247.033	69.5
247.266	77.5
247.5	84.5
247.733	72.5
247.966	73.5
248.2	83.5
248.433	89.5
248.666	72.5
248.899	93.5
249.133	72.5
249.366	76.5
249.599	85.5
249.832	60.5
250.066	77.5
250.299	60.5
250.532	77.5
250.765	77.5
250.998	73.5
251.231	68.5
251.465	81.5
251.698	71.5
251.931	74.5
252.164	72.5
252.397	74.5
252.63	67.5
252.863	78.5
253.096	75.5
253.329	77.5
253.562	73.5
253.795	94.5
254.028	67.5
254.261	79.5
254.494	87.5
254.727	71.5
254.96	80.5
255.193	80.5
255.426	81.5
255.659	80.5
255.892	81.5
256.124	81.5
256.357	84.5
256.59	88.5
256.823	74.5
257.056	70.5
257.289	79.5
257.521	67.5
257.754	74.5
257.987	81.5
258.22	87.5
258.452	72.5
258.685	78.5
258.918	71.5
259.151	76.5
259.383	70.5
259.616	71.5
259.849	71.5
260.081	71.5
260.314	68.5
260.547	71.5
260.779	83.5
261.012	80.5
261.244	83.5
261.477	78.5
261.71	76.5
261.942	75.5
262.175	76.5
262.407	75.5
262.64	89.5
262.872	68.5
263.105	89.5
263.337	72.5
263.57	77.5
263.802	76.5
264.035	83.5
264.267	86.5
264.499	82.5
264.732	78.5
264.964	76.5
265.197	67.5
265.429	77.5
265.661	75.5
265.894	70.5
266.126	74.5
266.358	74.5
266.591	74.5
266.823	82.5
267.055	68.5
267.287	82.5
267.52	89.5
267.752	65.5
267.984	84.5
268.216	90.5
268.448	93.5
268.681	85.5
268.913	83.5
269.145	77.5
269.377	86.5
269.609	74.5
269.841	75.5
270.073	82.5
270.306	81.5
270.538	92.5
270.77	85.5
271.002	84.5
271.234	81.5
271.466	89.5
271.698	72.5
271.93	88.5
272.162	84.5
272.394	86.5
272.626	79.5
272.858	84.5
273.09	64.5
273.322	95.5
273.553	94.5
273.785	88.5
274.017	72.5
274.249	90.5
274.481	81.5
274.713	83.5
274.945	75.5
275.176	85.5
275.408	92.5
275.64	72.5
275.872	70.5
276.104	87.5
276.335	76.5
276.567	88.5
276.799	73.5
277.031	82.5
277.262	81.5
277.494	94.5
277.726	84.5
277.957	88.5
278.189	87.5
278.421	75.5
278.652	92.5
278.884	78.5
279.115	82.5
279.347	95.5
279.579	87.5
279.81	77.5
280.042	87.5
280.273	95.5
280.505	69.5
280.736	88.5
280.968	87.5
281.199	71.5
281.431	80.5
281.662	72.5
281.894	80.5
282.125	77.5
282.356	71.5
282.588	88.5
282.819	92.5
283.051	77.5
283.282	88.5
283.513	84.5
283.745	85.5
283.976	77.5
284.207	89.5
284.439	89.5
284.67	75.5
284.901	85.5
285.132	78.5
285.364	85.5
285.595	66.5
285.826	85.5
286.057	90.5
286.288	84.5
286.52	87.5
286.751	90.5
286.982	97.5
287.213	73.5
287.444	69.5
287.675	63.5
287.906	73.5
288.138	76.5
288.369	83.5
288.6	93.5
288.831	95.5
289.062	96.5
289.293	81.5
289.524	86.5
289.755	99.5
289.986	76.5
290.217	83.5
290.448	83.5
290.679	94.5
290.91	89.5
291.141	79.5
291.371	88.5
291.602	87.5
291.833	83.5
292.064	73.5
292.295	69.5
292.526	79.5
292.757	75.5
292.987	87.5
293.218	80.5
293.449	88.5
293.68	87.5
293.91	90.5
294.141	76.5
294.372	86.5
294.603	77.5
294.833	83.5
295.064	80.5
295.295	89.5
295.525	83.5
295.756	75.5
295.987	101.5
296.217	69.5
296.448	81.5
296.679	90.5
296.909	78.5
297.14	66.5
297.37	71.5
297.601	82.5
297.831	85.5
298.062	85.5
298.292	86.5
298.523	81.5
298.753	87.5
298.984	96.5
299.214	76.5
299.445	87.5
299.675	77.5
299.905	81.5
300.136	77.5
300.366	80.5
300.597	83.5
300.827	81.5
301.057	80.5
301.288	76.5
301.518	69.5
301.748	78.5
301.979	79.5
302.209	82.5
302.439	74.5
302.669	90.5
302.9	90.5
303.13	82.5
303.36	83.5
303.59	78.5
303.82	92.5
304.051	82.5
304.281	89.5
304.511	84.5
304.741	86.5
304.971	85.5
305.201	75.5
305.431	83.5
305.661	83.5
305.891	80.5
306.121	85.5
306.352	93.5
306.582	88.5
306.812	77.5
307.042	86.5
307.272	90.5
307.502	78.5
307.731	86.5
307.961	84.5
308.191	84.5
308.421	78.5
308.651	80.5
308.881	93.5
309.111	70.5
309.341	84.5
309.571	80.5
309.8	85.5
310.03	90.5
310.26	67.5
310.49	78.5
310.72	85.5
310.949	71.5
311.179	87.5
311.409	67.5
311.639	85.5
311.868	94.5
312.098	90.5
312.328	74.5
312.557	80.5
312.787	77.5
313.017	84.5
313.246	87.5
313.476	92.5
313.706	80.5
313.935	86.5
314.165	82.5
314.394	94.5
314.624	84.5
314.853	85.5
315.083	92.5
315.312	73.5
315.542	76.5
315.771	86.5
316.001	77.5
316.23	88.5
316.46	94.5
316.689	74.5
316.919	83.5
317.148	100.5
317.377	91.5
317.607	85.5
317.836	97.5
318.065	99.5
318.295	87.5
318.524	96.5
318.753	97.5
318.983	87.5
319.212	88.5
319.441	75.5
319.67	73.5
319.9	86.5
320.129	100.5
320.358	96.5
320.587	91.5
320.816	71.5
321.046	102.5
321.275	96.5
321.504	84.5
321.733	88.5
321.962	85.5
322.191	87.5
322.42	77.5
322.649	77.5
322.878	77.5
323.108	71.5
323.337	83.5
323.566	76.5
323.795	89.5
324.024	89.5
324.253	81.5
324.482	84.5
324.71	76.5
324.939	94.5
325.168	85.5
325.397	96.5
325.626	85.5
325.855	77.5
326.084	71.5
326.313	83.5
326.542	75.5
326.77	80.5
326.999	85.5
327.228	80.5
327.457	89.5
327.686	89.5
327.914	87.5
328.143	90.5
328.372	94.5
328.6	74.5
328.829	66.5
329.058	87.5
329.287	78.5
329.515	74.5
329.744	94.5
329.972	77.5
330.201	82.5
330.43	79.5
330.658	77.5
330.887	84.5
331.115	66.5
331.344	88.5
331.572	88.5
331.801	91.5
332.03	105.5
332.258	83.5
332.486	78.5
332.715	93.5
332.943	91.5
333.172	100.5
333.4	87.5
333.629	94.5
333.857	80.5
334.085	75.5
334.314	85.5
334.542	106.5
334.771	84.5
334.999	82.5
335.227	97.5
335.455	88.5
335.684	89.5
335.912	93.5
336.14	97.5
336.369	101.5
336.597	78.5
336.825	90.5
337.053	83.5
337.281	87.5
337.51	100.5
337.738	88.5
337.966	87.5
338.194	80.5
338.422	91.5
338.65	90.5
338.878	79.5
339.106	81.5
339.334	92.5
339.562	89.5
339.79	87.5
340.018	81.5
340.246	71.5
340.474	82.5
340.702	91.5
340.93	79.5
341.158	85.5
341.386	84.5
341.614	79.5
341.842	83.5
342.07	80.5
342.298	75.5
342.526	75.5
342.754	81.5
342.981	72.5
343.209	66.5
343.437	80.5
343.665	85.5
343.893	72.5
344.12	90.5
344.348	74.5
344.576	83.5
344.804	72.5
345.031	83.5
345.259	75.5
345.487	77.5
345.714	81.5
345.942	96.5
346.17	80.5
346.397	87.5
346.625	100.5
346.853	79.5
347.08	90.5
347.308	92.5
347.535	85.5
347.763	87.5
347.99	96.5
348.218	88.5
348.445	81.5
348.673	93.5
348.9	88.5
349.128	83.5
349.355	81.5
349.583	67.5
349.81	95.5
350.037	93.5
350.265	93.5
350.492	80.5
350.72	92.5
350.947	81.5
351.174	91.5
351.402	80.5
351.629	82.5
351.856	74.5
352.083	89.5
352.311	85.5
352.538	74.5
352.765	87.5
352.992	90.5
353.22	88.5
353.447	89.5
353.674	87.5
353.901	81.5
354.128	95.5
354.355	85.5
354.583	77.5
354.81	85.5
355.037	84.5
355.264	87.5
355.491	90.5
355.718	80.5
355.945	86.5
356.172	89.5
356.399	86.5
356.626	74.5
356.853	84.5
357.08	85.5
357.307	95.5
357.534	85.5
357.761	69.5
357.988	86.5
358.215	88.5
358.441	87.5
358.668	77.5
358.895	76.5
359.122	97.5
359.349	94.5
359.576	83.5
359.802	84.5
360.029	84.5
360.256	89.5
360.483	82.5
360.709	91.5
360.936	84.5
361.163	91.5
361.39	90.5
361.616	90.5
361.843	80.5
362.07	91.5
362.296	91.5
362.523	89.5
362.749	91.5
362.976	75.5
363.203	93.5
363.429	92.5
363.656	82.5
363.882	82.5
364.109	82.5
364.335	95.5
364.562	79.5
364.788	65.5
365.015	89.5
365.241	67.5
365.468	89.5
365.694	84.5
365.92	88.5
366.147	90.5
366.373	74.5
366.599	69.5
366.826	87.5
367.052	72.5
367.278	82.5
367.505	83.5
367.731	81.5
367.957	94.5
368.184	99.5
368.41	86.5
368.636	101.5
368.862	77.5
369.089	72.5
369.315	86.5
369.541	86.5
369.767	96.5
369.993	85.5
370.219	100.5
370.445	85.5
370.672	97.5
370.898	101.5
371.124	84.5
371.35	93.5
371.576	88.5
371.802	81.5
372.028	86.5
372.254	88.5
372.48	114.5
372.706	92.5
372.932	91.5
373.158	85.5
373.384	86.5
373.61	81.5
373.835	87.5
374.061	99.5
374.287	86.5
374.513	75.5
374.739	85.5
374.965	87.5
375.191	89.5
375.416	91.5
375.642	87.5
375.868	98.5
376.094	92.5
376.319	98.5
376.545	92.5
376.771	90.5
376.997	89.5
377.222	100.5
377.448	94.5
377.674	89.5
377.899	96.5
378.125	87.5
378.35	89.5
378.576	86.5
378.802	103.5
379.027	95.5
379.253	100.5
379.478	92.5
379.704	100.5
379.929	104.5
380.155	95.5
380.38	90.5
380.606	104.5
380.831	104.5
381.057	101.5
381.282	91.5
381.507	99.5
381.733	107.5
381.958	111.5
382.184	100.5
382.409	102.5
382.634	98.5
382.86	107.5
383.085	96.5
383.31	93.5
383.535	95.5
383.761	108.5
383.986	95.5
384.211	95.5
384.436	102.5
384.662	94.5
384.887	98.5
385.112	108.5
385.337	89.5
385.562	87.5
385.787	99.5
386.013	96.5
386.238	111.5
386.463	90.5
386.688	107.5
386.913	102.5
387.138	97.5
387.363	109.5
387.588	102.5
387.813	96.5
388.038	93.5
388.263	106.5
388.488	101.5
388.713	100.5
388.938	98.5
389.163	97.5
389.387	104.5
389.612	96.5
389.837	86.5
390.062	92.5
390.287	100.5
390.512	94.5
390.736	95.5
390.961	111.5
391.186	99.5
391.411	102.5
391.636	101.5
391.86	123.5
392.085	111.5
392.31	93.5
392.534	108.5
392.759	119.5
392.984	96.5
393.208	107.5
393.433	97.5
393.658	98.5
393.882	102.5
394.107	101.5
394.331	105.5
394.556	113.5
394.78	98.5
395.005	94.5
395.229	97.5
395.454	127.5
395.678	97.5
395.903	138.5
396.127	113.5
396.352	111.5
396.576	96.5
396.801	119.5
397.025	116.5
397.249	113.5
397.474	115.5
397.698	103.5
397.922	107.5
398.147	102.5
398.371	118.5
398.595	108.5
398.82	109.5
399.044	100.5
399.268	107.5
399.492	112.5
399.717	100.5
399.941	111.5
400.165	104.5
400.389	108.5
400.613	115.5
400.837	119.5
401.062	110.5
401.286	101.5
401.51	120.5
401.734	123.5
401.958	98.5
402.182	107.5
402.406	118.5
402.63	121.5
402.854	102.5
403.078	102.5
403.302	112.5
403.526	108.5
403.75	117.5
403.974	107.5
404.198	111.5
404.422	109.5
404.645	118.5
404.869	136.5
405.093	111.5
405.317	110.5
405.541	122.5
405.765	119.5
405.988	111.5
406.212	105.5
406.436	92.5
406.66	121.5
406.883	117.5
407.107	115.5
407.331	116.5
407.555	120.5
407.778	118.5
408.002	114.5
408.226	103.5
408.449	123.5
408.673	115.5
408.896	118.5
409.12	103.5
409.344	128.5
409.567	125.5
409.791	114.5
410.014	113.5
410.238	120.5
410.461	115.5
410.685	127.5
410.908	117.5
411.132	118.5
411.355	126.5
411.578	117.5
411.802	107.5
412.025	104.5
412.249	119.5
412.472	113.5
412.695	123.5
412.919	115.5
413.142	124.5
413.365	114.5
413.589	121.5
413.812	121.5
414.035	131.5
414.258	128.5
414.482	130.5
414.705	121.5
414.928	123.5
415.151	131.5
415.374	125.5
415.597	125.5
415.821	127.5
416.044	119.5
416.267	127.5
416.49	123.5
416.713	124.5
416.936	131.5
417.159	130.5
417.382	120.5
417.605	112.5
417.828	115.5
418.051	132.5
418.274	110.5
418.497	115.5
418.72	130.5
418.943	125.5
419.166	130.5
419.389	131.5
419.611	123.5
419.834	135.5
420.057	137.5
420.28	132.5
420.503	133.5
420.726	115.5
420.948	131.5
421.171	121.5
421.394	143.5
421.617	146.5
421.839	146.5
422.062	132.5
422.285	137.5
422.507	141.5
422.73	125.5
422.953	127.5
423.175	125.5
423.398	125.5
423.621	123.5
423.843	127.5
424.066	135.5
424.288	134.5
424.511	131.5
424.733	145.5
424.956	139.5
425.178	133.5
425.401	137.5
425.623	144.5
425.846	127.5
426.068	138.5
426.291	138.5
426.513	142.5
426.735	134.5
426.958	128.5
427.18	127.5
427.402	124.5
427.625	119.5
427.847	135.5
428.069	141.5
428.292	119.5
428.514	138.5
428.736	124.5
428.958	120.5
429.181	112.5
429.403	125.5
429.625	116.5
429.847	129.5
430.069	131.5
430.292	125.5
430.514	143.5
430.736	119.5
430.958	122.5
431.18	119.5
431.402	104.5
431.624	117.5
431.846	124.5
432.068	94.5
432.29	103.5
432.512	102.5
432.734	126.5
432.956	132.5
433.178	132.5
433.4	110.5
433.622	123.5
433.844	135.5
434.066	115.5
434.287	123.5
434.509	101.5
434.731	85.5
434.953	122.5
435.175	114.5
435.397	127.5
435.618	109.5
435.84	99.5
436.062	100.5
436.284	121.5
436.505	144.5
436.727	139.5
436.949	143.5
437.17	118.5
437.392	119.5
437.614	114.5
437.835	125.5
438.057	112.5
438.278	114.5
438.5	132.5
438.721	128.5
438.943	135.5
439.165	138.5
439.386	152.5
439.608	150.5
439.829	125.5
440.05	141.5
440.272	145.5
440.493	154.5
440.715	135.5
440.936	139.5
441.158	131.5
441.379	141.5
441.6	154.5
441.822	139.5
442.043	129.5
442.264	123.5
442.486	134.5
442.707	147.5
442.928	133.5
443.149	133.5
443.371	140.5
443.592	136.5
443.813	125.5
444.034	131.5
444.255	128.5
444.476	140.5
444.698	145.5
444.919	140.5
445.14	266.5
445.361	224.5
445.582	154.5
445.803	148.5
446.024	157.5
446.245	158.5
446.466	166.5
446.687	150.5
446.908	142.5
447.129	162.5
447.35	157.5
447.571	143.5
447.792	131.5
448.013	144.5
448.234	144.5
448.455	133.5
448.675	137.5
448.896	145.5
449.117	138.5
449.338	147.5
449.559	141.5
449.779	141.5
450	140.5
450.221	139.5
450.442	139.5
450.662	142.5
450.883	120.5
451.104	135.5
451.324	127.5
451.545	115.5
451.766	135.5
451.986	124.5
452.207	118.5
452.428	120.5
452.648	123.5
452.869	127.5
453.089	116.5
453.31	99.5
453.53	113.5
453.751	100.5
453.971	115.5
454.192	101.5
454.412	111.5
454.633	108.5
454.853	113.5
455.073	121.5
455.294	125.5
455.514	143.5
455.734	119.5
455.955	127.5
456.175	130.5
456.395	117.5
456.616	101.5
456.836	108.5
457.056	108.5
457.276	117.5
457.497	111.5
457.717	115.5
457.937	107.5
458.157	113.5
458.377	115.5
458.598	102.5
458.818	85.5
459.038	90.5
459.258	77.5
459.478	77.5
459.698	89.5
459.918	103.5
460.138	98.5
460.358	129.5
460.578	121.5
460.798	109.5
461.018	134.5
461.238	125.5
461.458	104.5
461.678	109.5
461.898	102.5
462.118	107.5
462.338	109.5
462.558	115.5
462.777	107.5
462.997	115.5
463.217	101.5
463.437	105.5
463.657	100.5
463.876	104.5
464.096	100.5
464.316	98.5
464.536	111.5
464.755	111.5
464.975	114.5
465.195	120.5
465.414	135.5
465.634	117.5
465.854	102.5
466.073	117.5
466.293	129.5
466.512	116.5
466.732	135.5
466.951	130.5
467.171	128.5
467.391	130.5
467.61	120.5
467.829	133.5
468.049	140.5
468.268	138.5
468.488	118.5
468.707	138.5
468.927	148.5
469.146	141.5
469.365	135.5
469.585	126.5
469.804	155.5
470.023	126.5
470.243	133.5
470.462	140.5
470.681	158.5
470.901	135.5
471.12	137.5
471.339	149.5
471.558	149.5
471.777	143.5
471.997	136.5
472.216	107.5
472.435	107.5
472.654	121.5
472.873	112.5
473.092	113.5
473.311	125.5
473.53	125.5
473.749	121.5
473.968	120.5
474.187	117.5
474.406	113.5
474.625	115.5
474.844	131.5
475.063	127.5
475.282	115.5
475.501	102.5
475.72	115.5
475.939	139.5
476.158	127.5
476.377	124.5
476.596	123.5
476.814	123.5
477.033	122.5
477.252	117.5
477.471	107.5
477.69	127.5
477.908	144.5
478.127	141.5
478.346	123.5
478.564	133.5
478.783	129.5
479.002	128.5
479.22	125.5
479.439	131.5
479.658	129.5
479.876	102.5
480.095	106.5
480.313	118.5
480.532	117.5
480.751	117.5
480.969	111.5
481.188	74.5
481.406	97.5
481.624	93.5
481.843	92.5
482.061	92.5
482.28	105.5
482.498	109.5
482.717	114.5
482.935	127.5
483.153	136.5
483.372	147.5
483.59	136.5
483.808	145.5
484.027	125.5
484.245	129.5
484.463	162.5
484.681	179.5
484.9	159.5
485.118	132.5
485.336	121.5
485.554	116.5
485.772	100.5
485.99	98.5
486.209	118.5
486.427	100.5
486.645	120.5
486.863	123.5
487.081	128.5
487.299	134.5
487.517	145.5
487.735	143.5
487.953	191.5
488.171	179.5
488.389	179.5
488.607	157.5
488.825	129.5
489.043	135.5
489.261	138.5
489.479	133.5
489.696	140.5
489.914	133.5
490.132	130.5
490.35	155.5
490.568	142.5
490.786	153.5
491.003	173.5
491.221	189.5
491.439	189.5
491.657	191.5
491.874	199.5
492.092	220.5
492.31	232.5
492.527	224.5
492.745	220.5
492.963	196.5
493.18	188.5
493.398	184.5
493.615	179.5
493.833	181.5
494.05	163.5
494.268	179.5
494.485	181.5
494.703	168.5
494.92	163.5
495.138	179.5
495.355	172.5
495.573	182.5
495.79	174.5
496.008	166.5
496.225	168.5
496.442	154.5
496.66	161.5
496.877	163.5
497.094	154.5
497.312	156.5
497.529	152.5
497.746	142.5
497.963	128.5
498.181	134.5
498.398	118.5
498.615	120.5
498.832	114.5
499.049	120.5
499.267	129.5
499.484	119.5
499.701	121.5
499.918	131.5
500.135	135.5
500.352	146.5
500.569	149.5
500.786	155.5
501.003	150.5
501.22	151.5
501.437	127.5
501.654	122.5
501.871	121.5
502.088	132.5
502.305	123.5
502.522	123.5
502.739	117.5
502.956	123.5
503.172	119.5
503.389	123.5
503.606	113.5
503.823	116.5
504.04	121.5
504.256	117.5
504.473	124.5
504.69	125.5
504.907	102.5
505.123	115.5
505.34	112.5
505.557	120.5
505.773	113.5
505.99	122.5
506.207	125.5
506.423	123.5
506.64	123.5
506.856	113.5
507.073	109.5
507.289	113.5
507.506	134.5
507.722	107.5
507.939	97.5
508.155	115.5
508.372	119.5
508.588	120.5
508.805	116.5
509.021	99.5
509.238	104.5
509.454	120.5
509.67	106.5
509.887	108.5
510.103	105.5
510.319	100.5
510.536	97.5
510.752	85.5
510.968	82.5
511.184	90.5
511.401	79.5
511.617	97.5
511.833	89.5
512.049	97.5
512.265	96.5
512.481	88.5
512.698	97.5
512.914	91.5
513.13	77.5
513.346	94.5
513.562	87.5
513.778	88.5
513.994	89.5
514.21	85.5
514.426	90.5
514.642	79.5
514.858	88.5
515.074	90.5
515.29	96.5
515.506	91.5
515.721	85.5
515.937	85.5
516.153	92.5
516.369	84.5
516.585	84.5
516.801	92.5
517.016	80.5
517.232	79.5
517.448	104.5
517.664	74.5
517.879	84.5
518.095	84.5
518.311	100.5
518.527	116.5
518.742	91.5
518.958	94.5
519.173	105.5
519.389	106.5
519.605	98.5
519.82	103.5
520.036	105.5
520.251	113.5
520.467	101.5
520.682	101.5
520.898	97.5
521.113	96.5
521.329	93.5
521.544	95.5
521.76	89.5
521.975	97.5
522.19	99.5
522.406	90.5
522.621	104.5
522.836	105.5
523.052	97.5
523.267	115.5
523.482	110.5
523.698	104.5
523.913	114.5
524.128	114.5
524.343	117.5
524.559	121.5
524.774	117.5
524.989	119.5
525.204	131.5
525.419	112.5
525.634	123.5
525.849	129.5
526.064	98.5
526.28	107.5
526.495	85.5
526.71	86.5
526.925	77.5
527.14	86.5
527.355	98.5
527.57	79.5
527.785	99.5
527.999	96.5
528.214	105.5
528.429	112.5
528.644	132.5
528.859	141.5
529.074	153.5
529.289	167.5
529.503	160.5
529.718	131.5
529.933	94.5
530.148	109.5
530.363	103.5
530.577	88.5
530.792	96.5
