Data from Location4.07152019.Energy5.Lamp.07192019.3%Agarose_HRD10591_16-19-47-925.txt Node
Date: Fri Jul 19 16:19:47 EDT 2019
User: cochatt
Spectrometer: HR+D1059
Trigger mode: 1
Integration Time (sec): 1.000000E-1
Scans to average: 1
Electric dark correction enabled: true
Nonlinearity correction enabled: false
Boxcar width: 0
XAxis mode: Wavelengths
Number of Pixels in Spectrum: 2048
>>>>>Begin Spectral Data<<<<<
223.165	-13.44
223.4	-13.44
223.635	-13.44
223.869	-15.44
224.104	-7.44
224.338	-23.44
224.573	-26.44
224.808	-10.44
225.042	-6.44
225.277	-11.44
225.511	-7.44
225.746	6.56
225.98	7.56
226.215	15.56
226.449	17.56
226.683	10.56
226.918	26.56
227.152	37.56
227.387	9.56
227.621	28.56
227.856	34.56
228.09	42.56
228.324	41.56
228.559	54.56
228.793	48.56
229.027	69.56
229.262	65.56
229.496	70.56
229.73	66.56
229.964	67.56
230.199	69.56
230.433	69.56
230.667	75.56
230.901	68.56
231.136	81.56
231.37	66.56
231.604	64.56
231.838	68.56
232.072	74.56
232.306	76.56
232.541	65.56
232.775	71.56
233.009	77.56
233.243	80.56
233.477	76.56
233.711	84.56
233.945	74.56
234.179	71.56
234.413	75.56
234.647	66.56
234.881	70.56
235.115	76.56
235.349	93.56
235.583	64.56
235.817	93.56
236.051	78.56
236.285	84.56
236.519	78.56
236.753	65.56
236.987	80.56
237.221	80.56
237.455	77.56
237.689	67.56
237.922	74.56
238.156	86.56
238.39	79.56
238.624	67.56
238.858	69.56
239.091	78.56
239.325	69.56
239.559	69.56
239.793	75.56
240.027	70.56
240.26	73.56
240.494	83.56
240.728	82.56
240.961	64.56
241.195	73.56
241.429	64.56
241.662	73.56
241.896	71.56
242.13	78.56
242.363	77.56
242.597	81.56
242.83	70.56
243.064	79.56
243.298	76.56
243.531	86.56
243.765	74.56
243.998	56.56
244.232	69.56
244.465	66.56
244.699	71.56
244.932	70.56
245.166	81.56
245.399	83.56
245.633	71.56
245.866	85.56
246.099	81.56
246.333	64.56
246.566	86.56
246.8	75.56
247.033	81.56
247.266	73.56
247.5	77.56
247.733	80.56
247.966	79.56
248.2	81.56
248.433	62.56
248.666	82.56
248.899	73.56
249.133	82.56
249.366	72.56
249.599	58.56
249.832	70.56
250.066	79.56
250.299	100.56
250.532	81.56
250.765	60.56
250.998	68.56
251.231	73.56
251.465	82.56
251.698	68.56
251.931	74.56
252.164	68.56
252.397	74.56
252.63	73.56
252.863	65.56
253.096	79.56
253.329	71.56
253.562	76.56
253.795	79.56
254.028	78.56
254.261	79.56
254.494	80.56
254.727	76.56
254.96	71.56
255.193	81.56
255.426	71.56
255.659	78.56
255.892	96.56
256.124	75.56
256.357	72.56
256.59	68.56
256.823	72.56
257.056	83.56
257.289	81.56
257.521	78.56
257.754	82.56
257.987	89.56
258.22	88.56
258.452	80.56
258.685	78.56
258.918	68.56
259.151	89.56
259.383	64.56
259.616	81.56
259.849	73.56
260.081	92.56
260.314	80.56
260.547	69.56
260.779	76.56
261.012	76.56
261.244	76.56
261.477	80.56
261.71	84.56
261.942	68.56
262.175	62.56
262.407	79.56
262.64	82.56
262.872	85.56
263.105	90.56
263.337	95.56
263.57	75.56
263.802	78.56
264.035	67.56
264.267	65.56
264.499	74.56
264.732	65.56
264.964	78.56
265.197	66.56
265.429	77.56
265.661	80.56
265.894	78.56
266.126	86.56
266.358	72.56
266.591	82.56
266.823	81.56
267.055	88.56
267.287	67.56
267.52	68.56
267.752	79.56
267.984	71.56
268.216	90.56
268.448	91.56
268.681	64.56
268.913	85.56
269.145	83.56
269.377	86.56
269.609	73.56
269.841	78.56
270.073	73.56
270.306	84.56
270.538	76.56
270.77	80.56
271.002	84.56
271.234	75.56
271.466	86.56
271.698	94.56
271.93	72.56
272.162	76.56
272.394	90.56
272.626	89.56
272.858	87.56
273.09	76.56
273.322	77.56
273.553	79.56
273.785	85.56
274.017	86.56
274.249	79.56
274.481	74.56
274.713	93.56
274.945	89.56
275.176	78.56
275.408	72.56
275.64	88.56
275.872	92.56
276.104	76.56
276.335	70.56
276.567	78.56
276.799	77.56
277.031	72.56
277.262	93.56
277.494	89.56
277.726	78.56
277.957	87.56
278.189	73.56
278.421	69.56
278.652	71.56
278.884	72.56
279.115	98.56
279.347	94.56
279.579	97.56
279.81	82.56
280.042	86.56
280.273	81.56
280.505	69.56
280.736	87.56
280.968	85.56
281.199	74.56
281.431	78.56
281.662	79.56
281.894	86.56
282.125	88.56
282.356	69.56
282.588	95.56
282.819	78.56
283.051	75.56
283.282	66.56
283.513	72.56
283.745	100.56
283.976	85.56
284.207	83.56
284.439	82.56
284.67	79.56
284.901	71.56
285.132	82.56
285.364	76.56
285.595	75.56
285.826	77.56
286.057	89.56
286.288	76.56
286.52	74.56
286.751	87.56
286.982	79.56
287.213	89.56
287.444	81.56
287.675	82.56
287.906	85.56
288.138	75.56
288.369	89.56
288.6	87.56
288.831	67.56
289.062	80.56
289.293	74.56
289.524	79.56
289.755	78.56
289.986	72.56
290.217	78.56
290.448	82.56
290.679	88.56
290.91	90.56
291.141	89.56
291.371	93.56
291.602	74.56
291.833	81.56
292.064	79.56
292.295	78.56
292.526	73.56
292.757	79.56
292.987	72.56
293.218	72.56
293.449	74.56
293.68	84.56
293.91	77.56
294.141	76.56
294.372	77.56
294.603	95.56
294.833	72.56
295.064	73.56
295.295	82.56
295.525	81.56
295.756	76.56
295.987	80.56
296.217	74.56
296.448	68.56
296.679	66.56
296.909	84.56
297.14	92.56
297.37	78.56
297.601	72.56
297.831	89.56
298.062	87.56
298.292	79.56
298.523	69.56
298.753	72.56
298.984	77.56
299.214	79.56
299.445	83.56
299.675	83.56
299.905	83.56
300.136	86.56
300.366	73.56
300.597	74.56
300.827	94.56
301.057	83.56
301.288	84.56
301.518	86.56
301.748	80.56
301.979	75.56
302.209	81.56
302.439	85.56
302.669	70.56
302.9	85.56
303.13	72.56
303.36	78.56
303.59	81.56
303.82	75.56
304.051	82.56
304.281	82.56
304.511	80.56
304.741	71.56
304.971	88.56
305.201	88.56
305.431	91.56
305.661	87.56
305.891	89.56
306.121	78.56
306.352	70.56
306.582	76.56
306.812	77.56
307.042	85.56
307.272	84.56
307.502	82.56
307.731	74.56
307.961	87.56
308.191	64.56
308.421	85.56
308.651	78.56
308.881	72.56
309.111	76.56
309.341	69.56
309.571	86.56
309.8	80.56
310.03	84.56
310.26	84.56
310.49	78.56
310.72	83.56
310.949	83.56
311.179	78.56
311.409	75.56
311.639	88.56
311.868	97.56
312.098	79.56
312.328	72.56
312.557	85.56
312.787	77.56
313.017	87.56
313.246	81.56
313.476	82.56
313.706	81.56
313.935	83.56
314.165	91.56
314.394	81.56
314.624	75.56
314.853	84.56
315.083	80.56
315.312	84.56
315.542	77.56
315.771	86.56
316.001	70.56
316.23	89.56
316.46	61.56
316.689	84.56
316.919	98.56
317.148	73.56
317.377	89.56
317.607	84.56
317.836	80.56
318.065	76.56
318.295	85.56
318.524	87.56
318.753	75.56
318.983	74.56
319.212	86.56
319.441	79.56
319.67	87.56
319.9	78.56
320.129	76.56
320.358	84.56
320.587	89.56
320.816	83.56
321.046	84.56
321.275	90.56
321.504	77.56
321.733	86.56
321.962	88.56
322.191	73.56
322.42	78.56
322.649	96.56
322.878	81.56
323.108	93.56
323.337	86.56
323.566	82.56
323.795	86.56
324.024	92.56
324.253	90.56
324.482	73.56
324.71	67.56
324.939	81.56
325.168	94.56
325.397	83.56
325.626	75.56
325.855	77.56
326.084	75.56
326.313	68.56
326.542	86.56
326.77	71.56
326.999	84.56
327.228	77.56
327.457	73.56
327.686	90.56
327.914	72.56
328.143	66.56
328.372	73.56
328.6	94.56
328.829	73.56
329.058	65.56
329.287	80.56
329.515	69.56
329.744	90.56
329.972	70.56
330.201	78.56
330.43	84.56
330.658	93.56
330.887	81.56
331.115	74.56
331.344	68.56
331.572	86.56
331.801	90.56
332.03	85.56
332.258	82.56
332.486	85.56
332.715	95.56
332.943	82.56
333.172	84.56
333.4	70.56
333.629	66.56
333.857	85.56
334.085	85.56
334.314	92.56
334.542	73.56
334.771	91.56
334.999	80.56
335.227	78.56
335.455	85.56
335.684	79.56
335.912	75.56
336.14	74.56
336.369	80.56
336.597	80.56
336.825	78.56
337.053	81.56
337.281	77.56
337.51	70.56
337.738	87.56
337.966	86.56
338.194	83.56
338.422	88.56
338.65	80.56
338.878	77.56
339.106	80.56
339.334	80.56
339.562	79.56
339.79	92.56
340.018	86.56
340.246	86.56
340.474	76.56
340.702	86.56
340.93	88.56
341.158	64.56
341.386	81.56
341.614	84.56
341.842	92.56
342.07	76.56
342.298	87.56
342.526	85.56
342.754	86.56
342.981	84.56
343.209	88.56
343.437	78.56
343.665	79.56
343.893	87.56
344.12	82.56
344.348	82.56
344.576	75.56
344.804	93.56
345.031	74.56
345.259	81.56
345.487	84.56
345.714	84.56
345.942	73.56
346.17	71.56
346.397	88.56
346.625	86.56
346.853	87.56
347.08	62.56
347.308	92.56
347.535	74.56
347.763	80.56
347.99	74.56
348.218	87.56
348.445	80.56
348.673	86.56
348.9	92.56
349.128	74.56
349.355	82.56
349.583	81.56
349.81	83.56
350.037	86.56
350.265	90.56
350.492	85.56
350.72	79.56
350.947	80.56
351.174	71.56
351.402	78.56
351.629	77.56
351.856	90.56
352.083	77.56
352.311	80.56
352.538	88.56
352.765	76.56
352.992	70.56
353.22	82.56
353.447	74.56
353.674	73.56
353.901	79.56
354.128	81.56
354.355	84.56
354.583	81.56
354.81	83.56
355.037	78.56
355.264	80.56
355.491	63.56
355.718	90.56
355.945	92.56
356.172	84.56
356.399	89.56
356.626	78.56
356.853	85.56
357.08	71.56
357.307	84.56
357.534	76.56
357.761	82.56
357.988	101.56
358.215	75.56
358.441	81.56
358.668	90.56
358.895	83.56
359.122	83.56
359.349	68.56
359.576	88.56
359.802	78.56
360.029	77.56
360.256	88.56
360.483	68.56
360.709	66.56
360.936	80.56
361.163	85.56
361.39	78.56
361.616	68.56
361.843	81.56
362.07	77.56
362.296	81.56
362.523	84.56
362.749	68.56
362.976	89.56
363.203	95.56
363.429	69.56
363.656	86.56
363.882	78.56
364.109	77.56
364.335	72.56
364.562	82.56
364.788	86.56
365.015	92.56
365.241	77.56
365.468	90.56
365.694	73.56
365.92	80.56
366.147	77.56
366.373	73.56
366.599	79.56
366.826	75.56
367.052	77.56
367.278	83.56
367.505	78.56
367.731	101.56
367.957	96.56
368.184	87.56
368.41	78.56
368.636	83.56
368.862	87.56
369.089	90.56
369.315	74.56
369.541	92.56
369.767	80.56
369.993	94.56
370.219	80.56
370.445	87.56
370.672	89.56
370.898	94.56
371.124	89.56
371.35	81.56
371.576	95.56
371.802	88.56
372.028	100.56
372.254	97.56
372.48	90.56
372.706	77.56
372.932	99.56
373.158	77.56
373.384	87.56
373.61	108.56
373.835	97.56
374.061	95.56
374.287	82.56
374.513	88.56
374.739	82.56
374.965	98.56
375.191	84.56
375.416	84.56
375.642	98.56
375.868	90.56
376.094	80.56
376.319	85.56
376.545	86.56
376.771	100.56
376.997	104.56
377.222	88.56
377.448	86.56
377.674	77.56
377.899	83.56
378.125	93.56
378.35	107.56
378.576	91.56
378.802	100.56
379.027	89.56
379.253	96.56
379.478	87.56
379.704	101.56
379.929	83.56
380.155	98.56
380.38	89.56
380.606	88.56
380.831	109.56
381.057	101.56
381.282	98.56
381.507	91.56
381.733	103.56
381.958	101.56
382.184	87.56
382.409	79.56
382.634	82.56
382.86	106.56
383.085	91.56
383.31	110.56
383.535	94.56
383.761	99.56
383.986	97.56
384.211	90.56
384.436	95.56
384.662	89.56
384.887	89.56
385.112	96.56
385.337	78.56
385.562	83.56
385.787	99.56
386.013	92.56
386.238	93.56
386.463	109.56
386.688	89.56
386.913	93.56
387.138	92.56
387.363	79.56
387.588	92.56
387.813	93.56
388.038	106.56
388.263	102.56
388.488	93.56
388.713	114.56
388.938	101.56
389.163	87.56
389.387	84.56
389.612	97.56
389.837	90.56
390.062	104.56
390.287	99.56
390.512	114.56
390.736	90.56
390.961	99.56
391.186	111.56
391.411	98.56
391.636	93.56
391.86	95.56
392.085	94.56
392.31	103.56
392.534	94.56
392.759	92.56
392.984	104.56
393.208	94.56
393.433	95.56
393.658	94.56
393.882	103.56
394.107	94.56
394.331	114.56
394.556	104.56
394.78	100.56
395.005	102.56
395.229	96.56
395.454	100.56
395.678	99.56
395.903	100.56
396.127	110.56
396.352	112.56
396.576	110.56
396.801	100.56
397.025	101.56
397.249	101.56
397.474	101.56
397.698	100.56
397.922	108.56
398.147	98.56
398.371	112.56
398.595	97.56
398.82	103.56
399.044	94.56
399.268	100.56
399.492	101.56
399.717	109.56
399.941	110.56
400.165	109.56
400.389	105.56
400.613	105.56
400.837	97.56
401.062	105.56
401.286	89.56
401.51	116.56
401.734	109.56
401.958	101.56
402.182	96.56
402.406	109.56
402.63	98.56
402.854	117.56
403.078	110.56
403.302	100.56
403.526	118.56
403.75	94.56
403.974	114.56
404.198	106.56
404.422	108.56
404.645	106.56
404.869	112.56
405.093	122.56
405.317	125.56
405.541	125.56
405.765	117.56
405.988	111.56
406.212	110.56
406.436	111.56
406.66	118.56
406.883	105.56
407.107	127.56
407.331	124.56
407.555	122.56
407.778	119.56
408.002	118.56
408.226	104.56
408.449	132.56
408.673	121.56
408.896	106.56
409.12	119.56
409.344	114.56
409.567	119.56
409.791	126.56
410.014	127.56
410.238	111.56
410.461	124.56
410.685	109.56
410.908	116.56
411.132	120.56
411.355	108.56
411.578	109.56
411.802	118.56
412.025	113.56
412.249	122.56
412.472	109.56
412.695	128.56
412.919	105.56
413.142	116.56
413.365	110.56
413.589	139.56
413.812	131.56
414.035	115.56
414.258	117.56
414.482	118.56
414.705	125.56
414.928	122.56
415.151	118.56
415.374	113.56
415.597	125.56
415.821	124.56
416.044	104.56
416.267	131.56
416.49	114.56
416.713	119.56
416.936	124.56
417.159	120.56
417.382	122.56
417.605	118.56
417.828	126.56
418.051	116.56
418.274	133.56
418.497	120.56
418.72	134.56
418.943	143.56
419.166	118.56
419.389	136.56
419.611	131.56
419.834	124.56
420.057	126.56
420.28	122.56
420.503	128.56
420.726	129.56
420.948	130.56
421.171	121.56
421.394	126.56
421.617	132.56
421.839	126.56
422.062	133.56
422.285	114.56
422.507	128.56
422.73	122.56
422.953	123.56
423.175	120.56
423.398	128.56
423.621	123.56
423.843	124.56
424.066	136.56
424.288	127.56
424.511	124.56
424.733	126.56
424.956	137.56
425.178	131.56
425.401	122.56
425.623	122.56
425.846	129.56
426.068	129.56
426.291	127.56
426.513	132.56
426.735	111.56
426.958	129.56
427.18	117.56
427.402	130.56
427.625	136.56
427.847	111.56
428.069	129.56
428.292	133.56
428.514	126.56
428.736	130.56
428.958	120.56
429.181	110.56
429.403	119.56
429.625	126.56
429.847	121.56
430.069	122.56
430.292	120.56
430.514	114.56
430.736	109.56
430.958	119.56
431.18	113.56
431.402	130.56
431.624	98.56
431.846	114.56
432.068	99.56
432.29	92.56
432.512	104.56
432.734	121.56
432.956	126.56
433.178	132.56
433.4	134.56
433.622	123.56
433.844	120.56
434.066	111.56
434.287	112.56
434.509	116.56
434.731	105.56
434.953	108.56
435.175	126.56
435.397	121.56
435.618	108.56
435.84	119.56
436.062	110.56
436.284	121.56
436.505	106.56
436.727	118.56
436.949	122.56
437.17	127.56
437.392	129.56
437.614	107.56
437.835	116.56
438.057	110.56
438.278	109.56
438.5	117.56
438.721	123.56
438.943	127.56
439.165	127.56
439.386	137.56
439.608	129.56
439.829	131.56
440.05	128.56
440.272	130.56
440.493	122.56
440.715	137.56
440.936	136.56
441.158	142.56
441.379	136.56
441.6	129.56
441.822	144.56
442.043	148.56
442.264	117.56
442.486	144.56
442.707	142.56
442.928	134.56
443.149	135.56
443.371	139.56
443.592	129.56
443.813	136.56
444.034	130.56
444.255	119.56
444.476	136.56
444.698	131.56
444.919	127.56
445.14	249.56
445.361	181.56
445.582	149.56
445.803	136.56
446.024	146.56
446.245	136.56
446.466	147.56
446.687	142.56
446.908	151.56
447.129	155.56
447.35	136.56
447.571	145.56
447.792	132.56
448.013	138.56
448.234	133.56
448.455	135.56
448.675	125.56
448.896	145.56
449.117	146.56
449.338	133.56
449.559	128.56
449.779	132.56
450	130.56
450.221	118.56
450.442	124.56
450.662	147.56
450.883	123.56
451.104	139.56
451.324	134.56
451.545	130.56
451.766	128.56
451.986	128.56
452.207	125.56
452.428	125.56
452.648	121.56
452.869	103.56
453.089	115.56
453.31	110.56
453.53	117.56
453.751	102.56
453.971	90.56
454.192	114.56
454.412	101.56
454.633	116.56
454.853	108.56
455.073	117.56
455.294	123.56
455.514	117.56
455.734	110.56
455.955	129.56
456.175	120.56
456.395	118.56
456.616	101.56
456.836	103.56
457.056	116.56
457.276	108.56
457.497	102.56
457.717	99.56
457.937	109.56
458.157	108.56
458.377	93.56
458.598	102.56
458.818	86.56
459.038	91.56
459.258	99.56
459.478	82.56
459.698	89.56
459.918	88.56
460.138	93.56
460.358	97.56
460.578	122.56
460.798	136.56
461.018	111.56
461.238	105.56
461.458	118.56
461.678	109.56
461.898	127.56
462.118	115.56
462.338	100.56
462.558	115.56
462.777	100.56
462.997	101.56
463.217	110.56
463.437	102.56
463.657	109.56
463.876	94.56
464.096	112.56
464.316	118.56
464.536	113.56
464.755	127.56
464.975	117.56
465.195	114.56
465.414	104.56
465.634	99.56
465.854	120.56
466.073	115.56
466.293	108.56
466.512	111.56
466.732	122.56
466.951	128.56
467.171	129.56
467.391	119.56
467.61	125.56
467.829	133.56
468.049	126.56
468.268	129.56
468.488	155.56
468.707	129.56
468.927	134.56
469.146	136.56
469.365	119.56
469.585	128.56
469.804	136.56
470.023	140.56
470.243	145.56
470.462	120.56
470.681	131.56
470.901	133.56
471.12	141.56
471.339	142.56
471.558	131.56
471.777	139.56
471.997	137.56
472.216	120.56
472.435	103.56
472.654	105.56
472.873	112.56
473.092	108.56
473.311	116.56
473.53	128.56
473.749	120.56
473.968	128.56
474.187	112.56
474.406	112.56
474.625	126.56
474.844	133.56
475.063	131.56
475.282	113.56
475.501	116.56
475.72	106.56
475.939	111.56
476.158	120.56
476.377	137.56
476.596	121.56
476.814	112.56
477.033	105.56
477.252	117.56
477.471	130.56
477.69	118.56
477.908	130.56
478.127	145.56
478.346	148.56
478.564	130.56
478.783	136.56
479.002	145.56
479.22	120.56
479.439	110.56
479.658	125.56
479.876	108.56
480.095	98.56
480.313	112.56
480.532	113.56
480.751	118.56
480.969	97.56
481.188	78.56
481.406	83.56
481.624	79.56
481.843	92.56
482.061	113.56
482.28	112.56
482.498	104.56
482.717	98.56
482.935	103.56
483.153	133.56
483.372	138.56
483.59	145.56
483.808	127.56
484.027	129.56
484.245	127.56
484.463	156.56
484.681	160.56
484.9	159.56
485.118	146.56
485.336	121.56
485.554	114.56
485.772	105.56
485.99	95.56
486.209	105.56
486.427	100.56
486.645	103.56
486.863	133.56
487.081	147.56
487.299	130.56
487.517	120.56
487.735	165.56
487.953	174.56
488.171	172.56
488.389	147.56
488.607	153.56
488.825	141.56
489.043	128.56
489.261	140.56
489.479	132.56
489.696	117.56
489.914	136.56
490.132	128.56
490.35	143.56
490.568	142.56
490.786	173.56
491.003	166.56
491.221	169.56
491.439	184.56
491.657	173.56
491.874	182.56
492.092	224.56
492.31	232.56
492.527	209.56
492.745	199.56
492.963	189.56
493.18	173.56
493.398	172.56
493.615	174.56
493.833	160.56
494.05	174.56
494.268	132.56
494.485	170.56
494.703	148.56
494.92	167.56
495.138	156.56
495.355	168.56
495.573	149.56
495.79	158.56
496.008	181.56
496.225	156.56
496.442	154.56
496.66	140.56
496.877	146.56
497.094	169.56
497.312	153.56
497.529	164.56
497.746	136.56
497.963	147.56
498.181	133.56
498.398	119.56
498.615	118.56
498.832	108.56
499.049	121.56
499.267	119.56
499.484	119.56
499.701	121.56
499.918	130.56
500.135	130.56
500.352	135.56
500.569	148.56
500.786	119.56
501.003	126.56
501.22	150.56
501.437	136.56
501.654	122.56
501.871	129.56
502.088	134.56
502.305	116.56
502.522	132.56
502.739	114.56
502.956	130.56
503.172	108.56
503.389	117.56
503.606	125.56
503.823	106.56
504.04	120.56
504.256	118.56
504.473	127.56
504.69	110.56
504.907	118.56
505.123	112.56
505.34	128.56
505.557	130.56
505.773	119.56
505.99	114.56
506.207	117.56
506.423	119.56
506.64	104.56
506.856	99.56
507.073	118.56
507.289	109.56
507.506	117.56
507.722	126.56
507.939	112.56
508.155	118.56
508.372	108.56
508.588	112.56
508.805	117.56
509.021	94.56
509.238	90.56
509.454	118.56
509.67	107.56
509.887	100.56
510.103	93.56
510.319	94.56
510.536	96.56
510.752	101.56
510.968	80.56
511.184	68.56
511.401	79.56
511.617	87.56
511.833	84.56
512.049	74.56
