Data from Location4.07152019.Energy5.Lamp.07192019.3%Agarose_HRD10591_16-20-58-926.txt Node
Date: Fri Jul 19 16:20:58 EDT 2019
User: cochatt
Spectrometer: HR+D1059
Trigger mode: 1
Integration Time (sec): 1.000000E-1
Scans to average: 1
Electric dark correction enabled: true
Nonlinearity correction enabled: false
Boxcar width: 0
XAxis mode: Wavelengths
Number of Pixels in Spectrum: 2048
>>>>>Begin Spectral Data<<<<<
223.165	-25.38
223.4	-25.38
223.635	-25.38
223.869	-7.38
224.104	-4.38
224.338	-10.38
224.573	-15.38
224.808	-12.38
225.042	-11.38
225.277	-10.38
225.511	-2.38
225.746	12.62
225.98	1.62
226.215	11.62
226.449	17.62
226.683	20.62
226.918	21.62
227.152	13.62
227.387	36.62
227.621	29.62
227.856	28.62
228.09	61.62
228.324	55.62
228.559	59.62
228.793	55.62
229.027	66.62
229.262	67.62
229.496	64.62
229.73	64.62
229.964	78.62
230.199	56.62
230.433	71.62
230.667	76.62
230.901	78.62
231.136	79.62
231.37	89.62
231.604	81.62
231.838	82.62
232.072	73.62
232.306	83.62
232.541	74.62
232.775	75.62
233.009	67.62
233.243	97.62
233.477	88.62
233.711	74.62
233.945	73.62
234.179	91.62
234.413	84.62
234.647	78.62
234.881	72.62
235.115	74.62
235.349	81.62
235.583	75.62
235.817	88.62
236.051	76.62
236.285	81.62
236.519	80.62
236.753	77.62
236.987	78.62
237.221	70.62
237.455	79.62
237.689	84.62
237.922	85.62
238.156	82.62
238.39	74.62
238.624	64.62
238.858	90.62
239.091	71.62
239.325	90.62
239.559	70.62
239.793	79.62
240.027	73.62
240.26	88.62
240.494	74.62
240.728	74.62
240.961	52.62
241.195	76.62
241.429	85.62
241.662	85.62
241.896	94.62
242.13	80.62
242.363	77.62
242.597	89.62
242.83	78.62
243.064	75.62
243.298	67.62
243.531	79.62
243.765	78.62
243.998	75.62
244.232	78.62
244.465	62.62
244.699	90.62
244.932	80.62
245.166	74.62
245.399	81.62
245.633	68.62
245.866	79.62
246.099	83.62
246.333	71.62
246.566	77.62
246.8	76.62
247.033	76.62
247.266	101.62
247.5	65.62
247.733	81.62
247.966	79.62
248.2	77.62
248.433	83.62
248.666	76.62
248.899	70.62
249.133	86.62
249.366	86.62
249.599	88.62
249.832	72.62
250.066	90.62
250.299	92.62
250.532	76.62
250.765	86.62
250.998	97.62
251.231	80.62
251.465	71.62
251.698	67.62
251.931	80.62
252.164	81.62
252.397	74.62
252.63	74.62
252.863	79.62
253.096	75.62
253.329	85.62
253.562	75.62
253.795	84.62
254.028	81.62
254.261	84.62
254.494	73.62
254.727	82.62
254.96	85.62
255.193	77.62
255.426	80.62
255.659	86.62
255.892	90.62
256.124	82.62
256.357	88.62
256.59	82.62
256.823	68.62
257.056	68.62
257.289	72.62
257.521	76.62
257.754	77.62
257.987	88.62
258.22	80.62
258.452	83.62
258.685	70.62
258.918	74.62
259.151	78.62
259.383	83.62
259.616	88.62
259.849	73.62
260.081	86.62
260.314	72.62
260.547	88.62
260.779	72.62
261.012	78.62
261.244	86.62
261.477	98.62
261.71	76.62
261.942	85.62
262.175	82.62
262.407	92.62
262.64	79.62
262.872	65.62
263.105	93.62
263.337	85.62
263.57	80.62
263.802	90.62
264.035	79.62
264.267	75.62
264.499	83.62
264.732	84.62
264.964	90.62
265.197	78.62
265.429	74.62
265.661	81.62
265.894	73.62
266.126	74.62
266.358	80.62
266.591	71.62
266.823	76.62
267.055	71.62
267.287	71.62
267.52	97.62
267.752	91.62
267.984	82.62
268.216	80.62
268.448	83.62
268.681	77.62
268.913	82.62
269.145	69.62
269.377	78.62
269.609	89.62
269.841	83.62
270.073	77.62
270.306	81.62
270.538	77.62
270.77	82.62
271.002	80.62
271.234	72.62
271.466	88.62
271.698	86.62
271.93	92.62
272.162	79.62
272.394	82.62
272.626	80.62
272.858	84.62
273.09	81.62
273.322	89.62
273.553	90.62
273.785	81.62
274.017	76.62
274.249	82.62
274.481	86.62
274.713	88.62
274.945	88.62
275.176	83.62
275.408	83.62
275.64	71.62
275.872	80.62
276.104	90.62
276.335	81.62
276.567	97.62
276.799	81.62
277.031	74.62
277.262	82.62
277.494	84.62
277.726	79.62
277.957	79.62
278.189	84.62
278.421	84.62
278.652	87.62
278.884	98.62
279.115	80.62
279.347	94.62
279.579	96.62
279.81	75.62
280.042	82.62
280.273	87.62
280.505	90.62
280.736	85.62
280.968	84.62
281.199	75.62
281.431	85.62
281.662	96.62
281.894	88.62
282.125	99.62
282.356	87.62
282.588	80.62
282.819	81.62
283.051	89.62
283.282	83.62
283.513	85.62
283.745	72.62
283.976	89.62
284.207	92.62
284.439	81.62
284.67	87.62
284.901	78.62
285.132	84.62
285.364	84.62
285.595	87.62
285.826	96.62
286.057	93.62
286.288	84.62
286.52	88.62
286.751	81.62
286.982	79.62
287.213	76.62
287.444	84.62
287.675	74.62
287.906	85.62
288.138	70.62
288.369	85.62
288.6	84.62
288.831	78.62
289.062	79.62
289.293	94.62
289.524	74.62
289.755	83.62
289.986	94.62
290.217	79.62
290.448	72.62
290.679	80.62
290.91	95.62
291.141	89.62
291.371	87.62
291.602	78.62
291.833	81.62
292.064	93.62
292.295	84.62
292.526	95.62
292.757	76.62
292.987	77.62
293.218	89.62
293.449	90.62
293.68	82.62
293.91	84.62
294.141	72.62
294.372	83.62
294.603	99.62
294.833	76.62
295.064	79.62
295.295	78.62
295.525	79.62
295.756	87.62
295.987	96.62
296.217	74.62
296.448	80.62
296.679	87.62
296.909	90.62
297.14	87.62
297.37	84.62
297.601	82.62
297.831	71.62
298.062	74.62
298.292	71.62
298.523	83.62
298.753	71.62
298.984	90.62
299.214	89.62
299.445	93.62
299.675	94.62
299.905	80.62
300.136	95.62
300.366	78.62
300.597	83.62
300.827	84.62
301.057	92.62
301.288	87.62
301.518	81.62
301.748	87.62
301.979	78.62
302.209	77.62
302.439	85.62
302.669	100.62
302.9	90.62
303.13	86.62
303.36	85.62
303.59	78.62
303.82	84.62
304.051	84.62
304.281	88.62
304.511	81.62
304.741	70.62
304.971	71.62
305.201	96.62
305.431	95.62
305.661	84.62
305.891	88.62
306.121	67.62
306.352	86.62
306.582	79.62
306.812	88.62
307.042	83.62
307.272	93.62
307.502	79.62
307.731	80.62
307.961	96.62
308.191	77.62
308.421	99.62
308.651	100.62
308.881	95.62
309.111	89.62
309.341	66.62
309.571	78.62
309.8	81.62
310.03	80.62
310.26	99.62
310.49	80.62
310.72	81.62
310.949	81.62
311.179	87.62
311.409	84.62
311.639	88.62
311.868	90.62
312.098	95.62
312.328	85.62
312.557	95.62
312.787	72.62
313.017	82.62
313.246	80.62
313.476	79.62
313.706	82.62
313.935	91.62
314.165	85.62
314.394	74.62
314.624	76.62
314.853	84.62
315.083	83.62
315.312	89.62
315.542	80.62
315.771	87.62
316.001	91.62
316.23	72.62
316.46	83.62
316.689	76.62
316.919	83.62
317.148	93.62
317.377	79.62
317.607	77.62
317.836	88.62
318.065	83.62
318.295	79.62
318.524	85.62
318.753	88.62
318.983	89.62
319.212	96.62
319.441	90.62
319.67	80.62
319.9	84.62
320.129	84.62
320.358	80.62
320.587	82.62
320.816	84.62
321.046	85.62
321.275	73.62
321.504	88.62
321.733	89.62
321.962	87.62
322.191	71.62
322.42	86.62
322.649	85.62
322.878	76.62
323.108	88.62
323.337	85.62
323.566	77.62
323.795	83.62
324.024	88.62
324.253	84.62
324.482	93.62
324.71	86.62
324.939	76.62
325.168	86.62
325.397	81.62
325.626	77.62
325.855	77.62
326.084	94.62
326.313	83.62
326.542	81.62
326.77	80.62
326.999	77.62
327.228	80.62
327.457	86.62
327.686	89.62
327.914	102.62
328.143	102.62
328.372	95.62
328.6	79.62
328.829	95.62
329.058	87.62
329.287	88.62
329.515	88.62
329.744	98.62
329.972	91.62
330.201	96.62
330.43	82.62
330.658	95.62
330.887	85.62
331.115	89.62
331.344	88.62
331.572	107.62
331.801	83.62
332.03	80.62
332.258	74.62
332.486	83.62
332.715	84.62
332.943	85.62
333.172	73.62
333.4	83.62
333.629	94.62
333.857	79.62
334.085	82.62
334.314	77.62
334.542	102.62
334.771	81.62
334.999	80.62
335.227	80.62
335.455	98.62
335.684	77.62
335.912	82.62
336.14	93.62
336.369	85.62
336.597	83.62
336.825	91.62
337.053	79.62
337.281	93.62
337.51	87.62
337.738	85.62
337.966	64.62
338.194	71.62
338.422	80.62
338.65	93.62
338.878	80.62
339.106	68.62
339.334	90.62
339.562	86.62
339.79	94.62
340.018	96.62
340.246	92.62
340.474	101.62
340.702	89.62
340.93	100.62
341.158	102.62
341.386	85.62
341.614	83.62
341.842	81.62
342.07	88.62
342.298	91.62
342.526	85.62
342.754	88.62
342.981	84.62
343.209	77.62
343.437	82.62
343.665	77.62
343.893	90.62
344.12	86.62
344.348	89.62
344.576	73.62
344.804	76.62
345.031	90.62
345.259	92.62
345.487	81.62
345.714	76.62
345.942	83.62
346.17	70.62
346.397	82.62
346.625	75.62
346.853	82.62
347.08	86.62
347.308	82.62
347.535	80.62
347.763	76.62
347.99	81.62
348.218	71.62
348.445	84.62
348.673	81.62
348.9	76.62
349.128	97.62
349.355	98.62
349.583	68.62
349.81	83.62
350.037	88.62
350.265	88.62
350.492	81.62
350.72	87.62
350.947	79.62
351.174	85.62
351.402	90.62
351.629	93.62
351.856	101.62
352.083	88.62
352.311	93.62
352.538	87.62
352.765	77.62
352.992	81.62
353.22	86.62
353.447	74.62
353.674	86.62
353.901	87.62
354.128	86.62
354.355	82.62
354.583	94.62
354.81	80.62
355.037	79.62
355.264	81.62
355.491	89.62
355.718	83.62
355.945	80.62
356.172	79.62
356.399	105.62
356.626	73.62
356.853	78.62
357.08	85.62
357.307	79.62
357.534	81.62
357.761	79.62
357.988	80.62
358.215	80.62
358.441	75.62
358.668	78.62
358.895	90.62
359.122	74.62
359.349	98.62
359.576	77.62
359.802	73.62
360.029	88.62
360.256	79.62
360.483	81.62
360.709	77.62
360.936	88.62
361.163	79.62
361.39	70.62
361.616	81.62
361.843	82.62
362.07	80.62
362.296	92.62
362.523	98.62
362.749	74.62
362.976	75.62
363.203	93.62
363.429	83.62
363.656	86.62
363.882	78.62
364.109	77.62
364.335	81.62
364.562	79.62
364.788	74.62
365.015	91.62
365.241	77.62
365.468	92.62
365.694	98.62
365.92	97.62
366.147	86.62
366.373	82.62
366.599	92.62
366.826	87.62
367.052	85.62
367.278	70.62
367.505	92.62
367.731	99.62
367.957	89.62
368.184	82.62
368.41	89.62
368.636	91.62
368.862	75.62
369.089	70.62
369.315	75.62
369.541	93.62
369.767	94.62
369.993	89.62
370.219	94.62
370.445	98.62
370.672	104.62
370.898	93.62
371.124	82.62
371.35	82.62
371.576	87.62
371.802	84.62
372.028	99.62
372.254	87.62
372.48	95.62
372.706	91.62
372.932	90.62
373.158	108.62
373.384	86.62
373.61	80.62
373.835	88.62
374.061	88.62
374.287	100.62
374.513	94.62
374.739	100.62
374.965	107.62
375.191	99.62
375.416	80.62
375.642	85.62
375.868	109.62
376.094	88.62
376.319	103.62
376.545	104.62
376.771	88.62
376.997	82.62
377.222	93.62
377.448	97.62
377.674	100.62
377.899	98.62
378.125	100.62
378.35	102.62
378.576	86.62
378.802	113.62
379.027	93.62
379.253	99.62
379.478	83.62
379.704	99.62
379.929	98.62
380.155	89.62
380.38	99.62
380.606	103.62
380.831	100.62
381.057	113.62
381.282	88.62
381.507	96.62
381.733	78.62
381.958	89.62
382.184	108.62
382.409	101.62
382.634	88.62
382.86	104.62
383.085	95.62
383.31	110.62
383.535	111.62
383.761	106.62
383.986	89.62
384.211	104.62
384.436	103.62
384.662	114.62
384.887	91.62
385.112	89.62
385.337	115.62
385.562	89.62
385.787	97.62
386.013	89.62
386.238	99.62
386.463	96.62
386.688	101.62
386.913	93.62
387.138	92.62
387.363	100.62
387.588	120.62
387.813	104.62
388.038	104.62
388.263	90.62
388.488	105.62
388.713	95.62
388.938	90.62
389.163	96.62
389.387	100.62
389.612	92.62
389.837	101.62
390.062	92.62
390.287	107.62
390.512	97.62
390.736	98.62
390.961	98.62
391.186	93.62
391.411	92.62
391.636	108.62
391.86	108.62
392.085	104.62
392.31	98.62
392.534	113.62
392.759	101.62
392.984	98.62
393.208	101.62
393.433	115.62
393.658	103.62
393.882	108.62
394.107	112.62
394.331	107.62
394.556	116.62
394.78	90.62
395.005	91.62
395.229	112.62
395.454	107.62
395.678	121.62
395.903	114.62
396.127	109.62
396.352	112.62
396.576	98.62
396.801	111.62
397.025	101.62
397.249	111.62
397.474	115.62
397.698	119.62
397.922	105.62
398.147	116.62
398.371	106.62
398.595	103.62
398.82	75.62
399.044	100.62
399.268	107.62
399.492	99.62
399.717	117.62
399.941	110.62
400.165	111.62
400.389	122.62
400.613	113.62
400.837	117.62
401.062	105.62
401.286	116.62
401.51	113.62
401.734	111.62
401.958	113.62
402.182	106.62
402.406	99.62
402.63	101.62
402.854	108.62
403.078	116.62
403.302	104.62
403.526	102.62
403.75	108.62
403.974	100.62
404.198	111.62
404.422	103.62
404.645	105.62
404.869	124.62
405.093	106.62
405.317	114.62
405.541	116.62
405.765	116.62
405.988	115.62
406.212	104.62
406.436	105.62
406.66	124.62
406.883	127.62
407.107	115.62
407.331	126.62
407.555	103.62
407.778	108.62
408.002	111.62
408.226	106.62
408.449	105.62
408.673	116.62
408.896	119.62
409.12	114.62
409.344	111.62
409.567	117.62
409.791	115.62
410.014	118.62
410.238	123.62
410.461	108.62
410.685	117.62
410.908	117.62
411.132	126.62
411.355	125.62
411.578	114.62
411.802	127.62
412.025	124.62
412.249	125.62
412.472	116.62
412.695	125.62
412.919	114.62
413.142	106.62
413.365	123.62
413.589	111.62
413.812	129.62
414.035	120.62
414.258	111.62
414.482	112.62
414.705	117.62
414.928	142.62
415.151	123.62
415.374	119.62
415.597	96.62
415.821	121.62
416.044	123.62
416.267	126.62
416.49	121.62
416.713	131.62
416.936	100.62
417.159	116.62
417.382	113.62
417.605	121.62
417.828	135.62
418.051	125.62
418.274	118.62
418.497	139.62
418.72	130.62
418.943	135.62
419.166	143.62
419.389	123.62
419.611	128.62
419.834	139.62
420.057	135.62
420.28	131.62
420.503	141.62
420.726	135.62
420.948	140.62
421.171	127.62
421.394	134.62
421.617	131.62
421.839	139.62
422.062	120.62
422.285	134.62
422.507	132.62
422.73	127.62
422.953	104.62
423.175	123.62
423.398	132.62
423.621	133.62
423.843	139.62
424.066	149.62
424.288	131.62
424.511	143.62
424.733	125.62
424.956	149.62
425.178	145.62
425.401	126.62
425.623	132.62
425.846	142.62
426.068	135.62
426.291	131.62
426.513	132.62
426.735	135.62
426.958	117.62
427.18	135.62
427.402	133.62
427.625	123.62
427.847	125.62
428.069	127.62
428.292	137.62
428.514	131.62
428.736	119.62
428.958	121.62
429.181	120.62
429.403	122.62
429.625	120.62
429.847	121.62
430.069	142.62
430.292	141.62
430.514	132.62
430.736	141.62
430.958	116.62
431.18	123.62
431.402	133.62
431.624	122.62
431.846	100.62
432.068	105.62
432.29	102.62
432.512	110.62
432.734	117.62
432.956	133.62
433.178	133.62
433.4	138.62
433.622	145.62
433.844	127.62
434.066	135.62
434.287	113.62
434.509	101.62
434.731	94.62
434.953	99.62
435.175	130.62
435.397	121.62
435.618	126.62
435.84	117.62
436.062	117.62
436.284	122.62
436.505	121.62
436.727	124.62
436.949	137.62
437.17	118.62
437.392	125.62
437.614	109.62
437.835	117.62
438.057	118.62
438.278	122.62
438.5	132.62
438.721	136.62
438.943	116.62
439.165	136.62
439.386	126.62
439.608	139.62
439.829	137.62
440.05	131.62
440.272	132.62
440.493	138.62
440.715	146.62
440.936	142.62
441.158	142.62
441.379	149.62
441.6	146.62
441.822	128.62
442.043	138.62
442.264	144.62
442.486	132.62
442.707	139.62
442.928	137.62
443.149	133.62
443.371	141.62
443.592	133.62
443.813	133.62
444.034	136.62
444.255	139.62
444.476	145.62
444.698	131.62
444.919	122.62
445.14	284.62
445.361	209.62
445.582	142.62
445.803	138.62
446.024	143.62
446.245	133.62
446.466	166.62
446.687	151.62
446.908	147.62
447.129	157.62
447.35	149.62
447.571	152.62
447.792	149.62
448.013	142.62
448.234	153.62
448.455	134.62
448.675	127.62
448.896	135.62
449.117	135.62
449.338	142.62
449.559	135.62
449.779	134.62
450	135.62
450.221	132.62
450.442	124.62
450.662	115.62
450.883	131.62
451.104	133.62
451.324	130.62
451.545	141.62
451.766	137.62
451.986	125.62
452.207	127.62
452.428	130.62
452.648	109.62
452.869	121.62
453.089	114.62
453.31	116.62
453.53	109.62
453.751	98.62
453.971	97.62
454.192	109.62
454.412	120.62
454.633	119.62
454.853	117.62
455.073	115.62
455.294	124.62
455.514	126.62
455.734	120.62
455.955	120.62
456.175	127.62
456.395	101.62
456.616	115.62
456.836	96.62
457.056	103.62
457.276	102.62
457.497	101.62
457.717	103.62
457.937	111.62
458.157	101.62
458.377	103.62
458.598	102.62
458.818	90.62
459.038	84.62
459.258	88.62
459.478	95.62
459.698	77.62
459.918	91.62
460.138	97.62
460.358	121.62
460.578	113.62
460.798	115.62
461.018	121.62
461.238	120.62
461.458	121.62
461.678	125.62
461.898	112.62
462.118	106.62
462.338	109.62
462.558	113.62
462.777	103.62
462.997	119.62
463.217	102.62
463.437	106.62
463.657	118.62
463.876	127.62
464.096	103.62
464.316	105.62
464.536	108.62
464.755	111.62
464.975	109.62
465.195	117.62
465.414	121.62
465.634	123.62
465.854	112.62
466.073	129.62
466.293	134.62
466.512	113.62
466.732	119.62
466.951	135.62
467.171	134.62
467.391	137.62
467.61	111.62
467.829	120.62
468.049	132.62
468.268	145.62
468.488	139.62
468.707	135.62
468.927	134.62
469.146	126.62
469.365	140.62
469.585	141.62
469.804	140.62
470.023	136.62
470.243	140.62
470.462	141.62
470.681	128.62
470.901	135.62
471.12	125.62
471.339	137.62
471.558	135.62
471.777	136.62
471.997	135.62
472.216	119.62
472.435	116.62
472.654	103.62
472.873	111.62
473.092	115.62
473.311	131.62
473.53	136.62
473.749	109.62
473.968	109.62
474.187	123.62
474.406	123.62
474.625	129.62
474.844	129.62
475.063	132.62
475.282	118.62
475.501	108.62
475.72	104.62
475.939	115.62
476.158	121.62
476.377	127.62
476.596	121.62
476.814	117.62
477.033	115.62
477.252	117.62
477.471	124.62
477.69	137.62
477.908	136.62
478.127	145.62
478.346	127.62
478.564	143.62
478.783	129.62
479.002	144.62
479.22	127.62
479.439	128.62
479.658	126.62
479.876	103.62
480.095	105.62
480.313	122.62
480.532	115.62
480.751	104.62
480.969	89.62
481.188	92.62
481.406	90.62
481.624	86.62
481.843	96.62
482.061	106.62
482.28	110.62
482.498	119.62
482.717	112.62
482.935	131.62
483.153	147.62
483.372	152.62
483.59	147.62
483.808	148.62
484.027	121.62
484.245	127.62
484.463	165.62
484.681	161.62
484.9	141.62
485.118	143.62
485.336	125.62
485.554	117.62
485.772	84.62
485.99	91.62
486.209	114.62
486.427	117.62
486.645	117.62
486.863	132.62
487.081	142.62
487.299	141.62
487.517	137.62
487.735	148.62
487.953	177.62
488.171	178.62
488.389	169.62
488.607	155.62
488.825	141.62
489.043	120.62
489.261	131.62
489.479	137.62
489.696	142.62
489.914	133.62
490.132	146.62
490.35	152.62
490.568	161.62
490.786	163.62
491.003	178.62
491.221	185.62
491.439	185.62
491.657	179.62
491.874	196.62
492.092	224.62
492.31	233.62
492.527	208.62
492.745	202.62
492.963	180.62
493.18	191.62
493.398	168.62
493.615	163.62
493.833	179.62
494.05	166.62
494.268	176.62
494.485	178.62
494.703	165.62
494.92	164.62
495.138	163.62
495.355	163.62
495.573	178.62
495.79	155.62
496.008	175.62
496.225	175.62
496.442	154.62
496.66	168.62
496.877	148.62
497.094	170.62
497.312	163.62
497.529	148.62
497.746	142.62
497.963	129.62
498.181	125.62
498.398	117.62
498.615	130.62
498.832	122.62
499.049	122.62
499.267	128.62
499.484	125.62
499.701	131.62
499.918	144.62
500.135	122.62
500.352	134.62
500.569	149.62
500.786	141.62
501.003	149.62
501.22	140.62
501.437	140.62
501.654	127.62
501.871	133.62
502.088	135.62
502.305	133.62
502.522	124.62
502.739	129.62
502.956	134.62
503.172	147.62
503.389	111.62
503.606	129.62
503.823	130.62
504.04	115.62
504.256	116.62
504.473	123.62
504.69	114.62
504.907	122.62
505.123	129.62
505.34	130.62
505.557	132.62
505.773	126.62
505.99	117.62
506.207	115.62
506.423	116.62
506.64	122.62
506.856	124.62
507.073	125.62
507.289	140.62
507.506	109.62
507.722	128.62
507.939	127.62
508.155	96.62
508.372	100.62
508.588	108.62
508.805	118.62
509.021	114.62
509.238	114.62
509.454	101.62
509.67	107.62
509.887	99.62
510.103	101.62
510.319	86.62
510.536	101.62
510.752	82.62
510.968	88.62
511.184	76.62
511.401	96.62
