Data from Location4.07152019.Energy5.Lamp.07192019.3%Agarose_HRD10591_16-20-52-927.txt Node
Date: Fri Jul 19 16:20:52 EDT 2019
User: cochatt
Spectrometer: HR+D1059
Trigger mode: 1
Integration Time (sec): 1.000000E-1
Scans to average: 1
Electric dark correction enabled: true
Nonlinearity correction enabled: false
Boxcar width: 0
XAxis mode: Wavelengths
Number of Pixels in Spectrum: 2048
>>>>>Begin Spectral Data<<<<<
223.165	-1.5
223.4	-1.5
223.635	-1.5
223.869	-12.5
224.104	-20.5
224.338	-25.5
224.573	-22.5
224.808	-7.5
225.042	-5.5
225.277	6.5
225.511	-10.5
225.746	-1.5
225.98	15.5
226.215	1.5
226.449	24.5
226.683	24.5
226.918	17.5
227.152	17.5
227.387	17.5
227.621	32.5
227.856	52.5
228.09	38.5
228.324	47.5
228.559	66.5
228.793	54.5
229.027	58.5
229.262	59.5
229.496	53.5
229.73	70.5
229.964	81.5
230.199	80.5
230.433	70.5
230.667	84.5
230.901	60.5
231.136	85.5
231.37	79.5
231.604	81.5
231.838	82.5
232.072	93.5
232.306	75.5
232.541	85.5
232.775	80.5
233.009	98.5
233.243	79.5
233.477	80.5
233.711	79.5
233.945	77.5
234.179	78.5
234.413	82.5
234.647	86.5
234.881	71.5
235.115	70.5
235.349	88.5
235.583	73.5
235.817	72.5
236.051	70.5
236.285	86.5
236.519	68.5
236.753	84.5
236.987	80.5
237.221	66.5
237.455	83.5
237.689	72.5
237.922	74.5
238.156	64.5
238.39	74.5
238.624	79.5
238.858	82.5
239.091	71.5
239.325	80.5
239.559	52.5
239.793	77.5
240.027	76.5
240.26	74.5
240.494	74.5
240.728	78.5
240.961	71.5
241.195	66.5
241.429	69.5
241.662	82.5
241.896	78.5
242.13	60.5
242.363	85.5
242.597	79.5
242.83	72.5
243.064	76.5
243.298	86.5
243.531	83.5
243.765	76.5
243.998	84.5
244.232	64.5
244.465	74.5
244.699	86.5
244.932	77.5
245.166	63.5
245.399	74.5
245.633	81.5
245.866	75.5
246.099	93.5
246.333	71.5
246.566	82.5
246.8	80.5
247.033	78.5
247.266	71.5
247.5	84.5
247.733	75.5
247.966	81.5
248.2	79.5
248.433	75.5
248.666	67.5
248.899	78.5
249.133	73.5
249.366	73.5
249.599	66.5
249.832	77.5
250.066	82.5
250.299	73.5
250.532	80.5
250.765	92.5
250.998	88.5
251.231	92.5
251.465	89.5
251.698	81.5
251.931	67.5
252.164	83.5
252.397	70.5
252.63	77.5
252.863	72.5
253.096	86.5
253.329	74.5
253.562	87.5
253.795	82.5
254.028	86.5
254.261	75.5
254.494	76.5
254.727	84.5
254.96	83.5
255.193	74.5
255.426	84.5
255.659	72.5
255.892	82.5
256.124	76.5
256.357	67.5
256.59	84.5
256.823	76.5
257.056	75.5
257.289	95.5
257.521	73.5
257.754	70.5
257.987	81.5
258.22	89.5
258.452	84.5
258.685	88.5
258.918	78.5
259.151	80.5
259.383	89.5
259.616	88.5
259.849	60.5
260.081	72.5
260.314	77.5
260.547	75.5
260.779	82.5
261.012	82.5
261.244	91.5
261.477	87.5
261.71	76.5
261.942	82.5
262.175	91.5
262.407	76.5
262.64	87.5
262.872	71.5
263.105	79.5
263.337	75.5
263.57	87.5
263.802	73.5
264.035	74.5
264.267	70.5
264.499	73.5
264.732	79.5
264.964	76.5
265.197	81.5
265.429	95.5
265.661	80.5
265.894	83.5
266.126	90.5
266.358	77.5
266.591	69.5
266.823	88.5
267.055	75.5
267.287	91.5
267.52	84.5
267.752	82.5
267.984	74.5
268.216	89.5
268.448	80.5
268.681	85.5
268.913	93.5
269.145	80.5
269.377	69.5
269.609	94.5
269.841	90.5
270.073	78.5
270.306	67.5
270.538	83.5
270.77	85.5
271.002	80.5
271.234	94.5
271.466	87.5
271.698	87.5
271.93	71.5
272.162	79.5
272.394	104.5
272.626	90.5
272.858	88.5
273.09	80.5
273.322	78.5
273.553	72.5
273.785	86.5
274.017	77.5
274.249	84.5
274.481	92.5
274.713	82.5
274.945	91.5
275.176	97.5
275.408	81.5
275.64	72.5
275.872	82.5
276.104	84.5
276.335	82.5
276.567	82.5
276.799	87.5
277.031	98.5
277.262	87.5
277.494	89.5
277.726	76.5
277.957	86.5
278.189	88.5
278.421	72.5
278.652	87.5
278.884	86.5
279.115	84.5
279.347	73.5
279.579	82.5
279.81	72.5
280.042	75.5
280.273	82.5
280.505	95.5
280.736	80.5
280.968	90.5
281.199	81.5
281.431	92.5
281.662	81.5
281.894	87.5
282.125	104.5
282.356	92.5
282.588	90.5
282.819	80.5
283.051	71.5
283.282	77.5
283.513	78.5
283.745	80.5
283.976	87.5
284.207	96.5
284.439	73.5
284.67	83.5
284.901	94.5
285.132	87.5
285.364	88.5
285.595	88.5
285.826	84.5
286.057	88.5
286.288	97.5
286.52	93.5
286.751	104.5
286.982	102.5
287.213	87.5
287.444	79.5
287.675	72.5
287.906	81.5
288.138	80.5
288.369	90.5
288.6	82.5
288.831	81.5
289.062	76.5
289.293	72.5
289.524	82.5
289.755	69.5
289.986	102.5
290.217	82.5
290.448	77.5
290.679	88.5
290.91	72.5
291.141	87.5
291.371	82.5
291.602	73.5
291.833	70.5
292.064	84.5
292.295	74.5
292.526	89.5
292.757	80.5
292.987	65.5
293.218	74.5
293.449	99.5
293.68	81.5
293.91	83.5
294.141	88.5
294.372	80.5
294.603	86.5
294.833	72.5
295.064	89.5
295.295	98.5
295.525	79.5
295.756	87.5
295.987	83.5
296.217	76.5
296.448	85.5
296.679	88.5
296.909	89.5
297.14	91.5
297.37	82.5
297.601	69.5
297.831	91.5
298.062	88.5
298.292	89.5
298.523	76.5
298.753	84.5
298.984	97.5
299.214	86.5
299.445	84.5
299.675	89.5
299.905	89.5
300.136	86.5
300.366	80.5
300.597	99.5
300.827	79.5
301.057	84.5
301.288	91.5
301.518	103.5
301.748	78.5
301.979	92.5
302.209	89.5
302.439	79.5
302.669	86.5
302.9	74.5
303.13	94.5
303.36	87.5
303.59	77.5
303.82	86.5
304.051	97.5
304.281	94.5
304.511	108.5
304.741	85.5
304.971	68.5
305.201	79.5
305.431	86.5
305.661	85.5
305.891	82.5
306.121	88.5
306.352	87.5
306.582	94.5
306.812	84.5
307.042	81.5
307.272	81.5
307.502	82.5
307.731	89.5
307.961	75.5
308.191	87.5
308.421	86.5
308.651	86.5
308.881	85.5
309.111	82.5
309.341	84.5
309.571	94.5
309.8	84.5
310.03	88.5
310.26	65.5
310.49	79.5
310.72	95.5
310.949	92.5
311.179	68.5
311.409	76.5
311.639	94.5
311.868	97.5
312.098	78.5
312.328	87.5
312.557	97.5
312.787	83.5
313.017	74.5
313.246	84.5
313.476	86.5
313.706	89.5
313.935	83.5
314.165	85.5
314.394	88.5
314.624	90.5
314.853	91.5
315.083	85.5
315.312	91.5
315.542	81.5
315.771	87.5
316.001	90.5
316.23	97.5
316.46	102.5
316.689	83.5
316.919	82.5
317.148	91.5
317.377	79.5
317.607	83.5
317.836	80.5
318.065	74.5
318.295	90.5
318.524	84.5
318.753	87.5
318.983	94.5
319.212	94.5
319.441	89.5
319.67	89.5
319.9	98.5
320.129	86.5
320.358	98.5
320.587	79.5
320.816	91.5
321.046	108.5
321.275	95.5
321.504	79.5
321.733	89.5
321.962	87.5
322.191	100.5
322.42	85.5
322.649	89.5
322.878	86.5
323.108	86.5
323.337	86.5
323.566	86.5
323.795	97.5
324.024	91.5
324.253	102.5
324.482	80.5
324.71	71.5
324.939	83.5
325.168	84.5
325.397	74.5
325.626	81.5
325.855	80.5
326.084	77.5
326.313	103.5
326.542	80.5
326.77	94.5
326.999	87.5
327.228	92.5
327.457	80.5
327.686	88.5
327.914	75.5
328.143	98.5
328.372	78.5
328.6	89.5
328.829	89.5
329.058	84.5
329.287	79.5
329.515	87.5
329.744	94.5
329.972	93.5
330.201	86.5
330.43	87.5
330.658	80.5
330.887	77.5
331.115	91.5
331.344	82.5
331.572	91.5
331.801	85.5
332.03	87.5
332.258	89.5
332.486	81.5
332.715	86.5
332.943	69.5
333.172	82.5
333.4	85.5
333.629	101.5
333.857	78.5
334.085	87.5
334.314	95.5
334.542	87.5
334.771	84.5
334.999	84.5
335.227	84.5
335.455	85.5
335.684	81.5
335.912	75.5
336.14	92.5
336.369	88.5
336.597	82.5
336.825	69.5
337.053	93.5
337.281	95.5
337.51	82.5
337.738	67.5
337.966	78.5
338.194	86.5
338.422	70.5
338.65	82.5
338.878	90.5
339.106	76.5
339.334	86.5
339.562	72.5
339.79	81.5
340.018	70.5
340.246	83.5
340.474	91.5
340.702	76.5
340.93	86.5
341.158	89.5
341.386	81.5
341.614	86.5
341.842	74.5
342.07	85.5
342.298	91.5
342.526	90.5
342.754	84.5
342.981	89.5
343.209	87.5
343.437	95.5
343.665	79.5
343.893	72.5
344.12	84.5
344.348	88.5
344.576	74.5
344.804	90.5
345.031	85.5
345.259	83.5
345.487	77.5
345.714	72.5
345.942	79.5
346.17	94.5
346.397	84.5
346.625	92.5
346.853	81.5
347.08	78.5
347.308	75.5
347.535	78.5
347.763	73.5
347.99	84.5
348.218	86.5
348.445	83.5
348.673	100.5
348.9	98.5
349.128	92.5
349.355	92.5
349.583	88.5
349.81	96.5
350.037	101.5
350.265	88.5
350.492	82.5
350.72	78.5
350.947	100.5
351.174	80.5
351.402	81.5
351.629	91.5
351.856	74.5
352.083	73.5
352.311	81.5
352.538	89.5
352.765	75.5
352.992	66.5
353.22	80.5
353.447	80.5
353.674	88.5
353.901	83.5
354.128	85.5
354.355	88.5
354.583	77.5
354.81	84.5
355.037	88.5
355.264	86.5
355.491	80.5
355.718	65.5
355.945	102.5
356.172	76.5
356.399	90.5
356.626	84.5
356.853	74.5
357.08	91.5
357.307	83.5
357.534	83.5
357.761	86.5
357.988	66.5
358.215	81.5
358.441	94.5
358.668	90.5
358.895	86.5
359.122	101.5
359.349	81.5
359.576	89.5
359.802	83.5
360.029	76.5
360.256	73.5
360.483	86.5
360.709	78.5
360.936	106.5
361.163	79.5
361.39	94.5
361.616	90.5
361.843	88.5
362.07	83.5
362.296	80.5
362.523	78.5
362.749	79.5
362.976	86.5
363.203	92.5
363.429	76.5
363.656	81.5
363.882	102.5
364.109	76.5
364.335	90.5
364.562	92.5
364.788	89.5
365.015	86.5
365.241	88.5
365.468	110.5
365.694	85.5
365.92	73.5
366.147	82.5
366.373	87.5
366.599	83.5
366.826	95.5
367.052	86.5
367.278	80.5
367.505	93.5
367.731	87.5
367.957	88.5
368.184	94.5
368.41	95.5
368.636	78.5
368.862	96.5
369.089	92.5
369.315	79.5
369.541	88.5
369.767	94.5
369.993	85.5
370.219	94.5
370.445	96.5
370.672	86.5
370.898	84.5
371.124	95.5
371.35	99.5
371.576	99.5
371.802	95.5
372.028	88.5
372.254	93.5
372.48	91.5
372.706	87.5
372.932	101.5
373.158	81.5
373.384	90.5
373.61	84.5
373.835	85.5
374.061	91.5
374.287	94.5
374.513	97.5
374.739	84.5
374.965	91.5
375.191	92.5
375.416	100.5
375.642	96.5
375.868	93.5
376.094	95.5
376.319	89.5
376.545	91.5
376.771	88.5
376.997	86.5
377.222	95.5
377.448	96.5
377.674	95.5
377.899	105.5
378.125	86.5
378.35	85.5
378.576	92.5
378.802	101.5
379.027	102.5
379.253	76.5
379.478	99.5
379.704	96.5
379.929	100.5
380.155	105.5
380.38	112.5
380.606	98.5
380.831	96.5
381.057	98.5
381.282	98.5
381.507	89.5
381.733	99.5
381.958	97.5
382.184	94.5
382.409	92.5
382.634	98.5
382.86	111.5
383.085	101.5
383.31	106.5
383.535	80.5
383.761	95.5
383.986	108.5
384.211	98.5
384.436	97.5
384.662	107.5
384.887	101.5
385.112	94.5
385.337	88.5
385.562	83.5
385.787	83.5
386.013	98.5
386.238	101.5
386.463	82.5
386.688	85.5
386.913	94.5
387.138	107.5
387.363	103.5
387.588	102.5
387.813	105.5
388.038	106.5
388.263	98.5
388.488	97.5
388.713	101.5
388.938	92.5
389.163	99.5
389.387	104.5
389.612	87.5
389.837	87.5
390.062	97.5
390.287	104.5
390.512	114.5
390.736	96.5
390.961	100.5
391.186	75.5
391.411	91.5
391.636	106.5
391.86	113.5
392.085	107.5
392.31	94.5
392.534	95.5
392.759	117.5
392.984	91.5
393.208	96.5
393.433	102.5
393.658	109.5
393.882	107.5
394.107	97.5
394.331	106.5
394.556	108.5
394.78	95.5
395.005	83.5
395.229	100.5
395.454	119.5
395.678	98.5
395.903	94.5
396.127	101.5
396.352	86.5
396.576	107.5
396.801	99.5
397.025	105.5
397.249	116.5
397.474	112.5
397.698	107.5
397.922	108.5
398.147	113.5
398.371	105.5
398.595	100.5
398.82	102.5
399.044	107.5
399.268	112.5
399.492	107.5
399.717	115.5
399.941	90.5
400.165	106.5
400.389	107.5
400.613	104.5
400.837	108.5
401.062	102.5
401.286	106.5
401.51	120.5
401.734	110.5
401.958	96.5
402.182	108.5
402.406	116.5
402.63	111.5
402.854	105.5
403.078	114.5
403.302	120.5
403.526	115.5
403.75	111.5
403.974	127.5
404.198	106.5
404.422	105.5
404.645	113.5
404.869	120.5
405.093	118.5
405.317	119.5
405.541	96.5
405.765	128.5
405.988	120.5
406.212	99.5
406.436	126.5
406.66	124.5
406.883	119.5
407.107	126.5
407.331	108.5
407.555	118.5
407.778	122.5
408.002	121.5
408.226	124.5
408.449	123.5
408.673	129.5
408.896	130.5
409.12	122.5
409.344	102.5
409.567	104.5
409.791	109.5
410.014	91.5
410.238	117.5
410.461	106.5
410.685	111.5
410.908	130.5
411.132	139.5
411.355	122.5
411.578	132.5
411.802	134.5
412.025	136.5
412.249	112.5
412.472	125.5
412.695	120.5
412.919	108.5
413.142	113.5
413.365	116.5
413.589	120.5
413.812	121.5
414.035	134.5
414.258	106.5
414.482	118.5
414.705	118.5
414.928	114.5
415.151	121.5
415.374	113.5
415.597	120.5
415.821	122.5
416.044	121.5
416.267	107.5
416.49	128.5
416.713	110.5
416.936	107.5
417.159	123.5
417.382	119.5
417.605	121.5
417.828	127.5
418.051	121.5
418.274	144.5
418.497	120.5
418.72	115.5
418.943	123.5
419.166	122.5
419.389	128.5
419.611	131.5
419.834	119.5
420.057	128.5
420.28	129.5
420.503	133.5
420.726	115.5
420.948	125.5
421.171	125.5
421.394	140.5
421.617	137.5
421.839	153.5
422.062	139.5
422.285	128.5
422.507	135.5
422.73	134.5
422.953	132.5
423.175	129.5
423.398	133.5
423.621	124.5
423.843	114.5
424.066	132.5
424.288	140.5
424.511	144.5
424.733	137.5
424.956	146.5
425.178	132.5
425.401	127.5
425.623	143.5
425.846	126.5
426.068	145.5
426.291	139.5
426.513	134.5
426.735	133.5
426.958	128.5
427.18	115.5
427.402	124.5
427.625	144.5
427.847	128.5
428.069	122.5
428.292	137.5
428.514	120.5
428.736	125.5
428.958	114.5
429.181	132.5
429.403	129.5
429.625	127.5
429.847	129.5
430.069	122.5
430.292	127.5
430.514	126.5
430.736	121.5
430.958	117.5
431.18	120.5
431.402	116.5
431.624	113.5
431.846	112.5
432.068	102.5
432.29	93.5
432.512	124.5
432.734	134.5
432.956	136.5
433.178	141.5
433.4	149.5
433.622	122.5
433.844	123.5
434.066	127.5
434.287	123.5
434.509	108.5
434.731	86.5
434.953	112.5
435.175	128.5
435.397	135.5
435.618	112.5
435.84	112.5
436.062	125.5
436.284	119.5
436.505	123.5
436.727	130.5
436.949	136.5
437.17	132.5
437.392	133.5
437.614	132.5
437.835	121.5
438.057	110.5
438.278	114.5
438.5	111.5
438.721	121.5
438.943	136.5
439.165	126.5
439.386	140.5
439.608	150.5
439.829	132.5
440.05	144.5
440.272	147.5
440.493	154.5
440.715	137.5
440.936	147.5
441.158	148.5
441.379	132.5
441.6	140.5
441.822	146.5
442.043	154.5
442.264	132.5
442.486	135.5
442.707	134.5
442.928	144.5
443.149	154.5
443.371	141.5
443.592	121.5
443.813	136.5
444.034	143.5
444.255	158.5
444.476	138.5
444.698	141.5
444.919	143.5
445.14	271.5
445.361	203.5
445.582	151.5
445.803	147.5
446.024	153.5
446.245	149.5
446.466	133.5
446.687	147.5
446.908	154.5
447.129	162.5
447.35	167.5
447.571	162.5
447.792	146.5
448.013	155.5
448.234	138.5
448.455	145.5
448.675	133.5
448.896	130.5
449.117	129.5
449.338	137.5
449.559	132.5
449.779	136.5
450	137.5
450.221	136.5
450.442	143.5
450.662	120.5
450.883	134.5
451.104	130.5
451.324	136.5
451.545	129.5
451.766	132.5
451.986	139.5
452.207	122.5
452.428	132.5
452.648	122.5
452.869	125.5
453.089	120.5
453.31	107.5
453.53	94.5
453.751	105.5
453.971	106.5
454.192	111.5
454.412	118.5
454.633	113.5
454.853	118.5
455.073	116.5
455.294	113.5
455.514	120.5
455.734	120.5
455.955	118.5
456.175	125.5
456.395	103.5
456.616	102.5
456.836	115.5
457.056	106.5
457.276	121.5
457.497	106.5
457.717	100.5
457.937	110.5
458.157	104.5
458.377	104.5
458.598	98.5
458.818	87.5
459.038	94.5
459.258	86.5
459.478	76.5
459.698	101.5
459.918	105.5
460.138	95.5
460.358	128.5
460.578	112.5
460.798	121.5
461.018	116.5
461.238	108.5
461.458	113.5
461.678	118.5
461.898	108.5
462.118	115.5
462.338	121.5
462.558	112.5
462.777	108.5
462.997	119.5
463.217	117.5
463.437	93.5
463.657	118.5
463.876	98.5
464.096	103.5
464.316	97.5
464.536	109.5
464.755	141.5
464.975	124.5
465.195	101.5
465.414	112.5
465.634	119.5
465.854	105.5
466.073	126.5
466.293	126.5
466.512	122.5
466.732	124.5
466.951	139.5
467.171	130.5
467.391	121.5
467.61	132.5
467.829	126.5
468.049	125.5
468.268	138.5
468.488	144.5
468.707	139.5
468.927	134.5
469.146	131.5
469.365	132.5
469.585	145.5
469.804	148.5
470.023	128.5
470.243	137.5
470.462	145.5
470.681	135.5
470.901	145.5
471.12	135.5
471.339	141.5
471.558	133.5
471.777	137.5
471.997	126.5
472.216	120.5
472.435	127.5
472.654	110.5
472.873	96.5
473.092	112.5
473.311	131.5
473.53	116.5
473.749	132.5
473.968	113.5
474.187	105.5
474.406	125.5
474.625	119.5
474.844	127.5
475.063	134.5
475.282	114.5
475.501	122.5
475.72	129.5
475.939	124.5
476.158	124.5
476.377	135.5
476.596	115.5
476.814	98.5
477.033	101.5
477.252	121.5
477.471	138.5
477.69	132.5
477.908	114.5
478.127	130.5
478.346	137.5
478.564	131.5
478.783	117.5
479.002	127.5
479.22	143.5
479.439	130.5
479.658	124.5
479.876	129.5
480.095	106.5
480.313	106.5
480.532	127.5
480.751	114.5
480.969	83.5
481.188	95.5
481.406	94.5
481.624	97.5
481.843	99.5
482.061	100.5
482.28	115.5
482.498	124.5
482.717	119.5
482.935	128.5
483.153	137.5
483.372	130.5
483.59	161.5
483.808	136.5
484.027	134.5
484.245	131.5
484.463	145.5
484.681	147.5
484.9	163.5
485.118	140.5
485.336	122.5
485.554	105.5
485.772	105.5
485.99	105.5
486.209	105.5
486.427	117.5
486.645	112.5
486.863	124.5
487.081	141.5
487.299	142.5
487.517	133.5
487.735	162.5
487.953	188.5
488.171	170.5
488.389	152.5
488.607	168.5
488.825	154.5
489.043	121.5
489.261	109.5
489.479	137.5
489.696	155.5
489.914	151.5
490.132	143.5
490.35	169.5
490.568	179.5
490.786	152.5
491.003	167.5
491.221	158.5
491.439	184.5
491.657	190.5
491.874	211.5
492.092	216.5
492.31	234.5
492.527	240.5
492.745	191.5
492.963	195.5
493.18	197.5
493.398	175.5
493.615	192.5
493.833	174.5
494.05	169.5
494.268	167.5
494.485	166.5
494.703	171.5
494.92	170.5
495.138	172.5
495.355	154.5
495.573	184.5
495.79	163.5
496.008	160.5
496.225	178.5
496.442	148.5
496.66	155.5
496.877	164.5
497.094	162.5
497.312	155.5
497.529	146.5
497.746	143.5
497.963	137.5
498.181	149.5
498.398	126.5
498.615	115.5
498.832	138.5
499.049	129.5
499.267	133.5
499.484	122.5
499.701	134.5
499.918	145.5
500.135	128.5
500.352	144.5
500.569	149.5
500.786	126.5
501.003	163.5
501.22	133.5
501.437	126.5
501.654	142.5
501.871	150.5
502.088	121.5
502.305	133.5
502.522	141.5
502.739	122.5
502.956	126.5
503.172	130.5
503.389	124.5
503.606	120.5
503.823	117.5
504.04	107.5
504.256	112.5
504.473	113.5
504.69	115.5
504.907	134.5
505.123	134.5
505.34	118.5
505.557	133.5
505.773	130.5
505.99	134.5
506.207	130.5
506.423	103.5
506.64	106.5
506.856	120.5
507.073	122.5
507.289	107.5
507.506	122.5
507.722	126.5
507.939	131.5
508.155	108.5
508.372	121.5
508.588	102.5
508.805	97.5
509.021	124.5
509.238	99.5
509.454	114.5
509.67	97.5
509.887	103.5
510.103	97.5
510.319	121.5
510.536	104.5
510.752	75.5
510.968	72.5
511.184	88.5
511.401	83.5
511.617	80.5
511.833	95.5
512.049	95.5
512.265	93.5
512.481	86.5
512.698	98.5
512.914	101.5
513.13	97.5
513.346	92.5
513.562	95.5
513.778	90.5
513.994	101.5
514.21	87.5
514.426	110.5
514.642	86.5
514.858	99.5
515.074	89.5
515.29	97.5
515.506	86.5
515.721	93.5
515.937	80.5
516.153	86.5
516.369	79.5
516.585	73.5
516.801	77.5
517.016	87.5
517.232	87.5
517.448	97.5
517.664	88.5
517.879	87.5
518.095	84.5
518.311	93.5
518.527	99.5
518.742	86.5
518.958	100.5
519.173	99.5
519.389	106.5
519.605	105.5
519.82	126.5
520.036	100.5
520.251	95.5
520.467	100.5
520.682	105.5
520.898	105.5
521.113	75.5
521.329	81.5
521.544	87.5
521.76	83.5
521.975	94.5
522.19	94.5
522.406	86.5
522.621	98.5
522.836	102.5
523.052	113.5
523.267	106.5
523.482	118.5
523.698	110.5
523.913	111.5
524.128	122.5
524.343	109.5
524.559	127.5
524.774	127.5
524.989	115.5
525.204	123.5
525.419	122.5
525.634	110.5
525.849	108.5
526.064	103.5
526.28	101.5
526.495	106.5
526.71	95.5
526.925	90.5
527.14	84.5
527.355	88.5
527.57	95.5
527.785	85.5
527.999	85.5
528.214	111.5
528.429	115.5
528.644	124.5
528.859	118.5
529.074	155.5
529.289	152.5
529.503	144.5
529.718	148.5
529.933	114.5
530.148	123.5
530.363	95.5
530.577	79.5
530.792	103.5
