Data from Location4.07152019.Energy5.Lamp.07192019.3%Agarose_HRD10591_16-21-06-927.txt Node
Date: Fri Jul 19 16:21:06 EDT 2019
User: cochatt
Spectrometer: HR+D1059
Trigger mode: 1
Integration Time (sec): 1.000000E-1
Scans to average: 1
Electric dark correction enabled: true
Nonlinearity correction enabled: false
Boxcar width: 0
XAxis mode: Wavelengths
Number of Pixels in Spectrum: 2048
>>>>>Begin Spectral Data<<<<<
223.165	-20.88
223.4	-20.88
223.635	-20.88
223.869	-9.88
224.104	-21.88
224.338	-17.88
224.573	-18.88
224.808	-10.88
225.042	-12.88
225.277	-5.88
225.511	6.12
225.746	12.12
225.98	-5.88
226.215	-3.88
226.449	32.12
226.683	25.12
226.918	23.12
227.152	30.12
227.387	30.12
227.621	43.12
227.856	54.12
228.09	42.12
228.324	44.12
228.559	58.12
228.793	62.12
229.027	68.12
229.262	71.12
229.496	75.12
229.73	65.12
229.964	67.12
230.199	78.12
230.433	87.12
230.667	74.12
230.901	71.12
231.136	77.12
231.37	79.12
231.604	77.12
231.838	76.12
232.072	92.12
232.306	79.12
232.541	84.12
232.775	67.12
233.009	78.12
233.243	89.12
233.477	75.12
233.711	84.12
233.945	90.12
234.179	87.12
234.413	83.12
234.647	79.12
234.881	90.12
235.115	80.12
235.349	86.12
235.583	78.12
235.817	74.12
236.051	89.12
236.285	90.12
236.519	74.12
236.753	67.12
236.987	74.12
237.221	76.12
237.455	73.12
237.689	76.12
237.922	70.12
238.156	75.12
238.39	80.12
238.624	68.12
238.858	76.12
239.091	80.12
239.325	73.12
239.559	79.12
239.793	83.12
240.027	84.12
240.26	83.12
240.494	91.12
240.728	71.12
240.961	76.12
241.195	70.12
241.429	73.12
241.662	71.12
241.896	81.12
242.13	77.12
242.363	83.12
242.597	75.12
242.83	69.12
243.064	78.12
243.298	80.12
243.531	83.12
243.765	79.12
243.998	78.12
244.232	73.12
244.465	78.12
244.699	86.12
244.932	81.12
245.166	81.12
245.399	77.12
245.633	70.12
245.866	89.12
246.099	83.12
246.333	74.12
246.566	82.12
246.8	85.12
247.033	79.12
247.266	72.12
247.5	71.12
247.733	85.12
247.966	78.12
248.2	80.12
248.433	77.12
248.666	79.12
248.899	75.12
249.133	68.12
249.366	82.12
249.599	73.12
249.832	70.12
250.066	78.12
250.299	77.12
250.532	84.12
250.765	80.12
250.998	65.12
251.231	89.12
251.465	77.12
251.698	77.12
251.931	81.12
252.164	83.12
252.397	75.12
252.63	73.12
252.863	86.12
253.096	80.12
253.329	79.12
253.562	71.12
253.795	75.12
254.028	87.12
254.261	94.12
254.494	96.12
254.727	91.12
254.96	78.12
255.193	87.12
255.426	85.12
255.659	86.12
255.892	91.12
256.124	74.12
256.357	78.12
256.59	76.12
256.823	84.12
257.056	96.12
257.289	86.12
257.521	72.12
257.754	60.12
257.987	77.12
258.22	92.12
258.452	69.12
258.685	88.12
258.918	78.12
259.151	83.12
259.383	98.12
259.616	85.12
259.849	86.12
260.081	76.12
260.314	83.12
260.547	81.12
260.779	80.12
261.012	87.12
261.244	79.12
261.477	89.12
261.71	84.12
261.942	81.12
262.175	88.12
262.407	83.12
262.64	79.12
262.872	84.12
263.105	83.12
263.337	70.12
263.57	87.12
263.802	87.12
264.035	79.12
264.267	84.12
264.499	78.12
264.732	87.12
264.964	80.12
265.197	91.12
265.429	78.12
265.661	76.12
265.894	99.12
266.126	87.12
266.358	92.12
266.591	75.12
266.823	74.12
267.055	78.12
267.287	81.12
267.52	97.12
267.752	78.12
267.984	89.12
268.216	75.12
268.448	80.12
268.681	76.12
268.913	92.12
269.145	77.12
269.377	93.12
269.609	87.12
269.841	88.12
270.073	74.12
270.306	75.12
270.538	78.12
270.77	89.12
271.002	90.12
271.234	85.12
271.466	76.12
271.698	75.12
271.93	79.12
272.162	94.12
272.394	95.12
272.626	79.12
272.858	77.12
273.09	94.12
273.322	93.12
273.553	86.12
273.785	76.12
274.017	84.12
274.249	77.12
274.481	78.12
274.713	83.12
274.945	71.12
275.176	91.12
275.408	79.12
275.64	84.12
275.872	83.12
276.104	89.12
276.335	95.12
276.567	91.12
276.799	87.12
277.031	85.12
277.262	76.12
277.494	91.12
277.726	76.12
277.957	88.12
278.189	76.12
278.421	79.12
278.652	81.12
278.884	85.12
279.115	81.12
279.347	94.12
279.579	77.12
279.81	84.12
280.042	82.12
280.273	69.12
280.505	90.12
280.736	82.12
280.968	84.12
281.199	83.12
281.431	79.12
281.662	71.12
281.894	87.12
282.125	89.12
282.356	84.12
282.588	78.12
282.819	85.12
283.051	82.12
283.282	82.12
283.513	75.12
283.745	72.12
283.976	92.12
284.207	81.12
284.439	78.12
284.67	73.12
284.901	90.12
285.132	72.12
285.364	76.12
285.595	84.12
285.826	81.12
286.057	74.12
286.288	94.12
286.52	78.12
286.751	78.12
286.982	81.12
287.213	83.12
287.444	77.12
287.675	93.12
287.906	99.12
288.138	86.12
288.369	85.12
288.6	88.12
288.831	98.12
289.062	78.12
289.293	75.12
289.524	88.12
289.755	79.12
289.986	85.12
290.217	87.12
290.448	85.12
290.679	94.12
290.91	101.12
291.141	81.12
291.371	75.12
291.602	80.12
291.833	86.12
292.064	94.12
292.295	84.12
292.526	97.12
292.757	99.12
292.987	82.12
293.218	70.12
293.449	76.12
293.68	80.12
293.91	89.12
294.141	93.12
294.372	75.12
294.603	86.12
294.833	90.12
295.064	76.12
295.295	98.12
295.525	95.12
295.756	83.12
295.987	79.12
296.217	104.12
296.448	90.12
296.679	89.12
296.909	111.12
297.14	88.12
297.37	79.12
297.601	78.12
297.831	87.12
298.062	88.12
298.292	92.12
298.523	78.12
298.753	87.12
298.984	92.12
299.214	87.12
299.445	87.12
299.675	92.12
299.905	91.12
300.136	91.12
300.366	79.12
300.597	79.12
300.827	84.12
301.057	90.12
301.288	94.12
301.518	80.12
301.748	98.12
301.979	95.12
302.209	86.12
302.439	99.12
302.669	102.12
302.9	82.12
303.13	74.12
303.36	91.12
303.59	98.12
303.82	82.12
304.051	68.12
304.281	98.12
304.511	73.12
304.741	89.12
304.971	82.12
305.201	83.12
305.431	65.12
305.661	80.12
305.891	85.12
306.121	99.12
306.352	74.12
306.582	85.12
306.812	93.12
307.042	82.12
307.272	96.12
307.502	101.12
307.731	87.12
307.961	87.12
308.191	83.12
308.421	90.12
308.651	79.12
308.881	82.12
309.111	88.12
309.341	95.12
309.571	88.12
309.8	91.12
310.03	90.12
310.26	96.12
310.49	87.12
310.72	79.12
310.949	87.12
311.179	82.12
311.409	86.12
311.639	97.12
311.868	93.12
312.098	83.12
312.328	93.12
312.557	87.12
312.787	82.12
313.017	83.12
313.246	96.12
313.476	98.12
313.706	89.12
313.935	74.12
314.165	85.12
314.394	90.12
314.624	73.12
314.853	88.12
315.083	91.12
315.312	95.12
315.542	97.12
315.771	87.12
316.001	87.12
316.23	73.12
316.46	77.12
316.689	100.12
316.919	78.12
317.148	78.12
317.377	94.12
317.607	79.12
317.836	85.12
318.065	89.12
318.295	80.12
318.524	84.12
318.753	80.12
318.983	100.12
319.212	76.12
319.441	73.12
319.67	83.12
319.9	80.12
320.129	77.12
320.358	89.12
320.587	76.12
320.816	90.12
321.046	94.12
321.275	88.12
321.504	72.12
321.733	91.12
321.962	86.12
322.191	90.12
322.42	83.12
322.649	78.12
322.878	87.12
323.108	97.12
323.337	98.12
323.566	87.12
323.795	86.12
324.024	81.12
324.253	90.12
324.482	90.12
324.71	88.12
324.939	85.12
325.168	86.12
325.397	75.12
325.626	88.12
325.855	77.12
326.084	88.12
326.313	89.12
326.542	80.12
326.77	82.12
326.999	82.12
327.228	91.12
327.457	74.12
327.686	91.12
327.914	81.12
328.143	91.12
328.372	84.12
328.6	75.12
328.829	79.12
329.058	85.12
329.287	93.12
329.515	102.12
329.744	85.12
329.972	89.12
330.201	102.12
330.43	69.12
330.658	84.12
330.887	80.12
331.115	90.12
331.344	78.12
331.572	98.12
331.801	83.12
332.03	75.12
332.258	91.12
332.486	75.12
332.715	92.12
332.943	87.12
333.172	87.12
333.4	91.12
333.629	84.12
333.857	94.12
334.085	90.12
334.314	85.12
334.542	81.12
334.771	83.12
334.999	93.12
335.227	96.12
335.455	93.12
335.684	77.12
335.912	93.12
336.14	87.12
336.369	90.12
336.597	80.12
336.825	83.12
337.053	84.12
337.281	89.12
337.51	92.12
337.738	90.12
337.966	86.12
338.194	85.12
338.422	85.12
338.65	92.12
338.878	89.12
339.106	84.12
339.334	75.12
339.562	80.12
339.79	81.12
340.018	96.12
340.246	96.12
340.474	88.12
340.702	90.12
340.93	88.12
341.158	80.12
341.386	85.12
341.614	89.12
341.842	77.12
342.07	80.12
342.298	79.12
342.526	79.12
342.754	86.12
342.981	89.12
343.209	92.12
343.437	88.12
343.665	81.12
343.893	79.12
344.12	84.12
344.348	97.12
344.576	85.12
344.804	86.12
345.031	67.12
345.259	80.12
345.487	97.12
345.714	69.12
345.942	87.12
346.17	92.12
346.397	74.12
346.625	90.12
346.853	76.12
347.08	82.12
347.308	92.12
347.535	93.12
347.763	82.12
347.99	79.12
348.218	93.12
348.445	92.12
348.673	86.12
348.9	85.12
349.128	86.12
349.355	71.12
349.583	85.12
349.81	81.12
350.037	90.12
350.265	101.12
350.492	82.12
350.72	97.12
350.947	72.12
351.174	84.12
351.402	90.12
351.629	79.12
351.856	77.12
352.083	72.12
352.311	94.12
352.538	93.12
352.765	98.12
352.992	96.12
353.22	82.12
353.447	83.12
353.674	80.12
353.901	82.12
354.128	78.12
354.355	92.12
354.583	91.12
354.81	105.12
355.037	95.12
355.264	94.12
355.491	76.12
355.718	83.12
355.945	72.12
356.172	82.12
356.399	86.12
356.626	72.12
356.853	94.12
357.08	88.12
357.307	86.12
357.534	85.12
357.761	82.12
357.988	97.12
358.215	92.12
358.441	81.12
358.668	77.12
358.895	79.12
359.122	82.12
359.349	76.12
359.576	89.12
359.802	86.12
360.029	84.12
360.256	100.12
360.483	91.12
360.709	85.12
360.936	95.12
361.163	89.12
361.39	78.12
361.616	84.12
361.843	77.12
362.07	70.12
362.296	78.12
362.523	78.12
362.749	90.12
362.976	85.12
363.203	87.12
363.429	87.12
363.656	86.12
363.882	83.12
364.109	92.12
364.335	86.12
364.562	84.12
364.788	98.12
365.015	85.12
365.241	87.12
365.468	78.12
365.694	92.12
365.92	85.12
366.147	82.12
366.373	84.12
366.599	92.12
366.826	92.12
367.052	76.12
367.278	83.12
367.505	100.12
367.731	87.12
367.957	87.12
368.184	80.12
368.41	85.12
368.636	86.12
368.862	99.12
369.089	93.12
369.315	100.12
369.541	86.12
369.767	96.12
369.993	107.12
370.219	83.12
370.445	86.12
370.672	87.12
370.898	86.12
371.124	93.12
371.35	84.12
371.576	86.12
371.802	100.12
372.028	101.12
372.254	85.12
372.48	94.12
372.706	86.12
372.932	90.12
373.158	100.12
373.384	89.12
373.61	97.12
373.835	92.12
374.061	89.12
374.287	92.12
374.513	62.12
374.739	72.12
374.965	86.12
375.191	93.12
375.416	98.12
375.642	86.12
375.868	86.12
376.094	100.12
376.319	85.12
376.545	95.12
376.771	85.12
376.997	101.12
377.222	84.12
377.448	87.12
377.674	98.12
377.899	81.12
378.125	88.12
378.35	80.12
378.576	98.12
378.802	90.12
379.027	93.12
379.253	99.12
379.478	87.12
379.704	103.12
379.929	106.12
380.155	84.12
380.38	85.12
380.606	100.12
380.831	91.12
381.057	98.12
381.282	110.12
381.507	106.12
381.733	105.12
381.958	94.12
382.184	120.12
382.409	94.12
382.634	92.12
382.86	98.12
383.085	97.12
383.31	89.12
383.535	110.12
383.761	103.12
383.986	93.12
384.211	103.12
384.436	115.12
384.662	101.12
384.887	94.12
385.112	100.12
385.337	91.12
385.562	101.12
385.787	96.12
386.013	116.12
386.238	105.12
386.463	99.12
386.688	108.12
386.913	100.12
387.138	92.12
387.363	97.12
387.588	102.12
387.813	100.12
388.038	91.12
388.263	86.12
388.488	101.12
388.713	104.12
388.938	102.12
389.163	104.12
389.387	98.12
389.612	105.12
389.837	113.12
390.062	97.12
390.287	91.12
390.512	111.12
390.736	108.12
390.961	103.12
391.186	91.12
391.411	103.12
391.636	101.12
391.86	114.12
392.085	97.12
392.31	109.12
392.534	95.12
392.759	101.12
392.984	104.12
393.208	97.12
393.433	103.12
393.658	104.12
393.882	102.12
394.107	103.12
394.331	117.12
394.556	106.12
394.78	116.12
395.005	93.12
395.229	102.12
395.454	102.12
395.678	100.12
395.903	94.12
396.127	121.12
396.352	119.12
396.576	109.12
396.801	93.12
397.025	94.12
397.249	118.12
397.474	114.12
397.698	98.12
397.922	109.12
398.147	99.12
398.371	119.12
398.595	104.12
398.82	104.12
399.044	92.12
399.268	115.12
399.492	117.12
399.717	114.12
399.941	114.12
400.165	98.12
400.389	90.12
400.613	117.12
400.837	101.12
401.062	108.12
401.286	102.12
401.51	107.12
401.734	126.12
401.958	109.12
402.182	103.12
402.406	124.12
402.63	115.12
402.854	117.12
403.078	122.12
403.302	107.12
403.526	123.12
403.75	100.12
403.974	107.12
404.198	126.12
404.422	122.12
404.645	108.12
404.869	125.12
405.093	114.12
405.317	117.12
405.541	114.12
405.765	107.12
405.988	116.12
406.212	110.12
406.436	117.12
406.66	133.12
406.883	119.12
407.107	105.12
407.331	117.12
407.555	110.12
407.778	111.12
408.002	125.12
408.226	116.12
408.449	119.12
408.673	120.12
408.896	124.12
409.12	114.12
409.344	113.12
409.567	130.12
409.791	106.12
410.014	111.12
410.238	116.12
410.461	121.12
410.685	121.12
410.908	127.12
411.132	133.12
411.355	114.12
411.578	109.12
411.802	110.12
412.025	132.12
412.249	98.12
412.472	106.12
412.695	118.12
412.919	137.12
413.142	114.12
413.365	133.12
413.589	121.12
413.812	104.12
414.035	119.12
414.258	127.12
414.482	114.12
414.705	126.12
414.928	121.12
415.151	122.12
415.374	125.12
415.597	119.12
415.821	127.12
416.044	116.12
416.267	125.12
416.49	119.12
416.713	110.12
416.936	138.12
417.159	124.12
417.382	130.12
417.605	110.12
417.828	125.12
418.051	135.12
418.274	133.12
418.497	139.12
418.72	135.12
418.943	146.12
419.166	122.12
419.389	138.12
419.611	135.12
419.834	128.12
420.057	113.12
420.28	127.12
420.503	133.12
420.726	117.12
420.948	113.12
421.171	123.12
421.394	131.12
421.617	138.12
421.839	135.12
422.062	122.12
422.285	131.12
422.507	135.12
422.73	131.12
422.953	130.12
423.175	122.12
423.398	130.12
423.621	128.12
423.843	136.12
424.066	147.12
424.288	139.12
424.511	151.12
424.733	144.12
424.956	142.12
425.178	123.12
425.401	150.12
425.623	141.12
425.846	118.12
426.068	142.12
426.291	110.12
426.513	145.12
426.735	138.12
426.958	131.12
427.18	127.12
427.402	135.12
427.625	124.12
427.847	134.12
428.069	122.12
428.292	135.12
428.514	119.12
428.736	119.12
428.958	128.12
429.181	118.12
429.403	135.12
429.625	116.12
429.847	130.12
430.069	129.12
430.292	105.12
430.514	117.12
430.736	114.12
430.958	118.12
431.18	107.12
431.402	129.12
431.624	127.12
431.846	113.12
432.068	109.12
432.29	95.12
432.512	120.12
432.734	139.12
432.956	135.12
433.178	141.12
433.4	126.12
433.622	134.12
433.844	145.12
434.066	125.12
434.287	123.12
434.509	99.12
434.731	95.12
434.953	115.12
435.175	119.12
435.397	111.12
435.618	123.12
435.84	114.12
436.062	109.12
436.284	124.12
436.505	133.12
436.727	131.12
436.949	121.12
437.17	141.12
437.392	124.12
437.614	128.12
437.835	107.12
438.057	124.12
438.278	102.12
438.5	111.12
438.721	141.12
438.943	139.12
439.165	154.12
439.386	150.12
439.608	151.12
439.829	134.12
440.05	124.12
440.272	129.12
440.493	147.12
440.715	144.12
440.936	126.12
441.158	146.12
441.379	145.12
441.6	145.12
441.822	153.12
442.043	123.12
442.264	130.12
442.486	133.12
442.707	137.12
442.928	138.12
443.149	132.12
443.371	139.12
443.592	135.12
443.813	144.12
444.034	132.12
444.255	135.12
444.476	149.12
444.698	143.12
444.919	137.12
445.14	274.12
445.361	179.12
445.582	147.12
445.803	130.12
446.024	133.12
446.245	138.12
446.466	142.12
446.687	166.12
446.908	152.12
447.129	151.12
447.35	137.12
447.571	154.12
447.792	141.12
448.013	139.12
448.234	123.12
448.455	132.12
448.675	130.12
448.896	152.12
449.117	121.12
449.338	119.12
449.559	141.12
449.779	141.12
450	135.12
450.221	138.12
450.442	129.12
450.662	126.12
450.883	155.12
451.104	131.12
451.324	130.12
451.545	126.12
451.766	121.12
451.986	142.12
452.207	119.12
452.428	125.12
452.648	137.12
452.869	135.12
453.089	116.12
453.31	106.12
453.53	104.12
453.751	103.12
453.971	108.12
454.192	114.12
454.412	115.12
454.633	116.12
454.853	123.12
455.073	118.12
455.294	118.12
455.514	130.12
455.734	106.12
455.955	127.12
456.175	119.12
456.395	117.12
456.616	123.12
456.836	110.12
457.056	108.12
457.276	129.12
457.497	107.12
457.717	107.12
457.937	113.12
458.157	101.12
458.377	107.12
458.598	103.12
458.818	83.12
459.038	92.12
459.258	86.12
459.478	88.12
459.698	95.12
459.918	111.12
460.138	113.12
460.358	111.12
460.578	129.12
460.798	110.12
461.018	115.12
461.238	111.12
461.458	103.12
461.678	120.12
461.898	114.12
462.118	125.12
462.338	109.12
462.558	98.12
462.777	107.12
462.997	122.12
463.217	106.12
463.437	133.12
463.657	117.12
463.876	116.12
464.096	120.12
464.316	116.12
464.536	101.12
464.755	99.12
464.975	116.12
465.195	120.12
465.414	117.12
465.634	121.12
465.854	115.12
466.073	118.12
466.293	126.12
466.512	104.12
466.732	133.12
466.951	120.12
467.171	121.12
467.391	137.12
467.61	141.12
467.829	136.12
468.049	142.12
468.268	131.12
468.488	138.12
468.707	136.12
468.927	116.12
469.146	137.12
469.365	141.12
469.585	141.12
469.804	138.12
470.023	140.12
470.243	129.12
470.462	140.12
470.681	145.12
470.901	131.12
471.12	130.12
471.339	133.12
471.558	139.12
471.777	139.12
471.997	140.12
472.216	134.12
472.435	106.12
472.654	109.12
472.873	105.12
473.092	119.12
473.311	120.12
473.53	124.12
473.749	122.12
473.968	117.12
474.187	119.12
474.406	117.12
474.625	135.12
474.844	124.12
475.063	134.12
475.282	108.12
475.501	115.12
475.72	109.12
475.939	123.12
476.158	124.12
476.377	133.12
476.596	129.12
476.814	111.12
477.033	102.12
477.252	120.12
477.471	135.12
477.69	134.12
477.908	139.12
478.127	131.12
478.346	135.12
478.564	122.12
478.783	123.12
479.002	130.12
479.22	143.12
479.439	135.12
479.658	127.12
479.876	113.12
480.095	99.12
480.313	109.12
480.532	108.12
480.751	95.12
480.969	93.12
481.188	88.12
481.406	83.12
481.624	86.12
481.843	91.12
482.061	91.12
482.28	131.12
482.498	111.12
482.717	100.12
482.935	122.12
483.153	133.12
483.372	153.12
483.59	147.12
483.808	130.12
484.027	142.12
484.245	137.12
484.463	143.12
484.681	175.12
484.9	139.12
485.118	132.12
485.336	136.12
485.554	114.12
485.772	108.12
485.99	127.12
486.209	134.12
486.427	117.12
486.645	118.12
486.863	126.12
487.081	136.12
487.299	135.12
487.517	135.12
487.735	164.12
487.953	190.12
488.171	181.12
488.389	175.12
488.607	160.12
488.825	147.12
489.043	139.12
489.261	133.12
489.479	128.12
489.696	136.12
489.914	141.12
490.132	146.12
490.35	159.12
490.568	169.12
490.786	174.12
491.003	171.12
491.221	195.12
491.439	181.12
491.657	171.12
491.874	201.12
492.092	207.12
492.31	219.12
492.527	234.12
492.745	196.12
492.963	193.12
493.18	179.12
493.398	191.12
493.615	173.12
493.833	179.12
494.05	188.12
494.268	183.12
494.485	152.12
494.703	167.12
494.92	184.12
495.138	162.12
495.355	179.12
495.573	170.12
495.79	171.12
496.008	166.12
496.225	149.12
496.442	164.12
496.66	172.12
496.877	159.12
497.094	147.12
497.312	161.12
497.529	150.12
497.746	143.12
497.963	149.12
498.181	129.12
498.398	117.12
498.615	124.12
498.832	118.12
499.049	120.12
499.267	126.12
499.484	137.12
499.701	118.12
499.918	119.12
500.135	131.12
500.352	132.12
500.569	147.12
500.786	142.12
501.003	144.12
501.22	145.12
501.437	131.12
501.654	130.12
501.871	128.12
502.088	114.12
502.305	123.12
502.522	129.12
502.739	130.12
502.956	121.12
503.172	121.12
503.389	126.12
503.606	120.12
503.823	117.12
504.04	123.12
504.256	116.12
504.473	113.12
504.69	111.12
504.907	127.12
505.123	126.12
505.34	134.12
505.557	122.12
505.773	110.12
505.99	118.12
506.207	125.12
506.423	117.12
506.64	121.12
506.856	109.12
507.073	118.12
507.289	129.12
507.506	125.12
507.722	132.12
507.939	113.12
508.155	107.12
508.372	103.12
508.588	113.12
508.805	115.12
509.021	107.12
509.238	109.12
509.454	110.12
509.67	92.12
509.887	102.12
510.103	109.12
510.319	94.12
510.536	82.12
510.752	91.12
510.968	93.12
511.184	79.12
511.401	85.12
