Data from Location4.07152019.Energy5.Lamp.07192019.3%Agarose_HRD10591_16-21-28-926.txt Node
Date: Fri Jul 19 16:21:28 EDT 2019
User: cochatt
Spectrometer: HR+D1059
Trigger mode: 1
Integration Time (sec): 1.000000E-1
Scans to average: 1
Electric dark correction enabled: true
Nonlinearity correction enabled: false
Boxcar width: 0
XAxis mode: Wavelengths
Number of Pixels in Spectrum: 2048
>>>>>Begin Spectral Data<<<<<
223.165	-8.88
223.4	-8.88
223.635	-8.88
223.869	-13.88
224.104	-33.88
224.338	-16.88
224.573	-18.88
224.808	-8.88
225.042	-3.88
225.277	-8.88
225.511	-5.88
225.746	14.12
225.98	8.12
226.215	12.12
226.449	15.12
226.683	12.12
226.918	32.12
227.152	26.12
227.387	29.12
227.621	39.12
227.856	46.12
228.09	57.12
228.324	65.12
228.559	56.12
228.793	64.12
229.027	46.12
229.262	64.12
229.496	55.12
229.73	72.12
229.964	58.12
230.199	82.12
230.433	81.12
230.667	87.12
230.901	66.12
231.136	62.12
231.37	82.12
231.604	92.12
231.838	83.12
232.072	72.12
232.306	72.12
232.541	85.12
232.775	84.12
233.009	83.12
233.243	79.12
233.477	72.12
233.711	80.12
233.945	75.12
234.179	65.12
234.413	89.12
234.647	72.12
234.881	79.12
235.115	77.12
235.349	75.12
235.583	80.12
235.817	77.12
236.051	75.12
236.285	85.12
236.519	79.12
236.753	91.12
236.987	73.12
237.221	80.12
237.455	67.12
237.689	84.12
237.922	76.12
238.156	91.12
238.39	84.12
238.624	79.12
238.858	73.12
239.091	83.12
239.325	68.12
239.559	69.12
239.793	68.12
240.027	80.12
240.26	78.12
240.494	64.12
240.728	74.12
240.961	81.12
241.195	67.12
241.429	84.12
241.662	69.12
241.896	89.12
242.13	88.12
242.363	75.12
242.597	86.12
242.83	80.12
243.064	74.12
243.298	90.12
243.531	69.12
243.765	78.12
243.998	70.12
244.232	74.12
244.465	76.12
244.699	95.12
244.932	85.12
245.166	72.12
245.399	69.12
245.633	81.12
245.866	75.12
246.099	74.12
246.333	80.12
246.566	76.12
246.8	73.12
247.033	73.12
247.266	73.12
247.5	78.12
247.733	80.12
247.966	75.12
248.2	85.12
248.433	90.12
248.666	74.12
248.899	84.12
249.133	85.12
249.366	75.12
249.599	72.12
249.832	76.12
250.066	88.12
250.299	68.12
250.532	72.12
250.765	88.12
250.998	68.12
251.231	62.12
251.465	87.12
251.698	76.12
251.931	74.12
252.164	76.12
252.397	57.12
252.63	81.12
252.863	71.12
253.096	77.12
253.329	77.12
253.562	78.12
253.795	83.12
254.028	91.12
254.261	86.12
254.494	74.12
254.727	74.12
254.96	69.12
255.193	74.12
255.426	84.12
255.659	79.12
255.892	85.12
256.124	80.12
256.357	97.12
256.59	76.12
256.823	82.12
257.056	83.12
257.289	64.12
257.521	76.12
257.754	81.12
257.987	69.12
258.22	85.12
258.452	77.12
258.685	90.12
258.918	80.12
259.151	81.12
259.383	78.12
259.616	91.12
259.849	79.12
260.081	67.12
260.314	82.12
260.547	72.12
260.779	71.12
261.012	95.12
261.244	77.12
261.477	90.12
261.71	95.12
261.942	75.12
262.175	70.12
262.407	81.12
262.64	83.12
262.872	85.12
263.105	92.12
263.337	87.12
263.57	86.12
263.802	79.12
264.035	76.12
264.267	75.12
264.499	79.12
264.732	75.12
264.964	65.12
265.197	87.12
265.429	87.12
265.661	82.12
265.894	81.12
266.126	86.12
266.358	79.12
266.591	69.12
266.823	69.12
267.055	74.12
267.287	84.12
267.52	85.12
267.752	76.12
267.984	78.12
268.216	80.12
268.448	86.12
268.681	83.12
268.913	86.12
269.145	91.12
269.377	84.12
269.609	72.12
269.841	86.12
270.073	78.12
270.306	75.12
270.538	91.12
270.77	72.12
271.002	84.12
271.234	80.12
271.466	75.12
271.698	81.12
271.93	73.12
272.162	71.12
272.394	86.12
272.626	79.12
272.858	96.12
273.09	88.12
273.322	96.12
273.553	89.12
273.785	68.12
274.017	84.12
274.249	80.12
274.481	69.12
274.713	100.12
274.945	84.12
275.176	84.12
275.408	78.12
275.64	70.12
275.872	71.12
276.104	74.12
276.335	87.12
276.567	79.12
276.799	72.12
277.031	95.12
277.262	101.12
277.494	85.12
277.726	85.12
277.957	77.12
278.189	75.12
278.421	75.12
278.652	73.12
278.884	75.12
279.115	88.12
279.347	80.12
279.579	82.12
279.81	90.12
280.042	91.12
280.273	94.12
280.505	82.12
280.736	81.12
280.968	83.12
281.199	75.12
281.431	72.12
281.662	78.12
281.894	95.12
282.125	78.12
282.356	86.12
282.588	82.12
282.819	83.12
283.051	67.12
283.282	75.12
283.513	75.12
283.745	69.12
283.976	70.12
284.207	68.12
284.439	89.12
284.67	82.12
284.901	68.12
285.132	75.12
285.364	81.12
285.595	93.12
285.826	100.12
286.057	74.12
286.288	81.12
286.52	77.12
286.751	81.12
286.982	86.12
287.213	84.12
287.444	74.12
287.675	90.12
287.906	83.12
288.138	81.12
288.369	89.12
288.6	84.12
288.831	100.12
289.062	71.12
289.293	99.12
289.524	88.12
289.755	68.12
289.986	77.12
290.217	92.12
290.448	91.12
290.679	86.12
290.91	89.12
291.141	79.12
291.371	90.12
291.602	93.12
291.833	89.12
292.064	90.12
292.295	77.12
292.526	99.12
292.757	80.12
292.987	75.12
293.218	79.12
293.449	87.12
293.68	87.12
293.91	75.12
294.141	72.12
294.372	89.12
294.603	74.12
294.833	75.12
295.064	72.12
295.295	81.12
295.525	83.12
295.756	89.12
295.987	80.12
296.217	91.12
296.448	75.12
296.679	97.12
296.909	79.12
297.14	83.12
297.37	76.12
297.601	94.12
297.831	78.12
298.062	87.12
298.292	83.12
298.523	86.12
298.753	70.12
298.984	76.12
299.214	82.12
299.445	78.12
299.675	79.12
299.905	78.12
300.136	89.12
300.366	91.12
300.597	84.12
300.827	83.12
301.057	90.12
301.288	79.12
301.518	73.12
301.748	79.12
301.979	82.12
302.209	87.12
302.439	75.12
302.669	87.12
302.9	71.12
303.13	75.12
303.36	98.12
303.59	76.12
303.82	97.12
304.051	72.12
304.281	67.12
304.511	91.12
304.741	79.12
304.971	76.12
305.201	87.12
305.431	87.12
305.661	83.12
305.891	72.12
306.121	86.12
306.352	82.12
306.582	75.12
306.812	79.12
307.042	84.12
307.272	73.12
307.502	86.12
307.731	91.12
307.961	84.12
308.191	89.12
308.421	98.12
308.651	85.12
308.881	93.12
309.111	87.12
309.341	88.12
309.571	82.12
309.8	65.12
310.03	93.12
310.26	75.12
310.49	97.12
310.72	79.12
310.949	86.12
311.179	86.12
311.409	85.12
311.639	78.12
311.868	79.12
312.098	88.12
312.328	84.12
312.557	90.12
312.787	96.12
313.017	86.12
313.246	82.12
313.476	90.12
313.706	78.12
313.935	93.12
314.165	78.12
314.394	83.12
314.624	98.12
314.853	78.12
315.083	71.12
315.312	89.12
315.542	89.12
315.771	86.12
316.001	83.12
316.23	87.12
316.46	82.12
316.689	68.12
316.919	71.12
317.148	83.12
317.377	87.12
317.607	87.12
317.836	83.12
318.065	90.12
318.295	85.12
318.524	81.12
318.753	74.12
318.983	75.12
319.212	86.12
319.441	82.12
319.67	74.12
319.9	71.12
320.129	90.12
320.358	84.12
320.587	82.12
320.816	81.12
321.046	86.12
321.275	85.12
321.504	81.12
321.733	82.12
321.962	79.12
322.191	81.12
322.42	79.12
322.649	86.12
322.878	86.12
323.108	103.12
323.337	100.12
323.566	75.12
323.795	88.12
324.024	73.12
324.253	80.12
324.482	82.12
324.71	82.12
324.939	80.12
325.168	86.12
325.397	89.12
325.626	97.12
325.855	86.12
326.084	93.12
326.313	96.12
326.542	88.12
326.77	82.12
326.999	71.12
327.228	79.12
327.457	82.12
327.686	87.12
327.914	80.12
328.143	75.12
328.372	88.12
328.6	81.12
328.829	70.12
329.058	81.12
329.287	86.12
329.515	79.12
329.744	90.12
329.972	85.12
330.201	66.12
330.43	89.12
330.658	96.12
330.887	78.12
331.115	87.12
331.344	87.12
331.572	71.12
331.801	74.12
332.03	86.12
332.258	68.12
332.486	82.12
332.715	92.12
332.943	78.12
333.172	70.12
333.4	93.12
333.629	84.12
333.857	83.12
334.085	75.12
334.314	79.12
334.542	88.12
334.771	93.12
334.999	83.12
335.227	82.12
335.455	83.12
335.684	60.12
335.912	79.12
336.14	71.12
336.369	90.12
336.597	80.12
336.825	79.12
337.053	84.12
337.281	80.12
337.51	74.12
337.738	76.12
337.966	77.12
338.194	75.12
338.422	94.12
338.65	85.12
338.878	79.12
339.106	86.12
339.334	94.12
339.562	84.12
339.79	76.12
340.018	78.12
340.246	90.12
340.474	84.12
340.702	81.12
340.93	90.12
341.158	87.12
341.386	88.12
341.614	88.12
341.842	94.12
342.07	74.12
342.298	77.12
342.526	84.12
342.754	69.12
342.981	91.12
343.209	85.12
343.437	75.12
343.665	72.12
343.893	70.12
344.12	96.12
344.348	87.12
344.576	88.12
344.804	76.12
345.031	83.12
345.259	87.12
345.487	78.12
345.714	90.12
345.942	59.12
346.17	84.12
346.397	70.12
346.625	72.12
346.853	94.12
347.08	78.12
347.308	85.12
347.535	91.12
347.763	80.12
347.99	81.12
348.218	85.12
348.445	69.12
348.673	78.12
348.9	93.12
349.128	78.12
349.355	97.12
349.583	90.12
349.81	74.12
350.037	79.12
350.265	94.12
350.492	71.12
350.72	76.12
350.947	74.12
351.174	79.12
351.402	70.12
351.629	83.12
351.856	92.12
352.083	82.12
352.311	86.12
352.538	72.12
352.765	69.12
352.992	68.12
353.22	99.12
353.447	78.12
353.674	75.12
353.901	90.12
354.128	80.12
354.355	76.12
354.583	89.12
354.81	76.12
355.037	77.12
355.264	89.12
355.491	79.12
355.718	85.12
355.945	76.12
356.172	99.12
356.399	77.12
356.626	75.12
356.853	93.12
357.08	84.12
357.307	84.12
357.534	79.12
357.761	72.12
357.988	67.12
358.215	83.12
358.441	90.12
358.668	81.12
358.895	78.12
359.122	85.12
359.349	82.12
359.576	86.12
359.802	88.12
360.029	87.12
360.256	80.12
360.483	86.12
360.709	82.12
360.936	88.12
361.163	85.12
361.39	84.12
361.616	75.12
361.843	81.12
362.07	76.12
362.296	69.12
362.523	71.12
362.749	80.12
362.976	82.12
363.203	89.12
363.429	75.12
363.656	74.12
363.882	101.12
364.109	84.12
364.335	78.12
364.562	77.12
364.788	75.12
365.015	70.12
365.241	83.12
365.468	86.12
365.694	79.12
365.92	88.12
366.147	69.12
366.373	82.12
366.599	77.12
366.826	74.12
367.052	76.12
367.278	77.12
367.505	82.12
367.731	91.12
367.957	88.12
368.184	77.12
368.41	81.12
368.636	95.12
368.862	77.12
369.089	98.12
369.315	82.12
369.541	84.12
369.767	96.12
369.993	79.12
370.219	84.12
370.445	80.12
370.672	93.12
370.898	96.12
371.124	85.12
371.35	94.12
371.576	97.12
371.802	85.12
372.028	80.12
372.254	93.12
372.48	89.12
372.706	97.12
372.932	88.12
373.158	89.12
373.384	82.12
373.61	100.12
373.835	85.12
374.061	84.12
374.287	95.12
374.513	83.12
374.739	82.12
374.965	73.12
375.191	93.12
375.416	99.12
375.642	84.12
375.868	78.12
376.094	78.12
376.319	81.12
376.545	100.12
376.771	76.12
376.997	80.12
377.222	86.12
377.448	90.12
377.674	82.12
377.899	76.12
378.125	87.12
378.35	96.12
378.576	93.12
378.802	85.12
379.027	83.12
379.253	98.12
379.478	91.12
379.704	78.12
379.929	85.12
380.155	97.12
380.38	87.12
380.606	95.12
380.831	103.12
381.057	98.12
381.282	114.12
381.507	98.12
381.733	99.12
381.958	92.12
382.184	96.12
382.409	91.12
382.634	88.12
382.86	96.12
383.085	90.12
383.31	90.12
383.535	98.12
383.761	93.12
383.986	95.12
384.211	84.12
384.436	94.12
384.662	101.12
384.887	83.12
385.112	89.12
385.337	89.12
385.562	99.12
385.787	102.12
386.013	111.12
386.238	102.12
386.463	89.12
386.688	86.12
386.913	98.12
387.138	112.12
387.363	94.12
387.588	103.12
387.813	111.12
388.038	95.12
388.263	86.12
388.488	110.12
388.713	85.12
388.938	101.12
389.163	88.12
389.387	95.12
389.612	99.12
389.837	88.12
390.062	103.12
390.287	102.12
390.512	118.12
390.736	101.12
390.961	96.12
391.186	104.12
391.411	87.12
391.636	96.12
391.86	103.12
392.085	95.12
392.31	100.12
392.534	95.12
392.759	101.12
392.984	96.12
393.208	102.12
393.433	104.12
393.658	107.12
393.882	105.12
394.107	89.12
394.331	113.12
394.556	98.12
394.78	100.12
395.005	125.12
395.229	102.12
395.454	105.12
395.678	97.12
395.903	89.12
396.127	105.12
396.352	103.12
396.576	96.12
396.801	87.12
397.025	91.12
397.249	110.12
397.474	109.12
397.698	114.12
397.922	103.12
398.147	99.12
398.371	88.12
398.595	104.12
398.82	104.12
399.044	98.12
399.268	83.12
399.492	106.12
399.717	100.12
399.941	114.12
400.165	113.12
400.389	98.12
400.613	108.12
400.837	93.12
401.062	103.12
401.286	104.12
401.51	92.12
401.734	101.12
401.958	101.12
402.182	112.12
402.406	102.12
402.63	107.12
402.854	99.12
403.078	108.12
403.302	109.12
403.526	103.12
403.75	103.12
403.974	111.12
404.198	109.12
404.422	111.12
404.645	125.12
404.869	117.12
405.093	118.12
405.317	110.12
405.541	116.12
405.765	115.12
405.988	117.12
406.212	117.12
406.436	114.12
406.66	109.12
406.883	88.12
407.107	120.12
407.331	117.12
407.555	117.12
407.778	106.12
408.002	111.12
408.226	120.12
408.449	114.12
408.673	126.12
408.896	107.12
409.12	106.12
409.344	112.12
409.567	110.12
409.791	114.12
410.014	121.12
410.238	109.12
410.461	121.12
410.685	105.12
410.908	112.12
411.132	125.12
411.355	115.12
411.578	118.12
411.802	114.12
412.025	123.12
412.249	133.12
412.472	116.12
412.695	112.12
412.919	121.12
413.142	122.12
413.365	105.12
413.589	120.12
413.812	119.12
414.035	118.12
414.258	126.12
414.482	121.12
414.705	117.12
414.928	120.12
415.151	109.12
415.374	120.12
415.597	113.12
415.821	130.12
416.044	111.12
416.267	117.12
416.49	129.12
416.713	126.12
416.936	129.12
417.159	127.12
417.382	121.12
417.605	127.12
417.828	128.12
418.051	121.12
418.274	128.12
418.497	121.12
418.72	125.12
418.943	142.12
419.166	131.12
419.389	127.12
419.611	128.12
419.834	133.12
420.057	144.12
420.28	115.12
420.503	130.12
420.726	110.12
420.948	126.12
421.171	119.12
421.394	135.12
421.617	133.12
421.839	133.12
422.062	152.12
422.285	118.12
422.507	119.12
422.73	112.12
422.953	109.12
423.175	131.12
423.398	123.12
423.621	121.12
423.843	135.12
424.066	141.12
424.288	137.12
424.511	137.12
424.733	126.12
424.956	135.12
425.178	134.12
425.401	142.12
425.623	139.12
425.846	133.12
426.068	126.12
426.291	128.12
426.513	130.12
426.735	121.12
426.958	121.12
427.18	110.12
427.402	133.12
427.625	126.12
427.847	125.12
428.069	114.12
428.292	139.12
428.514	131.12
428.736	114.12
428.958	117.12
429.181	119.12
429.403	127.12
429.625	118.12
429.847	146.12
430.069	130.12
430.292	125.12
430.514	119.12
430.736	122.12
430.958	135.12
431.18	131.12
431.402	121.12
431.624	115.12
431.846	116.12
432.068	91.12
432.29	97.12
432.512	108.12
432.734	121.12
432.956	130.12
433.178	134.12
433.4	124.12
433.622	129.12
433.844	148.12
434.066	122.12
434.287	106.12
434.509	102.12
434.731	100.12
434.953	103.12
435.175	119.12
435.397	119.12
435.618	96.12
435.84	114.12
436.062	117.12
436.284	113.12
436.505	121.12
436.727	122.12
436.949	121.12
437.17	120.12
437.392	113.12
437.614	134.12
437.835	112.12
438.057	118.12
438.278	101.12
438.5	122.12
438.721	126.12
438.943	121.12
439.165	119.12
439.386	122.12
439.608	131.12
439.829	143.12
440.05	130.12
440.272	137.12
440.493	135.12
440.715	152.12
440.936	149.12
441.158	139.12
441.379	140.12
441.6	146.12
441.822	132.12
442.043	131.12
442.264	126.12
442.486	143.12
442.707	129.12
442.928	127.12
443.149	125.12
443.371	144.12
443.592	135.12
443.813	130.12
444.034	137.12
444.255	139.12
444.476	139.12
444.698	136.12
444.919	137.12
445.14	259.12
445.361	198.12
445.582	157.12
445.803	151.12
446.024	146.12
446.245	145.12
446.466	123.12
446.687	145.12
446.908	142.12
447.129	150.12
447.35	162.12
447.571	153.12
447.792	129.12
448.013	122.12
448.234	138.12
448.455	146.12
448.675	127.12
448.896	146.12
449.117	143.12
449.338	139.12
449.559	129.12
449.779	130.12
450	149.12
450.221	125.12
450.442	133.12
450.662	142.12
450.883	132.12
451.104	122.12
451.324	127.12
451.545	122.12
451.766	133.12
451.986	137.12
452.207	128.12
452.428	122.12
452.648	121.12
452.869	100.12
453.089	117.12
453.31	121.12
453.53	115.12
453.751	117.12
453.971	100.12
454.192	111.12
454.412	109.12
454.633	115.12
454.853	131.12
455.073	130.12
455.294	118.12
455.514	121.12
455.734	105.12
455.955	117.12
456.175	124.12
456.395	116.12
456.616	107.12
456.836	113.12
457.056	113.12
457.276	106.12
457.497	106.12
457.717	101.12
457.937	106.12
458.157	97.12
458.377	105.12
458.598	106.12
458.818	101.12
459.038	83.12
459.258	85.12
459.478	88.12
459.698	81.12
459.918	99.12
460.138	101.12
460.358	115.12
460.578	99.12
460.798	122.12
461.018	110.12
461.238	137.12
461.458	121.12
461.678	116.12
461.898	103.12
462.118	106.12
462.338	106.12
462.558	99.12
462.777	100.12
462.997	106.12
463.217	113.12
463.437	108.12
463.657	103.12
463.876	121.12
464.096	115.12
464.316	110.12
464.536	109.12
464.755	126.12
464.975	114.12
465.195	99.12
465.414	115.12
465.634	111.12
465.854	129.12
466.073	133.12
466.293	129.12
466.512	136.12
466.732	116.12
466.951	140.12
467.171	114.12
467.391	129.12
467.61	132.12
467.829	125.12
468.049	136.12
468.268	144.12
468.488	141.12
468.707	129.12
468.927	135.12
469.146	126.12
469.365	135.12
469.585	129.12
469.804	145.12
470.023	139.12
470.243	129.12
470.462	139.12
470.681	132.12
470.901	124.12
471.12	125.12
471.339	151.12
471.558	138.12
471.777	122.12
471.997	115.12
472.216	114.12
472.435	111.12
472.654	105.12
472.873	111.12
473.092	105.12
473.311	119.12
473.53	112.12
473.749	111.12
473.968	122.12
474.187	114.12
474.406	121.12
474.625	130.12
474.844	126.12
475.063	126.12
475.282	126.12
475.501	112.12
475.72	123.12
475.939	123.12
476.158	125.12
476.377	111.12
476.596	109.12
476.814	104.12
477.033	112.12
477.252	106.12
477.471	120.12
477.69	119.12
477.908	140.12
478.127	133.12
478.346	135.12
478.564	133.12
478.783	111.12
479.002	137.12
479.22	127.12
479.439	138.12
479.658	135.12
479.876	117.12
480.095	123.12
480.313	123.12
480.532	102.12
480.751	107.12
480.969	94.12
481.188	98.12
481.406	82.12
481.624	93.12
481.843	87.12
482.061	86.12
482.28	107.12
482.498	115.12
482.717	122.12
482.935	107.12
483.153	132.12
483.372	144.12
483.59	136.12
483.808	139.12
484.027	131.12
484.245	142.12
484.463	148.12
484.681	170.12
484.9	125.12
485.118	133.12
485.336	121.12
485.554	115.12
485.772	100.12
485.99	94.12
486.209	114.12
486.427	103.12
486.645	120.12
486.863	129.12
487.081	136.12
487.299	132.12
487.517	120.12
487.735	149.12
487.953	167.12
488.171	184.12
488.389	167.12
488.607	148.12
488.825	145.12
489.043	135.12
489.261	128.12
489.479	131.12
489.696	134.12
489.914	135.12
490.132	154.12
490.35	161.12
490.568	156.12
490.786	175.12
491.003	161.12
491.221	171.12
491.439	178.12
491.657	191.12
491.874	193.12
492.092	215.12
492.31	239.12
492.527	226.12
492.745	211.12
492.963	179.12
493.18	205.12
493.398	169.12
493.615	181.12
493.833	164.12
494.05	181.12
494.268	142.12
494.485	152.12
494.703	147.12
494.92	167.12
495.138	167.12
495.355	161.12
495.573	157.12
495.79	147.12
496.008	167.12
496.225	159.12
496.442	167.12
496.66	150.12
496.877	169.12
497.094	167.12
497.312	156.12
497.529	155.12
497.746	148.12
497.963	133.12
498.181	136.12
498.398	122.12
498.615	113.12
498.832	120.12
499.049	109.12
499.267	110.12
499.484	129.12
499.701	133.12
499.918	133.12
500.135	138.12
500.352	130.12
500.569	134.12
500.786	145.12
501.003	129.12
501.22	133.12
501.437	131.12
501.654	133.12
501.871	125.12
502.088	128.12
502.305	136.12
502.522	137.12
502.739	134.12
502.956	111.12
503.172	125.12
503.389	125.12
503.606	118.12
503.823	102.12
504.04	114.12
504.256	109.12
504.473	118.12
504.69	127.12
504.907	122.12
505.123	108.12
505.34	127.12
505.557	125.12
505.773	121.12
505.99	121.12
506.207	127.12
506.423	121.12
506.64	104.12
506.856	94.12
507.073	111.12
507.289	117.12
507.506	110.12
507.722	124.12
507.939	115.12
508.155	110.12
508.372	113.12
508.588	114.12
508.805	115.12
509.021	115.12
509.238	93.12
509.454	94.12
509.67	103.12
509.887	102.12
510.103	103.12
510.319	92.12
510.536	79.12
510.752	97.12
510.968	90.12
511.184	85.12
511.401	90.12
511.617	84.12
511.833	87.12
512.049	106.12
