Data from Location4.07152019.Energy5.Lamp.07192019.3%Agarose_HRD10591_16-20-19-926.txt Node
Date: Fri Jul 19 16:20:19 EDT 2019
User: cochatt
Spectrometer: HR+D1059
Trigger mode: 1
Integration Time (sec): 1.000000E-1
Scans to average: 1
Electric dark correction enabled: true
Nonlinearity correction enabled: false
Boxcar width: 0
XAxis mode: Wavelengths
Number of Pixels in Spectrum: 2048
>>>>>Begin Spectral Data<<<<<
223.165	-17.38
223.4	-17.38
223.635	-17.38
223.869	-18.38
224.104	-18.38
224.338	-23.38
224.573	-21.38
224.808	-1.38
225.042	-10.38
225.277	9.62
225.511	-0.38
225.746	0.62
225.98	2.62
226.215	1.62
226.449	19.62
226.683	12.62
226.918	34.62
227.152	29.62
227.387	32.62
227.621	31.62
227.856	36.62
228.09	45.62
228.324	53.62
228.559	53.62
228.793	37.62
229.027	51.62
229.262	56.62
229.496	60.62
229.73	68.62
229.964	69.62
230.199	79.62
230.433	57.62
230.667	82.62
230.901	76.62
231.136	73.62
231.37	79.62
231.604	91.62
231.838	85.62
232.072	88.62
232.306	86.62
232.541	78.62
232.775	83.62
233.009	80.62
233.243	89.62
233.477	95.62
233.711	87.62
233.945	93.62
234.179	72.62
234.413	83.62
234.647	84.62
234.881	85.62
235.115	76.62
235.349	78.62
235.583	84.62
235.817	79.62
236.051	71.62
236.285	86.62
236.519	83.62
236.753	75.62
236.987	83.62
237.221	78.62
237.455	83.62
237.689	92.62
237.922	71.62
238.156	75.62
238.39	74.62
238.624	67.62
238.858	78.62
239.091	82.62
239.325	94.62
239.559	76.62
239.793	73.62
240.027	64.62
240.26	78.62
240.494	84.62
240.728	69.62
240.961	80.62
241.195	76.62
241.429	77.62
241.662	80.62
241.896	69.62
242.13	74.62
242.363	71.62
242.597	85.62
242.83	76.62
243.064	79.62
243.298	88.62
243.531	69.62
243.765	87.62
243.998	77.62
244.232	87.62
244.465	87.62
244.699	86.62
244.932	79.62
245.166	72.62
245.399	81.62
245.633	89.62
245.866	99.62
246.099	76.62
246.333	66.62
246.566	72.62
246.8	91.62
247.033	82.62
247.266	76.62
247.5	83.62
247.733	71.62
247.966	66.62
248.2	77.62
248.433	76.62
248.666	83.62
248.899	77.62
249.133	84.62
249.366	81.62
249.599	76.62
249.832	81.62
250.066	89.62
250.299	68.62
250.532	83.62
250.765	105.62
250.998	86.62
251.231	85.62
251.465	67.62
251.698	71.62
251.931	68.62
252.164	71.62
252.397	81.62
252.63	81.62
252.863	81.62
253.096	83.62
253.329	80.62
253.562	87.62
253.795	73.62
254.028	82.62
254.261	59.62
254.494	75.62
254.727	93.62
254.96	89.62
255.193	80.62
255.426	72.62
255.659	75.62
255.892	88.62
256.124	88.62
256.357	68.62
256.59	94.62
256.823	83.62
257.056	82.62
257.289	76.62
257.521	76.62
257.754	72.62
257.987	93.62
258.22	83.62
258.452	90.62
258.685	84.62
258.918	83.62
259.151	82.62
259.383	74.62
259.616	99.62
259.849	84.62
260.081	79.62
260.314	82.62
260.547	79.62
260.779	87.62
261.012	76.62
261.244	81.62
261.477	91.62
261.71	79.62
261.942	79.62
262.175	75.62
262.407	87.62
262.64	91.62
262.872	83.62
263.105	80.62
263.337	71.62
263.57	71.62
263.802	83.62
264.035	82.62
264.267	83.62
264.499	84.62
264.732	89.62
264.964	67.62
265.197	95.62
265.429	87.62
265.661	78.62
265.894	80.62
266.126	86.62
266.358	73.62
266.591	77.62
266.823	76.62
267.055	76.62
267.287	79.62
267.52	83.62
267.752	78.62
267.984	75.62
268.216	77.62
268.448	71.62
268.681	89.62
268.913	98.62
269.145	78.62
269.377	85.62
269.609	92.62
269.841	84.62
270.073	92.62
270.306	82.62
270.538	76.62
270.77	84.62
271.002	78.62
271.234	91.62
271.466	73.62
271.698	91.62
271.93	85.62
272.162	68.62
272.394	72.62
272.626	92.62
272.858	77.62
273.09	90.62
273.322	84.62
273.553	76.62
273.785	95.62
274.017	82.62
274.249	74.62
274.481	77.62
274.713	76.62
274.945	88.62
275.176	82.62
275.408	83.62
275.64	76.62
275.872	85.62
276.104	98.62
276.335	73.62
276.567	70.62
276.799	79.62
277.031	81.62
277.262	91.62
277.494	81.62
277.726	63.62
277.957	71.62
278.189	72.62
278.421	82.62
278.652	80.62
278.884	90.62
279.115	86.62
279.347	86.62
279.579	75.62
279.81	81.62
280.042	65.62
280.273	96.62
280.505	80.62
280.736	87.62
280.968	92.62
281.199	76.62
281.431	90.62
281.662	89.62
281.894	87.62
282.125	72.62
282.356	79.62
282.588	86.62
282.819	87.62
283.051	85.62
283.282	93.62
283.513	82.62
283.745	84.62
283.976	73.62
284.207	79.62
284.439	73.62
284.67	94.62
284.901	81.62
285.132	84.62
285.364	95.62
285.595	77.62
285.826	78.62
286.057	78.62
286.288	82.62
286.52	89.62
286.751	85.62
286.982	79.62
287.213	77.62
287.444	90.62
287.675	76.62
287.906	81.62
288.138	87.62
288.369	96.62
288.6	84.62
288.831	67.62
289.062	76.62
289.293	98.62
289.524	88.62
289.755	73.62
289.986	69.62
290.217	83.62
290.448	87.62
290.679	75.62
290.91	79.62
291.141	83.62
291.371	88.62
291.602	102.62
291.833	91.62
292.064	87.62
292.295	79.62
292.526	79.62
292.757	94.62
292.987	86.62
293.218	82.62
293.449	95.62
293.68	92.62
293.91	90.62
294.141	85.62
294.372	71.62
294.603	82.62
294.833	82.62
295.064	78.62
295.295	87.62
295.525	89.62
295.756	87.62
295.987	90.62
296.217	70.62
296.448	77.62
296.679	86.62
296.909	84.62
297.14	76.62
297.37	89.62
297.601	92.62
297.831	88.62
298.062	93.62
298.292	84.62
298.523	95.62
298.753	96.62
298.984	80.62
299.214	69.62
299.445	74.62
299.675	83.62
299.905	82.62
300.136	70.62
300.366	88.62
300.597	75.62
300.827	75.62
301.057	73.62
301.288	83.62
301.518	79.62
301.748	73.62
301.979	87.62
302.209	68.62
302.439	92.62
302.669	77.62
302.9	85.62
303.13	84.62
303.36	76.62
303.59	93.62
303.82	96.62
304.051	76.62
304.281	77.62
304.511	88.62
304.741	85.62
304.971	75.62
305.201	101.62
305.431	72.62
305.661	93.62
305.891	81.62
306.121	88.62
306.352	88.62
306.582	86.62
306.812	87.62
307.042	98.62
307.272	68.62
307.502	85.62
307.731	83.62
307.961	81.62
308.191	77.62
308.421	104.62
308.651	80.62
308.881	79.62
309.111	76.62
309.341	77.62
309.571	69.62
309.8	87.62
310.03	91.62
310.26	80.62
310.49	76.62
310.72	91.62
310.949	87.62
311.179	89.62
311.409	75.62
311.639	87.62
311.868	82.62
312.098	91.62
312.328	71.62
312.557	86.62
312.787	76.62
313.017	86.62
313.246	75.62
313.476	78.62
313.706	96.62
313.935	86.62
314.165	84.62
314.394	74.62
314.624	81.62
314.853	85.62
315.083	82.62
315.312	88.62
315.542	74.62
315.771	78.62
316.001	100.62
316.23	81.62
316.46	72.62
316.689	77.62
316.919	70.62
317.148	80.62
317.377	96.62
317.607	76.62
317.836	85.62
318.065	85.62
318.295	76.62
318.524	75.62
318.753	75.62
318.983	83.62
319.212	97.62
319.441	90.62
319.67	88.62
319.9	87.62
320.129	77.62
320.358	72.62
320.587	65.62
320.816	86.62
321.046	72.62
321.275	84.62
321.504	83.62
321.733	77.62
321.962	90.62
322.191	95.62
322.42	97.62
322.649	87.62
322.878	87.62
323.108	80.62
323.337	83.62
323.566	70.62
323.795	85.62
324.024	82.62
324.253	91.62
324.482	81.62
324.71	82.62
324.939	83.62
325.168	84.62
325.397	79.62
325.626	70.62
325.855	90.62
326.084	85.62
326.313	90.62
326.542	80.62
326.77	79.62
326.999	75.62
327.228	96.62
327.457	84.62
327.686	73.62
327.914	75.62
328.143	82.62
328.372	76.62
328.6	89.62
328.829	95.62
329.058	86.62
329.287	90.62
329.515	80.62
329.744	80.62
329.972	71.62
330.201	91.62
330.43	83.62
330.658	94.62
330.887	96.62
331.115	87.62
331.344	83.62
331.572	86.62
331.801	82.62
332.03	73.62
332.258	87.62
332.486	89.62
332.715	89.62
332.943	93.62
333.172	100.62
333.4	95.62
333.629	95.62
333.857	76.62
334.085	76.62
334.314	84.62
334.542	92.62
334.771	98.62
334.999	77.62
335.227	90.62
335.455	87.62
335.684	69.62
335.912	81.62
336.14	81.62
336.369	83.62
336.597	80.62
336.825	83.62
337.053	87.62
337.281	86.62
337.51	88.62
337.738	81.62
337.966	79.62
338.194	92.62
338.422	80.62
338.65	85.62
338.878	85.62
339.106	81.62
339.334	75.62
339.562	95.62
339.79	85.62
340.018	80.62
340.246	96.62
340.474	76.62
340.702	93.62
340.93	85.62
341.158	84.62
341.386	83.62
341.614	64.62
341.842	89.62
342.07	84.62
342.298	82.62
342.526	82.62
342.754	78.62
342.981	84.62
343.209	79.62
343.437	93.62
343.665	88.62
343.893	77.62
344.12	85.62
344.348	95.62
344.576	73.62
344.804	94.62
345.031	92.62
345.259	90.62
345.487	84.62
345.714	73.62
345.942	72.62
346.17	92.62
346.397	81.62
346.625	71.62
346.853	84.62
347.08	95.62
347.308	80.62
347.535	81.62
347.763	72.62
347.99	83.62
348.218	89.62
348.445	87.62
348.673	88.62
348.9	79.62
349.128	80.62
349.355	87.62
349.583	86.62
349.81	67.62
350.037	73.62
350.265	94.62
350.492	96.62
350.72	92.62
350.947	88.62
351.174	83.62
351.402	87.62
351.629	89.62
351.856	83.62
352.083	83.62
352.311	88.62
352.538	78.62
352.765	90.62
352.992	83.62
353.22	89.62
353.447	86.62
353.674	88.62
353.901	82.62
354.128	83.62
354.355	87.62
354.583	55.62
354.81	74.62
355.037	80.62
355.264	91.62
355.491	87.62
355.718	90.62
355.945	90.62
356.172	87.62
356.399	81.62
356.626	80.62
356.853	87.62
357.08	82.62
357.307	83.62
357.534	88.62
357.761	91.62
357.988	92.62
358.215	90.62
358.441	83.62
358.668	83.62
358.895	83.62
359.122	74.62
359.349	86.62
359.576	81.62
359.802	76.62
360.029	86.62
360.256	88.62
360.483	91.62
360.709	76.62
360.936	85.62
361.163	84.62
361.39	76.62
361.616	88.62
361.843	95.62
362.07	81.62
362.296	101.62
362.523	81.62
362.749	95.62
362.976	78.62
363.203	75.62
363.429	67.62
363.656	81.62
363.882	81.62
364.109	85.62
364.335	88.62
364.562	92.62
364.788	83.62
365.015	97.62
365.241	86.62
365.468	77.62
365.694	68.62
365.92	101.62
366.147	90.62
366.373	83.62
366.599	87.62
366.826	79.62
367.052	82.62
367.278	76.62
367.505	89.62
367.731	100.62
367.957	75.62
368.184	95.62
368.41	95.62
368.636	92.62
368.862	113.62
369.089	78.62
369.315	81.62
369.541	94.62
369.767	90.62
369.993	88.62
370.219	96.62
370.445	99.62
370.672	91.62
370.898	88.62
371.124	96.62
371.35	104.62
371.576	84.62
371.802	87.62
372.028	84.62
372.254	88.62
372.48	94.62
372.706	95.62
372.932	89.62
373.158	92.62
373.384	95.62
373.61	98.62
373.835	92.62
374.061	88.62
374.287	106.62
374.513	101.62
374.739	91.62
374.965	91.62
375.191	101.62
375.416	88.62
375.642	97.62
375.868	100.62
376.094	96.62
376.319	93.62
376.545	100.62
376.771	76.62
376.997	76.62
377.222	106.62
377.448	102.62
377.674	92.62
377.899	79.62
378.125	71.62
378.35	94.62
378.576	81.62
378.802	83.62
379.027	83.62
379.253	71.62
379.478	103.62
379.704	91.62
379.929	96.62
380.155	84.62
380.38	92.62
380.606	90.62
380.831	77.62
381.057	95.62
381.282	95.62
381.507	89.62
381.733	91.62
381.958	89.62
382.184	94.62
382.409	105.62
382.634	109.62
382.86	111.62
383.085	91.62
383.31	103.62
383.535	106.62
383.761	97.62
383.986	107.62
384.211	87.62
384.436	103.62
384.662	101.62
384.887	100.62
385.112	88.62
385.337	103.62
385.562	99.62
385.787	104.62
386.013	93.62
386.238	81.62
386.463	92.62
386.688	97.62
386.913	98.62
387.138	99.62
387.363	94.62
387.588	100.62
387.813	88.62
388.038	89.62
388.263	85.62
388.488	107.62
388.713	101.62
388.938	113.62
389.163	106.62
389.387	98.62
389.612	92.62
389.837	106.62
390.062	116.62
390.287	106.62
390.512	108.62
390.736	107.62
390.961	91.62
391.186	101.62
391.411	110.62
391.636	113.62
391.86	105.62
392.085	98.62
392.31	93.62
392.534	83.62
392.759	108.62
392.984	104.62
393.208	105.62
393.433	101.62
393.658	111.62
393.882	89.62
394.107	111.62
394.331	104.62
394.556	107.62
394.78	93.62
395.005	107.62
395.229	103.62
395.454	109.62
395.678	107.62
395.903	123.62
396.127	106.62
396.352	100.62
396.576	100.62
396.801	117.62
397.025	95.62
397.249	105.62
397.474	113.62
397.698	103.62
397.922	116.62
398.147	107.62
398.371	113.62
398.595	97.62
398.82	118.62
399.044	103.62
399.268	94.62
399.492	99.62
399.717	115.62
399.941	120.62
400.165	112.62
400.389	117.62
400.613	103.62
400.837	120.62
401.062	111.62
401.286	102.62
401.51	104.62
401.734	113.62
401.958	115.62
402.182	124.62
402.406	105.62
402.63	104.62
402.854	117.62
403.078	121.62
403.302	89.62
403.526	123.62
403.75	99.62
403.974	105.62
404.198	115.62
404.422	123.62
404.645	113.62
404.869	110.62
405.093	115.62
405.317	122.62
405.541	121.62
405.765	123.62
405.988	123.62
406.212	115.62
406.436	107.62
406.66	105.62
406.883	117.62
407.107	107.62
407.331	116.62
407.555	120.62
407.778	114.62
408.002	122.62
408.226	116.62
408.449	107.62
408.673	117.62
408.896	125.62
409.12	116.62
409.344	120.62
409.567	122.62
409.791	131.62
410.014	115.62
410.238	109.62
410.461	125.62
410.685	120.62
410.908	114.62
411.132	124.62
411.355	105.62
411.578	113.62
411.802	127.62
412.025	126.62
412.249	129.62
412.472	125.62
412.695	114.62
412.919	103.62
413.142	108.62
413.365	124.62
413.589	113.62
413.812	113.62
414.035	112.62
414.258	116.62
414.482	119.62
414.705	115.62
414.928	112.62
415.151	124.62
415.374	105.62
415.597	123.62
415.821	122.62
416.044	115.62
416.267	126.62
416.49	118.62
416.713	128.62
416.936	131.62
417.159	122.62
417.382	108.62
417.605	113.62
417.828	119.62
418.051	116.62
418.274	124.62
418.497	129.62
418.72	129.62
418.943	141.62
419.166	122.62
419.389	119.62
419.611	112.62
419.834	120.62
420.057	150.62
420.28	120.62
420.503	132.62
420.726	145.62
420.948	121.62
421.171	123.62
421.394	129.62
421.617	142.62
421.839	149.62
422.062	129.62
422.285	133.62
422.507	122.62
422.73	127.62
422.953	134.62
423.175	129.62
423.398	133.62
423.621	118.62
423.843	132.62
424.066	134.62
424.288	126.62
424.511	142.62
424.733	132.62
424.956	123.62
425.178	135.62
425.401	147.62
425.623	123.62
425.846	132.62
426.068	131.62
426.291	131.62
426.513	126.62
426.735	133.62
426.958	116.62
427.18	143.62
427.402	141.62
427.625	125.62
427.847	128.62
428.069	125.62
428.292	127.62
428.514	140.62
428.736	123.62
428.958	127.62
429.181	125.62
429.403	118.62
429.625	123.62
429.847	131.62
430.069	131.62
430.292	137.62
430.514	127.62
430.736	128.62
430.958	129.62
431.18	107.62
431.402	135.62
431.624	124.62
431.846	105.62
432.068	95.62
432.29	101.62
432.512	108.62
432.734	119.62
432.956	122.62
433.178	120.62
433.4	139.62
433.622	141.62
433.844	137.62
434.066	121.62
434.287	108.62
434.509	79.62
434.731	101.62
434.953	99.62
435.175	114.62
435.397	125.62
435.618	142.62
435.84	102.62
436.062	97.62
436.284	121.62
436.505	127.62
436.727	134.62
436.949	134.62
437.17	148.62
437.392	129.62
437.614	123.62
437.835	126.62
438.057	119.62
438.278	118.62
438.5	122.62
438.721	129.62
438.943	125.62
439.165	123.62
439.386	118.62
439.608	139.62
439.829	165.62
440.05	141.62
440.272	142.62
440.493	151.62
440.715	133.62
440.936	133.62
441.158	141.62
441.379	138.62
441.6	154.62
441.822	150.62
442.043	139.62
442.264	161.62
442.486	145.62
442.707	135.62
442.928	153.62
443.149	137.62
443.371	121.62
443.592	147.62
443.813	122.62
444.034	133.62
444.255	137.62
444.476	136.62
444.698	152.62
444.919	160.62
445.14	271.62
445.361	221.62
445.582	145.62
445.803	154.62
446.024	157.62
446.245	167.62
446.466	156.62
446.687	147.62
446.908	157.62
447.129	144.62
447.35	149.62
447.571	153.62
447.792	135.62
448.013	147.62
448.234	152.62
448.455	127.62
448.675	138.62
448.896	126.62
449.117	126.62
449.338	122.62
449.559	122.62
449.779	129.62
450	152.62
450.221	137.62
450.442	138.62
450.662	133.62
450.883	134.62
451.104	123.62
451.324	124.62
451.545	127.62
451.766	127.62
451.986	131.62
452.207	130.62
452.428	132.62
452.648	129.62
452.869	112.62
453.089	119.62
453.31	111.62
453.53	92.62
453.751	106.62
453.971	111.62
454.192	104.62
454.412	105.62
454.633	98.62
454.853	118.62
455.073	124.62
455.294	124.62
455.514	129.62
455.734	116.62
455.955	119.62
456.175	97.62
456.395	109.62
456.616	127.62
456.836	111.62
457.056	106.62
457.276	97.62
457.497	101.62
457.717	112.62
457.937	115.62
458.157	127.62
458.377	105.62
458.598	101.62
458.818	101.62
459.038	100.62
459.258	82.62
459.478	93.62
459.698	106.62
459.918	93.62
460.138	109.62
460.358	109.62
460.578	127.62
460.798	98.62
461.018	119.62
461.238	109.62
461.458	101.62
461.678	120.62
461.898	103.62
462.118	109.62
462.338	106.62
462.558	108.62
462.777	114.62
462.997	113.62
463.217	119.62
463.437	111.62
463.657	105.62
463.876	122.62
464.096	115.62
464.316	111.62
464.536	107.62
464.755	116.62
464.975	121.62
465.195	124.62
465.414	108.62
465.634	107.62
465.854	115.62
466.073	125.62
466.293	129.62
466.512	133.62
466.732	118.62
466.951	137.62
467.171	123.62
467.391	113.62
467.61	138.62
467.829	137.62
468.049	142.62
468.268	146.62
468.488	128.62
468.707	129.62
468.927	137.62
469.146	135.62
469.365	133.62
469.585	131.62
469.804	129.62
470.023	137.62
470.243	152.62
470.462	146.62
470.681	149.62
470.901	134.62
471.12	138.62
471.339	139.62
471.558	142.62
471.777	137.62
471.997	137.62
472.216	136.62
472.435	121.62
472.654	104.62
472.873	117.62
473.092	106.62
473.311	125.62
473.53	117.62
473.749	104.62
473.968	126.62
474.187	131.62
474.406	127.62
474.625	129.62
474.844	141.62
475.063	134.62
475.282	134.62
475.501	105.62
475.72	108.62
475.939	120.62
476.158	126.62
476.377	128.62
476.596	118.62
476.814	97.62
477.033	107.62
477.252	115.62
477.471	125.62
477.69	135.62
477.908	139.62
478.127	126.62
478.346	137.62
478.564	134.62
478.783	142.62
479.002	127.62
479.22	130.62
479.439	139.62
479.658	138.62
479.876	116.62
480.095	99.62
480.313	124.62
480.532	109.62
480.751	113.62
480.969	89.62
481.188	96.62
481.406	104.62
481.624	101.62
481.843	91.62
482.061	95.62
482.28	104.62
482.498	112.62
482.717	108.62
482.935	124.62
483.153	143.62
483.372	152.62
483.59	153.62
483.808	127.62
484.027	123.62
484.245	134.62
484.463	141.62
484.681	147.62
484.9	141.62
485.118	139.62
485.336	122.62
485.554	110.62
485.772	113.62
485.99	105.62
486.209	88.62
486.427	106.62
486.645	111.62
486.863	131.62
487.081	135.62
487.299	130.62
487.517	133.62
487.735	166.62
487.953	169.62
488.171	191.62
488.389	178.62
488.607	161.62
488.825	147.62
489.043	145.62
489.261	124.62
489.479	141.62
489.696	162.62
489.914	129.62
490.132	144.62
490.35	147.62
490.568	162.62
490.786	162.62
491.003	173.62
491.221	165.62
491.439	178.62
491.657	183.62
491.874	199.62
492.092	235.62
492.31	237.62
492.527	220.62
492.745	194.62
492.963	181.62
493.18	181.62
493.398	177.62
493.615	175.62
493.833	165.62
494.05	162.62
494.268	172.62
494.485	173.62
494.703	175.62
494.92	161.62
495.138	165.62
495.355	182.62
495.573	167.62
495.79	163.62
496.008	179.62
496.225	158.62
496.442	152.62
496.66	175.62
496.877	153.62
497.094	164.62
497.312	158.62
497.529	156.62
497.746	166.62
497.963	141.62
498.181	127.62
498.398	143.62
498.615	126.62
498.832	117.62
499.049	114.62
499.267	125.62
499.484	133.62
499.701	122.62
499.918	129.62
500.135	133.62
500.352	135.62
500.569	136.62
500.786	141.62
501.003	151.62
501.22	149.62
501.437	137.62
501.654	136.62
501.871	129.62
502.088	133.62
502.305	144.62
502.522	141.62
502.739	130.62
502.956	130.62
503.172	122.62
503.389	136.62
503.606	108.62
503.823	118.62
504.04	115.62
504.256	120.62
504.473	134.62
504.69	108.62
504.907	122.62
505.123	129.62
505.34	124.62
505.557	94.62
505.773	124.62
505.99	127.62
506.207	114.62
506.423	119.62
506.64	121.62
506.856	125.62
507.073	132.62
507.289	116.62
507.506	130.62
507.722	127.62
507.939	115.62
508.155	130.62
508.372	120.62
508.588	120.62
508.805	119.62
509.021	112.62
509.238	111.62
509.454	112.62
509.67	104.62
509.887	102.62
510.103	102.62
510.319	77.62
510.536	93.62
510.752	102.62
510.968	86.62
511.184	99.62
511.401	85.62
511.617	105.62
