Data from Location4.07152019.Energy5.Lamp.07192019.3%Agarose_HRD10591_16-19-08-925.txt Node
Date: Fri Jul 19 16:19:08 EDT 2019
User: cochatt
Spectrometer: HR+D1059
Trigger mode: 1
Integration Time (sec): 1.000000E-1
Scans to average: 1
Electric dark correction enabled: true
Nonlinearity correction enabled: false
Boxcar width: 0
XAxis mode: Wavelengths
Number of Pixels in Spectrum: 2048
>>>>>Begin Spectral Data<<<<<
223.165	-22.44
223.4	-22.44
223.635	-22.44
223.869	-11.44
224.104	-14.44
224.338	3.56
224.573	-10.44
224.808	-12.44
225.042	-5.44
225.277	-11.44
225.511	-6.44
225.746	-3.44
225.98	-0.44
226.215	7.56
226.449	24.56
226.683	26.56
226.918	24.56
227.152	11.56
227.387	42.56
227.621	24.56
227.856	36.56
228.09	45.56
228.324	52.56
228.559	36.56
228.793	52.56
229.027	59.56
229.262	50.56
229.496	57.56
229.73	63.56
229.964	75.56
230.199	64.56
230.433	64.56
230.667	72.56
230.901	78.56
231.136	75.56
231.37	81.56
231.604	73.56
231.838	80.56
232.072	79.56
232.306	84.56
232.541	72.56
232.775	90.56
233.009	85.56
233.243	89.56
233.477	79.56
233.711	77.56
233.945	70.56
234.179	79.56
234.413	78.56
234.647	76.56
234.881	79.56
235.115	69.56
235.349	80.56
235.583	71.56
235.817	79.56
236.051	87.56
236.285	78.56
236.519	73.56
236.753	74.56
236.987	81.56
237.221	79.56
237.455	58.56
237.689	70.56
237.922	63.56
238.156	83.56
238.39	82.56
238.624	66.56
238.858	74.56
239.091	73.56
239.325	59.56
239.559	79.56
239.793	79.56
240.027	76.56
240.26	75.56
240.494	82.56
240.728	61.56
240.961	67.56
241.195	75.56
241.429	76.56
241.662	84.56
241.896	71.56
242.13	82.56
242.363	70.56
242.597	83.56
242.83	85.56
243.064	72.56
243.298	81.56
243.531	68.56
243.765	59.56
243.998	71.56
244.232	61.56
244.465	70.56
244.699	73.56
244.932	86.56
245.166	85.56
245.399	83.56
245.633	76.56
245.866	70.56
246.099	81.56
246.333	74.56
246.566	81.56
246.8	59.56
247.033	82.56
247.266	70.56
247.5	79.56
247.733	77.56
247.966	70.56
248.2	75.56
248.433	82.56
248.666	82.56
248.899	75.56
249.133	76.56
249.366	81.56
249.599	93.56
249.832	81.56
250.066	79.56
250.299	76.56
250.532	79.56
250.765	78.56
250.998	81.56
251.231	66.56
251.465	69.56
251.698	67.56
251.931	79.56
252.164	76.56
252.397	84.56
252.63	62.56
252.863	76.56
253.096	84.56
253.329	69.56
253.562	74.56
253.795	82.56
254.028	81.56
254.261	68.56
254.494	71.56
254.727	73.56
254.96	76.56
255.193	81.56
255.426	79.56
255.659	70.56
255.892	77.56
256.124	74.56
256.357	78.56
256.59	81.56
256.823	76.56
257.056	87.56
257.289	76.56
257.521	75.56
257.754	73.56
257.987	73.56
258.22	81.56
258.452	86.56
258.685	87.56
258.918	75.56
259.151	75.56
259.383	71.56
259.616	79.56
259.849	82.56
260.081	104.56
260.314	74.56
260.547	79.56
260.779	71.56
261.012	90.56
261.244	88.56
261.477	78.56
261.71	89.56
261.942	82.56
262.175	72.56
262.407	86.56
262.64	75.56
262.872	76.56
263.105	80.56
263.337	68.56
263.57	73.56
263.802	69.56
264.035	88.56
264.267	72.56
264.499	82.56
264.732	73.56
264.964	85.56
265.197	78.56
265.429	79.56
265.661	77.56
265.894	73.56
266.126	72.56
266.358	90.56
266.591	86.56
266.823	91.56
267.055	84.56
267.287	80.56
267.52	83.56
267.752	75.56
267.984	81.56
268.216	87.56
268.448	96.56
268.681	69.56
268.913	86.56
269.145	77.56
269.377	88.56
269.609	82.56
269.841	88.56
270.073	82.56
270.306	84.56
270.538	62.56
270.77	75.56
271.002	87.56
271.234	85.56
271.466	92.56
271.698	84.56
271.93	70.56
272.162	93.56
272.394	76.56
272.626	92.56
272.858	81.56
273.09	86.56
273.322	71.56
273.553	77.56
273.785	87.56
274.017	84.56
274.249	80.56
274.481	89.56
274.713	93.56
274.945	81.56
275.176	92.56
275.408	73.56
275.64	75.56
275.872	87.56
276.104	76.56
276.335	73.56
276.567	68.56
276.799	74.56
277.031	75.56
277.262	76.56
277.494	92.56
277.726	68.56
277.957	66.56
278.189	79.56
278.421	84.56
278.652	87.56
278.884	81.56
279.115	90.56
279.347	69.56
279.579	76.56
279.81	86.56
280.042	82.56
280.273	76.56
280.505	89.56
280.736	83.56
280.968	74.56
281.199	62.56
281.431	85.56
281.662	78.56
281.894	80.56
282.125	80.56
282.356	85.56
282.588	90.56
282.819	79.56
283.051	77.56
283.282	82.56
283.513	81.56
283.745	80.56
283.976	96.56
284.207	71.56
284.439	76.56
284.67	89.56
284.901	83.56
285.132	71.56
285.364	71.56
285.595	92.56
285.826	98.56
286.057	94.56
286.288	85.56
286.52	76.56
286.751	78.56
286.982	72.56
287.213	70.56
287.444	78.56
287.675	89.56
287.906	77.56
288.138	91.56
288.369	88.56
288.6	71.56
288.831	88.56
289.062	81.56
289.293	71.56
289.524	80.56
289.755	83.56
289.986	74.56
290.217	77.56
290.448	85.56
290.679	71.56
290.91	80.56
291.141	81.56
291.371	81.56
291.602	88.56
291.833	84.56
292.064	76.56
292.295	89.56
292.526	71.56
292.757	74.56
292.987	72.56
293.218	89.56
293.449	82.56
293.68	76.56
293.91	85.56
294.141	95.56
294.372	77.56
294.603	81.56
294.833	81.56
295.064	72.56
295.295	72.56
295.525	74.56
295.756	75.56
295.987	75.56
296.217	83.56
296.448	75.56
296.679	84.56
296.909	95.56
297.14	95.56
297.37	97.56
297.601	85.56
297.831	77.56
298.062	76.56
298.292	87.56
298.523	81.56
298.753	75.56
298.984	72.56
299.214	83.56
299.445	82.56
299.675	83.56
299.905	87.56
300.136	78.56
300.366	75.56
300.597	72.56
300.827	81.56
301.057	77.56
301.288	96.56
301.518	84.56
301.748	87.56
301.979	87.56
302.209	85.56
302.439	79.56
302.669	88.56
302.9	83.56
303.13	73.56
303.36	70.56
303.59	74.56
303.82	90.56
304.051	86.56
304.281	84.56
304.511	81.56
304.741	62.56
304.971	65.56
305.201	87.56
305.431	78.56
305.661	76.56
305.891	98.56
306.121	75.56
306.352	87.56
306.582	80.56
306.812	95.56
307.042	95.56
307.272	83.56
307.502	88.56
307.731	75.56
307.961	78.56
308.191	84.56
308.421	82.56
308.651	81.56
308.881	81.56
309.111	84.56
309.341	65.56
309.571	73.56
309.8	70.56
310.03	82.56
310.26	90.56
310.49	88.56
310.72	81.56
310.949	87.56
311.179	78.56
311.409	91.56
311.639	87.56
311.868	86.56
312.098	87.56
312.328	76.56
312.557	63.56
312.787	87.56
313.017	89.56
313.246	86.56
313.476	92.56
313.706	83.56
313.935	82.56
314.165	77.56
314.394	82.56
314.624	82.56
314.853	86.56
315.083	80.56
315.312	89.56
315.542	84.56
315.771	85.56
316.001	88.56
316.23	89.56
316.46	84.56
316.689	82.56
316.919	72.56
317.148	87.56
317.377	93.56
317.607	84.56
317.836	83.56
318.065	91.56
318.295	68.56
318.524	95.56
318.753	91.56
318.983	101.56
319.212	82.56
319.441	77.56
319.67	91.56
319.9	76.56
320.129	81.56
320.358	82.56
320.587	83.56
320.816	77.56
321.046	83.56
321.275	89.56
321.504	87.56
321.733	96.56
321.962	86.56
322.191	71.56
322.42	81.56
322.649	79.56
322.878	84.56
323.108	89.56
323.337	72.56
323.566	86.56
323.795	77.56
324.024	89.56
324.253	84.56
324.482	77.56
324.71	92.56
324.939	74.56
325.168	94.56
325.397	74.56
325.626	75.56
325.855	98.56
326.084	97.56
326.313	97.56
326.542	79.56
326.77	86.56
326.999	98.56
327.228	99.56
327.457	85.56
327.686	103.56
327.914	75.56
328.143	81.56
328.372	88.56
328.6	81.56
328.829	72.56
329.058	86.56
329.287	86.56
329.515	88.56
329.744	80.56
329.972	83.56
330.201	85.56
330.43	81.56
330.658	79.56
330.887	88.56
331.115	90.56
331.344	75.56
331.572	90.56
331.801	80.56
332.03	85.56
332.258	92.56
332.486	81.56
332.715	92.56
332.943	83.56
333.172	84.56
333.4	99.56
333.629	87.56
333.857	73.56
334.085	97.56
334.314	92.56
334.542	83.56
334.771	78.56
334.999	88.56
335.227	83.56
335.455	68.56
335.684	78.56
335.912	81.56
336.14	77.56
336.369	88.56
336.597	76.56
336.825	75.56
337.053	86.56
337.281	76.56
337.51	83.56
337.738	82.56
337.966	97.56
338.194	73.56
338.422	80.56
338.65	73.56
338.878	92.56
339.106	83.56
339.334	81.56
339.562	76.56
339.79	83.56
340.018	77.56
340.246	80.56
340.474	79.56
340.702	88.56
340.93	86.56
341.158	78.56
341.386	82.56
341.614	78.56
341.842	89.56
342.07	88.56
342.298	83.56
342.526	78.56
342.754	71.56
342.981	79.56
343.209	78.56
343.437	87.56
343.665	89.56
343.893	91.56
344.12	91.56
344.348	73.56
344.576	92.56
344.804	82.56
345.031	90.56
345.259	82.56
345.487	87.56
345.714	68.56
345.942	79.56
346.17	90.56
346.397	83.56
346.625	84.56
346.853	82.56
347.08	77.56
347.308	86.56
347.535	99.56
347.763	91.56
347.99	88.56
348.218	81.56
348.445	83.56
348.673	80.56
348.9	77.56
349.128	85.56
349.355	90.56
349.583	84.56
349.81	77.56
350.037	68.56
350.265	80.56
350.492	69.56
350.72	81.56
350.947	82.56
351.174	94.56
351.402	74.56
351.629	75.56
351.856	83.56
352.083	80.56
352.311	88.56
352.538	74.56
352.765	85.56
352.992	75.56
353.22	68.56
353.447	76.56
353.674	90.56
353.901	78.56
354.128	84.56
354.355	83.56
354.583	80.56
354.81	78.56
355.037	84.56
355.264	104.56
355.491	78.56
355.718	87.56
355.945	83.56
356.172	88.56
356.399	78.56
356.626	90.56
356.853	84.56
357.08	91.56
357.307	84.56
357.534	77.56
357.761	73.56
357.988	92.56
358.215	81.56
358.441	81.56
358.668	83.56
358.895	78.56
359.122	72.56
359.349	73.56
359.576	85.56
359.802	82.56
360.029	81.56
360.256	88.56
360.483	81.56
360.709	66.56
360.936	77.56
361.163	77.56
361.39	74.56
361.616	79.56
361.843	87.56
362.07	82.56
362.296	85.56
362.523	80.56
362.749	92.56
362.976	86.56
363.203	95.56
363.429	84.56
363.656	76.56
363.882	75.56
364.109	83.56
364.335	89.56
364.562	90.56
364.788	74.56
365.015	97.56
365.241	85.56
365.468	81.56
365.694	77.56
365.92	88.56
366.147	59.56
366.373	91.56
366.599	93.56
366.826	81.56
367.052	104.56
367.278	72.56
367.505	80.56
367.731	94.56
367.957	84.56
368.184	89.56
368.41	83.56
368.636	77.56
368.862	93.56
369.089	85.56
369.315	100.56
369.541	90.56
369.767	96.56
369.993	90.56
370.219	87.56
370.445	83.56
370.672	98.56
370.898	95.56
371.124	96.56
371.35	94.56
371.576	93.56
371.802	89.56
372.028	92.56
372.254	85.56
372.48	93.56
372.706	90.56
372.932	90.56
373.158	84.56
373.384	108.56
373.61	93.56
373.835	86.56
374.061	87.56
374.287	97.56
374.513	87.56
374.739	91.56
374.965	75.56
375.191	90.56
375.416	95.56
375.642	100.56
375.868	79.56
376.094	98.56
376.319	96.56
376.545	82.56
376.771	95.56
376.997	110.56
377.222	85.56
377.448	98.56
377.674	92.56
377.899	83.56
378.125	79.56
378.35	97.56
378.576	83.56
378.802	81.56
379.027	92.56
379.253	86.56
379.478	91.56
379.704	91.56
379.929	101.56
380.155	107.56
380.38	95.56
380.606	99.56
380.831	92.56
381.057	95.56
381.282	105.56
381.507	103.56
381.733	93.56
381.958	97.56
382.184	82.56
382.409	94.56
382.634	113.56
382.86	79.56
383.085	95.56
383.31	97.56
383.535	112.56
383.761	85.56
383.986	88.56
384.211	94.56
384.436	98.56
384.662	89.56
384.887	79.56
385.112	101.56
385.337	99.56
385.562	104.56
385.787	87.56
386.013	96.56
386.238	105.56
386.463	105.56
386.688	103.56
386.913	90.56
387.138	106.56
387.363	96.56
387.588	88.56
387.813	102.56
388.038	97.56
388.263	108.56
388.488	94.56
388.713	95.56
388.938	101.56
389.163	109.56
389.387	98.56
389.612	103.56
389.837	108.56
390.062	101.56
390.287	107.56
390.512	101.56
390.736	90.56
390.961	89.56
391.186	102.56
391.411	95.56
391.636	100.56
391.86	97.56
392.085	103.56
392.31	88.56
392.534	92.56
392.759	90.56
392.984	88.56
393.208	92.56
393.433	96.56
393.658	95.56
393.882	106.56
394.107	98.56
394.331	108.56
394.556	97.56
394.78	106.56
395.005	111.56
395.229	108.56
395.454	95.56
395.678	88.56
395.903	105.56
396.127	126.56
396.352	103.56
396.576	104.56
396.801	114.56
397.025	111.56
397.249	106.56
397.474	103.56
397.698	114.56
397.922	106.56
398.147	106.56
398.371	115.56
398.595	104.56
398.82	116.56
399.044	128.56
399.268	115.56
399.492	104.56
399.717	119.56
399.941	102.56
400.165	109.56
400.389	111.56
400.613	123.56
400.837	106.56
401.062	99.56
401.286	123.56
401.51	125.56
401.734	124.56
401.958	107.56
402.182	93.56
402.406	107.56
402.63	97.56
402.854	113.56
403.078	108.56
403.302	108.56
403.526	104.56
403.75	114.56
403.974	133.56
404.198	120.56
404.422	106.56
404.645	100.56
404.869	118.56
405.093	123.56
405.317	125.56
405.541	115.56
405.765	119.56
405.988	115.56
406.212	121.56
406.436	118.56
406.66	126.56
406.883	108.56
407.107	119.56
407.331	117.56
407.555	127.56
407.778	118.56
408.002	107.56
408.226	123.56
408.449	106.56
408.673	129.56
408.896	121.56
409.12	129.56
409.344	108.56
409.567	121.56
409.791	108.56
410.014	121.56
410.238	99.56
410.461	109.56
410.685	112.56
410.908	121.56
411.132	127.56
411.355	109.56
411.578	121.56
411.802	111.56
412.025	127.56
412.249	123.56
412.472	114.56
412.695	125.56
412.919	114.56
413.142	119.56
413.365	126.56
413.589	126.56
413.812	125.56
414.035	142.56
414.258	104.56
414.482	125.56
414.705	121.56
414.928	146.56
415.151	116.56
415.374	135.56
415.597	117.56
415.821	105.56
416.044	130.56
416.267	129.56
416.49	121.56
416.713	123.56
416.936	119.56
417.159	136.56
417.382	128.56
417.605	116.56
417.828	127.56
418.051	129.56
418.274	125.56
418.497	118.56
418.72	143.56
418.943	127.56
419.166	121.56
419.389	123.56
419.611	129.56
419.834	125.56
420.057	119.56
420.28	124.56
420.503	133.56
420.726	147.56
420.948	129.56
421.171	129.56
421.394	128.56
421.617	117.56
421.839	152.56
422.062	136.56
422.285	137.56
422.507	124.56
422.73	120.56
422.953	130.56
423.175	127.56
423.398	120.56
423.621	127.56
423.843	134.56
424.066	139.56
424.288	147.56
424.511	147.56
424.733	139.56
424.956	144.56
425.178	147.56
425.401	123.56
425.623	123.56
425.846	124.56
426.068	130.56
426.291	131.56
426.513	114.56
426.735	133.56
426.958	133.56
427.18	130.56
427.402	138.56
427.625	123.56
427.847	116.56
428.069	118.56
428.292	133.56
428.514	125.56
428.736	116.56
428.958	137.56
429.181	125.56
429.403	137.56
429.625	139.56
429.847	138.56
430.069	131.56
430.292	130.56
430.514	128.56
430.736	122.56
430.958	120.56
431.18	122.56
431.402	125.56
431.624	117.56
431.846	101.56
432.068	85.56
432.29	100.56
432.512	118.56
432.734	118.56
432.956	129.56
433.178	131.56
433.4	138.56
433.622	131.56
433.844	129.56
434.066	121.56
434.287	97.56
434.509	108.56
434.731	92.56
434.953	115.56
435.175	127.56
435.397	126.56
435.618	93.56
435.84	115.56
436.062	120.56
436.284	108.56
436.505	141.56
436.727	126.56
436.949	137.56
437.17	128.56
437.392	131.56
437.614	117.56
437.835	117.56
438.057	125.56
438.278	110.56
438.5	121.56
438.721	131.56
438.943	136.56
439.165	138.56
439.386	145.56
439.608	135.56
439.829	131.56
440.05	135.56
440.272	153.56
440.493	141.56
440.715	130.56
440.936	129.56
441.158	147.56
441.379	142.56
441.6	154.56
441.822	145.56
442.043	139.56
442.264	141.56
442.486	140.56
442.707	139.56
442.928	137.56
443.149	132.56
443.371	132.56
443.592	125.56
443.813	146.56
444.034	150.56
444.255	127.56
444.476	154.56
444.698	140.56
444.919	138.56
445.14	274.56
445.361	207.56
445.582	148.56
445.803	138.56
446.024	140.56
446.245	159.56
446.466	147.56
446.687	147.56
446.908	171.56
447.129	137.56
447.35	151.56
447.571	145.56
447.792	132.56
448.013	143.56
448.234	144.56
448.455	146.56
448.675	137.56
448.896	143.56
449.117	139.56
449.338	134.56
449.559	141.56
449.779	130.56
450	120.56
450.221	135.56
450.442	138.56
450.662	128.56
450.883	124.56
451.104	140.56
451.324	131.56
451.545	109.56
451.766	131.56
451.986	108.56
452.207	121.56
452.428	129.56
452.648	125.56
452.869	112.56
453.089	115.56
453.31	114.56
453.53	115.56
453.751	107.56
453.971	105.56
454.192	109.56
454.412	104.56
454.633	121.56
454.853	123.56
455.073	120.56
455.294	115.56
455.514	124.56
455.734	108.56
455.955	117.56
456.175	131.56
456.395	108.56
456.616	112.56
456.836	113.56
457.056	93.56
457.276	103.56
457.497	107.56
457.717	112.56
457.937	116.56
458.157	101.56
458.377	117.56
458.598	103.56
458.818	96.56
459.038	92.56
459.258	90.56
459.478	87.56
459.698	92.56
459.918	111.56
460.138	105.56
460.358	116.56
460.578	101.56
460.798	105.56
461.018	125.56
461.238	112.56
461.458	112.56
461.678	104.56
461.898	102.56
462.118	115.56
462.338	107.56
462.558	117.56
462.777	117.56
462.997	114.56
463.217	114.56
463.437	103.56
463.657	123.56
463.876	122.56
464.096	114.56
464.316	95.56
464.536	106.56
464.755	96.56
464.975	109.56
465.195	123.56
465.414	117.56
465.634	114.56
465.854	114.56
466.073	126.56
466.293	111.56
466.512	134.56
466.732	129.56
466.951	119.56
467.171	134.56
467.391	118.56
467.61	126.56
467.829	133.56
468.049	119.56
468.268	123.56
468.488	133.56
468.707	127.56
468.927	141.56
469.146	130.56
469.365	137.56
469.585	145.56
469.804	143.56
470.023	129.56
470.243	138.56
470.462	144.56
470.681	149.56
470.901	125.56
471.12	139.56
471.339	132.56
471.558	137.56
471.777	131.56
471.997	129.56
472.216	128.56
472.435	116.56
472.654	119.56
472.873	115.56
473.092	115.56
473.311	116.56
473.53	127.56
473.749	121.56
473.968	121.56
474.187	125.56
474.406	122.56
474.625	113.56
474.844	119.56
475.063	127.56
475.282	120.56
475.501	119.56
475.72	120.56
475.939	132.56
476.158	133.56
476.377	124.56
476.596	119.56
476.814	109.56
477.033	109.56
477.252	117.56
477.471	115.56
477.69	125.56
477.908	144.56
478.127	141.56
478.346	141.56
478.564	134.56
478.783	124.56
479.002	131.56
479.22	139.56
479.439	122.56
479.658	123.56
479.876	109.56
480.095	93.56
480.313	122.56
480.532	117.56
480.751	112.56
480.969	93.56
481.188	88.56
481.406	84.56
481.624	87.56
481.843	85.56
482.061	102.56
482.28	118.56
482.498	96.56
482.717	105.56
482.935	112.56
483.153	135.56
483.372	157.56
483.59	140.56
483.808	141.56
484.027	139.56
484.245	128.56
484.463	140.56
484.681	163.56
484.9	138.56
485.118	145.56
485.336	123.56
485.554	108.56
485.772	88.56
485.99	109.56
486.209	105.56
486.427	118.56
486.645	115.56
486.863	135.56
487.081	144.56
487.299	127.56
487.517	131.56
487.735	166.56
487.953	170.56
488.171	186.56
488.389	189.56
488.607	172.56
488.825	159.56
489.043	126.56
489.261	135.56
489.479	131.56
489.696	136.56
489.914	129.56
490.132	139.56
490.35	158.56
490.568	155.56
490.786	179.56
491.003	175.56
491.221	195.56
491.439	179.56
491.657	170.56
491.874	188.56
492.092	220.56
492.31	255.56
492.527	232.56
492.745	221.56
492.963	200.56
493.18	189.56
493.398	175.56
493.615	172.56
493.833	171.56
494.05	166.56
494.268	175.56
494.485	172.56
494.703	178.56
494.92	155.56
495.138	163.56
495.355	162.56
495.573	157.56
495.79	168.56
496.008	159.56
496.225	151.56
496.442	158.56
496.66	157.56
496.877	163.56
497.094	151.56
497.312	159.56
497.529	153.56
497.746	169.56
497.963	132.56
498.181	139.56
498.398	135.56
498.615	123.56
498.832	115.56
499.049	131.56
499.267	120.56
499.484	121.56
499.701	124.56
499.918	127.56
500.135	131.56
500.352	134.56
500.569	140.56
500.786	131.56
501.003	131.56
501.22	138.56
501.437	122.56
501.654	131.56
501.871	133.56
502.088	127.56
502.305	127.56
502.522	133.56
502.739	137.56
502.956	111.56
503.172	130.56
503.389	118.56
503.606	109.56
503.823	121.56
504.04	115.56
504.256	137.56
504.473	112.56
504.69	106.56
504.907	118.56
505.123	123.56
505.34	121.56
505.557	123.56
505.773	123.56
505.99	133.56
506.207	125.56
506.423	127.56
506.64	109.56
506.856	112.56
507.073	125.56
507.289	122.56
507.506	115.56
507.722	115.56
507.939	115.56
508.155	124.56
508.372	119.56
508.588	115.56
508.805	116.56
509.021	117.56
509.238	112.56
509.454	106.56
509.67	93.56
509.887	100.56
510.103	101.56
510.319	90.56
510.536	95.56
510.752	93.56
510.968	82.56
511.184	89.56
511.401	73.56
511.617	94.56
511.833	97.56
