Data from Location4.07152019.Energy5.Lamp.07192019.3%Agarose_HRD10591_16-19-44-925.txt Node
Date: Fri Jul 19 16:19:44 EDT 2019
User: cochatt
Spectrometer: HR+D1059
Trigger mode: 1
Integration Time (sec): 1.000000E-1
Scans to average: 1
Electric dark correction enabled: true
Nonlinearity correction enabled: false
Boxcar width: 0
XAxis mode: Wavelengths
Number of Pixels in Spectrum: 2048
>>>>>Begin Spectral Data<<<<<
223.165	-15.5
223.4	-15.5
223.635	-15.5
223.869	-21.5
224.104	-18.5
224.338	-22.5
224.573	-24.5
224.808	3.5
225.042	-2.5
225.277	-7.5
225.511	11.5
225.746	7.5
225.98	-8.5
226.215	9.5
226.449	15.5
226.683	14.5
226.918	20.5
227.152	38.5
227.387	30.5
227.621	23.5
227.856	39.5
228.09	35.5
228.324	45.5
228.559	43.5
228.793	75.5
229.027	68.5
229.262	50.5
229.496	65.5
229.73	69.5
229.964	54.5
230.199	74.5
230.433	68.5
230.667	69.5
230.901	83.5
231.136	76.5
231.37	71.5
231.604	82.5
231.838	70.5
232.072	92.5
232.306	77.5
232.541	81.5
232.775	79.5
233.009	85.5
233.243	84.5
233.477	72.5
233.711	71.5
233.945	77.5
234.179	77.5
234.413	74.5
234.647	74.5
234.881	90.5
235.115	82.5
235.349	76.5
235.583	84.5
235.817	71.5
236.051	75.5
236.285	74.5
236.519	85.5
236.753	68.5
236.987	80.5
237.221	77.5
237.455	72.5
237.689	91.5
237.922	82.5
238.156	81.5
238.39	69.5
238.624	80.5
238.858	71.5
239.091	81.5
239.325	72.5
239.559	59.5
239.793	72.5
240.027	68.5
240.26	85.5
240.494	69.5
240.728	75.5
240.961	68.5
241.195	83.5
241.429	80.5
241.662	64.5
241.896	65.5
242.13	66.5
242.363	78.5
242.597	79.5
242.83	77.5
243.064	80.5
243.298	69.5
243.531	74.5
243.765	76.5
243.998	75.5
244.232	83.5
244.465	79.5
244.699	70.5
244.932	86.5
245.166	81.5
245.399	74.5
245.633	79.5
245.866	73.5
246.099	65.5
246.333	63.5
246.566	75.5
246.8	81.5
247.033	76.5
247.266	73.5
247.5	92.5
247.733	81.5
247.966	73.5
248.2	81.5
248.433	73.5
248.666	77.5
248.899	74.5
249.133	81.5
249.366	83.5
249.599	84.5
249.832	70.5
250.066	83.5
250.299	89.5
250.532	85.5
250.765	84.5
250.998	73.5
251.231	98.5
251.465	82.5
251.698	74.5
251.931	77.5
252.164	79.5
252.397	78.5
252.63	67.5
252.863	77.5
253.096	76.5
253.329	84.5
253.562	82.5
253.795	82.5
254.028	70.5
254.261	80.5
254.494	70.5
254.727	88.5
254.96	74.5
255.193	75.5
255.426	87.5
255.659	88.5
255.892	79.5
256.124	78.5
256.357	79.5
256.59	76.5
256.823	75.5
257.056	90.5
257.289	75.5
257.521	64.5
257.754	86.5
257.987	89.5
258.22	80.5
258.452	85.5
258.685	78.5
258.918	89.5
259.151	93.5
259.383	76.5
259.616	85.5
259.849	89.5
260.081	96.5
260.314	75.5
260.547	82.5
260.779	71.5
261.012	76.5
261.244	77.5
261.477	75.5
261.71	91.5
261.942	83.5
262.175	87.5
262.407	85.5
262.64	89.5
262.872	105.5
263.105	83.5
263.337	86.5
263.57	92.5
263.802	78.5
264.035	81.5
264.267	95.5
264.499	86.5
264.732	90.5
264.964	84.5
265.197	70.5
265.429	69.5
265.661	81.5
265.894	91.5
266.126	76.5
266.358	87.5
266.591	77.5
266.823	76.5
267.055	67.5
267.287	89.5
267.52	79.5
267.752	77.5
267.984	95.5
268.216	79.5
268.448	95.5
268.681	84.5
268.913	91.5
269.145	94.5
269.377	82.5
269.609	82.5
269.841	83.5
270.073	80.5
270.306	80.5
270.538	79.5
270.77	91.5
271.002	86.5
271.234	80.5
271.466	89.5
271.698	79.5
271.93	67.5
272.162	84.5
272.394	92.5
272.626	86.5
272.858	79.5
273.09	81.5
273.322	69.5
273.553	84.5
273.785	87.5
274.017	82.5
274.249	77.5
274.481	85.5
274.713	69.5
274.945	82.5
275.176	81.5
275.408	79.5
275.64	79.5
275.872	77.5
276.104	81.5
276.335	79.5
276.567	73.5
276.799	79.5
277.031	74.5
277.262	83.5
277.494	91.5
277.726	84.5
277.957	77.5
278.189	80.5
278.421	93.5
278.652	88.5
278.884	83.5
279.115	89.5
279.347	70.5
279.579	87.5
279.81	79.5
280.042	74.5
280.273	91.5
280.505	96.5
280.736	65.5
280.968	99.5
281.199	88.5
281.431	58.5
281.662	81.5
281.894	75.5
282.125	80.5
282.356	82.5
282.588	82.5
282.819	81.5
283.051	83.5
283.282	81.5
283.513	90.5
283.745	85.5
283.976	81.5
284.207	73.5
284.439	85.5
284.67	86.5
284.901	75.5
285.132	79.5
285.364	70.5
285.595	83.5
285.826	74.5
286.057	86.5
286.288	86.5
286.52	79.5
286.751	75.5
286.982	79.5
287.213	82.5
287.444	90.5
287.675	75.5
287.906	81.5
288.138	93.5
288.369	83.5
288.6	82.5
288.831	84.5
289.062	79.5
289.293	86.5
289.524	79.5
289.755	79.5
289.986	68.5
290.217	88.5
290.448	70.5
290.679	79.5
290.91	78.5
291.141	79.5
291.371	83.5
291.602	87.5
291.833	80.5
292.064	84.5
292.295	87.5
292.526	80.5
292.757	91.5
292.987	90.5
293.218	73.5
293.449	81.5
293.68	78.5
293.91	77.5
294.141	84.5
294.372	78.5
294.603	79.5
294.833	82.5
295.064	80.5
295.295	82.5
295.525	86.5
295.756	76.5
295.987	84.5
296.217	79.5
296.448	79.5
296.679	96.5
296.909	88.5
297.14	91.5
297.37	89.5
297.601	86.5
297.831	72.5
298.062	91.5
298.292	75.5
298.523	89.5
298.753	91.5
298.984	82.5
299.214	81.5
299.445	103.5
299.675	85.5
299.905	79.5
300.136	79.5
300.366	78.5
300.597	86.5
300.827	82.5
301.057	72.5
301.288	94.5
301.518	100.5
301.748	77.5
301.979	84.5
302.209	85.5
302.439	84.5
302.669	81.5
302.9	93.5
303.13	89.5
303.36	79.5
303.59	85.5
303.82	82.5
304.051	82.5
304.281	94.5
304.511	66.5
304.741	88.5
304.971	93.5
305.201	83.5
305.431	83.5
305.661	74.5
305.891	67.5
306.121	89.5
306.352	73.5
306.582	78.5
306.812	90.5
307.042	66.5
307.272	76.5
307.502	77.5
307.731	88.5
307.961	84.5
308.191	72.5
308.421	91.5
308.651	81.5
308.881	88.5
309.111	79.5
309.341	90.5
309.571	82.5
309.8	90.5
310.03	97.5
310.26	76.5
310.49	65.5
310.72	95.5
310.949	76.5
311.179	89.5
311.409	91.5
311.639	93.5
311.868	77.5
312.098	81.5
312.328	77.5
312.557	78.5
312.787	85.5
313.017	86.5
313.246	80.5
313.476	84.5
313.706	68.5
313.935	74.5
314.165	82.5
314.394	79.5
314.624	73.5
314.853	88.5
315.083	79.5
315.312	80.5
315.542	85.5
315.771	86.5
316.001	84.5
316.23	81.5
316.46	91.5
316.689	79.5
316.919	90.5
317.148	90.5
317.377	79.5
317.607	73.5
317.836	89.5
318.065	69.5
318.295	79.5
318.524	83.5
318.753	79.5
318.983	75.5
319.212	87.5
319.441	79.5
319.67	73.5
319.9	81.5
320.129	74.5
320.358	71.5
320.587	79.5
320.816	93.5
321.046	87.5
321.275	97.5
321.504	95.5
321.733	80.5
321.962	79.5
322.191	79.5
322.42	70.5
322.649	79.5
322.878	73.5
323.108	93.5
323.337	81.5
323.566	62.5
323.795	71.5
324.024	79.5
324.253	77.5
324.482	87.5
324.71	78.5
324.939	81.5
325.168	94.5
325.397	75.5
325.626	89.5
325.855	74.5
326.084	92.5
326.313	79.5
326.542	85.5
326.77	95.5
326.999	96.5
327.228	93.5
327.457	84.5
327.686	107.5
327.914	93.5
328.143	74.5
328.372	89.5
328.6	83.5
328.829	98.5
329.058	96.5
329.287	70.5
329.515	81.5
329.744	78.5
329.972	98.5
330.201	83.5
330.43	86.5
330.658	78.5
330.887	72.5
331.115	86.5
331.344	84.5
331.572	82.5
331.801	82.5
332.03	78.5
332.258	72.5
332.486	83.5
332.715	89.5
332.943	73.5
333.172	75.5
333.4	76.5
333.629	99.5
333.857	81.5
334.085	71.5
334.314	93.5
334.542	84.5
334.771	73.5
334.999	84.5
335.227	75.5
335.455	87.5
335.684	71.5
335.912	90.5
336.14	81.5
336.369	83.5
336.597	80.5
336.825	80.5
337.053	72.5
337.281	80.5
337.51	77.5
337.738	85.5
337.966	90.5
338.194	76.5
338.422	81.5
338.65	81.5
338.878	98.5
339.106	85.5
339.334	85.5
339.562	82.5
339.79	82.5
340.018	71.5
340.246	79.5
340.474	93.5
340.702	86.5
340.93	85.5
341.158	92.5
341.386	96.5
341.614	87.5
341.842	97.5
342.07	87.5
342.298	90.5
342.526	81.5
342.754	92.5
342.981	81.5
343.209	89.5
343.437	91.5
343.665	77.5
343.893	83.5
344.12	83.5
344.348	85.5
344.576	87.5
344.804	80.5
345.031	80.5
345.259	66.5
345.487	85.5
345.714	86.5
345.942	97.5
346.17	81.5
346.397	82.5
346.625	81.5
346.853	92.5
347.08	70.5
347.308	83.5
347.535	82.5
347.763	82.5
347.99	92.5
348.218	77.5
348.445	75.5
348.673	95.5
348.9	79.5
349.128	93.5
349.355	86.5
349.583	97.5
349.81	77.5
350.037	73.5
350.265	88.5
350.492	85.5
350.72	88.5
350.947	86.5
351.174	85.5
351.402	99.5
351.629	85.5
351.856	89.5
352.083	81.5
352.311	74.5
352.538	76.5
352.765	80.5
352.992	88.5
353.22	75.5
353.447	89.5
353.674	93.5
353.901	81.5
354.128	85.5
354.355	80.5
354.583	75.5
354.81	79.5
355.037	71.5
355.264	90.5
355.491	90.5
355.718	88.5
355.945	78.5
356.172	82.5
356.399	72.5
356.626	90.5
356.853	70.5
357.08	75.5
357.307	87.5
357.534	78.5
357.761	94.5
357.988	78.5
358.215	83.5
358.441	88.5
358.668	65.5
358.895	86.5
359.122	71.5
359.349	87.5
359.576	85.5
359.802	79.5
360.029	73.5
360.256	76.5
360.483	92.5
360.709	79.5
360.936	86.5
361.163	81.5
361.39	83.5
361.616	74.5
361.843	93.5
362.07	98.5
362.296	93.5
362.523	78.5
362.749	73.5
362.976	67.5
363.203	94.5
363.429	70.5
363.656	73.5
363.882	70.5
364.109	86.5
364.335	79.5
364.562	81.5
364.788	74.5
365.015	79.5
365.241	91.5
365.468	99.5
365.694	74.5
365.92	74.5
366.147	79.5
366.373	70.5
366.599	103.5
366.826	79.5
367.052	74.5
367.278	88.5
367.505	91.5
367.731	87.5
367.957	94.5
368.184	80.5
368.41	87.5
368.636	89.5
368.862	91.5
369.089	82.5
369.315	98.5
369.541	101.5
369.767	83.5
369.993	79.5
370.219	86.5
370.445	87.5
370.672	95.5
370.898	98.5
371.124	88.5
371.35	86.5
371.576	88.5
371.802	90.5
372.028	95.5
372.254	100.5
372.48	80.5
372.706	77.5
372.932	88.5
373.158	88.5
373.384	81.5
373.61	93.5
373.835	90.5
374.061	91.5
374.287	98.5
374.513	90.5
374.739	93.5
374.965	90.5
375.191	95.5
375.416	94.5
375.642	95.5
375.868	94.5
376.094	92.5
376.319	79.5
376.545	101.5
376.771	94.5
376.997	83.5
377.222	71.5
377.448	100.5
377.674	82.5
377.899	83.5
378.125	99.5
378.35	86.5
378.576	88.5
378.802	96.5
379.027	96.5
379.253	85.5
379.478	99.5
379.704	101.5
379.929	105.5
380.155	85.5
380.38	84.5
380.606	95.5
380.831	81.5
381.057	104.5
381.282	109.5
381.507	102.5
381.733	107.5
381.958	86.5
382.184	97.5
382.409	93.5
382.634	87.5
382.86	92.5
383.085	98.5
383.31	96.5
383.535	84.5
383.761	103.5
383.986	108.5
384.211	89.5
384.436	97.5
384.662	98.5
384.887	81.5
385.112	93.5
385.337	105.5
385.562	94.5
385.787	89.5
386.013	111.5
386.238	99.5
386.463	113.5
386.688	93.5
386.913	99.5
387.138	82.5
387.363	81.5
387.588	106.5
387.813	100.5
388.038	87.5
388.263	102.5
388.488	86.5
388.713	80.5
388.938	86.5
389.163	105.5
389.387	92.5
389.612	96.5
389.837	105.5
390.062	98.5
390.287	110.5
390.512	97.5
390.736	109.5
390.961	92.5
391.186	92.5
391.411	101.5
391.636	106.5
391.86	88.5
392.085	86.5
392.31	96.5
392.534	104.5
392.759	102.5
392.984	102.5
393.208	100.5
393.433	99.5
393.658	99.5
393.882	103.5
394.107	99.5
394.331	94.5
394.556	90.5
394.78	102.5
395.005	100.5
395.229	94.5
395.454	117.5
395.678	114.5
395.903	115.5
396.127	111.5
396.352	95.5
396.576	103.5
396.801	111.5
397.025	100.5
397.249	103.5
397.474	107.5
397.698	106.5
397.922	110.5
398.147	95.5
398.371	109.5
398.595	104.5
398.82	97.5
399.044	104.5
399.268	102.5
399.492	129.5
399.717	100.5
399.941	111.5
400.165	110.5
400.389	101.5
400.613	105.5
400.837	100.5
401.062	100.5
401.286	102.5
401.51	111.5
401.734	92.5
401.958	99.5
402.182	121.5
402.406	94.5
402.63	99.5
402.854	113.5
403.078	102.5
403.302	133.5
403.526	124.5
403.75	110.5
403.974	97.5
404.198	104.5
404.422	110.5
404.645	113.5
404.869	115.5
405.093	105.5
405.317	119.5
405.541	118.5
405.765	117.5
405.988	115.5
406.212	119.5
406.436	120.5
406.66	108.5
406.883	118.5
407.107	111.5
407.331	106.5
407.555	107.5
407.778	112.5
408.002	111.5
408.226	117.5
408.449	125.5
408.673	108.5
408.896	113.5
409.12	113.5
409.344	128.5
409.567	127.5
409.791	131.5
410.014	104.5
410.238	112.5
410.461	117.5
410.685	101.5
410.908	114.5
411.132	107.5
411.355	120.5
411.578	103.5
411.802	116.5
412.025	105.5
412.249	113.5
412.472	103.5
412.695	119.5
412.919	113.5
413.142	105.5
413.365	121.5
413.589	115.5
413.812	129.5
414.035	118.5
414.258	114.5
414.482	103.5
414.705	110.5
414.928	120.5
415.151	123.5
415.374	132.5
415.597	113.5
415.821	135.5
416.044	113.5
416.267	124.5
416.49	116.5
416.713	119.5
416.936	116.5
417.159	115.5
417.382	103.5
417.605	111.5
417.828	133.5
418.051	121.5
418.274	128.5
418.497	136.5
418.72	123.5
418.943	122.5
419.166	119.5
419.389	121.5
419.611	124.5
419.834	114.5
420.057	127.5
420.28	130.5
420.503	126.5
420.726	129.5
420.948	137.5
421.171	129.5
421.394	127.5
421.617	130.5
421.839	135.5
422.062	143.5
422.285	119.5
422.507	145.5
422.73	128.5
422.953	123.5
423.175	127.5
423.398	128.5
423.621	126.5
423.843	114.5
424.066	133.5
424.288	126.5
424.511	150.5
424.733	135.5
424.956	134.5
425.178	130.5
425.401	142.5
425.623	123.5
425.846	123.5
426.068	127.5
426.291	120.5
426.513	120.5
426.735	119.5
426.958	132.5
427.18	129.5
427.402	125.5
427.625	126.5
427.847	120.5
428.069	125.5
428.292	117.5
428.514	117.5
428.736	114.5
428.958	123.5
429.181	122.5
429.403	130.5
429.625	135.5
429.847	133.5
430.069	125.5
430.292	122.5
430.514	120.5
430.736	122.5
430.958	127.5
431.18	129.5
431.402	99.5
431.624	114.5
431.846	105.5
432.068	96.5
432.29	102.5
432.512	109.5
432.734	127.5
432.956	113.5
433.178	126.5
433.4	122.5
433.622	160.5
433.844	132.5
434.066	110.5
434.287	92.5
434.509	93.5
434.731	84.5
434.953	112.5
435.175	120.5
435.397	120.5
435.618	114.5
435.84	103.5
436.062	111.5
436.284	117.5
436.505	116.5
436.727	129.5
436.949	118.5
437.17	125.5
437.392	113.5
437.614	116.5
437.835	120.5
438.057	101.5
438.278	116.5
438.5	122.5
438.721	133.5
438.943	132.5
439.165	138.5
439.386	133.5
439.608	135.5
439.829	130.5
440.05	148.5
440.272	127.5
440.493	134.5
440.715	153.5
440.936	130.5
441.158	133.5
441.379	146.5
441.6	145.5
441.822	156.5
442.043	133.5
442.264	132.5
442.486	126.5
442.707	127.5
442.928	126.5
443.149	118.5
443.371	117.5
443.592	131.5
443.813	123.5
444.034	131.5
444.255	127.5
444.476	137.5
444.698	125.5
444.919	138.5
445.14	255.5
445.361	181.5
445.582	150.5
445.803	138.5
446.024	140.5
446.245	161.5
446.466	141.5
446.687	163.5
446.908	161.5
447.129	141.5
447.35	143.5
447.571	155.5
447.792	156.5
448.013	141.5
448.234	129.5
448.455	133.5
448.675	151.5
448.896	141.5
449.117	135.5
449.338	140.5
449.559	131.5
449.779	136.5
450	131.5
450.221	124.5
450.442	129.5
450.662	129.5
450.883	121.5
451.104	147.5
451.324	133.5
451.545	137.5
451.766	121.5
451.986	117.5
452.207	126.5
452.428	126.5
452.648	113.5
452.869	114.5
453.089	122.5
453.31	105.5
453.53	107.5
453.751	114.5
453.971	101.5
454.192	117.5
454.412	109.5
454.633	114.5
454.853	117.5
455.073	127.5
455.294	121.5
455.514	122.5
455.734	117.5
455.955	114.5
456.175	113.5
456.395	113.5
456.616	115.5
456.836	92.5
457.056	92.5
457.276	94.5
457.497	107.5
457.717	105.5
457.937	114.5
458.157	121.5
458.377	118.5
458.598	93.5
458.818	89.5
459.038	75.5
459.258	79.5
459.478	95.5
459.698	97.5
459.918	105.5
460.138	106.5
460.358	113.5
460.578	119.5
460.798	111.5
461.018	110.5
461.238	114.5
461.458	132.5
461.678	106.5
461.898	122.5
462.118	115.5
462.338	115.5
462.558	103.5
462.777	108.5
462.997	111.5
463.217	95.5
463.437	115.5
463.657	121.5
463.876	107.5
464.096	99.5
464.316	98.5
464.536	100.5
464.755	105.5
464.975	118.5
465.195	118.5
465.414	129.5
465.634	115.5
465.854	123.5
466.073	110.5
466.293	127.5
466.512	137.5
466.732	123.5
466.951	137.5
467.171	127.5
467.391	129.5
467.61	122.5
467.829	136.5
468.049	125.5
468.268	122.5
468.488	122.5
468.707	144.5
468.927	116.5
469.146	133.5
469.365	125.5
469.585	138.5
469.804	116.5
470.023	120.5
470.243	133.5
470.462	123.5
470.681	122.5
470.901	134.5
471.12	135.5
471.339	134.5
471.558	138.5
471.777	136.5
471.997	120.5
472.216	135.5
472.435	123.5
472.654	109.5
472.873	96.5
473.092	119.5
473.311	126.5
473.53	110.5
473.749	120.5
473.968	132.5
474.187	115.5
474.406	115.5
474.625	112.5
474.844	129.5
475.063	127.5
475.282	127.5
475.501	118.5
475.72	117.5
475.939	107.5
476.158	112.5
476.377	125.5
476.596	121.5
476.814	110.5
477.033	127.5
477.252	104.5
477.471	128.5
477.69	131.5
477.908	133.5
478.127	132.5
478.346	137.5
478.564	116.5
478.783	127.5
479.002	127.5
479.22	130.5
479.439	130.5
479.658	109.5
479.876	97.5
480.095	106.5
480.313	114.5
480.532	120.5
480.751	119.5
480.969	89.5
481.188	98.5
481.406	104.5
481.624	83.5
481.843	87.5
482.061	87.5
482.28	119.5
482.498	111.5
482.717	121.5
482.935	119.5
483.153	121.5
483.372	151.5
483.59	154.5
483.808	151.5
484.027	124.5
484.245	120.5
484.463	149.5
484.681	173.5
484.9	166.5
485.118	131.5
485.336	131.5
485.554	119.5
485.772	87.5
485.99	75.5
486.209	112.5
486.427	105.5
486.645	109.5
486.863	143.5
487.081	140.5
487.299	129.5
487.517	136.5
487.735	146.5
487.953	187.5
488.171	167.5
488.389	161.5
488.607	147.5
488.825	155.5
489.043	126.5
489.261	135.5
489.479	116.5
489.696	132.5
489.914	135.5
490.132	145.5
490.35	160.5
490.568	163.5
490.786	170.5
491.003	179.5
491.221	165.5
491.439	168.5
491.657	184.5
491.874	197.5
492.092	225.5
492.31	238.5
492.527	221.5
492.745	190.5
492.963	190.5
493.18	187.5
493.398	172.5
493.615	183.5
493.833	182.5
494.05	175.5
494.268	156.5
494.485	157.5
494.703	153.5
494.92	170.5
495.138	160.5
495.355	178.5
495.573	164.5
495.79	165.5
496.008	166.5
496.225	162.5
496.442	161.5
496.66	175.5
496.877	168.5
497.094	151.5
497.312	167.5
497.529	164.5
497.746	152.5
497.963	129.5
498.181	138.5
498.398	131.5
498.615	122.5
498.832	125.5
499.049	122.5
499.267	121.5
499.484	125.5
499.701	103.5
499.918	140.5
500.135	133.5
500.352	142.5
500.569	134.5
500.786	149.5
501.003	126.5
501.22	125.5
501.437	134.5
501.654	131.5
501.871	123.5
502.088	134.5
502.305	134.5
502.522	125.5
502.739	131.5
502.956	126.5
503.172	137.5
503.389	126.5
503.606	117.5
503.823	120.5
504.04	122.5
504.256	113.5
504.473	111.5
504.69	102.5
504.907	113.5
505.123	125.5
505.34	123.5
505.557	140.5
505.773	123.5
505.99	122.5
506.207	122.5
506.423	120.5
506.64	125.5
506.856	114.5
507.073	122.5
507.289	113.5
507.506	120.5
507.722	101.5
507.939	117.5
508.155	120.5
508.372	118.5
508.588	117.5
508.805	111.5
509.021	94.5
509.238	93.5
509.454	97.5
509.67	99.5
509.887	111.5
510.103	105.5
510.319	88.5
510.536	91.5
510.752	81.5
510.968	72.5
511.184	79.5
511.401	89.5
511.617	88.5
511.833	94.5
512.049	96.5
512.265	75.5
512.481	112.5
512.698	82.5
512.914	87.5
513.13	83.5
513.346	82.5
513.562	85.5
513.778	83.5
513.994	92.5
514.21	86.5
514.426	97.5
514.642	83.5
514.858	80.5
515.074	96.5
515.29	83.5
515.506	76.5
515.721	93.5
515.937	92.5
516.153	78.5
516.369	82.5
516.585	93.5
516.801	96.5
517.016	75.5
517.232	92.5
517.448	77.5
517.664	99.5
517.879	81.5
518.095	93.5
518.311	80.5
518.527	90.5
518.742	97.5
518.958	98.5
519.173	105.5
519.389	106.5
519.605	112.5
519.82	101.5
520.036	113.5
520.251	95.5
520.467	94.5
520.682	104.5
520.898	95.5
521.113	80.5
521.329	85.5
521.544	75.5
521.76	100.5
521.975	95.5
522.19	95.5
522.406	98.5
522.621	123.5
522.836	109.5
523.052	102.5
523.267	90.5
523.482	112.5
523.698	109.5
523.913	130.5
524.128	117.5
524.343	111.5
524.559	115.5
524.774	113.5
524.989	131.5
525.204	118.5
525.419	122.5
525.634	95.5
525.849	113.5
526.064	115.5
526.28	96.5
526.495	91.5
526.71	96.5
526.925	82.5
527.14	78.5
527.355	81.5
527.57	86.5
527.785	101.5
527.999	97.5
528.214	99.5
528.429	105.5
528.644	131.5
528.859	131.5
529.074	147.5
529.289	173.5
529.503	162.5
529.718	144.5
529.933	117.5
530.148	121.5
530.363	100.5
530.577	88.5
530.792	81.5
531.007	70.5
531.221	75.5
531.436	93.5
