Data from Location4.07152019.Energy5.Lamp.07192019.3%Agarose_HRD10591_16-19-59-925.txt Node
Date: Fri Jul 19 16:19:59 EDT 2019
User: cochatt
Spectrometer: HR+D1059
Trigger mode: 1
Integration Time (sec): 1.000000E-1
Scans to average: 1
Electric dark correction enabled: true
Nonlinearity correction enabled: false
Boxcar width: 0
XAxis mode: Wavelengths
Number of Pixels in Spectrum: 2048
>>>>>Begin Spectral Data<<<<<
223.165	-14.12
223.4	-14.12
223.635	-14.12
223.869	-24.12
224.104	-24.12
224.338	-18.12
224.573	-15.12
224.808	-6.12
225.042	-14.12
225.277	-3.12
225.511	1.88
225.746	11.88
225.98	11.88
226.215	11.88
226.449	17.88
226.683	14.88
226.918	16.88
227.152	31.88
227.387	39.88
227.621	26.88
227.856	42.88
228.09	51.88
228.324	41.88
228.559	60.88
228.793	71.88
229.027	57.88
229.262	56.88
229.496	68.88
229.73	84.88
229.964	68.88
230.199	78.88
230.433	57.88
230.667	78.88
230.901	85.88
231.136	73.88
231.37	77.88
231.604	89.88
231.838	84.88
232.072	82.88
232.306	72.88
232.541	84.88
232.775	85.88
233.009	82.88
233.243	89.88
233.477	96.88
233.711	88.88
233.945	86.88
234.179	83.88
234.413	90.88
234.647	80.88
234.881	76.88
235.115	81.88
235.349	84.88
235.583	94.88
235.817	77.88
236.051	67.88
236.285	74.88
236.519	83.88
236.753	84.88
236.987	72.88
237.221	69.88
237.455	78.88
237.689	63.88
237.922	82.88
238.156	92.88
238.39	86.88
238.624	76.88
238.858	80.88
239.091	73.88
239.325	61.88
239.559	78.88
239.793	63.88
240.027	80.88
240.26	96.88
240.494	82.88
240.728	89.88
240.961	78.88
241.195	73.88
241.429	86.88
241.662	72.88
241.896	79.88
242.13	76.88
242.363	74.88
242.597	60.88
242.83	89.88
243.064	90.88
243.298	85.88
243.531	80.88
243.765	60.88
243.998	76.88
244.232	72.88
244.465	77.88
244.699	69.88
244.932	64.88
245.166	64.88
245.399	85.88
245.633	68.88
245.866	78.88
246.099	81.88
246.333	79.88
246.566	84.88
246.8	83.88
247.033	90.88
247.266	78.88
247.5	80.88
247.733	82.88
247.966	80.88
248.2	82.88
248.433	81.88
248.666	87.88
248.899	89.88
249.133	84.88
249.366	94.88
249.599	81.88
249.832	77.88
250.066	101.88
250.299	91.88
250.532	90.88
250.765	88.88
250.998	70.88
251.231	82.88
251.465	81.88
251.698	78.88
251.931	74.88
252.164	85.88
252.397	70.88
252.63	72.88
252.863	77.88
253.096	69.88
253.329	79.88
253.562	77.88
253.795	75.88
254.028	99.88
254.261	77.88
254.494	96.88
254.727	82.88
254.96	77.88
255.193	85.88
255.426	80.88
255.659	83.88
255.892	73.88
256.124	87.88
256.357	84.88
256.59	83.88
256.823	78.88
257.056	87.88
257.289	72.88
257.521	81.88
257.754	83.88
257.987	60.88
258.22	71.88
258.452	75.88
258.685	85.88
258.918	88.88
259.151	83.88
259.383	97.88
259.616	82.88
259.849	86.88
260.081	87.88
260.314	92.88
260.547	73.88
260.779	91.88
261.012	94.88
261.244	76.88
261.477	97.88
261.71	89.88
261.942	85.88
262.175	91.88
262.407	84.88
262.64	71.88
262.872	83.88
263.105	88.88
263.337	85.88
263.57	89.88
263.802	89.88
264.035	92.88
264.267	80.88
264.499	91.88
264.732	87.88
264.964	86.88
265.197	81.88
265.429	92.88
265.661	74.88
265.894	90.88
266.126	84.88
266.358	84.88
266.591	99.88
266.823	70.88
267.055	84.88
267.287	86.88
267.52	87.88
267.752	88.88
267.984	87.88
268.216	102.88
268.448	77.88
268.681	86.88
268.913	80.88
269.145	92.88
269.377	80.88
269.609	81.88
269.841	76.88
270.073	77.88
270.306	75.88
270.538	74.88
270.77	88.88
271.002	90.88
271.234	86.88
271.466	82.88
271.698	72.88
271.93	77.88
272.162	81.88
272.394	85.88
272.626	75.88
272.858	83.88
273.09	82.88
273.322	89.88
273.553	89.88
273.785	97.88
274.017	93.88
274.249	84.88
274.481	62.88
274.713	82.88
274.945	77.88
275.176	75.88
275.408	91.88
275.64	81.88
275.872	86.88
276.104	94.88
276.335	94.88
276.567	81.88
276.799	76.88
277.031	80.88
277.262	80.88
277.494	77.88
277.726	80.88
277.957	75.88
278.189	87.88
278.421	97.88
278.652	93.88
278.884	87.88
279.115	92.88
279.347	88.88
279.579	73.88
279.81	76.88
280.042	74.88
280.273	86.88
280.505	88.88
280.736	77.88
280.968	82.88
281.199	82.88
281.431	85.88
281.662	72.88
281.894	69.88
282.125	85.88
282.356	86.88
282.588	84.88
282.819	78.88
283.051	76.88
283.282	74.88
283.513	84.88
283.745	84.88
283.976	87.88
284.207	89.88
284.439	102.88
284.67	81.88
284.901	93.88
285.132	88.88
285.364	88.88
285.595	79.88
285.826	85.88
286.057	90.88
286.288	85.88
286.52	87.88
286.751	67.88
286.982	75.88
287.213	89.88
287.444	85.88
287.675	76.88
287.906	82.88
288.138	90.88
288.369	76.88
288.6	75.88
288.831	84.88
289.062	91.88
289.293	84.88
289.524	82.88
289.755	92.88
289.986	80.88
290.217	89.88
290.448	80.88
290.679	77.88
290.91	74.88
291.141	90.88
291.371	94.88
291.602	84.88
291.833	88.88
292.064	83.88
292.295	81.88
292.526	92.88
292.757	86.88
292.987	89.88
293.218	78.88
293.449	84.88
293.68	99.88
293.91	86.88
294.141	88.88
294.372	83.88
294.603	99.88
294.833	87.88
295.064	85.88
295.295	85.88
295.525	83.88
295.756	79.88
295.987	77.88
296.217	96.88
296.448	101.88
296.679	89.88
296.909	86.88
297.14	80.88
297.37	88.88
297.601	84.88
297.831	74.88
298.062	88.88
298.292	83.88
298.523	90.88
298.753	99.88
298.984	95.88
299.214	83.88
299.445	85.88
299.675	100.88
299.905	81.88
300.136	84.88
300.366	96.88
300.597	84.88
300.827	96.88
301.057	82.88
301.288	86.88
301.518	84.88
301.748	84.88
301.979	98.88
302.209	88.88
302.439	80.88
302.669	84.88
302.9	97.88
303.13	94.88
303.36	81.88
303.59	77.88
303.82	80.88
304.051	80.88
304.281	91.88
304.511	94.88
304.741	87.88
304.971	81.88
305.201	83.88
305.431	77.88
305.661	76.88
305.891	82.88
306.121	79.88
306.352	85.88
306.582	76.88
306.812	75.88
307.042	95.88
307.272	87.88
307.502	102.88
307.731	90.88
307.961	98.88
308.191	81.88
308.421	95.88
308.651	82.88
308.881	98.88
309.111	82.88
309.341	99.88
309.571	97.88
309.8	93.88
310.03	89.88
310.26	80.88
310.49	78.88
310.72	79.88
310.949	78.88
311.179	93.88
311.409	86.88
311.639	73.88
311.868	89.88
312.098	91.88
312.328	87.88
312.557	89.88
312.787	92.88
313.017	68.88
313.246	93.88
313.476	92.88
313.706	99.88
313.935	84.88
314.165	74.88
314.394	82.88
314.624	82.88
314.853	85.88
315.083	91.88
315.312	83.88
315.542	84.88
315.771	82.88
316.001	92.88
316.23	93.88
316.46	83.88
316.689	81.88
316.919	97.88
317.148	85.88
317.377	103.88
317.607	92.88
317.836	87.88
318.065	94.88
318.295	89.88
318.524	89.88
318.753	77.88
318.983	81.88
319.212	84.88
319.441	78.88
319.67	84.88
319.9	69.88
320.129	96.88
320.358	90.88
320.587	80.88
320.816	72.88
321.046	78.88
321.275	84.88
321.504	75.88
321.733	83.88
321.962	81.88
322.191	82.88
322.42	82.88
322.649	90.88
322.878	79.88
323.108	88.88
323.337	86.88
323.566	75.88
323.795	75.88
324.024	88.88
324.253	84.88
324.482	99.88
324.71	78.88
324.939	77.88
325.168	81.88
325.397	85.88
325.626	90.88
325.855	85.88
326.084	90.88
326.313	89.88
326.542	87.88
326.77	86.88
326.999	77.88
327.228	88.88
327.457	86.88
327.686	95.88
327.914	96.88
328.143	81.88
328.372	93.88
328.6	90.88
328.829	69.88
329.058	85.88
329.287	78.88
329.515	97.88
329.744	81.88
329.972	85.88
330.201	85.88
330.43	87.88
330.658	90.88
330.887	89.88
331.115	88.88
331.344	76.88
331.572	93.88
331.801	96.88
332.03	102.88
332.258	89.88
332.486	94.88
332.715	88.88
332.943	87.88
333.172	85.88
333.4	91.88
333.629	82.88
333.857	82.88
334.085	86.88
334.314	85.88
334.542	77.88
334.771	93.88
334.999	84.88
335.227	74.88
335.455	82.88
335.684	93.88
335.912	88.88
336.14	85.88
336.369	88.88
336.597	74.88
336.825	84.88
337.053	98.88
337.281	81.88
337.51	84.88
337.738	93.88
337.966	88.88
338.194	79.88
338.422	80.88
338.65	92.88
338.878	94.88
339.106	83.88
339.334	100.88
339.562	84.88
339.79	70.88
340.018	76.88
340.246	80.88
340.474	93.88
340.702	91.88
340.93	80.88
341.158	86.88
341.386	81.88
341.614	81.88
341.842	88.88
342.07	103.88
342.298	98.88
342.526	86.88
342.754	81.88
342.981	93.88
343.209	79.88
343.437	91.88
343.665	82.88
343.893	83.88
344.12	102.88
344.348	81.88
344.576	87.88
344.804	85.88
345.031	82.88
345.259	92.88
345.487	73.88
345.714	83.88
345.942	91.88
346.17	91.88
346.397	83.88
346.625	83.88
346.853	100.88
347.08	78.88
347.308	88.88
347.535	77.88
347.763	83.88
347.99	81.88
348.218	83.88
348.445	77.88
348.673	93.88
348.9	93.88
349.128	90.88
349.355	84.88
349.583	80.88
349.81	84.88
350.037	93.88
350.265	87.88
350.492	87.88
350.72	89.88
350.947	90.88
351.174	88.88
351.402	83.88
351.629	81.88
351.856	82.88
352.083	85.88
352.311	70.88
352.538	74.88
352.765	79.88
352.992	84.88
353.22	82.88
353.447	85.88
353.674	84.88
353.901	73.88
354.128	89.88
354.355	92.88
354.583	90.88
354.81	84.88
355.037	81.88
355.264	100.88
355.491	96.88
355.718	83.88
355.945	82.88
356.172	97.88
356.399	87.88
356.626	104.88
356.853	89.88
357.08	89.88
357.307	79.88
357.534	87.88
357.761	78.88
357.988	78.88
358.215	93.88
358.441	90.88
358.668	95.88
358.895	92.88
359.122	90.88
359.349	89.88
359.576	93.88
359.802	89.88
360.029	97.88
360.256	79.88
360.483	75.88
360.709	79.88
360.936	112.88
361.163	85.88
361.39	97.88
361.616	91.88
361.843	93.88
362.07	82.88
362.296	91.88
362.523	77.88
362.749	76.88
362.976	86.88
363.203	94.88
363.429	84.88
363.656	73.88
363.882	70.88
364.109	81.88
364.335	90.88
364.562	99.88
364.788	88.88
365.015	76.88
365.241	91.88
365.468	64.88
365.694	80.88
365.92	86.88
366.147	91.88
366.373	88.88
366.599	90.88
366.826	86.88
367.052	83.88
367.278	92.88
367.505	90.88
367.731	95.88
367.957	78.88
368.184	76.88
368.41	105.88
368.636	86.88
368.862	101.88
369.089	84.88
369.315	92.88
369.541	83.88
369.767	84.88
369.993	86.88
370.219	78.88
370.445	92.88
370.672	97.88
370.898	91.88
371.124	113.88
371.35	95.88
371.576	89.88
371.802	88.88
372.028	88.88
372.254	87.88
372.48	89.88
372.706	102.88
372.932	81.88
373.158	98.88
373.384	94.88
373.61	100.88
373.835	77.88
374.061	94.88
374.287	85.88
374.513	93.88
374.739	100.88
374.965	117.88
375.191	88.88
375.416	93.88
375.642	81.88
375.868	87.88
376.094	115.88
376.319	97.88
376.545	95.88
376.771	104.88
376.997	93.88
377.222	83.88
377.448	98.88
377.674	95.88
377.899	92.88
378.125	100.88
378.35	99.88
378.576	88.88
378.802	97.88
379.027	92.88
379.253	96.88
379.478	89.88
379.704	97.88
379.929	82.88
380.155	92.88
380.38	108.88
380.606	104.88
380.831	102.88
381.057	101.88
381.282	94.88
381.507	95.88
381.733	98.88
381.958	89.88
382.184	95.88
382.409	98.88
382.634	94.88
382.86	97.88
383.085	101.88
383.31	94.88
383.535	89.88
383.761	82.88
383.986	102.88
384.211	93.88
384.436	86.88
384.662	86.88
384.887	92.88
385.112	103.88
385.337	89.88
385.562	91.88
385.787	86.88
386.013	112.88
386.238	85.88
386.463	104.88
386.688	119.88
386.913	100.88
387.138	106.88
387.363	92.88
387.588	91.88
387.813	100.88
388.038	95.88
388.263	116.88
388.488	114.88
388.713	92.88
388.938	103.88
389.163	86.88
389.387	87.88
389.612	103.88
389.837	105.88
390.062	113.88
390.287	110.88
390.512	99.88
390.736	105.88
390.961	118.88
391.186	119.88
391.411	102.88
391.636	121.88
391.86	96.88
392.085	101.88
392.31	116.88
392.534	101.88
392.759	108.88
392.984	108.88
393.208	109.88
393.433	113.88
393.658	102.88
393.882	118.88
394.107	106.88
394.331	106.88
394.556	107.88
394.78	95.88
395.005	100.88
395.229	111.88
395.454	109.88
395.678	110.88
395.903	119.88
396.127	112.88
396.352	109.88
396.576	105.88
396.801	98.88
397.025	99.88
397.249	103.88
397.474	117.88
397.698	111.88
397.922	112.88
398.147	114.88
398.371	103.88
398.595	118.88
398.82	105.88
399.044	108.88
399.268	106.88
399.492	125.88
399.717	110.88
399.941	116.88
400.165	104.88
400.389	102.88
400.613	115.88
400.837	108.88
401.062	107.88
401.286	119.88
401.51	109.88
401.734	104.88
401.958	128.88
402.182	120.88
402.406	116.88
402.63	109.88
402.854	108.88
403.078	124.88
403.302	120.88
403.526	117.88
403.75	118.88
403.974	119.88
404.198	117.88
404.422	120.88
404.645	116.88
404.869	118.88
405.093	119.88
405.317	96.88
405.541	110.88
405.765	119.88
405.988	112.88
406.212	130.88
406.436	118.88
406.66	125.88
406.883	120.88
407.107	116.88
407.331	123.88
407.555	120.88
407.778	115.88
408.002	105.88
408.226	108.88
408.449	120.88
408.673	125.88
408.896	129.88
409.12	108.88
409.344	118.88
409.567	131.88
409.791	119.88
410.014	125.88
410.238	119.88
410.461	122.88
410.685	120.88
410.908	131.88
411.132	120.88
411.355	120.88
411.578	123.88
411.802	108.88
412.025	128.88
412.249	121.88
412.472	117.88
412.695	118.88
412.919	119.88
413.142	121.88
413.365	114.88
413.589	121.88
413.812	113.88
414.035	121.88
414.258	117.88
414.482	117.88
414.705	129.88
414.928	126.88
415.151	132.88
415.374	134.88
415.597	122.88
415.821	127.88
416.044	112.88
416.267	122.88
416.49	129.88
416.713	115.88
416.936	125.88
417.159	123.88
417.382	121.88
417.605	118.88
417.828	129.88
418.051	122.88
418.274	125.88
418.497	130.88
418.72	137.88
418.943	133.88
419.166	117.88
419.389	134.88
419.611	125.88
419.834	125.88
420.057	129.88
420.28	121.88
420.503	137.88
420.726	135.88
420.948	121.88
421.171	125.88
421.394	136.88
421.617	132.88
421.839	149.88
422.062	125.88
422.285	122.88
422.507	125.88
422.73	128.88
422.953	113.88
423.175	124.88
423.398	126.88
423.621	140.88
423.843	124.88
424.066	142.88
424.288	148.88
424.511	136.88
424.733	146.88
424.956	130.88
425.178	138.88
425.401	145.88
425.623	139.88
425.846	130.88
426.068	132.88
426.291	132.88
426.513	128.88
426.735	121.88
426.958	122.88
427.18	113.88
427.402	134.88
427.625	146.88
427.847	128.88
428.069	108.88
428.292	132.88
428.514	130.88
428.736	138.88
428.958	115.88
429.181	124.88
429.403	117.88
429.625	121.88
429.847	123.88
430.069	128.88
430.292	117.88
430.514	124.88
430.736	110.88
430.958	120.88
431.18	121.88
431.402	145.88
431.624	120.88
431.846	116.88
432.068	115.88
432.29	101.88
432.512	97.88
432.734	120.88
432.956	132.88
433.178	139.88
433.4	129.88
433.622	123.88
433.844	136.88
434.066	113.88
434.287	117.88
434.509	101.88
434.731	92.88
434.953	113.88
435.175	120.88
435.397	125.88
435.618	132.88
435.84	109.88
436.062	109.88
436.284	109.88
436.505	123.88
436.727	142.88
436.949	120.88
437.17	128.88
437.392	124.88
437.614	118.88
437.835	99.88
438.057	108.88
438.278	130.88
438.5	125.88
438.721	132.88
438.943	127.88
439.165	127.88
439.386	144.88
439.608	142.88
439.829	137.88
440.05	139.88
440.272	137.88
440.493	135.88
440.715	131.88
440.936	135.88
441.158	165.88
441.379	159.88
441.6	147.88
441.822	130.88
442.043	146.88
442.264	139.88
442.486	139.88
442.707	123.88
442.928	142.88
443.149	132.88
443.371	138.88
443.592	130.88
443.813	128.88
444.034	138.88
444.255	138.88
444.476	125.88
444.698	146.88
444.919	143.88
445.14	259.88
445.361	194.88
445.582	160.88
445.803	141.88
446.024	145.88
446.245	142.88
446.466	135.88
446.687	148.88
446.908	161.88
447.129	164.88
447.35	153.88
447.571	154.88
447.792	149.88
448.013	147.88
448.234	140.88
448.455	132.88
448.675	146.88
448.896	128.88
449.117	144.88
449.338	129.88
449.559	132.88
449.779	137.88
450	134.88
450.221	124.88
450.442	124.88
450.662	130.88
450.883	120.88
451.104	128.88
451.324	136.88
451.545	131.88
451.766	123.88
451.986	122.88
452.207	122.88
452.428	133.88
452.648	124.88
452.869	121.88
453.089	120.88
453.31	107.88
453.53	105.88
453.751	107.88
453.971	97.88
454.192	107.88
454.412	122.88
454.633	114.88
454.853	135.88
455.073	123.88
455.294	123.88
455.514	117.88
455.734	120.88
455.955	114.88
456.175	118.88
456.395	121.88
456.616	108.88
456.836	98.88
457.056	116.88
457.276	117.88
457.497	118.88
457.717	120.88
457.937	114.88
458.157	109.88
458.377	114.88
458.598	106.88
458.818	110.88
459.038	87.88
459.258	86.88
459.478	97.88
459.698	96.88
459.918	106.88
460.138	113.88
460.358	114.88
460.578	116.88
460.798	106.88
461.018	112.88
461.238	102.88
461.458	116.88
461.678	120.88
461.898	108.88
462.118	110.88
462.338	118.88
462.558	120.88
462.777	106.88
462.997	118.88
463.217	113.88
463.437	112.88
463.657	99.88
463.876	121.88
464.096	105.88
464.316	109.88
464.536	115.88
464.755	105.88
464.975	117.88
465.195	115.88
465.414	115.88
465.634	118.88
465.854	106.88
466.073	122.88
466.293	121.88
466.512	136.88
466.732	135.88
466.951	134.88
467.171	133.88
467.391	137.88
467.61	136.88
467.829	124.88
468.049	132.88
468.268	143.88
468.488	135.88
468.707	143.88
468.927	147.88
469.146	148.88
469.365	143.88
469.585	139.88
469.804	140.88
470.023	133.88
470.243	132.88
470.462	140.88
470.681	146.88
470.901	141.88
471.12	154.88
471.339	139.88
471.558	134.88
471.777	130.88
471.997	128.88
472.216	136.88
472.435	107.88
472.654	104.88
472.873	99.88
473.092	107.88
473.311	118.88
473.53	137.88
473.749	142.88
473.968	132.88
474.187	128.88
474.406	121.88
474.625	118.88
474.844	124.88
475.063	124.88
475.282	134.88
475.501	125.88
475.72	120.88
475.939	128.88
476.158	134.88
476.377	128.88
476.596	115.88
476.814	116.88
477.033	113.88
477.252	123.88
477.471	126.88
477.69	127.88
477.908	136.88
478.127	134.88
478.346	133.88
478.564	137.88
478.783	136.88
479.002	130.88
479.22	137.88
479.439	135.88
479.658	136.88
479.876	126.88
480.095	99.88
480.313	112.88
480.532	113.88
480.751	129.88
480.969	94.88
481.188	111.88
481.406	78.88
481.624	86.88
481.843	99.88
482.061	102.88
482.28	121.88
482.498	105.88
482.717	97.88
482.935	119.88
483.153	135.88
483.372	142.88
483.59	140.88
483.808	141.88
484.027	129.88
484.245	145.88
484.463	150.88
484.681	156.88
484.9	154.88
485.118	150.88
485.336	124.88
485.554	120.88
485.772	109.88
485.99	98.88
486.209	129.88
486.427	106.88
486.645	121.88
486.863	124.88
487.081	149.88
487.299	124.88
487.517	144.88
487.735	147.88
487.953	187.88
488.171	177.88
488.389	168.88
488.607	158.88
488.825	148.88
489.043	142.88
489.261	124.88
489.479	133.88
489.696	140.88
489.914	147.88
490.132	130.88
490.35	144.88
490.568	160.88
490.786	169.88
491.003	156.88
491.221	169.88
491.439	178.88
491.657	171.88
491.874	194.88
492.092	216.88
492.31	232.88
492.527	224.88
492.745	213.88
492.963	205.88
493.18	198.88
493.398	185.88
493.615	174.88
493.833	170.88
494.05	182.88
494.268	172.88
494.485	170.88
494.703	161.88
494.92	172.88
495.138	178.88
495.355	163.88
495.573	162.88
495.79	176.88
496.008	184.88
496.225	153.88
496.442	166.88
496.66	151.88
496.877	169.88
497.094	148.88
497.312	155.88
497.529	183.88
497.746	166.88
497.963	138.88
498.181	132.88
498.398	141.88
498.615	130.88
498.832	103.88
499.049	109.88
499.267	131.88
499.484	121.88
499.701	130.88
499.918	138.88
500.135	138.88
500.352	145.88
500.569	146.88
500.786	141.88
501.003	128.88
501.22	131.88
501.437	125.88
501.654	137.88
501.871	127.88
502.088	137.88
502.305	136.88
502.522	139.88
502.739	124.88
502.956	131.88
503.172	120.88
503.389	115.88
503.606	98.88
503.823	118.88
504.04	116.88
504.256	130.88
504.473	110.88
504.69	122.88
504.907	120.88
505.123	117.88
505.34	125.88
505.557	129.88
505.773	120.88
505.99	121.88
506.207	121.88
506.423	121.88
506.64	120.88
506.856	121.88
507.073	133.88
507.289	121.88
507.506	139.88
507.722	106.88
507.939	121.88
508.155	121.88
508.372	123.88
508.588	114.88
508.805	107.88
509.021	116.88
509.238	100.88
509.454	104.88
509.67	114.88
509.887	114.88
510.103	113.88
510.319	87.88
510.536	87.88
510.752	93.88
510.968	88.88
511.184	86.88
511.401	83.88
