Data from Location4.07152019.Energy5.Lamp.07192019.3%Agarose_HRD10591_16-18-19-925.txt Node
Date: Fri Jul 19 16:18:19 EDT 2019
User: cochatt
Spectrometer: HR+D1059
Trigger mode: 1
Integration Time (sec): 1.000000E-1
Scans to average: 1
Electric dark correction enabled: true
Nonlinearity correction enabled: false
Boxcar width: 0
XAxis mode: Wavelengths
Number of Pixels in Spectrum: 2048
>>>>>Begin Spectral Data<<<<<
223.165	-13.56
223.4	-13.56
223.635	-13.56
223.869	-8.56
224.104	-26.56
224.338	-10.56
224.573	-19.56
224.808	-14.56
225.042	0.44
225.277	2.44
225.511	-15.56
225.746	2.44
225.98	1.44
226.215	12.44
226.449	23.44
226.683	17.44
226.918	23.44
227.152	25.44
227.387	37.44
227.621	34.44
227.856	31.44
228.09	30.44
228.324	51.44
228.559	53.44
228.793	42.44
229.027	65.44
229.262	61.44
229.496	69.44
229.73	64.44
229.964	77.44
230.199	69.44
230.433	60.44
230.667	74.44
230.901	74.44
231.136	82.44
231.37	82.44
231.604	85.44
231.838	79.44
232.072	79.44
232.306	77.44
232.541	77.44
232.775	82.44
233.009	81.44
233.243	80.44
233.477	77.44
233.711	84.44
233.945	87.44
234.179	74.44
234.413	80.44
234.647	56.44
234.881	74.44
235.115	89.44
235.349	83.44
235.583	80.44
235.817	72.44
236.051	80.44
236.285	88.44
236.519	83.44
236.753	74.44
236.987	81.44
237.221	75.44
237.455	76.44
237.689	78.44
237.922	72.44
238.156	74.44
238.39	59.44
238.624	83.44
238.858	79.44
239.091	64.44
239.325	73.44
239.559	81.44
239.793	77.44
240.027	79.44
240.26	68.44
240.494	71.44
240.728	68.44
240.961	76.44
241.195	79.44
241.429	78.44
241.662	93.44
241.896	55.44
242.13	61.44
242.363	60.44
242.597	65.44
242.83	85.44
243.064	69.44
243.298	75.44
243.531	84.44
243.765	62.44
243.998	78.44
244.232	74.44
244.465	61.44
244.699	74.44
244.932	58.44
245.166	72.44
245.399	78.44
245.633	86.44
245.866	69.44
246.099	73.44
246.333	68.44
246.566	79.44
246.8	70.44
247.033	72.44
247.266	71.44
247.5	71.44
247.733	79.44
247.966	74.44
248.2	80.44
248.433	82.44
248.666	68.44
248.899	69.44
249.133	70.44
249.366	75.44
249.599	80.44
249.832	83.44
250.066	90.44
250.299	100.44
250.532	80.44
250.765	90.44
250.998	82.44
251.231	77.44
251.465	76.44
251.698	75.44
251.931	72.44
252.164	86.44
252.397	77.44
252.63	72.44
252.863	74.44
253.096	85.44
253.329	83.44
253.562	79.44
253.795	70.44
254.028	80.44
254.261	74.44
254.494	75.44
254.727	72.44
254.96	67.44
255.193	69.44
255.426	82.44
255.659	78.44
255.892	84.44
256.124	77.44
256.357	67.44
256.59	89.44
256.823	93.44
257.056	74.44
257.289	74.44
257.521	80.44
257.754	80.44
257.987	75.44
258.22	71.44
258.452	72.44
258.685	77.44
258.918	79.44
259.151	75.44
259.383	77.44
259.616	73.44
259.849	74.44
260.081	82.44
260.314	83.44
260.547	75.44
260.779	80.44
261.012	72.44
261.244	71.44
261.477	79.44
261.71	74.44
261.942	73.44
262.175	68.44
262.407	78.44
262.64	74.44
262.872	75.44
263.105	79.44
263.337	82.44
263.57	71.44
263.802	69.44
264.035	92.44
264.267	90.44
264.499	74.44
264.732	88.44
264.964	75.44
265.197	73.44
265.429	74.44
265.661	86.44
265.894	94.44
266.126	76.44
266.358	87.44
266.591	86.44
266.823	64.44
267.055	69.44
267.287	85.44
267.52	64.44
267.752	79.44
267.984	70.44
268.216	71.44
268.448	83.44
268.681	79.44
268.913	80.44
269.145	69.44
269.377	76.44
269.609	78.44
269.841	74.44
270.073	74.44
270.306	70.44
270.538	58.44
270.77	72.44
271.002	93.44
271.234	74.44
271.466	70.44
271.698	94.44
271.93	82.44
272.162	77.44
272.394	86.44
272.626	88.44
272.858	66.44
273.09	77.44
273.322	95.44
273.553	75.44
273.785	78.44
274.017	87.44
274.249	74.44
274.481	84.44
274.713	81.44
274.945	71.44
275.176	81.44
275.408	98.44
275.64	86.44
275.872	79.44
276.104	94.44
276.335	84.44
276.567	82.44
276.799	81.44
277.031	73.44
277.262	78.44
277.494	78.44
277.726	93.44
277.957	79.44
278.189	70.44
278.421	93.44
278.652	85.44
278.884	87.44
279.115	91.44
279.347	88.44
279.579	92.44
279.81	81.44
280.042	74.44
280.273	80.44
280.505	89.44
280.736	88.44
280.968	85.44
281.199	83.44
281.431	73.44
281.662	88.44
281.894	85.44
282.125	83.44
282.356	70.44
282.588	86.44
282.819	71.44
283.051	84.44
283.282	74.44
283.513	90.44
283.745	70.44
283.976	82.44
284.207	99.44
284.439	79.44
284.67	85.44
284.901	85.44
285.132	92.44
285.364	73.44
285.595	83.44
285.826	60.44
286.057	90.44
286.288	74.44
286.52	68.44
286.751	87.44
286.982	79.44
287.213	80.44
287.444	95.44
287.675	81.44
287.906	69.44
288.138	77.44
288.369	81.44
288.6	96.44
288.831	78.44
289.062	88.44
289.293	74.44
289.524	77.44
289.755	81.44
289.986	76.44
290.217	82.44
290.448	73.44
290.679	83.44
290.91	87.44
291.141	77.44
291.371	86.44
291.602	90.44
291.833	91.44
292.064	78.44
292.295	88.44
292.526	94.44
292.757	85.44
292.987	92.44
293.218	74.44
293.449	66.44
293.68	81.44
293.91	85.44
294.141	83.44
294.372	83.44
294.603	73.44
294.833	85.44
295.064	83.44
295.295	81.44
295.525	72.44
295.756	73.44
295.987	78.44
296.217	83.44
296.448	86.44
296.679	99.44
296.909	85.44
297.14	88.44
297.37	77.44
297.601	91.44
297.831	68.44
298.062	80.44
298.292	69.44
298.523	82.44
298.753	80.44
298.984	85.44
299.214	75.44
299.445	78.44
299.675	82.44
299.905	95.44
300.136	75.44
300.366	76.44
300.597	79.44
300.827	82.44
301.057	81.44
301.288	101.44
301.518	72.44
301.748	87.44
301.979	82.44
302.209	92.44
302.439	80.44
302.669	76.44
302.9	87.44
303.13	89.44
303.36	83.44
303.59	84.44
303.82	83.44
304.051	88.44
304.281	82.44
304.511	82.44
304.741	79.44
304.971	72.44
305.201	80.44
305.431	74.44
305.661	90.44
305.891	88.44
306.121	91.44
306.352	80.44
306.582	90.44
306.812	96.44
307.042	83.44
307.272	78.44
307.502	80.44
307.731	77.44
307.961	92.44
308.191	85.44
308.421	73.44
308.651	80.44
308.881	72.44
309.111	76.44
309.341	81.44
309.571	82.44
309.8	89.44
310.03	88.44
310.26	82.44
310.49	80.44
310.72	84.44
310.949	80.44
311.179	75.44
311.409	69.44
311.639	67.44
311.868	89.44
312.098	74.44
312.328	89.44
312.557	83.44
312.787	76.44
313.017	74.44
313.246	73.44
313.476	80.44
313.706	94.44
313.935	81.44
314.165	80.44
314.394	84.44
314.624	83.44
314.853	71.44
315.083	64.44
315.312	81.44
315.542	69.44
315.771	85.44
316.001	77.44
316.23	75.44
316.46	82.44
316.689	81.44
316.919	91.44
317.148	80.44
317.377	84.44
317.607	83.44
317.836	90.44
318.065	86.44
318.295	73.44
318.524	64.44
318.753	93.44
318.983	87.44
319.212	89.44
319.441	74.44
319.67	103.44
319.9	75.44
320.129	87.44
320.358	82.44
320.587	86.44
320.816	92.44
321.046	82.44
321.275	93.44
321.504	73.44
321.733	90.44
321.962	86.44
322.191	78.44
322.42	74.44
322.649	85.44
322.878	82.44
323.108	79.44
323.337	75.44
323.566	82.44
323.795	78.44
324.024	81.44
324.253	77.44
324.482	97.44
324.71	81.44
324.939	86.44
325.168	76.44
325.397	79.44
325.626	84.44
325.855	78.44
326.084	67.44
326.313	80.44
326.542	71.44
326.77	68.44
326.999	96.44
327.228	74.44
327.457	71.44
327.686	84.44
327.914	84.44
328.143	88.44
328.372	85.44
328.6	70.44
328.829	78.44
329.058	80.44
329.287	74.44
329.515	84.44
329.744	80.44
329.972	71.44
330.201	82.44
330.43	73.44
330.658	83.44
330.887	82.44
331.115	82.44
331.344	70.44
331.572	84.44
331.801	81.44
332.03	89.44
332.258	78.44
332.486	89.44
332.715	86.44
332.943	79.44
333.172	80.44
333.4	94.44
333.629	80.44
333.857	64.44
334.085	93.44
334.314	73.44
334.542	85.44
334.771	88.44
334.999	90.44
335.227	79.44
335.455	82.44
335.684	80.44
335.912	70.44
336.14	81.44
336.369	69.44
336.597	92.44
336.825	93.44
337.053	82.44
337.281	79.44
337.51	84.44
337.738	87.44
337.966	89.44
338.194	77.44
338.422	87.44
338.65	75.44
338.878	101.44
339.106	95.44
339.334	63.44
339.562	66.44
339.79	75.44
340.018	82.44
340.246	71.44
340.474	74.44
340.702	89.44
340.93	71.44
341.158	79.44
341.386	82.44
341.614	72.44
341.842	92.44
342.07	83.44
342.298	82.44
342.526	95.44
342.754	77.44
342.981	93.44
343.209	80.44
343.437	81.44
343.665	92.44
343.893	72.44
344.12	93.44
344.348	80.44
344.576	94.44
344.804	81.44
345.031	78.44
345.259	77.44
345.487	72.44
345.714	81.44
345.942	81.44
346.17	90.44
346.397	82.44
346.625	88.44
346.853	80.44
347.08	75.44
347.308	80.44
347.535	84.44
347.763	82.44
347.99	79.44
348.218	69.44
348.445	77.44
348.673	79.44
348.9	95.44
349.128	83.44
349.355	78.44
349.583	73.44
349.81	67.44
350.037	71.44
350.265	87.44
350.492	81.44
350.72	83.44
350.947	92.44
351.174	75.44
351.402	90.44
351.629	64.44
351.856	83.44
352.083	74.44
352.311	77.44
352.538	87.44
352.765	73.44
352.992	81.44
353.22	88.44
353.447	83.44
353.674	97.44
353.901	85.44
354.128	75.44
354.355	74.44
354.583	88.44
354.81	74.44
355.037	83.44
355.264	72.44
355.491	83.44
355.718	67.44
355.945	64.44
356.172	85.44
356.399	82.44
356.626	80.44
356.853	87.44
357.08	80.44
357.307	77.44
357.534	90.44
357.761	65.44
357.988	77.44
358.215	77.44
358.441	96.44
358.668	87.44
358.895	80.44
359.122	93.44
359.349	78.44
359.576	79.44
359.802	84.44
360.029	71.44
360.256	73.44
360.483	87.44
360.709	85.44
360.936	78.44
361.163	81.44
361.39	82.44
361.616	83.44
361.843	86.44
362.07	83.44
362.296	82.44
362.523	77.44
362.749	71.44
362.976	71.44
363.203	84.44
363.429	74.44
363.656	88.44
363.882	84.44
364.109	86.44
364.335	94.44
364.562	84.44
364.788	80.44
365.015	83.44
365.241	89.44
365.468	79.44
365.694	82.44
365.92	77.44
366.147	82.44
366.373	89.44
366.599	82.44
366.826	74.44
367.052	99.44
367.278	89.44
367.505	84.44
367.731	86.44
367.957	88.44
368.184	97.44
368.41	78.44
368.636	80.44
368.862	90.44
369.089	79.44
369.315	86.44
369.541	89.44
369.767	81.44
369.993	84.44
370.219	86.44
370.445	91.44
370.672	89.44
370.898	89.44
371.124	102.44
371.35	77.44
371.576	90.44
371.802	84.44
372.028	89.44
372.254	85.44
372.48	93.44
372.706	90.44
372.932	86.44
373.158	96.44
373.384	91.44
373.61	95.44
373.835	81.44
374.061	93.44
374.287	97.44
374.513	97.44
374.739	83.44
374.965	98.44
375.191	85.44
375.416	94.44
375.642	79.44
375.868	106.44
376.094	92.44
376.319	89.44
376.545	99.44
376.771	81.44
376.997	93.44
377.222	78.44
377.448	97.44
377.674	106.44
377.899	95.44
378.125	83.44
378.35	87.44
378.576	96.44
378.802	96.44
379.027	97.44
379.253	81.44
379.478	89.44
379.704	96.44
379.929	99.44
380.155	92.44
380.38	104.44
380.606	89.44
380.831	99.44
381.057	89.44
381.282	90.44
381.507	86.44
381.733	80.44
381.958	89.44
382.184	100.44
382.409	96.44
382.634	94.44
382.86	96.44
383.085	88.44
383.31	85.44
383.535	84.44
383.761	85.44
383.986	88.44
384.211	98.44
384.436	89.44
384.662	105.44
384.887	96.44
385.112	97.44
385.337	85.44
385.562	95.44
385.787	97.44
386.013	106.44
386.238	97.44
386.463	93.44
386.688	89.44
386.913	92.44
387.138	98.44
387.363	96.44
387.588	99.44
387.813	105.44
388.038	101.44
388.263	91.44
388.488	88.44
388.713	100.44
388.938	95.44
389.163	105.44
389.387	103.44
389.612	96.44
389.837	105.44
390.062	92.44
390.287	98.44
390.512	100.44
390.736	97.44
390.961	86.44
391.186	96.44
391.411	89.44
391.636	92.44
391.86	103.44
392.085	85.44
392.31	94.44
392.534	99.44
392.759	91.44
392.984	100.44
393.208	95.44
393.433	81.44
393.658	96.44
393.882	104.44
394.107	99.44
394.331	107.44
394.556	102.44
394.78	98.44
395.005	96.44
395.229	96.44
395.454	96.44
395.678	96.44
395.903	93.44
396.127	113.44
396.352	101.44
396.576	113.44
396.801	105.44
397.025	114.44
397.249	104.44
397.474	97.44
397.698	111.44
397.922	104.44
398.147	96.44
398.371	113.44
398.595	104.44
398.82	118.44
399.044	117.44
399.268	119.44
399.492	112.44
399.717	108.44
399.941	113.44
400.165	105.44
400.389	115.44
400.613	103.44
400.837	103.44
401.062	118.44
401.286	126.44
401.51	110.44
401.734	94.44
401.958	96.44
402.182	101.44
402.406	121.44
402.63	92.44
402.854	113.44
403.078	103.44
403.302	90.44
403.526	110.44
403.75	107.44
403.974	120.44
404.198	110.44
404.422	126.44
404.645	112.44
404.869	117.44
405.093	112.44
405.317	102.44
405.541	116.44
405.765	127.44
405.988	105.44
406.212	106.44
406.436	118.44
406.66	132.44
406.883	132.44
407.107	113.44
407.331	126.44
407.555	124.44
407.778	111.44
408.002	102.44
408.226	109.44
408.449	101.44
408.673	112.44
408.896	118.44
409.12	121.44
409.344	114.44
409.567	114.44
409.791	120.44
410.014	134.44
410.238	115.44
410.461	110.44
410.685	120.44
410.908	117.44
411.132	126.44
411.355	98.44
411.578	117.44
411.802	113.44
412.025	123.44
412.249	118.44
412.472	118.44
412.695	114.44
412.919	116.44
413.142	124.44
413.365	118.44
413.589	133.44
413.812	115.44
414.035	124.44
414.258	108.44
414.482	115.44
414.705	117.44
414.928	125.44
415.151	117.44
415.374	124.44
415.597	128.44
415.821	126.44
416.044	119.44
416.267	127.44
416.49	125.44
416.713	115.44
416.936	124.44
417.159	126.44
417.382	123.44
417.605	119.44
417.828	131.44
418.051	130.44
418.274	132.44
418.497	128.44
418.72	129.44
418.943	126.44
419.166	117.44
419.389	128.44
419.611	126.44
419.834	119.44
420.057	138.44
420.28	118.44
420.503	126.44
420.726	124.44
420.948	114.44
421.171	128.44
421.394	117.44
421.617	121.44
421.839	124.44
422.062	133.44
422.285	127.44
422.507	115.44
422.73	126.44
422.953	128.44
423.175	140.44
423.398	142.44
423.621	131.44
423.843	131.44
424.066	111.44
424.288	146.44
424.511	129.44
424.733	142.44
424.956	141.44
425.178	134.44
425.401	122.44
425.623	136.44
425.846	124.44
426.068	129.44
426.291	128.44
426.513	131.44
426.735	116.44
426.958	113.44
427.18	132.44
427.402	124.44
427.625	114.44
427.847	125.44
428.069	116.44
428.292	122.44
428.514	122.44
428.736	112.44
428.958	136.44
429.181	143.44
429.403	124.44
429.625	137.44
429.847	117.44
430.069	129.44
430.292	128.44
430.514	128.44
430.736	127.44
430.958	127.44
431.18	123.44
431.402	133.44
431.624	133.44
431.846	115.44
432.068	76.44
432.29	86.44
432.512	119.44
432.734	136.44
432.956	124.44
433.178	142.44
433.4	139.44
433.622	125.44
433.844	126.44
434.066	112.44
434.287	107.44
434.509	93.44
434.731	93.44
434.953	105.44
435.175	125.44
435.397	120.44
435.618	122.44
435.84	114.44
436.062	106.44
436.284	130.44
436.505	117.44
436.727	126.44
436.949	118.44
437.17	132.44
437.392	135.44
437.614	126.44
437.835	119.44
438.057	121.44
438.278	121.44
438.5	120.44
438.721	119.44
438.943	141.44
439.165	116.44
439.386	152.44
439.608	151.44
439.829	125.44
440.05	134.44
440.272	155.44
440.493	134.44
440.715	136.44
440.936	126.44
441.158	143.44
441.379	136.44
441.6	146.44
441.822	158.44
442.043	139.44
442.264	135.44
442.486	141.44
442.707	142.44
442.928	118.44
443.149	116.44
443.371	134.44
443.592	146.44
443.813	128.44
444.034	126.44
444.255	121.44
444.476	124.44
444.698	136.44
444.919	142.44
445.14	275.44
445.361	188.44
445.582	154.44
445.803	167.44
446.024	150.44
446.245	150.44
446.466	146.44
446.687	152.44
446.908	154.44
447.129	153.44
447.35	141.44
447.571	149.44
447.792	146.44
448.013	142.44
448.234	153.44
448.455	127.44
448.675	123.44
448.896	138.44
449.117	126.44
449.338	114.44
449.559	127.44
449.779	133.44
450	151.44
450.221	133.44
450.442	110.44
450.662	125.44
450.883	144.44
451.104	123.44
451.324	122.44
451.545	121.44
451.766	134.44
451.986	125.44
452.207	115.44
452.428	114.44
452.648	116.44
452.869	112.44
453.089	122.44
453.31	121.44
453.53	113.44
453.751	100.44
453.971	103.44
454.192	110.44
454.412	105.44
454.633	108.44
454.853	119.44
455.073	113.44
455.294	113.44
455.514	111.44
455.734	117.44
455.955	116.44
456.175	111.44
456.395	104.44
456.616	109.44
456.836	102.44
457.056	106.44
457.276	112.44
457.497	112.44
457.717	106.44
457.937	102.44
458.157	114.44
458.377	114.44
458.598	111.44
458.818	104.44
459.038	81.44
459.258	92.44
459.478	94.44
459.698	86.44
459.918	101.44
460.138	97.44
460.358	117.44
460.578	114.44
460.798	101.44
461.018	100.44
461.238	128.44
461.458	108.44
461.678	107.44
461.898	111.44
462.118	103.44
462.338	120.44
462.558	122.44
462.777	110.44
462.997	110.44
463.217	101.44
463.437	99.44
463.657	96.44
463.876	88.44
464.096	110.44
464.316	113.44
464.536	111.44
464.755	98.44
464.975	99.44
465.195	96.44
465.414	112.44
465.634	113.44
465.854	106.44
466.073	111.44
466.293	122.44
466.512	143.44
466.732	117.44
466.951	129.44
467.171	136.44
467.391	118.44
467.61	125.44
467.829	120.44
468.049	131.44
468.268	126.44
468.488	133.44
468.707	125.44
468.927	148.44
469.146	136.44
469.365	134.44
469.585	126.44
469.804	137.44
470.023	136.44
470.243	136.44
470.462	144.44
470.681	148.44
470.901	145.44
471.12	132.44
471.339	130.44
471.558	125.44
471.777	135.44
471.997	137.44
472.216	123.44
472.435	114.44
472.654	106.44
472.873	113.44
473.092	102.44
473.311	108.44
473.53	116.44
473.749	117.44
473.968	119.44
474.187	120.44
474.406	116.44
474.625	117.44
474.844	124.44
475.063	120.44
475.282	136.44
475.501	112.44
475.72	136.44
475.939	119.44
476.158	123.44
476.377	132.44
476.596	107.44
476.814	117.44
477.033	112.44
477.252	115.44
477.471	117.44
477.69	133.44
477.908	139.44
478.127	132.44
478.346	127.44
478.564	137.44
478.783	130.44
479.002	131.44
479.22	140.44
479.439	128.44
479.658	120.44
479.876	112.44
480.095	101.44
480.313	92.44
480.532	116.44
480.751	100.44
480.969	111.44
481.188	95.44
481.406	89.44
481.624	95.44
481.843	86.44
482.061	95.44
482.28	108.44
482.498	103.44
482.717	103.44
482.935	114.44
483.153	127.44
483.372	148.44
483.59	144.44
483.808	136.44
484.027	131.44
484.245	142.44
484.463	138.44
484.681	156.44
484.9	146.44
485.118	119.44
485.336	136.44
485.554	111.44
485.772	102.44
485.99	102.44
486.209	108.44
486.427	104.44
486.645	114.44
486.863	137.44
487.081	149.44
487.299	127.44
487.517	142.44
487.735	157.44
487.953	168.44
488.171	178.44
488.389	180.44
488.607	159.44
488.825	134.44
489.043	119.44
489.261	141.44
489.479	128.44
489.696	142.44
489.914	137.44
490.132	121.44
490.35	147.44
490.568	164.44
490.786	161.44
491.003	176.44
491.221	178.44
491.439	185.44
491.657	184.44
491.874	205.44
492.092	238.44
492.31	249.44
492.527	210.44
492.745	209.44
492.963	196.44
493.18	190.44
493.398	196.44
493.615	170.44
493.833	169.44
494.05	180.44
494.268	160.44
494.485	153.44
494.703	178.44
494.92	183.44
495.138	163.44
495.355	170.44
495.573	144.44
495.79	153.44
496.008	171.44
496.225	169.44
496.442	159.44
496.66	180.44
496.877	153.44
497.094	153.44
497.312	155.44
497.529	152.44
497.746	139.44
497.963	131.44
498.181	134.44
498.398	115.44
498.615	114.44
498.832	113.44
499.049	103.44
499.267	128.44
499.484	124.44
499.701	132.44
499.918	137.44
500.135	135.44
500.352	141.44
500.569	148.44
500.786	150.44
501.003	148.44
501.22	139.44
501.437	141.44
501.654	122.44
501.871	121.44
502.088	130.44
502.305	125.44
502.522	121.44
502.739	125.44
502.956	122.44
503.172	124.44
503.389	111.44
503.606	108.44
503.823	96.44
504.04	124.44
504.256	118.44
504.473	115.44
504.69	128.44
504.907	117.44
505.123	133.44
505.34	124.44
505.557	126.44
505.773	120.44
505.99	100.44
506.207	118.44
506.423	113.44
506.64	128.44
506.856	106.44
507.073	112.44
507.289	126.44
507.506	121.44
507.722	126.44
507.939	104.44
508.155	105.44
508.372	110.44
508.588	98.44
508.805	104.44
509.021	103.44
509.238	107.44
509.454	102.44
509.67	100.44
509.887	80.44
510.103	109.44
510.319	80.44
510.536	90.44
510.752	80.44
510.968	84.44
511.184	78.44
511.401	71.44
511.617	85.44
511.833	82.44
512.049	96.44
512.265	108.44
