Data from Location4.07152019.Energy5.Lamp.07192019.3%Agarose_HRD10591_16-20-18-926.txt Node
Date: Fri Jul 19 16:20:18 EDT 2019
User: cochatt
Spectrometer: HR+D1059
Trigger mode: 1
Integration Time (sec): 1.000000E-1
Scans to average: 1
Electric dark correction enabled: true
Nonlinearity correction enabled: false
Boxcar width: 0
XAxis mode: Wavelengths
Number of Pixels in Spectrum: 2048
>>>>>Begin Spectral Data<<<<<
223.165	-17.5
223.4	-17.5
223.635	-17.5
223.869	-20.5
224.104	-1.5
224.338	3.5
224.573	2.5
224.808	-15.5
225.042	-7.5
225.277	-21.5
225.511	-9.5
225.746	-11.5
225.98	7.5
226.215	14.5
226.449	-4.5
226.683	25.5
226.918	23.5
227.152	32.5
227.387	30.5
227.621	40.5
227.856	35.5
228.09	36.5
228.324	42.5
228.559	46.5
228.793	50.5
229.027	53.5
229.262	58.5
229.496	53.5
229.73	76.5
229.964	70.5
230.199	58.5
230.433	64.5
230.667	75.5
230.901	76.5
231.136	83.5
231.37	90.5
231.604	67.5
231.838	76.5
232.072	74.5
232.306	74.5
232.541	71.5
232.775	83.5
233.009	99.5
233.243	86.5
233.477	70.5
233.711	87.5
233.945	80.5
234.179	76.5
234.413	74.5
234.647	81.5
234.881	79.5
235.115	82.5
235.349	77.5
235.583	78.5
235.817	55.5
236.051	67.5
236.285	73.5
236.519	58.5
236.753	85.5
236.987	63.5
237.221	57.5
237.455	64.5
237.689	91.5
237.922	85.5
238.156	65.5
238.39	83.5
238.624	77.5
238.858	73.5
239.091	71.5
239.325	73.5
239.559	80.5
239.793	76.5
240.027	82.5
240.26	59.5
240.494	62.5
240.728	66.5
240.961	74.5
241.195	72.5
241.429	87.5
241.662	86.5
241.896	81.5
242.13	85.5
242.363	60.5
242.597	71.5
242.83	69.5
243.064	66.5
243.298	63.5
243.531	83.5
243.765	82.5
243.998	77.5
244.232	72.5
244.465	75.5
244.699	71.5
244.932	92.5
245.166	74.5
245.399	63.5
245.633	84.5
245.866	80.5
246.099	74.5
246.333	70.5
246.566	89.5
246.8	74.5
247.033	81.5
247.266	91.5
247.5	70.5
247.733	80.5
247.966	64.5
248.2	75.5
248.433	73.5
248.666	73.5
248.899	89.5
249.133	62.5
249.366	76.5
249.599	68.5
249.832	82.5
250.066	79.5
250.299	72.5
250.532	82.5
250.765	73.5
250.998	78.5
251.231	83.5
251.465	78.5
251.698	88.5
251.931	79.5
252.164	74.5
252.397	82.5
252.63	82.5
252.863	81.5
253.096	85.5
253.329	78.5
253.562	90.5
253.795	66.5
254.028	84.5
254.261	83.5
254.494	86.5
254.727	83.5
254.96	72.5
255.193	74.5
255.426	76.5
255.659	76.5
255.892	71.5
256.124	84.5
256.357	78.5
256.59	71.5
256.823	78.5
257.056	76.5
257.289	87.5
257.521	86.5
257.754	83.5
257.987	86.5
258.22	90.5
258.452	82.5
258.685	79.5
258.918	86.5
259.151	80.5
259.383	79.5
259.616	76.5
259.849	74.5
260.081	80.5
260.314	81.5
260.547	78.5
260.779	80.5
261.012	84.5
261.244	92.5
261.477	69.5
261.71	80.5
261.942	86.5
262.175	79.5
262.407	82.5
262.64	77.5
262.872	68.5
263.105	88.5
263.337	82.5
263.57	78.5
263.802	78.5
264.035	74.5
264.267	98.5
264.499	74.5
264.732	95.5
264.964	74.5
265.197	84.5
265.429	78.5
265.661	95.5
265.894	89.5
266.126	89.5
266.358	85.5
266.591	82.5
266.823	76.5
267.055	77.5
267.287	75.5
267.52	82.5
267.752	58.5
267.984	95.5
268.216	76.5
268.448	90.5
268.681	80.5
268.913	86.5
269.145	85.5
269.377	93.5
269.609	87.5
269.841	79.5
270.073	91.5
270.306	88.5
270.538	96.5
270.77	70.5
271.002	66.5
271.234	83.5
271.466	87.5
271.698	62.5
271.93	86.5
272.162	78.5
272.394	88.5
272.626	80.5
272.858	91.5
273.09	84.5
273.322	78.5
273.553	75.5
273.785	80.5
274.017	75.5
274.249	74.5
274.481	77.5
274.713	81.5
274.945	84.5
275.176	92.5
275.408	79.5
275.64	82.5
275.872	73.5
276.104	69.5
276.335	70.5
276.567	76.5
276.799	75.5
277.031	71.5
277.262	74.5
277.494	75.5
277.726	97.5
277.957	95.5
278.189	85.5
278.421	80.5
278.652	72.5
278.884	71.5
279.115	91.5
279.347	82.5
279.579	66.5
279.81	91.5
280.042	83.5
280.273	95.5
280.505	74.5
280.736	84.5
280.968	85.5
281.199	80.5
281.431	72.5
281.662	84.5
281.894	94.5
282.125	87.5
282.356	85.5
282.588	79.5
282.819	62.5
283.051	83.5
283.282	73.5
283.513	65.5
283.745	86.5
283.976	86.5
284.207	62.5
284.439	76.5
284.67	72.5
284.901	79.5
285.132	78.5
285.364	75.5
285.595	80.5
285.826	76.5
286.057	90.5
286.288	89.5
286.52	76.5
286.751	93.5
286.982	90.5
287.213	82.5
287.444	85.5
287.675	82.5
287.906	78.5
288.138	69.5
288.369	69.5
288.6	78.5
288.831	62.5
289.062	71.5
289.293	87.5
289.524	87.5
289.755	83.5
289.986	77.5
290.217	74.5
290.448	90.5
290.679	80.5
290.91	87.5
291.141	74.5
291.371	74.5
291.602	105.5
291.833	90.5
292.064	73.5
292.295	83.5
292.526	90.5
292.757	92.5
292.987	79.5
293.218	81.5
293.449	76.5
293.68	89.5
293.91	66.5
294.141	93.5
294.372	83.5
294.603	84.5
294.833	84.5
295.064	94.5
295.295	88.5
295.525	76.5
295.756	82.5
295.987	77.5
296.217	79.5
296.448	69.5
296.679	66.5
296.909	80.5
297.14	66.5
297.37	84.5
297.601	78.5
297.831	80.5
298.062	82.5
298.292	86.5
298.523	84.5
298.753	86.5
298.984	77.5
299.214	80.5
299.445	79.5
299.675	85.5
299.905	86.5
300.136	80.5
300.366	86.5
300.597	71.5
300.827	81.5
301.057	85.5
301.288	83.5
301.518	85.5
301.748	81.5
301.979	77.5
302.209	77.5
302.439	91.5
302.669	79.5
302.9	83.5
303.13	83.5
303.36	88.5
303.59	67.5
303.82	89.5
304.051	73.5
304.281	83.5
304.511	79.5
304.741	96.5
304.971	97.5
305.201	86.5
305.431	75.5
305.661	96.5
305.891	88.5
306.121	82.5
306.352	91.5
306.582	84.5
306.812	71.5
307.042	76.5
307.272	66.5
307.502	77.5
307.731	82.5
307.961	70.5
308.191	75.5
308.421	90.5
308.651	80.5
308.881	73.5
309.111	80.5
309.341	62.5
309.571	80.5
309.8	88.5
310.03	88.5
310.26	83.5
310.49	93.5
310.72	74.5
310.949	78.5
311.179	80.5
311.409	74.5
311.639	79.5
311.868	83.5
312.098	76.5
312.328	84.5
312.557	76.5
312.787	75.5
313.017	98.5
313.246	79.5
313.476	85.5
313.706	87.5
313.935	78.5
314.165	68.5
314.394	87.5
314.624	70.5
314.853	84.5
315.083	92.5
315.312	81.5
315.542	87.5
315.771	98.5
316.001	87.5
316.23	78.5
316.46	89.5
316.689	79.5
316.919	91.5
317.148	87.5
317.377	90.5
317.607	100.5
317.836	80.5
318.065	77.5
318.295	75.5
318.524	77.5
318.753	91.5
318.983	88.5
319.212	72.5
319.441	88.5
319.67	82.5
319.9	75.5
320.129	84.5
320.358	91.5
320.587	90.5
320.816	70.5
321.046	89.5
321.275	82.5
321.504	90.5
321.733	96.5
321.962	83.5
322.191	80.5
322.42	95.5
322.649	82.5
322.878	80.5
323.108	87.5
323.337	76.5
323.566	67.5
323.795	71.5
324.024	90.5
324.253	84.5
324.482	89.5
324.71	97.5
324.939	95.5
325.168	80.5
325.397	88.5
325.626	85.5
325.855	90.5
326.084	87.5
326.313	84.5
326.542	86.5
326.77	91.5
326.999	90.5
327.228	85.5
327.457	76.5
327.686	73.5
327.914	80.5
328.143	76.5
328.372	71.5
328.6	82.5
328.829	79.5
329.058	91.5
329.287	88.5
329.515	82.5
329.744	79.5
329.972	85.5
330.201	71.5
330.43	97.5
330.658	82.5
330.887	87.5
331.115	88.5
331.344	83.5
331.572	85.5
331.801	93.5
332.03	75.5
332.258	75.5
332.486	84.5
332.715	74.5
332.943	75.5
333.172	89.5
333.4	79.5
333.629	100.5
333.857	88.5
334.085	84.5
334.314	65.5
334.542	64.5
334.771	82.5
334.999	82.5
335.227	67.5
335.455	83.5
335.684	92.5
335.912	96.5
336.14	73.5
336.369	80.5
336.597	71.5
336.825	80.5
337.053	77.5
337.281	81.5
337.51	78.5
337.738	99.5
337.966	78.5
338.194	90.5
338.422	79.5
338.65	90.5
338.878	89.5
339.106	94.5
339.334	88.5
339.562	88.5
339.79	92.5
340.018	81.5
340.246	86.5
340.474	79.5
340.702	82.5
340.93	72.5
341.158	79.5
341.386	83.5
341.614	71.5
341.842	79.5
342.07	96.5
342.298	82.5
342.526	86.5
342.754	86.5
342.981	86.5
343.209	82.5
343.437	75.5
343.665	75.5
343.893	69.5
344.12	89.5
344.348	86.5
344.576	83.5
344.804	69.5
345.031	80.5
345.259	84.5
345.487	86.5
345.714	90.5
345.942	78.5
346.17	78.5
346.397	63.5
346.625	73.5
346.853	87.5
347.08	87.5
347.308	78.5
347.535	86.5
347.763	83.5
347.99	103.5
348.218	80.5
348.445	86.5
348.673	82.5
348.9	83.5
349.128	96.5
349.355	88.5
349.583	86.5
349.81	65.5
350.037	87.5
350.265	95.5
350.492	87.5
350.72	72.5
350.947	76.5
351.174	74.5
351.402	84.5
351.629	81.5
351.856	77.5
352.083	83.5
352.311	87.5
352.538	87.5
352.765	93.5
352.992	85.5
353.22	92.5
353.447	98.5
353.674	99.5
353.901	97.5
354.128	77.5
354.355	83.5
354.583	79.5
354.81	79.5
355.037	87.5
355.264	98.5
355.491	81.5
355.718	86.5
355.945	80.5
356.172	81.5
356.399	87.5
356.626	78.5
356.853	95.5
357.08	70.5
357.307	76.5
357.534	77.5
357.761	84.5
357.988	81.5
358.215	88.5
358.441	86.5
358.668	88.5
358.895	87.5
359.122	71.5
359.349	81.5
359.576	89.5
359.802	84.5
360.029	87.5
360.256	89.5
360.483	73.5
360.709	77.5
360.936	87.5
361.163	89.5
361.39	89.5
361.616	90.5
361.843	86.5
362.07	69.5
362.296	87.5
362.523	78.5
362.749	75.5
362.976	83.5
363.203	91.5
363.429	89.5
363.656	82.5
363.882	94.5
364.109	85.5
364.335	86.5
364.562	95.5
364.788	67.5
365.015	103.5
365.241	90.5
365.468	71.5
365.694	74.5
365.92	77.5
366.147	91.5
366.373	94.5
366.599	94.5
366.826	71.5
367.052	86.5
367.278	91.5
367.505	78.5
367.731	83.5
367.957	80.5
368.184	79.5
368.41	76.5
368.636	61.5
368.862	90.5
369.089	86.5
369.315	91.5
369.541	86.5
369.767	91.5
369.993	89.5
370.219	91.5
370.445	87.5
370.672	88.5
370.898	97.5
371.124	82.5
371.35	80.5
371.576	79.5
371.802	89.5
372.028	81.5
372.254	88.5
372.48	83.5
372.706	80.5
372.932	91.5
373.158	87.5
373.384	76.5
373.61	82.5
373.835	98.5
374.061	86.5
374.287	79.5
374.513	97.5
374.739	83.5
374.965	86.5
375.191	75.5
375.416	91.5
375.642	88.5
375.868	90.5
376.094	83.5
376.319	100.5
376.545	100.5
376.771	89.5
376.997	103.5
377.222	91.5
377.448	97.5
377.674	92.5
377.899	89.5
378.125	89.5
378.35	100.5
378.576	86.5
378.802	82.5
379.027	84.5
379.253	103.5
379.478	86.5
379.704	96.5
379.929	93.5
380.155	104.5
380.38	88.5
380.606	94.5
380.831	92.5
381.057	89.5
381.282	91.5
381.507	91.5
381.733	80.5
381.958	92.5
382.184	92.5
382.409	90.5
382.634	105.5
382.86	94.5
383.085	105.5
383.31	84.5
383.535	94.5
383.761	86.5
383.986	87.5
384.211	96.5
384.436	102.5
384.662	96.5
384.887	102.5
385.112	84.5
385.337	97.5
385.562	89.5
385.787	99.5
386.013	96.5
386.238	91.5
386.463	89.5
386.688	102.5
386.913	96.5
387.138	98.5
387.363	99.5
387.588	83.5
387.813	88.5
388.038	103.5
388.263	103.5
388.488	92.5
388.713	97.5
388.938	92.5
389.163	79.5
389.387	88.5
389.612	95.5
389.837	100.5
390.062	106.5
390.287	105.5
390.512	104.5
390.736	98.5
390.961	102.5
391.186	89.5
391.411	96.5
391.636	102.5
391.86	110.5
392.085	90.5
392.31	104.5
392.534	105.5
392.759	107.5
392.984	110.5
393.208	90.5
393.433	113.5
393.658	103.5
393.882	98.5
394.107	111.5
394.331	99.5
394.556	104.5
394.78	92.5
395.005	100.5
395.229	109.5
395.454	106.5
395.678	112.5
395.903	107.5
396.127	108.5
396.352	115.5
396.576	94.5
396.801	100.5
397.025	99.5
397.249	92.5
397.474	102.5
397.698	105.5
397.922	98.5
398.147	103.5
398.371	104.5
398.595	114.5
398.82	117.5
399.044	93.5
399.268	98.5
399.492	99.5
399.717	107.5
399.941	89.5
400.165	119.5
400.389	90.5
400.613	105.5
400.837	113.5
401.062	114.5
401.286	101.5
401.51	108.5
401.734	110.5
401.958	118.5
402.182	99.5
402.406	114.5
402.63	103.5
402.854	90.5
403.078	119.5
403.302	107.5
403.526	107.5
403.75	130.5
403.974	106.5
404.198	104.5
404.422	104.5
404.645	108.5
404.869	102.5
405.093	126.5
405.317	121.5
405.541	103.5
405.765	99.5
405.988	97.5
406.212	112.5
406.436	119.5
406.66	129.5
406.883	119.5
407.107	114.5
407.331	105.5
407.555	130.5
407.778	119.5
408.002	114.5
408.226	120.5
408.449	108.5
408.673	120.5
408.896	128.5
409.12	135.5
409.344	120.5
409.567	106.5
409.791	110.5
410.014	119.5
410.238	121.5
410.461	124.5
410.685	103.5
410.908	103.5
411.132	122.5
411.355	120.5
411.578	120.5
411.802	116.5
412.025	114.5
412.249	107.5
412.472	122.5
412.695	115.5
412.919	110.5
413.142	116.5
413.365	117.5
413.589	112.5
413.812	122.5
414.035	125.5
414.258	119.5
414.482	117.5
414.705	118.5
414.928	106.5
415.151	117.5
415.374	112.5
415.597	121.5
415.821	132.5
416.044	119.5
416.267	115.5
416.49	122.5
416.713	132.5
416.936	132.5
417.159	113.5
417.382	104.5
417.605	118.5
417.828	123.5
418.051	136.5
418.274	138.5
418.497	124.5
418.72	132.5
418.943	142.5
419.166	121.5
419.389	121.5
419.611	137.5
419.834	135.5
420.057	124.5
420.28	122.5
420.503	123.5
420.726	122.5
420.948	124.5
421.171	128.5
421.394	124.5
421.617	134.5
421.839	130.5
422.062	144.5
422.285	123.5
422.507	127.5
422.73	123.5
422.953	118.5
423.175	126.5
423.398	132.5
423.621	123.5
423.843	121.5
424.066	124.5
424.288	138.5
424.511	128.5
424.733	143.5
424.956	126.5
425.178	146.5
425.401	135.5
425.623	124.5
425.846	131.5
426.068	135.5
426.291	130.5
426.513	137.5
426.735	126.5
426.958	124.5
427.18	131.5
427.402	124.5
427.625	129.5
427.847	128.5
428.069	135.5
428.292	110.5
428.514	135.5
428.736	115.5
428.958	124.5
429.181	127.5
429.403	130.5
429.625	123.5
429.847	119.5
430.069	119.5
430.292	123.5
430.514	121.5
430.736	124.5
430.958	137.5
431.18	122.5
431.402	122.5
431.624	116.5
431.846	117.5
432.068	90.5
432.29	102.5
432.512	108.5
432.734	115.5
432.956	114.5
433.178	122.5
433.4	120.5
433.622	126.5
433.844	123.5
434.066	116.5
434.287	111.5
434.509	98.5
434.731	95.5
434.953	100.5
435.175	124.5
435.397	132.5
435.618	114.5
435.84	110.5
436.062	114.5
436.284	125.5
436.505	110.5
436.727	136.5
436.949	126.5
437.17	118.5
437.392	122.5
437.614	119.5
437.835	114.5
438.057	119.5
438.278	95.5
438.5	120.5
438.721	135.5
438.943	134.5
439.165	131.5
439.386	146.5
439.608	131.5
439.829	140.5
440.05	132.5
440.272	144.5
440.493	128.5
440.715	146.5
440.936	147.5
441.158	128.5
441.379	146.5
441.6	130.5
441.822	140.5
442.043	144.5
442.264	135.5
442.486	146.5
442.707	136.5
442.928	138.5
443.149	138.5
443.371	129.5
443.592	138.5
443.813	137.5
444.034	138.5
444.255	147.5
444.476	136.5
444.698	134.5
444.919	130.5
445.14	278.5
445.361	216.5
445.582	143.5
445.803	140.5
446.024	147.5
446.245	154.5
446.466	146.5
446.687	132.5
446.908	139.5
447.129	150.5
447.35	146.5
447.571	146.5
447.792	138.5
448.013	149.5
448.234	143.5
448.455	138.5
448.675	142.5
448.896	133.5
449.117	124.5
449.338	124.5
449.559	129.5
449.779	128.5
450	119.5
450.221	137.5
450.442	133.5
450.662	133.5
450.883	132.5
451.104	143.5
451.324	134.5
451.545	128.5
451.766	132.5
451.986	122.5
452.207	113.5
452.428	116.5
452.648	115.5
452.869	124.5
453.089	126.5
453.31	116.5
453.53	97.5
453.751	99.5
453.971	100.5
454.192	101.5
454.412	110.5
454.633	107.5
454.853	118.5
455.073	112.5
455.294	116.5
455.514	123.5
455.734	116.5
455.955	112.5
456.175	99.5
456.395	126.5
456.616	120.5
456.836	119.5
457.056	103.5
457.276	118.5
457.497	95.5
457.717	99.5
457.937	111.5
458.157	115.5
458.377	110.5
458.598	95.5
458.818	84.5
459.038	82.5
459.258	93.5
459.478	90.5
459.698	86.5
459.918	102.5
460.138	115.5
460.358	114.5
460.578	108.5
460.798	112.5
461.018	103.5
461.238	109.5
461.458	105.5
461.678	106.5
461.898	103.5
462.118	104.5
462.338	106.5
462.558	101.5
462.777	110.5
462.997	83.5
463.217	103.5
463.437	97.5
463.657	97.5
463.876	114.5
464.096	114.5
464.316	104.5
464.536	110.5
464.755	124.5
464.975	110.5
465.195	115.5
465.414	119.5
465.634	115.5
465.854	126.5
466.073	108.5
466.293	120.5
466.512	128.5
466.732	131.5
466.951	106.5
467.171	126.5
467.391	125.5
467.61	124.5
467.829	142.5
468.049	124.5
468.268	137.5
468.488	136.5
468.707	132.5
468.927	143.5
469.146	132.5
469.365	130.5
469.585	128.5
469.804	131.5
470.023	141.5
470.243	141.5
470.462	136.5
470.681	139.5
470.901	141.5
471.12	140.5
471.339	142.5
471.558	141.5
471.777	117.5
471.997	136.5
472.216	122.5
472.435	127.5
472.654	115.5
472.873	120.5
473.092	112.5
473.311	127.5
473.53	137.5
473.749	130.5
473.968	127.5
474.187	120.5
474.406	121.5
474.625	123.5
474.844	122.5
475.063	126.5
475.282	136.5
475.501	125.5
475.72	123.5
475.939	120.5
476.158	119.5
476.377	125.5
476.596	110.5
476.814	113.5
477.033	112.5
477.252	124.5
477.471	111.5
477.69	124.5
477.908	130.5
478.127	130.5
478.346	134.5
478.564	143.5
478.783	128.5
479.002	137.5
479.22	141.5
479.439	128.5
479.658	128.5
479.876	115.5
480.095	107.5
480.313	124.5
480.532	134.5
480.751	119.5
480.969	82.5
481.188	74.5
481.406	91.5
481.624	83.5
481.843	89.5
482.061	103.5
482.28	111.5
482.498	98.5
482.717	128.5
482.935	131.5
483.153	144.5
483.372	148.5
483.59	153.5
483.808	132.5
484.027	128.5
484.245	130.5
484.463	138.5
484.681	168.5
484.9	135.5
485.118	144.5
485.336	138.5
485.554	112.5
485.772	99.5
485.99	104.5
486.209	102.5
486.427	118.5
486.645	117.5
486.863	123.5
487.081	157.5
487.299	140.5
487.517	136.5
487.735	175.5
487.953	192.5
488.171	177.5
488.389	174.5
488.607	163.5
488.825	149.5
489.043	144.5
489.261	131.5
489.479	127.5
489.696	147.5
489.914	127.5
490.132	134.5
490.35	142.5
490.568	158.5
490.786	163.5
491.003	162.5
491.221	172.5
491.439	169.5
491.657	169.5
491.874	171.5
492.092	214.5
492.31	226.5
492.527	223.5
492.745	198.5
492.963	180.5
493.18	181.5
493.398	194.5
493.615	167.5
493.833	158.5
494.05	158.5
494.268	183.5
494.485	177.5
494.703	166.5
494.92	171.5
495.138	162.5
495.355	172.5
495.573	153.5
495.79	170.5
496.008	159.5
496.225	145.5
496.442	177.5
496.66	165.5
496.877	158.5
497.094	150.5
497.312	159.5
497.529	158.5
497.746	151.5
497.963	143.5
498.181	124.5
498.398	124.5
498.615	120.5
498.832	117.5
499.049	117.5
499.267	118.5
499.484	122.5
499.701	139.5
499.918	138.5
500.135	130.5
500.352	135.5
500.569	152.5
500.786	133.5
501.003	134.5
501.22	136.5
501.437	131.5
501.654	133.5
501.871	127.5
502.088	137.5
502.305	130.5
502.522	134.5
502.739	122.5
502.956	112.5
503.172	117.5
503.389	128.5
503.606	119.5
503.823	117.5
504.04	130.5
504.256	118.5
504.473	116.5
504.69	118.5
504.907	122.5
505.123	110.5
505.34	124.5
505.557	105.5
505.773	114.5
505.99	116.5
506.207	124.5
506.423	132.5
506.64	121.5
506.856	107.5
507.073	123.5
507.289	112.5
507.506	113.5
507.722	120.5
507.939	131.5
508.155	108.5
508.372	108.5
508.588	114.5
508.805	112.5
509.021	107.5
509.238	98.5
509.454	110.5
509.67	106.5
509.887	100.5
510.103	97.5
510.319	99.5
510.536	74.5
510.752	101.5
510.968	95.5
511.184	81.5
511.401	89.5
511.617	91.5
511.833	83.5
512.049	92.5
512.265	97.5
512.481	103.5
512.698	93.5
512.914	107.5
513.13	91.5
513.346	83.5
513.562	93.5
513.778	87.5
513.994	97.5
514.21	80.5
514.426	86.5
514.642	92.5
514.858	93.5
515.074	99.5
515.29	96.5
515.506	82.5
515.721	83.5
515.937	87.5
516.153	88.5
516.369	88.5
516.585	84.5
516.801	96.5
517.016	100.5
517.232	77.5
517.448	97.5
517.664	77.5
517.879	93.5
518.095	99.5
518.311	102.5
518.527	101.5
518.742	97.5
518.958	95.5
519.173	121.5
519.389	118.5
519.605	92.5
519.82	104.5
520.036	85.5
520.251	101.5
520.467	101.5
520.682	106.5
520.898	101.5
521.113	90.5
521.329	93.5
521.544	103.5
521.76	80.5
521.975	86.5
522.19	92.5
522.406	103.5
522.621	104.5
522.836	105.5
523.052	109.5
523.267	94.5
523.482	116.5
523.698	100.5
523.913	113.5
524.128	114.5
524.343	105.5
524.559	130.5
524.774	118.5
524.989	121.5
525.204	123.5
525.419	116.5
525.634	111.5
525.849	90.5
526.064	88.5
526.28	105.5
526.495	98.5
526.71	90.5
526.925	87.5
527.14	86.5
527.355	75.5
527.57	81.5
527.785	85.5
527.999	106.5
528.214	114.5
528.429	114.5
528.644	129.5
528.859	134.5
529.074	145.5
529.289	154.5
529.503	147.5
529.718	121.5
529.933	108.5
530.148	101.5
530.363	91.5
530.577	95.5
530.792	94.5
531.007	85.5
531.221	97.5
