Data from Location4.07152019.Energy5.Lamp.07192019.3%Agarose_HRD10591_16-19-38-925.txt Node
Date: Fri Jul 19 16:19:38 EDT 2019
User: cochatt
Spectrometer: HR+D1059
Trigger mode: 1
Integration Time (sec): 1.000000E-1
Scans to average: 1
Electric dark correction enabled: true
Nonlinearity correction enabled: false
Boxcar width: 0
XAxis mode: Wavelengths
Number of Pixels in Spectrum: 2048
>>>>>Begin Spectral Data<<<<<
223.165	-13.75
223.4	-13.75
223.635	-13.75
223.869	-18.75
224.104	-18.75
224.338	-11.75
224.573	-1.75
224.808	-7.75
225.042	4.25
225.277	-4.75
225.511	-16.75
225.746	-9.75
225.98	3.25
226.215	16.25
226.449	21.25
226.683	23.25
226.918	15.25
227.152	20.25
227.387	29.25
227.621	36.25
227.856	36.25
228.09	32.25
228.324	55.25
228.559	56.25
228.793	66.25
229.027	63.25
229.262	64.25
229.496	50.25
229.73	69.25
229.964	86.25
230.199	64.25
230.433	62.25
230.667	68.25
230.901	76.25
231.136	64.25
231.37	81.25
231.604	80.25
231.838	77.25
232.072	58.25
232.306	72.25
232.541	68.25
232.775	80.25
233.009	75.25
233.243	80.25
233.477	89.25
233.711	87.25
233.945	78.25
234.179	89.25
234.413	76.25
234.647	77.25
234.881	82.25
235.115	74.25
235.349	78.25
235.583	75.25
235.817	87.25
236.051	80.25
236.285	85.25
236.519	72.25
236.753	68.25
236.987	76.25
237.221	71.25
237.455	68.25
237.689	75.25
237.922	73.25
238.156	73.25
238.39	91.25
238.624	81.25
238.858	67.25
239.091	80.25
239.325	86.25
239.559	75.25
239.793	70.25
240.027	65.25
240.26	66.25
240.494	73.25
240.728	74.25
240.961	61.25
241.195	83.25
241.429	79.25
241.662	81.25
241.896	73.25
242.13	88.25
242.363	76.25
242.597	71.25
242.83	65.25
243.064	74.25
243.298	67.25
243.531	70.25
243.765	54.25
243.998	65.25
244.232	78.25
244.465	77.25
244.699	84.25
244.932	81.25
245.166	65.25
245.399	77.25
245.633	88.25
245.866	75.25
246.099	68.25
246.333	82.25
246.566	92.25
246.8	71.25
247.033	72.25
247.266	69.25
247.5	85.25
247.733	78.25
247.966	70.25
248.2	85.25
248.433	75.25
248.666	83.25
248.899	75.25
249.133	80.25
249.366	68.25
249.599	70.25
249.832	75.25
250.066	75.25
250.299	74.25
250.532	66.25
250.765	68.25
250.998	78.25
251.231	78.25
251.465	83.25
251.698	80.25
251.931	76.25
252.164	66.25
252.397	86.25
252.63	77.25
252.863	75.25
253.096	90.25
253.329	94.25
253.562	74.25
253.795	62.25
254.028	77.25
254.261	83.25
254.494	76.25
254.727	83.25
254.96	69.25
255.193	76.25
255.426	82.25
255.659	78.25
255.892	84.25
256.124	74.25
256.357	71.25
256.59	69.25
256.823	73.25
257.056	87.25
257.289	81.25
257.521	83.25
257.754	83.25
257.987	84.25
258.22	79.25
258.452	74.25
258.685	87.25
258.918	70.25
259.151	85.25
259.383	83.25
259.616	86.25
259.849	86.25
260.081	82.25
260.314	72.25
260.547	92.25
260.779	86.25
261.012	84.25
261.244	86.25
261.477	80.25
261.71	91.25
261.942	88.25
262.175	79.25
262.407	74.25
262.64	70.25
262.872	93.25
263.105	65.25
263.337	80.25
263.57	72.25
263.802	66.25
264.035	72.25
264.267	75.25
264.499	76.25
264.732	70.25
264.964	91.25
265.197	79.25
265.429	70.25
265.661	69.25
265.894	83.25
266.126	81.25
266.358	89.25
266.591	76.25
266.823	71.25
267.055	81.25
267.287	81.25
267.52	81.25
267.752	84.25
267.984	86.25
268.216	72.25
268.448	93.25
268.681	74.25
268.913	83.25
269.145	72.25
269.377	82.25
269.609	68.25
269.841	80.25
270.073	76.25
270.306	89.25
270.538	91.25
270.77	92.25
271.002	79.25
271.234	76.25
271.466	87.25
271.698	87.25
271.93	78.25
272.162	90.25
272.394	93.25
272.626	64.25
272.858	94.25
273.09	92.25
273.322	93.25
273.553	84.25
273.785	88.25
274.017	96.25
274.249	75.25
274.481	80.25
274.713	76.25
274.945	83.25
275.176	81.25
275.408	82.25
275.64	86.25
275.872	72.25
276.104	76.25
276.335	84.25
276.567	90.25
276.799	73.25
277.031	81.25
277.262	77.25
277.494	84.25
277.726	83.25
277.957	78.25
278.189	72.25
278.421	85.25
278.652	96.25
278.884	82.25
279.115	85.25
279.347	83.25
279.579	88.25
279.81	82.25
280.042	88.25
280.273	78.25
280.505	81.25
280.736	57.25
280.968	83.25
281.199	93.25
281.431	89.25
281.662	88.25
281.894	103.25
282.125	82.25
282.356	87.25
282.588	77.25
282.819	65.25
283.051	83.25
283.282	73.25
283.513	81.25
283.745	84.25
283.976	73.25
284.207	90.25
284.439	83.25
284.67	78.25
284.901	75.25
285.132	98.25
285.364	75.25
285.595	87.25
285.826	80.25
286.057	80.25
286.288	89.25
286.52	97.25
286.751	90.25
286.982	84.25
287.213	89.25
287.444	75.25
287.675	85.25
287.906	84.25
288.138	87.25
288.369	85.25
288.6	80.25
288.831	77.25
289.062	95.25
289.293	86.25
289.524	97.25
289.755	81.25
289.986	87.25
290.217	84.25
290.448	82.25
290.679	61.25
290.91	94.25
291.141	93.25
291.371	105.25
291.602	74.25
291.833	81.25
292.064	85.25
292.295	88.25
292.526	95.25
292.757	68.25
292.987	97.25
293.218	86.25
293.449	84.25
293.68	89.25
293.91	92.25
294.141	84.25
294.372	90.25
294.603	92.25
294.833	76.25
295.064	70.25
295.295	69.25
295.525	88.25
295.756	90.25
295.987	69.25
296.217	83.25
296.448	83.25
296.679	78.25
296.909	81.25
297.14	82.25
297.37	86.25
297.601	80.25
297.831	85.25
298.062	90.25
298.292	91.25
298.523	75.25
298.753	73.25
298.984	88.25
299.214	89.25
299.445	85.25
299.675	87.25
299.905	85.25
300.136	83.25
300.366	89.25
300.597	91.25
300.827	85.25
301.057	79.25
301.288	83.25
301.518	90.25
301.748	77.25
301.979	95.25
302.209	81.25
302.439	91.25
302.669	74.25
302.9	90.25
303.13	93.25
303.36	76.25
303.59	102.25
303.82	79.25
304.051	86.25
304.281	82.25
304.511	86.25
304.741	93.25
304.971	89.25
305.201	76.25
305.431	88.25
305.661	84.25
305.891	86.25
306.121	83.25
306.352	92.25
306.582	68.25
306.812	84.25
307.042	86.25
307.272	87.25
307.502	85.25
307.731	81.25
307.961	79.25
308.191	74.25
308.421	81.25
308.651	87.25
308.881	91.25
309.111	95.25
309.341	86.25
309.571	88.25
309.8	88.25
310.03	87.25
310.26	88.25
310.49	89.25
310.72	89.25
310.949	97.25
311.179	86.25
311.409	83.25
311.639	94.25
311.868	102.25
312.098	92.25
312.328	91.25
312.557	93.25
312.787	95.25
313.017	89.25
313.246	95.25
313.476	89.25
313.706	79.25
313.935	79.25
314.165	79.25
314.394	78.25
314.624	82.25
314.853	77.25
315.083	89.25
315.312	82.25
315.542	90.25
315.771	74.25
316.001	84.25
316.23	87.25
316.46	92.25
316.689	75.25
316.919	97.25
317.148	85.25
317.377	90.25
317.607	89.25
317.836	70.25
318.065	82.25
318.295	96.25
318.524	70.25
318.753	86.25
318.983	85.25
319.212	93.25
319.441	80.25
319.67	83.25
319.9	91.25
320.129	92.25
320.358	76.25
320.587	88.25
320.816	84.25
321.046	88.25
321.275	82.25
321.504	76.25
321.733	91.25
321.962	76.25
322.191	82.25
322.42	89.25
322.649	79.25
322.878	92.25
323.108	97.25
323.337	92.25
323.566	94.25
323.795	84.25
324.024	82.25
324.253	100.25
324.482	85.25
324.71	82.25
324.939	72.25
325.168	74.25
325.397	77.25
325.626	85.25
325.855	78.25
326.084	87.25
326.313	98.25
326.542	92.25
326.77	80.25
326.999	91.25
327.228	85.25
327.457	92.25
327.686	71.25
327.914	94.25
328.143	99.25
328.372	88.25
328.6	82.25
328.829	86.25
329.058	90.25
329.287	74.25
329.515	87.25
329.744	84.25
329.972	87.25
330.201	85.25
330.43	82.25
330.658	80.25
330.887	84.25
331.115	95.25
331.344	95.25
331.572	79.25
331.801	66.25
332.03	85.25
332.258	78.25
332.486	70.25
332.715	80.25
332.943	78.25
333.172	76.25
333.4	84.25
333.629	99.25
333.857	91.25
334.085	90.25
334.314	77.25
334.542	79.25
334.771	73.25
334.999	80.25
335.227	82.25
335.455	74.25
335.684	80.25
335.912	91.25
336.14	85.25
336.369	70.25
336.597	85.25
336.825	83.25
337.053	97.25
337.281	88.25
337.51	87.25
337.738	67.25
337.966	92.25
338.194	89.25
338.422	81.25
338.65	87.25
338.878	89.25
339.106	86.25
339.334	77.25
339.562	87.25
339.79	91.25
340.018	80.25
340.246	76.25
340.474	84.25
340.702	66.25
340.93	92.25
341.158	81.25
341.386	81.25
341.614	75.25
341.842	67.25
342.07	70.25
342.298	79.25
342.526	73.25
342.754	90.25
342.981	91.25
343.209	85.25
343.437	90.25
343.665	85.25
343.893	82.25
344.12	71.25
344.348	78.25
344.576	81.25
344.804	82.25
345.031	80.25
345.259	85.25
345.487	84.25
345.714	86.25
345.942	83.25
346.17	75.25
346.397	74.25
346.625	87.25
346.853	90.25
347.08	81.25
347.308	84.25
347.535	86.25
347.763	76.25
347.99	86.25
348.218	80.25
348.445	85.25
348.673	76.25
348.9	72.25
349.128	83.25
349.355	90.25
349.583	95.25
349.81	71.25
350.037	68.25
350.265	106.25
350.492	88.25
350.72	74.25
350.947	97.25
351.174	85.25
351.402	75.25
351.629	73.25
351.856	85.25
352.083	89.25
352.311	86.25
352.538	66.25
352.765	92.25
352.992	91.25
353.22	74.25
353.447	82.25
353.674	87.25
353.901	65.25
354.128	79.25
354.355	75.25
354.583	86.25
354.81	83.25
355.037	83.25
355.264	85.25
355.491	90.25
355.718	77.25
355.945	93.25
356.172	80.25
356.399	82.25
356.626	71.25
356.853	74.25
357.08	79.25
357.307	89.25
357.534	75.25
357.761	89.25
357.988	87.25
358.215	98.25
358.441	84.25
358.668	66.25
358.895	74.25
359.122	89.25
359.349	89.25
359.576	83.25
359.802	88.25
360.029	77.25
360.256	89.25
360.483	84.25
360.709	76.25
360.936	81.25
361.163	78.25
361.39	87.25
361.616	81.25
361.843	90.25
362.07	82.25
362.296	66.25
362.523	76.25
362.749	83.25
362.976	76.25
363.203	76.25
363.429	84.25
363.656	78.25
363.882	77.25
364.109	90.25
364.335	78.25
364.562	88.25
364.788	76.25
365.015	83.25
365.241	82.25
365.468	82.25
365.694	103.25
365.92	71.25
366.147	98.25
366.373	86.25
366.599	79.25
366.826	77.25
367.052	99.25
367.278	96.25
367.505	92.25
367.731	85.25
367.957	94.25
368.184	94.25
368.41	81.25
368.636	94.25
368.862	88.25
369.089	89.25
369.315	78.25
369.541	91.25
369.767	90.25
369.993	81.25
370.219	88.25
370.445	80.25
370.672	84.25
370.898	84.25
371.124	88.25
371.35	83.25
371.576	82.25
371.802	90.25
372.028	96.25
372.254	85.25
372.48	78.25
372.706	91.25
372.932	95.25
373.158	81.25
373.384	82.25
373.61	90.25
373.835	86.25
374.061	92.25
374.287	86.25
374.513	93.25
374.739	102.25
374.965	95.25
375.191	93.25
375.416	88.25
375.642	76.25
375.868	90.25
376.094	89.25
376.319	75.25
376.545	78.25
376.771	106.25
376.997	91.25
377.222	94.25
377.448	85.25
377.674	92.25
377.899	92.25
378.125	100.25
378.35	96.25
378.576	84.25
378.802	92.25
379.027	86.25
379.253	103.25
379.478	91.25
379.704	95.25
379.929	74.25
380.155	88.25
380.38	95.25
380.606	92.25
380.831	95.25
381.057	85.25
381.282	90.25
381.507	97.25
381.733	102.25
381.958	102.25
382.184	104.25
382.409	107.25
382.634	92.25
382.86	103.25
383.085	85.25
383.31	80.25
383.535	86.25
383.761	99.25
383.986	90.25
384.211	101.25
384.436	90.25
384.662	95.25
384.887	94.25
385.112	84.25
385.337	96.25
385.562	91.25
385.787	96.25
386.013	94.25
386.238	106.25
386.463	106.25
386.688	105.25
386.913	98.25
387.138	103.25
387.363	107.25
387.588	103.25
387.813	107.25
388.038	100.25
388.263	98.25
388.488	98.25
388.713	92.25
388.938	100.25
389.163	95.25
389.387	106.25
389.612	85.25
389.837	95.25
390.062	75.25
390.287	114.25
390.512	90.25
390.736	96.25
390.961	110.25
391.186	101.25
391.411	96.25
391.636	114.25
391.86	100.25
392.085	88.25
392.31	107.25
392.534	93.25
392.759	97.25
392.984	98.25
393.208	91.25
393.433	98.25
393.658	113.25
393.882	99.25
394.107	106.25
394.331	102.25
394.556	113.25
394.78	93.25
395.005	114.25
395.229	112.25
395.454	105.25
395.678	124.25
395.903	106.25
396.127	106.25
396.352	102.25
396.576	91.25
396.801	108.25
397.025	96.25
397.249	99.25
397.474	115.25
397.698	100.25
397.922	107.25
398.147	94.25
398.371	112.25
398.595	110.25
398.82	100.25
399.044	105.25
399.268	110.25
399.492	104.25
399.717	107.25
399.941	102.25
400.165	103.25
400.389	97.25
400.613	110.25
400.837	116.25
401.062	107.25
401.286	108.25
401.51	123.25
401.734	126.25
401.958	112.25
402.182	107.25
402.406	123.25
402.63	111.25
402.854	120.25
403.078	104.25
403.302	109.25
403.526	120.25
403.75	107.25
403.974	112.25
404.198	111.25
404.422	114.25
404.645	116.25
404.869	125.25
405.093	113.25
405.317	112.25
405.541	114.25
405.765	104.25
405.988	100.25
406.212	123.25
406.436	121.25
406.66	114.25
406.883	120.25
407.107	113.25
407.331	115.25
407.555	131.25
407.778	113.25
408.002	116.25
408.226	115.25
408.449	119.25
408.673	114.25
408.896	115.25
409.12	113.25
409.344	107.25
409.567	105.25
409.791	116.25
410.014	111.25
410.238	120.25
410.461	113.25
410.685	123.25
410.908	122.25
411.132	108.25
411.355	111.25
411.578	121.25
411.802	124.25
412.025	110.25
412.249	117.25
412.472	104.25
412.695	121.25
412.919	106.25
413.142	118.25
413.365	122.25
413.589	116.25
413.812	113.25
414.035	129.25
414.258	129.25
414.482	123.25
414.705	120.25
414.928	114.25
415.151	119.25
415.374	130.25
415.597	117.25
415.821	113.25
416.044	127.25
416.267	112.25
416.49	115.25
416.713	128.25
416.936	113.25
417.159	123.25
417.382	122.25
417.605	130.25
417.828	129.25
418.051	124.25
418.274	113.25
418.497	133.25
418.72	126.25
418.943	135.25
419.166	136.25
419.389	122.25
419.611	127.25
419.834	120.25
420.057	143.25
420.28	117.25
420.503	122.25
420.726	106.25
420.948	105.25
421.171	117.25
421.394	120.25
421.617	149.25
421.839	129.25
422.062	128.25
422.285	128.25
422.507	123.25
422.73	127.25
422.953	130.25
423.175	128.25
423.398	127.25
423.621	130.25
423.843	121.25
424.066	132.25
424.288	134.25
424.511	133.25
424.733	113.25
424.956	131.25
425.178	152.25
425.401	132.25
425.623	132.25
425.846	139.25
426.068	131.25
426.291	124.25
426.513	126.25
426.735	126.25
426.958	118.25
427.18	126.25
427.402	128.25
427.625	133.25
427.847	121.25
428.069	133.25
428.292	114.25
428.514	112.25
428.736	110.25
428.958	142.25
429.181	127.25
429.403	124.25
429.625	130.25
429.847	117.25
430.069	110.25
430.292	132.25
430.514	128.25
430.736	117.25
430.958	134.25
431.18	118.25
431.402	125.25
431.624	132.25
431.846	100.25
432.068	97.25
432.29	90.25
432.512	119.25
432.734	127.25
432.956	122.25
433.178	137.25
433.4	132.25
433.622	125.25
433.844	125.25
434.066	125.25
434.287	105.25
434.509	97.25
434.731	94.25
434.953	105.25
435.175	108.25
435.397	123.25
435.618	105.25
435.84	114.25
436.062	112.25
436.284	107.25
436.505	136.25
436.727	120.25
436.949	135.25
437.17	133.25
437.392	122.25
437.614	104.25
437.835	99.25
438.057	116.25
438.278	95.25
438.5	114.25
438.721	121.25
438.943	138.25
439.165	128.25
439.386	116.25
439.608	130.25
439.829	135.25
440.05	129.25
440.272	140.25
440.493	146.25
440.715	136.25
440.936	138.25
441.158	134.25
441.379	135.25
441.6	156.25
441.822	149.25
442.043	132.25
442.264	130.25
442.486	147.25
442.707	143.25
442.928	152.25
443.149	143.25
443.371	134.25
443.592	126.25
443.813	116.25
444.034	132.25
444.255	139.25
444.476	143.25
444.698	138.25
444.919	139.25
445.14	254.25
445.361	184.25
445.582	143.25
445.803	145.25
446.024	150.25
446.245	150.25
446.466	161.25
446.687	145.25
446.908	155.25
447.129	162.25
447.35	147.25
447.571	135.25
447.792	140.25
448.013	138.25
448.234	126.25
448.455	142.25
448.675	128.25
448.896	127.25
449.117	143.25
449.338	137.25
449.559	126.25
449.779	144.25
450	131.25
450.221	126.25
450.442	136.25
450.662	140.25
450.883	130.25
451.104	124.25
451.324	120.25
451.545	109.25
451.766	133.25
451.986	112.25
452.207	115.25
452.428	103.25
452.648	135.25
452.869	128.25
453.089	114.25
453.31	96.25
453.53	104.25
453.751	114.25
453.971	97.25
454.192	97.25
454.412	105.25
454.633	122.25
454.853	106.25
455.073	120.25
455.294	131.25
455.514	114.25
455.734	123.25
455.955	112.25
456.175	119.25
456.395	100.25
456.616	104.25
456.836	103.25
457.056	111.25
457.276	110.25
457.497	102.25
457.717	107.25
457.937	112.25
458.157	93.25
458.377	80.25
458.598	88.25
458.818	96.25
459.038	96.25
459.258	72.25
459.478	86.25
459.698	94.25
459.918	96.25
460.138	92.25
460.358	114.25
460.578	118.25
460.798	119.25
461.018	111.25
461.238	108.25
461.458	110.25
461.678	118.25
461.898	122.25
462.118	115.25
462.338	102.25
462.558	110.25
462.777	105.25
462.997	117.25
463.217	100.25
463.437	112.25
463.657	98.25
463.876	99.25
464.096	118.25
464.316	113.25
464.536	108.25
464.755	110.25
464.975	110.25
465.195	112.25
465.414	103.25
465.634	114.25
465.854	107.25
466.073	106.25
466.293	126.25
466.512	113.25
466.732	132.25
466.951	123.25
467.171	124.25
467.391	125.25
467.61	134.25
467.829	128.25
468.049	115.25
468.268	128.25
468.488	135.25
468.707	134.25
468.927	134.25
469.146	110.25
469.365	123.25
469.585	123.25
469.804	133.25
470.023	119.25
470.243	128.25
470.462	135.25
470.681	146.25
470.901	138.25
471.12	128.25
471.339	136.25
471.558	135.25
471.777	125.25
471.997	132.25
472.216	134.25
472.435	108.25
472.654	117.25
472.873	91.25
473.092	117.25
473.311	130.25
473.53	108.25
473.749	126.25
473.968	119.25
474.187	118.25
474.406	118.25
474.625	130.25
474.844	113.25
475.063	128.25
475.282	132.25
475.501	120.25
475.72	117.25
475.939	113.25
476.158	122.25
476.377	129.25
476.596	126.25
476.814	104.25
477.033	112.25
477.252	107.25
477.471	123.25
477.69	138.25
477.908	120.25
478.127	130.25
478.346	130.25
478.564	137.25
478.783	134.25
479.002	143.25
479.22	128.25
479.439	124.25
479.658	122.25
479.876	104.25
480.095	112.25
480.313	111.25
480.532	121.25
480.751	110.25
480.969	98.25
481.188	114.25
481.406	69.25
481.624	85.25
481.843	96.25
482.061	94.25
482.28	122.25
482.498	110.25
482.717	93.25
482.935	118.25
483.153	146.25
483.372	137.25
483.59	142.25
483.808	154.25
484.027	120.25
484.245	132.25
484.463	133.25
484.681	162.25
484.9	152.25
485.118	145.25
485.336	115.25
485.554	97.25
485.772	107.25
485.99	105.25
486.209	103.25
486.427	110.25
486.645	127.25
486.863	119.25
487.081	134.25
487.299	123.25
487.517	136.25
487.735	178.25
487.953	180.25
488.171	178.25
488.389	164.25
488.607	142.25
488.825	139.25
489.043	142.25
489.261	124.25
489.479	126.25
489.696	150.25
489.914	132.25
490.132	132.25
490.35	140.25
490.568	151.25
490.786	159.25
491.003	164.25
491.221	167.25
491.439	189.25
491.657	184.25
491.874	199.25
492.092	223.25
492.31	246.25
492.527	218.25
492.745	203.25
492.963	195.25
493.18	180.25
493.398	170.25
493.615	162.25
493.833	157.25
494.05	164.25
494.268	158.25
494.485	169.25
494.703	170.25
494.92	159.25
495.138	168.25
495.355	159.25
495.573	183.25
495.79	155.25
496.008	164.25
496.225	160.25
496.442	165.25
496.66	164.25
496.877	164.25
497.094	171.25
497.312	161.25
497.529	161.25
497.746	139.25
497.963	131.25
498.181	132.25
498.398	122.25
498.615	104.25
498.832	114.25
499.049	124.25
499.267	104.25
499.484	119.25
499.701	126.25
499.918	130.25
500.135	117.25
500.352	131.25
500.569	136.25
500.786	132.25
501.003	129.25
501.22	140.25
501.437	126.25
501.654	127.25
501.871	111.25
502.088	126.25
502.305	129.25
502.522	132.25
502.739	129.25
502.956	130.25
503.172	117.25
503.389	102.25
503.606	104.25
503.823	129.25
504.04	115.25
504.256	132.25
504.473	116.25
504.69	125.25
504.907	119.25
505.123	104.25
505.34	113.25
505.557	116.25
505.773	113.25
505.99	108.25
506.207	114.25
506.423	116.25
506.64	115.25
506.856	115.25
507.073	119.25
507.289	101.25
507.506	123.25
507.722	114.25
507.939	107.25
508.155	102.25
508.372	112.25
508.588	113.25
508.805	114.25
509.021	100.25
509.238	97.25
509.454	96.25
509.67	98.25
509.887	101.25
510.103	94.25
510.319	104.25
510.536	90.25
510.752	91.25
510.968	79.25
511.184	84.25
511.401	78.25
511.617	89.25
511.833	77.25
512.049	96.25
