Data from Location4.07152019.Energy5.Lamp.07192019.3%Agarose_HRD10591_16-21-24-927.txt Node
Date: Fri Jul 19 16:21:24 EDT 2019
User: cochatt
Spectrometer: HR+D1059
Trigger mode: 1
Integration Time (sec): 1.000000E-1
Scans to average: 1
Electric dark correction enabled: true
Nonlinearity correction enabled: false
Boxcar width: 0
XAxis mode: Wavelengths
Number of Pixels in Spectrum: 2048
>>>>>Begin Spectral Data<<<<<
223.165	-15.94
223.4	-15.94
223.635	-15.94
223.869	-25.94
224.104	-13.94
224.338	-21.94
224.573	-16.94
224.808	-11.94
225.042	-14.94
225.277	-7.94
225.511	-12.94
225.746	3.06
225.98	14.06
226.215	10.06
226.449	23.06
226.683	31.06
226.918	35.06
227.152	26.06
227.387	35.06
227.621	39.06
227.856	41.06
228.09	41.06
228.324	67.06
228.559	38.06
228.793	69.06
229.027	61.06
229.262	71.06
229.496	69.06
229.73	60.06
229.964	69.06
230.199	85.06
230.433	83.06
230.667	80.06
230.901	76.06
231.136	92.06
231.37	74.06
231.604	81.06
231.838	68.06
232.072	84.06
232.306	72.06
232.541	82.06
232.775	81.06
233.009	89.06
233.243	89.06
233.477	81.06
233.711	80.06
233.945	70.06
234.179	80.06
234.413	75.06
234.647	83.06
234.881	83.06
235.115	84.06
235.349	68.06
235.583	80.06
235.817	63.06
236.051	79.06
236.285	82.06
236.519	77.06
236.753	80.06
236.987	74.06
237.221	87.06
237.455	83.06
237.689	79.06
237.922	86.06
238.156	72.06
238.39	75.06
238.624	74.06
238.858	80.06
239.091	71.06
239.325	75.06
239.559	77.06
239.793	60.06
240.027	76.06
240.26	73.06
240.494	78.06
240.728	86.06
240.961	79.06
241.195	69.06
241.429	75.06
241.662	68.06
241.896	73.06
242.13	78.06
242.363	64.06
242.597	79.06
242.83	68.06
243.064	87.06
243.298	63.06
243.531	74.06
243.765	80.06
243.998	68.06
244.232	91.06
244.465	86.06
244.699	70.06
244.932	66.06
245.166	64.06
245.399	82.06
245.633	75.06
245.866	89.06
246.099	93.06
246.333	75.06
246.566	83.06
246.8	76.06
247.033	91.06
247.266	86.06
247.5	89.06
247.733	76.06
247.966	89.06
248.2	72.06
248.433	72.06
248.666	75.06
248.899	85.06
249.133	66.06
249.366	86.06
249.599	88.06
249.832	77.06
250.066	62.06
250.299	97.06
250.532	81.06
250.765	85.06
250.998	77.06
251.231	72.06
251.465	77.06
251.698	66.06
251.931	80.06
252.164	83.06
252.397	84.06
252.63	85.06
252.863	72.06
253.096	95.06
253.329	83.06
253.562	84.06
253.795	89.06
254.028	85.06
254.261	84.06
254.494	83.06
254.727	85.06
254.96	87.06
255.193	69.06
255.426	84.06
255.659	72.06
255.892	75.06
256.124	78.06
256.357	80.06
256.59	73.06
256.823	90.06
257.056	85.06
257.289	76.06
257.521	77.06
257.754	74.06
257.987	75.06
258.22	85.06
258.452	77.06
258.685	72.06
258.918	65.06
259.151	79.06
259.383	91.06
259.616	78.06
259.849	72.06
260.081	74.06
260.314	80.06
260.547	89.06
260.779	75.06
261.012	87.06
261.244	82.06
261.477	92.06
261.71	85.06
261.942	86.06
262.175	84.06
262.407	81.06
262.64	84.06
262.872	77.06
263.105	77.06
263.337	84.06
263.57	67.06
263.802	76.06
264.035	89.06
264.267	66.06
264.499	85.06
264.732	88.06
264.964	87.06
265.197	91.06
265.429	85.06
265.661	78.06
265.894	89.06
266.126	78.06
266.358	79.06
266.591	76.06
266.823	83.06
267.055	63.06
267.287	85.06
267.52	91.06
267.752	80.06
267.984	78.06
268.216	75.06
268.448	85.06
268.681	76.06
268.913	80.06
269.145	85.06
269.377	83.06
269.609	82.06
269.841	80.06
270.073	84.06
270.306	77.06
270.538	77.06
270.77	72.06
271.002	79.06
271.234	89.06
271.466	85.06
271.698	83.06
271.93	84.06
272.162	80.06
272.394	82.06
272.626	90.06
272.858	68.06
273.09	62.06
273.322	89.06
273.553	81.06
273.785	89.06
274.017	82.06
274.249	87.06
274.481	80.06
274.713	88.06
274.945	67.06
275.176	72.06
275.408	77.06
275.64	76.06
275.872	84.06
276.104	85.06
276.335	73.06
276.567	87.06
276.799	79.06
277.031	62.06
277.262	90.06
277.494	86.06
277.726	85.06
277.957	91.06
278.189	95.06
278.421	78.06
278.652	90.06
278.884	78.06
279.115	84.06
279.347	80.06
279.579	76.06
279.81	82.06
280.042	87.06
280.273	72.06
280.505	79.06
280.736	91.06
280.968	76.06
281.199	80.06
281.431	71.06
281.662	83.06
281.894	88.06
282.125	71.06
282.356	85.06
282.588	89.06
282.819	78.06
283.051	91.06
283.282	76.06
283.513	67.06
283.745	81.06
283.976	83.06
284.207	78.06
284.439	81.06
284.67	79.06
284.901	93.06
285.132	94.06
285.364	95.06
285.595	77.06
285.826	94.06
286.057	82.06
286.288	77.06
286.52	87.06
286.751	98.06
286.982	85.06
287.213	87.06
287.444	85.06
287.675	91.06
287.906	93.06
288.138	77.06
288.369	80.06
288.6	75.06
288.831	103.06
289.062	77.06
289.293	78.06
289.524	80.06
289.755	88.06
289.986	104.06
290.217	91.06
290.448	83.06
290.679	83.06
290.91	86.06
291.141	81.06
291.371	88.06
291.602	94.06
291.833	89.06
292.064	83.06
292.295	72.06
292.526	76.06
292.757	83.06
292.987	86.06
293.218	71.06
293.449	88.06
293.68	89.06
293.91	83.06
294.141	92.06
294.372	86.06
294.603	95.06
294.833	87.06
295.064	82.06
295.295	84.06
295.525	92.06
295.756	84.06
295.987	71.06
296.217	89.06
296.448	89.06
296.679	68.06
296.909	82.06
297.14	76.06
297.37	85.06
297.601	92.06
297.831	84.06
298.062	85.06
298.292	75.06
298.523	86.06
298.753	82.06
298.984	80.06
299.214	67.06
299.445	86.06
299.675	85.06
299.905	75.06
300.136	72.06
300.366	84.06
300.597	90.06
300.827	95.06
301.057	95.06
301.288	91.06
301.518	76.06
301.748	92.06
301.979	83.06
302.209	90.06
302.439	89.06
302.669	89.06
302.9	76.06
303.13	90.06
303.36	98.06
303.59	81.06
303.82	87.06
304.051	100.06
304.281	89.06
304.511	92.06
304.741	92.06
304.971	81.06
305.201	85.06
305.431	89.06
305.661	91.06
305.891	86.06
306.121	96.06
306.352	85.06
306.582	85.06
306.812	91.06
307.042	72.06
307.272	87.06
307.502	101.06
307.731	85.06
307.961	75.06
308.191	74.06
308.421	94.06
308.651	84.06
308.881	79.06
309.111	87.06
309.341	86.06
309.571	68.06
309.8	86.06
310.03	76.06
310.26	92.06
310.49	98.06
310.72	76.06
310.949	75.06
311.179	70.06
311.409	100.06
311.639	88.06
311.868	81.06
312.098	73.06
312.328	89.06
312.557	103.06
312.787	85.06
313.017	91.06
313.246	84.06
313.476	80.06
313.706	95.06
313.935	96.06
314.165	80.06
314.394	75.06
314.624	103.06
314.853	96.06
315.083	84.06
315.312	85.06
315.542	91.06
315.771	82.06
316.001	91.06
316.23	87.06
316.46	75.06
316.689	86.06
316.919	88.06
317.148	72.06
317.377	73.06
317.607	86.06
317.836	67.06
318.065	90.06
318.295	92.06
318.524	93.06
318.753	80.06
318.983	82.06
319.212	80.06
319.441	81.06
319.67	82.06
319.9	80.06
320.129	81.06
320.358	77.06
320.587	102.06
320.816	90.06
321.046	100.06
321.275	81.06
321.504	78.06
321.733	80.06
321.962	70.06
322.191	84.06
322.42	93.06
322.649	86.06
322.878	88.06
323.108	92.06
323.337	83.06
323.566	95.06
323.795	78.06
324.024	89.06
324.253	80.06
324.482	80.06
324.71	83.06
324.939	84.06
325.168	78.06
325.397	81.06
325.626	88.06
325.855	86.06
326.084	71.06
326.313	83.06
326.542	65.06
326.77	91.06
326.999	75.06
327.228	78.06
327.457	74.06
327.686	81.06
327.914	77.06
328.143	90.06
328.372	88.06
328.6	89.06
328.829	82.06
329.058	88.06
329.287	92.06
329.515	90.06
329.744	82.06
329.972	93.06
330.201	78.06
330.43	88.06
330.658	89.06
330.887	88.06
331.115	87.06
331.344	92.06
331.572	82.06
331.801	70.06
332.03	95.06
332.258	77.06
332.486	72.06
332.715	70.06
332.943	86.06
333.172	87.06
333.4	83.06
333.629	83.06
333.857	77.06
334.085	75.06
334.314	86.06
334.542	83.06
334.771	92.06
334.999	88.06
335.227	82.06
335.455	85.06
335.684	90.06
335.912	97.06
336.14	87.06
336.369	75.06
336.597	80.06
336.825	83.06
337.053	83.06
337.281	77.06
337.51	73.06
337.738	98.06
337.966	82.06
338.194	92.06
338.422	82.06
338.65	85.06
338.878	85.06
339.106	89.06
339.334	87.06
339.562	90.06
339.79	84.06
340.018	90.06
340.246	88.06
340.474	94.06
340.702	89.06
340.93	85.06
341.158	91.06
341.386	85.06
341.614	77.06
341.842	91.06
342.07	78.06
342.298	87.06
342.526	89.06
342.754	92.06
342.981	87.06
343.209	89.06
343.437	88.06
343.665	88.06
343.893	85.06
344.12	81.06
344.348	80.06
344.576	91.06
344.804	88.06
345.031	91.06
345.259	81.06
345.487	96.06
345.714	77.06
345.942	90.06
346.17	77.06
346.397	86.06
346.625	74.06
346.853	89.06
347.08	80.06
347.308	82.06
347.535	89.06
347.763	105.06
347.99	77.06
348.218	74.06
348.445	78.06
348.673	79.06
348.9	74.06
349.128	88.06
349.355	85.06
349.583	89.06
349.81	78.06
350.037	90.06
350.265	90.06
350.492	88.06
350.72	103.06
350.947	76.06
351.174	84.06
351.402	76.06
351.629	79.06
351.856	84.06
352.083	96.06
352.311	88.06
352.538	86.06
352.765	82.06
352.992	97.06
353.22	76.06
353.447	86.06
353.674	93.06
353.901	70.06
354.128	82.06
354.355	85.06
354.583	90.06
354.81	81.06
355.037	74.06
355.264	86.06
355.491	83.06
355.718	91.06
355.945	87.06
356.172	71.06
356.399	80.06
356.626	66.06
356.853	87.06
357.08	81.06
357.307	75.06
357.534	72.06
357.761	84.06
357.988	86.06
358.215	96.06
358.441	97.06
358.668	93.06
358.895	94.06
359.122	81.06
359.349	82.06
359.576	100.06
359.802	88.06
360.029	64.06
360.256	88.06
360.483	77.06
360.709	75.06
360.936	84.06
361.163	97.06
361.39	89.06
361.616	92.06
361.843	88.06
362.07	80.06
362.296	81.06
362.523	83.06
362.749	77.06
362.976	90.06
363.203	87.06
363.429	82.06
363.656	89.06
363.882	77.06
364.109	98.06
364.335	89.06
364.562	81.06
364.788	85.06
365.015	94.06
365.241	83.06
365.468	75.06
365.694	98.06
365.92	78.06
366.147	84.06
366.373	77.06
366.599	89.06
366.826	84.06
367.052	87.06
367.278	83.06
367.505	85.06
367.731	97.06
367.957	97.06
368.184	93.06
368.41	80.06
368.636	88.06
368.862	97.06
369.089	92.06
369.315	103.06
369.541	92.06
369.767	91.06
369.993	95.06
370.219	112.06
370.445	85.06
370.672	81.06
370.898	79.06
371.124	79.06
371.35	98.06
371.576	87.06
371.802	82.06
372.028	93.06
372.254	91.06
372.48	88.06
372.706	85.06
372.932	102.06
373.158	98.06
373.384	93.06
373.61	90.06
373.835	93.06
374.061	91.06
374.287	87.06
374.513	90.06
374.739	95.06
374.965	92.06
375.191	102.06
375.416	99.06
375.642	89.06
375.868	90.06
376.094	91.06
376.319	81.06
376.545	101.06
376.771	90.06
376.997	88.06
377.222	89.06
377.448	98.06
377.674	85.06
377.899	91.06
378.125	88.06
378.35	98.06
378.576	91.06
378.802	90.06
379.027	96.06
379.253	93.06
379.478	96.06
379.704	92.06
379.929	97.06
380.155	102.06
380.38	96.06
380.606	93.06
380.831	96.06
381.057	100.06
381.282	97.06
381.507	99.06
381.733	102.06
381.958	95.06
382.184	96.06
382.409	94.06
382.634	96.06
382.86	91.06
383.085	95.06
383.31	96.06
383.535	82.06
383.761	99.06
383.986	92.06
384.211	106.06
384.436	90.06
384.662	104.06
384.887	106.06
385.112	77.06
385.337	102.06
385.562	98.06
385.787	102.06
386.013	119.06
386.238	106.06
386.463	88.06
386.688	87.06
386.913	94.06
387.138	105.06
387.363	113.06
387.588	99.06
387.813	105.06
388.038	103.06
388.263	111.06
388.488	98.06
388.713	95.06
388.938	96.06
389.163	104.06
389.387	100.06
389.612	105.06
389.837	98.06
390.062	100.06
390.287	104.06
390.512	116.06
390.736	98.06
390.961	104.06
391.186	107.06
391.411	93.06
391.636	107.06
391.86	87.06
392.085	104.06
392.31	105.06
392.534	96.06
392.759	112.06
392.984	113.06
393.208	102.06
393.433	93.06
393.658	92.06
393.882	96.06
394.107	112.06
394.331	119.06
394.556	106.06
394.78	118.06
395.005	108.06
395.229	101.06
395.454	113.06
395.678	102.06
395.903	101.06
396.127	103.06
396.352	106.06
396.576	104.06
396.801	98.06
397.025	103.06
397.249	93.06
397.474	108.06
397.698	105.06
397.922	121.06
398.147	100.06
398.371	107.06
398.595	115.06
398.82	139.06
399.044	97.06
399.268	103.06
399.492	116.06
399.717	117.06
399.941	115.06
400.165	109.06
400.389	94.06
400.613	100.06
400.837	93.06
401.062	90.06
401.286	109.06
401.51	121.06
401.734	119.06
401.958	115.06
402.182	113.06
402.406	104.06
402.63	115.06
402.854	106.06
403.078	101.06
403.302	125.06
403.526	123.06
403.75	117.06
403.974	123.06
404.198	118.06
404.422	125.06
404.645	106.06
404.869	115.06
405.093	125.06
405.317	128.06
405.541	107.06
405.765	109.06
405.988	118.06
406.212	127.06
406.436	123.06
406.66	123.06
406.883	105.06
407.107	122.06
407.331	112.06
407.555	111.06
407.778	104.06
408.002	121.06
408.226	112.06
408.449	117.06
408.673	114.06
408.896	118.06
409.12	108.06
409.344	121.06
409.567	108.06
409.791	103.06
410.014	115.06
410.238	125.06
410.461	127.06
410.685	127.06
410.908	125.06
411.132	121.06
411.355	130.06
411.578	105.06
411.802	123.06
412.025	116.06
412.249	116.06
412.472	114.06
412.695	127.06
412.919	117.06
413.142	135.06
413.365	119.06
413.589	119.06
413.812	100.06
414.035	115.06
414.258	129.06
414.482	117.06
414.705	123.06
414.928	125.06
415.151	124.06
415.374	128.06
415.597	116.06
415.821	119.06
416.044	113.06
416.267	121.06
416.49	124.06
416.713	127.06
416.936	127.06
417.159	125.06
417.382	139.06
417.605	123.06
417.828	136.06
418.051	126.06
418.274	128.06
418.497	115.06
418.72	122.06
418.943	132.06
419.166	132.06
419.389	134.06
419.611	119.06
419.834	136.06
420.057	138.06
420.28	132.06
420.503	136.06
420.726	129.06
420.948	124.06
421.171	122.06
421.394	132.06
421.617	141.06
421.839	134.06
422.062	143.06
422.285	145.06
422.507	128.06
422.73	120.06
422.953	122.06
423.175	140.06
423.398	129.06
423.621	127.06
423.843	132.06
424.066	134.06
424.288	146.06
424.511	145.06
424.733	153.06
424.956	130.06
425.178	142.06
425.401	133.06
425.623	132.06
425.846	135.06
426.068	123.06
426.291	124.06
426.513	121.06
426.735	128.06
426.958	118.06
427.18	128.06
427.402	129.06
427.625	129.06
427.847	133.06
428.069	137.06
428.292	123.06
428.514	124.06
428.736	118.06
428.958	117.06
429.181	107.06
429.403	110.06
429.625	109.06
429.847	117.06
430.069	123.06
430.292	132.06
430.514	126.06
430.736	123.06
430.958	128.06
431.18	127.06
431.402	119.06
431.624	123.06
431.846	112.06
432.068	94.06
432.29	85.06
432.512	102.06
432.734	127.06
432.956	135.06
433.178	134.06
433.4	130.06
433.622	134.06
433.844	151.06
434.066	127.06
434.287	99.06
434.509	93.06
434.731	101.06
434.953	102.06
435.175	125.06
435.397	132.06
435.618	107.06
435.84	95.06
436.062	115.06
436.284	122.06
436.505	131.06
436.727	144.06
436.949	120.06
437.17	130.06
437.392	127.06
437.614	131.06
437.835	123.06
438.057	116.06
438.278	104.06
438.5	123.06
438.721	131.06
438.943	135.06
439.165	139.06
439.386	136.06
439.608	147.06
439.829	145.06
440.05	148.06
440.272	134.06
440.493	145.06
440.715	144.06
440.936	139.06
441.158	147.06
441.379	137.06
441.6	144.06
441.822	156.06
442.043	150.06
442.264	118.06
442.486	129.06
442.707	128.06
442.928	131.06
443.149	141.06
443.371	133.06
443.592	127.06
443.813	124.06
444.034	131.06
444.255	137.06
444.476	147.06
444.698	129.06
444.919	147.06
445.14	251.06
445.361	214.06
445.582	148.06
445.803	144.06
446.024	142.06
446.245	170.06
446.466	144.06
446.687	152.06
446.908	141.06
447.129	154.06
447.35	158.06
447.571	153.06
447.792	131.06
448.013	157.06
448.234	128.06
448.455	151.06
448.675	140.06
448.896	139.06
449.117	147.06
449.338	125.06
449.559	134.06
449.779	130.06
450	147.06
450.221	141.06
450.442	128.06
450.662	132.06
450.883	139.06
451.104	125.06
451.324	116.06
451.545	133.06
451.766	123.06
451.986	123.06
452.207	126.06
452.428	124.06
452.648	127.06
452.869	119.06
453.089	104.06
453.31	108.06
453.53	126.06
453.751	120.06
453.971	99.06
454.192	95.06
454.412	115.06
454.633	112.06
454.853	124.06
455.073	106.06
455.294	115.06
455.514	119.06
455.734	115.06
455.955	114.06
456.175	106.06
456.395	103.06
456.616	121.06
456.836	96.06
457.056	113.06
457.276	102.06
457.497	107.06
457.717	97.06
457.937	91.06
458.157	111.06
458.377	103.06
458.598	88.06
458.818	89.06
459.038	91.06
459.258	86.06
459.478	106.06
459.698	89.06
459.918	98.06
460.138	123.06
460.358	119.06
460.578	116.06
460.798	122.06
461.018	121.06
461.238	117.06
461.458	121.06
461.678	111.06
461.898	120.06
462.118	110.06
462.338	105.06
462.558	119.06
462.777	114.06
462.997	115.06
463.217	110.06
463.437	109.06
463.657	104.06
463.876	90.06
464.096	106.06
464.316	89.06
464.536	95.06
464.755	99.06
464.975	107.06
465.195	127.06
465.414	119.06
465.634	123.06
465.854	113.06
466.073	114.06
466.293	108.06
466.512	125.06
466.732	127.06
466.951	126.06
467.171	137.06
467.391	122.06
467.61	135.06
467.829	133.06
468.049	127.06
468.268	139.06
468.488	136.06
468.707	127.06
468.927	131.06
469.146	147.06
469.365	131.06
469.585	123.06
469.804	133.06
470.023	137.06
470.243	146.06
470.462	136.06
470.681	135.06
470.901	127.06
471.12	125.06
471.339	136.06
471.558	148.06
471.777	139.06
471.997	115.06
472.216	120.06
472.435	126.06
472.654	107.06
472.873	103.06
473.092	101.06
473.311	124.06
473.53	131.06
473.749	127.06
473.968	123.06
474.187	124.06
474.406	136.06
474.625	131.06
474.844	137.06
475.063	126.06
475.282	131.06
475.501	124.06
475.72	121.06
475.939	120.06
476.158	113.06
476.377	129.06
476.596	125.06
476.814	119.06
477.033	110.06
477.252	120.06
477.471	127.06
477.69	130.06
477.908	141.06
478.127	142.06
478.346	118.06
478.564	135.06
478.783	123.06
479.002	127.06
479.22	127.06
479.439	128.06
479.658	108.06
479.876	110.06
480.095	106.06
480.313	102.06
480.532	117.06
480.751	107.06
480.969	95.06
481.188	91.06
481.406	86.06
481.624	92.06
481.843	80.06
482.061	87.06
482.28	111.06
482.498	107.06
482.717	101.06
482.935	120.06
483.153	123.06
483.372	147.06
483.59	159.06
483.808	138.06
484.027	121.06
484.245	141.06
484.463	143.06
484.681	172.06
484.9	163.06
485.118	132.06
485.336	127.06
485.554	104.06
485.772	104.06
485.99	106.06
486.209	119.06
486.427	94.06
486.645	117.06
486.863	134.06
487.081	150.06
487.299	122.06
487.517	145.06
487.735	161.06
487.953	186.06
488.171	156.06
488.389	156.06
488.607	160.06
488.825	147.06
489.043	140.06
489.261	132.06
489.479	151.06
489.696	139.06
489.914	139.06
490.132	138.06
490.35	144.06
490.568	153.06
490.786	172.06
491.003	175.06
491.221	165.06
491.439	187.06
491.657	187.06
491.874	203.06
492.092	215.06
492.31	236.06
492.527	211.06
492.745	205.06
492.963	183.06
493.18	180.06
493.398	170.06
493.615	154.06
493.833	159.06
494.05	162.06
494.268	167.06
494.485	164.06
494.703	155.06
494.92	172.06
495.138	168.06
495.355	179.06
495.573	161.06
495.79	161.06
496.008	147.06
496.225	167.06
496.442	171.06
496.66	164.06
496.877	144.06
497.094	161.06
497.312	145.06
497.529	161.06
497.746	135.06
497.963	151.06
498.181	143.06
498.398	129.06
498.615	121.06
498.832	123.06
499.049	124.06
499.267	119.06
499.484	139.06
499.701	133.06
499.918	130.06
500.135	131.06
500.352	124.06
500.569	118.06
500.786	147.06
501.003	143.06
501.22	138.06
501.437	133.06
501.654	117.06
501.871	123.06
502.088	104.06
502.305	135.06
502.522	125.06
502.739	127.06
502.956	114.06
503.172	130.06
503.389	121.06
503.606	129.06
503.823	113.06
504.04	131.06
504.256	112.06
504.473	118.06
504.69	122.06
504.907	125.06
505.123	123.06
505.34	107.06
505.557	128.06
505.773	123.06
505.99	108.06
506.207	111.06
506.423	121.06
506.64	122.06
506.856	128.06
507.073	111.06
507.289	127.06
507.506	116.06
507.722	119.06
507.939	104.06
508.155	117.06
508.372	120.06
508.588	116.06
508.805	115.06
509.021	92.06
509.238	112.06
509.454	95.06
509.67	102.06
509.887	99.06
510.103	90.06
510.319	113.06
510.536	89.06
510.752	99.06
510.968	77.06
511.184	90.06
511.401	92.06
511.617	80.06
