Data from 1980.PennyLincolnUp.Lamp.En5.5.200Scan.071819.P1_HRD10591_16-35-45-956.txt Node
Date: Thu Jul 18 16:35:45 EDT 2019
User: cochatt
Spectrometer: HR+D1059
Trigger mode: 1
Integration Time (sec): 1.000000E-1
Scans to average: 1
Electric dark correction enabled: true
Nonlinearity correction enabled: false
Boxcar width: 0
XAxis mode: Wavelengths
Number of Pixels in Spectrum: 2048
>>>>>Begin Spectral Data<<<<<
223.165	-21.75
223.4	-21.75
223.635	-21.75
223.869	-9.75
224.104	-11.75
224.338	-10.75
224.573	-21.75
224.808	-8.75
225.042	-2.75
225.277	-8.75
225.511	-12.75
225.746	9.25
225.98	24.25
226.215	-5.75
226.449	16.25
226.683	12.25
226.918	18.25
227.152	34.25
227.387	39.25
227.621	39.25
227.856	41.25
228.09	56.25
228.324	45.25
228.559	56.25
228.793	56.25
229.027	76.25
229.262	85.25
229.496	106.25
229.73	101.25
229.964	125.25
230.199	115.25
230.433	103.25
230.667	107.25
230.901	100.25
231.136	107.25
231.37	107.25
231.604	103.25
231.838	106.25
232.072	103.25
232.306	105.25
232.541	103.25
232.775	123.25
233.009	103.25
233.243	101.25
233.477	103.25
233.711	99.25
233.945	115.25
234.179	102.25
234.413	100.25
234.647	116.25
234.881	109.25
235.115	104.25
235.349	105.25
235.583	121.25
235.817	109.25
236.051	122.25
236.285	111.25
236.519	131.25
236.753	116.25
236.987	135.25
237.221	178.25
237.455	201.25
237.689	174.25
237.922	127.25
238.156	119.25
238.39	106.25
238.624	106.25
238.858	120.25
239.091	115.25
239.325	115.25
239.559	108.25
239.793	118.25
240.027	126.25
240.26	122.25
240.494	129.25
240.728	139.25
240.961	120.25
241.195	134.25
241.429	118.25
241.662	110.25
241.896	116.25
242.13	132.25
242.363	126.25
242.597	108.25
242.83	116.25
243.064	116.25
243.298	134.25
243.531	141.25
243.765	130.25
243.998	124.25
244.232	134.25
244.465	134.25
244.699	127.25
244.932	132.25
245.166	140.25
245.399	138.25
245.633	133.25
245.866	136.25
246.099	134.25
246.333	130.25
246.566	140.25
246.8	136.25
247.033	136.25
247.266	137.25
247.5	147.25
247.733	150.25
247.966	167.25
248.2	155.25
248.433	148.25
248.666	165.25
248.899	144.25
249.133	182.25
249.366	195.25
249.599	191.25
249.832	164.25
250.066	163.25
250.299	176.25
250.532	167.25
250.765	167.25
250.998	202.25
251.231	212.25
251.465	194.25
251.698	196.25
251.931	198.25
252.164	183.25
252.397	187.25
252.63	184.25
252.863	194.25
253.096	190.25
253.329	200.25
253.562	194.25
253.795	190.25
254.028	206.25
254.261	207.25
254.494	207.25
254.727	221.25
254.96	252.25
255.193	237.25
255.426	228.25
255.659	208.25
255.892	190.25
256.124	204.25
256.357	188.25
256.59	202.25
256.823	194.25
257.056	175.25
257.289	191.25
257.521	197.25
257.754	173.25
257.987	197.25
258.22	185.25
258.452	175.25
258.685	180.25
258.918	183.25
259.151	179.25
259.383	188.25
259.616	187.25
259.849	184.25
260.081	196.25
260.314	204.25
260.547	218.25
260.779	202.25
261.012	208.25
261.244	198.25
261.477	185.25
261.71	188.25
261.942	181.25
262.175	198.25
262.407	174.25
262.64	184.25
262.872	182.25
263.105	173.25
263.337	182.25
263.57	185.25
263.802	183.25
264.035	171.25
264.267	187.25
264.499	165.25
264.732	182.25
264.964	182.25
265.197	175.25
265.429	172.25
265.661	159.25
265.894	164.25
266.126	172.25
266.358	189.25
266.591	168.25
266.823	181.25
267.055	183.25
267.287	178.25
267.52	182.25
267.752	191.25
267.984	194.25
268.216	184.25
268.448	193.25
268.681	196.25
268.913	212.25
269.145	224.25
269.377	222.25
269.609	214.25
269.841	220.25
270.073	217.25
270.306	244.25
270.538	238.25
270.77	258.25
271.002	242.25
271.234	250.25
271.466	228.25
271.698	247.25
271.93	258.25
272.162	261.25
272.394	277.25
272.626	252.25
272.858	234.25
273.09	220.25
273.322	229.25
273.553	227.25
273.785	206.25
274.017	200.25
274.249	218.25
274.481	229.25
274.713	227.25
274.945	202.25
275.176	200.25
275.408	222.25
275.64	205.25
275.872	221.25
276.104	209.25
276.335	198.25
276.567	207.25
276.799	220.25
277.031	231.25
277.262	235.25
277.494	247.25
277.726	249.25
277.957	242.25
278.189	222.25
278.421	219.25
278.652	223.25
278.884	225.25
279.115	205.25
279.347	215.25
279.579	225.25
279.81	222.25
280.042	221.25
280.273	208.25
280.505	213.25
280.736	216.25
280.968	216.25
281.199	191.25
281.431	204.25
281.662	202.25
281.894	201.25
282.125	212.25
282.356	205.25
282.588	225.25
282.819	226.25
283.051	205.25
283.282	214.25
283.513	206.25
283.745	218.25
283.976	218.25
284.207	220.25
284.439	211.25
284.67	215.25
284.901	215.25
285.132	214.25
285.364	223.25
285.595	207.25
285.826	193.25
286.057	195.25
286.288	200.25
286.52	203.25
286.751	224.25
286.982	214.25
287.213	213.25
287.444	221.25
287.675	216.25
287.906	212.25
288.138	230.25
288.369	215.25
288.6	223.25
288.831	228.25
289.062	212.25
289.293	203.25
289.524	215.25
289.755	222.25
289.986	214.25
290.217	214.25
290.448	199.25
290.679	206.25
290.91	220.25
291.141	220.25
291.371	195.25
291.602	210.25
291.833	210.25
292.064	223.25
292.295	199.25
292.526	221.25
292.757	212.25
292.987	210.25
293.218	228.25
293.449	218.25
293.68	203.25
293.91	220.25
294.141	212.25
294.372	217.25
294.603	222.25
294.833	216.25
295.064	208.25
295.295	227.25
295.525	226.25
295.756	232.25
295.987	218.25
296.217	235.25
296.448	258.25
296.679	228.25
296.909	209.25
297.14	206.25
297.37	222.25
297.601	219.25
297.831	200.25
298.062	220.25
298.292	227.25
298.523	242.25
298.753	228.25
298.984	223.25
299.214	207.25
299.445	216.25
299.675	228.25
299.905	236.25
300.136	223.25
300.366	238.25
300.597	216.25
300.827	221.25
301.057	224.25
301.288	226.25
301.518	244.25
301.748	250.25
301.979	226.25
302.209	220.25
302.439	232.25
302.669	225.25
302.9	242.25
303.13	235.25
303.36	233.25
303.59	246.25
303.82	230.25
304.051	230.25
304.281	238.25
304.511	239.25
304.741	227.25
304.971	231.25
305.201	227.25
305.431	234.25
305.661	238.25
305.891	245.25
306.121	241.25
306.352	246.25
306.582	232.25
306.812	238.25
307.042	232.25
307.272	234.25
307.502	237.25
307.731	246.25
307.961	258.25
308.191	255.25
308.421	232.25
308.651	248.25
308.881	249.25
309.111	252.25
309.341	244.25
309.571	260.25
309.8	263.25
310.03	292.25
310.26	258.25
310.49	267.25
310.72	286.25
310.949	272.25
311.179	290.25
311.409	265.25
311.639	285.25
311.868	269.25
312.098	292.25
312.328	302.25
312.557	276.25
312.787	291.25
313.017	291.25
313.246	281.25
313.476	270.25
313.706	281.25
313.935	267.25
314.165	292.25
314.394	295.25
314.624	295.25
314.853	270.25
315.083	271.25
315.312	262.25
315.542	264.25
315.771	266.25
316.001	256.25
316.23	257.25
316.46	271.25
316.689	265.25
316.919	268.25
317.148	293.25
317.377	269.25
317.607	259.25
317.836	266.25
318.065	261.25
318.295	274.25
318.524	275.25
318.753	262.25
318.983	266.25
319.212	260.25
319.441	278.25
319.67	283.25
319.9	270.25
320.129	278.25
320.358	270.25
320.587	272.25
320.816	293.25
321.046	284.25
321.275	309.25
321.504	290.25
321.733	290.25
321.962	310.25
322.191	283.25
322.42	308.25
322.649	314.25
322.878	344.25
323.108	360.25
323.337	340.25
323.566	364.25
323.795	391.25
324.024	424.25
324.253	515.25
324.482	698.25
324.71	1064.25
324.939	1516.25
325.168	1338.25
325.397	750.25
325.626	502.25
325.855	398.25
326.084	391.25
326.313	375.25
326.542	380.25
326.77	420.25
326.999	454.25
327.228	634.25
327.457	953.25
327.686	1127.25
327.914	818.25
328.143	544.25
328.372	472.25
328.6	426.25
328.829	414.25
329.058	413.25
329.287	444.25
329.515	434.25
329.744	373.25
329.972	355.25
330.201	359.25
330.43	395.25
330.658	408.25
330.887	443.25
331.115	450.25
331.344	372.25
331.572	343.25
331.801	346.25
332.03	366.25
332.258	334.25
332.486	312.25
332.715	314.25
332.943	324.25
333.172	301.25
333.4	329.25
333.629	310.25
333.857	340.25
334.085	320.25
334.314	328.25
334.542	339.25
334.771	332.25
334.999	327.25
335.227	319.25
335.455	330.25
335.684	299.25
335.912	325.25
336.14	298.25
336.369	294.25
336.597	325.25
336.825	295.25
337.053	317.25
337.281	310.25
337.51	316.25
337.738	288.25
337.966	304.25
338.194	299.25
338.422	313.25
338.65	302.25
338.878	299.25
339.106	295.25
339.334	307.25
339.562	291.25
339.79	303.25
340.018	308.25
340.246	306.25
340.474	310.25
340.702	302.25
340.93	270.25
341.158	292.25
341.386	310.25
341.614	296.25
341.842	294.25
342.07	286.25
342.298	303.25
342.526	298.25
342.754	300.25
342.981	283.25
343.209	269.25
343.437	310.25
343.665	287.25
343.893	278.25
344.12	303.25
344.348	300.25
344.576	276.25
344.804	309.25
345.031	290.25
345.259	320.25
345.487	322.25
345.714	297.25
345.942	293.25
346.17	298.25
346.397	280.25
346.625	286.25
346.853	285.25
347.08	259.25
347.308	290.25
347.535	287.25
347.763	311.25
347.99	321.25
348.218	290.25
348.445	310.25
348.673	307.25
348.9	282.25
349.128	298.25
349.355	280.25
349.583	284.25
349.81	271.25
350.037	277.25
350.265	293.25
350.492	276.25
350.72	277.25
350.947	282.25
351.174	300.25
351.402	315.25
351.629	297.25
351.856	317.25
352.083	314.25
352.311	308.25
352.538	315.25
352.765	333.25
352.992	297.25
353.22	281.25
353.447	294.25
353.674	277.25
353.901	279.25
354.128	293.25
354.355	276.25
354.583	277.25
354.81	261.25
355.037	268.25
355.264	268.25
355.491	262.25
355.718	270.25
355.945	284.25
356.172	286.25
356.399	278.25
356.626	263.25
356.853	281.25
357.08	298.25
357.307	279.25
357.534	300.25
357.761	271.25
357.988	280.25
358.215	275.25
358.441	269.25
358.668	270.25
358.895	281.25
359.122	265.25
359.349	293.25
359.576	313.25
359.802	306.25
360.029	333.25
360.256	342.25
360.483	333.25
360.709	304.25
360.936	310.25
361.163	289.25
361.39	278.25
361.616	294.25
361.843	291.25
362.07	292.25
362.296	307.25
362.523	282.25
362.749	291.25
362.976	288.25
363.203	274.25
363.429	278.25
363.656	283.25
363.882	271.25
364.109	281.25
364.335	276.25
364.562	283.25
364.788	293.25
365.015	262.25
365.241	269.25
365.468	285.25
365.694	284.25
365.92	295.25
366.147	253.25
366.373	288.25
366.599	284.25
366.826	275.25
367.052	270.25
367.278	271.25
367.505	290.25
367.731	277.25
367.957	285.25
368.184	268.25
368.41	278.25
368.636	292.25
368.862	290.25
369.089	284.25
369.315	272.25
369.541	295.25
369.767	269.25
369.993	286.25
370.219	287.25
370.445	265.25
370.672	269.25
370.898	264.25
371.124	281.25
371.35	272.25
371.576	274.25
371.802	272.25
372.028	280.25
372.254	263.25
372.48	283.25
372.706	273.25
372.932	273.25
373.158	264.25
373.384	277.25
373.61	283.25
373.835	271.25
374.061	281.25
374.287	272.25
374.513	277.25
374.739	279.25
374.965	268.25
375.191	279.25
375.416	264.25
375.642	297.25
375.868	288.25
376.094	292.25
376.319	280.25
376.545	255.25
376.771	259.25
376.997	267.25
377.222	279.25
377.448	257.25
377.674	275.25
377.899	251.25
378.125	269.25
378.35	281.25
378.576	279.25
378.802	276.25
379.027	271.25
379.253	286.25
379.478	272.25
379.704	276.25
379.929	290.25
380.155	269.25
380.38	260.25
380.606	269.25
380.831	270.25
381.057	288.25
381.282	273.25
381.507	292.25
381.733	280.25
381.958	258.25
382.184	295.25
382.409	275.25
382.634	268.25
382.86	282.25
383.085	277.25
383.31	266.25
383.535	290.25
383.761	289.25
383.986	277.25
384.211	281.25
384.436	284.25
384.662	277.25
384.887	312.25
385.112	283.25
385.337	289.25
385.562	282.25
385.787	298.25
386.013	302.25
386.238	294.25
386.463	286.25
386.688	292.25
386.913	286.25
387.138	278.25
387.363	287.25
387.588	292.25
387.813	287.25
388.038	272.25
388.263	292.25
388.488	293.25
388.713	282.25
388.938	290.25
389.163	287.25
389.387	278.25
389.612	266.25
389.837	281.25
390.062	292.25
390.287	284.25
390.512	270.25
390.736	278.25
390.961	287.25
391.186	297.25
391.411	272.25
391.636	291.25
391.86	278.25
392.085	310.25
392.31	279.25
392.534	298.25
392.759	284.25
392.984	275.25
393.208	299.25
393.433	314.25
393.658	306.25
393.882	299.25
394.107	289.25
394.331	267.25
394.556	262.25
394.78	278.25
395.005	288.25
395.229	271.25
395.454	278.25
395.678	292.25
395.903	276.25
396.127	306.25
396.352	333.25
396.576	301.25
396.801	309.25
397.025	326.25
397.249	309.25
397.474	294.25
397.698	298.25
397.922	312.25
398.147	309.25
398.371	320.25
398.595	304.25
398.82	294.25
399.044	312.25
399.268	317.25
399.492	331.25
399.717	336.25
399.941	336.25
400.165	371.25
400.389	394.25
400.613	349.25
400.837	329.25
401.062	331.25
401.286	299.25
401.51	310.25
401.734	323.25
401.958	331.25
402.182	319.25
402.406	314.25
402.63	326.25
402.854	320.25
403.078	324.25
403.302	331.25
403.526	332.25
403.75	335.25
403.974	318.25
404.198	333.25
404.422	324.25
404.645	322.25
404.869	320.25
405.093	349.25
405.317	373.25
405.541	378.25
405.765	354.25
405.988	335.25
406.212	346.25
406.436	348.25
406.66	386.25
406.883	360.25
407.107	372.25
407.331	405.25
407.555	430.25
407.778	444.25
408.002	412.25
408.226	359.25
408.449	366.25
408.673	374.25
408.896	376.25
409.12	401.25
409.344	386.25
409.567	358.25
409.791	352.25
410.014	327.25
410.238	332.25
410.461	326.25
410.685	333.25
410.908	355.25
411.132	373.25
411.355	380.25
411.578	363.25
411.802	350.25
412.025	328.25
412.249	340.25
412.472	334.25
412.695	359.25
412.919	350.25
413.142	304.25
413.365	309.25
413.589	310.25
413.812	311.25
414.035	304.25
414.258	316.25
414.482	309.25
414.705	298.25
414.928	314.25
415.151	300.25
415.374	310.25
415.597	325.25
415.821	306.25
416.044	301.25
416.267	317.25
416.49	319.25
416.713	302.25
416.936	310.25
417.159	303.25
417.382	320.25
417.605	306.25
417.828	318.25
418.051	338.25
418.274	341.25
418.497	317.25
418.72	328.25
418.943	311.25
419.166	301.25
419.389	347.25
419.611	339.25
419.834	339.25
420.057	344.25
420.28	327.25
420.503	315.25
420.726	303.25
420.948	328.25
421.171	368.25
421.394	388.25
421.617	367.25
421.839	327.25
422.062	327.25
422.285	355.25
422.507	397.25
422.73	442.25
422.953	431.25
423.175	375.25
423.398	363.25
423.621	356.25
423.843	364.25
424.066	371.25
424.288	382.25
424.511	389.25
424.733	426.25
424.956	474.25
425.178	456.25
425.401	437.25
425.623	459.25
425.846	406.25
426.068	394.25
426.291	367.25
426.513	366.25
426.735	389.25
426.958	410.25
427.18	465.25
427.402	523.25
427.625	570.25
427.847	526.25
428.069	463.25
428.292	406.25
428.514	364.25
428.736	370.25
428.958	356.25
429.181	351.25
429.403	365.25
429.625	355.25
429.847	378.25
430.069	421.25
430.292	423.25
430.514	369.25
430.736	346.25
430.958	337.25
431.18	337.25
431.402	311.25
431.624	316.25
431.846	319.25
432.068	322.25
432.29	320.25
432.512	318.25
432.734	324.25
432.956	312.25
433.178	309.25
433.4	336.25
433.622	336.25
433.844	308.25
434.066	326.25
434.287	308.25
434.509	325.25
434.731	308.25
434.953	325.25
435.175	343.25
435.397	347.25
435.618	379.25
435.84	404.25
436.062	466.25
436.284	502.25
436.505	435.25
436.727	359.25
436.949	360.25
437.17	336.25
437.392	354.25
437.614	373.25
437.835	385.25
438.057	440.25
438.278	512.25
438.5	516.25
438.721	560.25
438.943	519.25
439.165	436.25
439.386	415.25
439.608	392.25
439.829	395.25
440.05	382.25
440.272	420.25
440.493	413.25
440.715	383.25
440.936	361.25
441.158	348.25
441.379	335.25
441.6	379.25
441.822	344.25
442.043	404.25
442.264	452.25
442.486	485.25
442.707	412.25
442.928	378.25
443.149	375.25
443.371	378.25
443.592	426.25
443.813	471.25
444.034	521.25
444.255	432.25
444.476	383.25
444.698	364.25
444.919	358.25
445.14	462.25
445.361	392.25
445.582	410.25
445.803	435.25
446.024	511.25
446.245	531.25
446.466	496.25
446.687	430.25
446.908	373.25
447.129	364.25
447.35	367.25
447.571	351.25
447.792	336.25
448.013	362.25
448.234	354.25
448.455	414.25
448.675	466.25
448.896	560.25
449.117	484.25
449.338	454.25
449.559	503.25
449.779	534.25
450	472.25
450.221	395.25
450.442	340.25
450.662	353.25
450.883	332.25
451.104	374.25
451.324	357.25
451.545	325.25
451.766	331.25
451.986	307.25
452.207	288.25
452.428	309.25
452.648	309.25
452.869	298.25
453.089	320.25
453.31	309.25
453.53	290.25
453.751	306.25
453.971	315.25
454.192	308.25
454.412	319.25
454.633	324.25
454.853	308.25
455.073	299.25
455.294	324.25
455.514	371.25
455.734	382.25
455.955	315.25
456.175	308.25
456.395	275.25
456.616	276.25
456.836	295.25
457.056	312.25
457.276	278.25
457.497	297.25
457.717	284.25
457.937	290.25
458.157	287.25
458.377	322.25
458.598	313.25
458.818	357.25
459.038	418.25
459.258	408.25
459.478	360.25
459.698	310.25
459.918	321.25
460.138	317.25
460.358	316.25
460.578	310.25
460.798	280.25
461.018	303.25
461.238	316.25
461.458	318.25
461.678	301.25
461.898	299.25
462.118	312.25
462.338	311.25
462.558	314.25
462.777	308.25
462.997	326.25
463.217	308.25
463.437	327.25
463.657	327.25
463.876	304.25
464.096	339.25
464.316	338.25
464.536	322.25
464.755	319.25
464.975	338.25
465.195	376.25
465.414	424.25
465.634	377.25
465.854	350.25
466.073	333.25
466.293	333.25
466.512	324.25
466.732	313.25
466.951	310.25
467.171	298.25
467.391	284.25
467.61	324.25
467.829	326.25
468.049	316.25
468.268	304.25
468.488	308.25
468.707	316.25
468.927	284.25
469.146	306.25
469.365	317.25
469.585	295.25
469.804	325.25
470.023	313.25
470.243	294.25
470.462	321.25
470.681	330.25
470.901	329.25
471.12	316.25
471.339	314.25
471.558	328.25
471.777	333.25
471.997	326.25
472.216	308.25
472.435	301.25
472.654	314.25
472.873	330.25
473.092	315.25
473.311	324.25
473.53	316.25
473.749	338.25
473.968	360.25
474.187	422.25
474.406	457.25
474.625	382.25
474.844	334.25
475.063	323.25
475.282	321.25
475.501	319.25
475.72	326.25
475.939	332.25
476.158	336.25
476.377	328.25
476.596	298.25
476.814	324.25
477.033	327.25
477.252	364.25
477.471	338.25
477.69	325.25
477.908	343.25
478.127	339.25
478.346	325.25
478.564	332.25
478.783	339.25
479.002	351.25
479.22	378.25
479.439	338.25
479.658	386.25
479.876	386.25
480.095	391.25
480.313	389.25
480.532	391.25
480.751	373.25
480.969	376.25
481.188	398.25
481.406	420.25
481.624	395.25
481.843	367.25
482.061	378.25
482.28	388.25
482.498	383.25
482.717	386.25
482.935	373.25
483.153	388.25
483.372	384.25
483.59	356.25
483.808	360.25
484.027	363.25
484.245	359.25
484.463	368.25
484.681	388.25
484.9	371.25
485.118	382.25
485.336	377.25
485.554	388.25
485.772	395.25
485.99	383.25
486.209	400.25
486.427	394.25
486.645	394.25
486.863	404.25
487.081	428.25
487.299	394.25
487.517	401.25
487.735	405.25
487.953	400.25
488.171	398.25
488.389	378.25
488.607	403.25
488.825	409.25
489.043	392.25
489.261	402.25
489.479	394.25
489.696	414.25
489.914	404.25
490.132	403.25
490.35	421.25
490.568	450.25
490.786	436.25
491.003	443.25
491.221	447.25
491.439	438.25
491.657	444.25
491.874	457.25
492.092	456.25
492.31	472.25
492.527	467.25
492.745	472.25
492.963	469.25
493.18	465.25
493.398	475.25
493.615	464.25
493.833	473.25
494.05	492.25
494.268	470.25
494.485	494.25
494.703	490.25
494.92	470.25
495.138	476.25
495.355	464.25
495.573	486.25
495.79	486.25
496.008	498.25
496.225	477.25
496.442	495.25
496.66	490.25
496.877	480.25
497.094	499.25
497.312	485.25
497.529	512.25
497.746	514.25
497.963	503.25
498.181	516.25
498.398	515.25
498.615	523.25
498.832	504.25
499.049	523.25
499.267	526.25
499.484	550.25
499.701	558.25
499.918	542.25
500.135	563.25
500.352	569.25
500.569	594.25
500.786	586.25
501.003	574.25
501.22	607.25
501.437	587.25
501.654	580.25
501.871	576.25
502.088	580.25
