Data from 1980.PennyLincolnUp.Lamp.En5.5.200Scan.071819.P1_HRD10591_16-38-22-957.txt Node
Date: Thu Jul 18 16:38:22 EDT 2019
User: cochatt
Spectrometer: HR+D1059
Trigger mode: 1
Integration Time (sec): 1.000000E-1
Scans to average: 1
Electric dark correction enabled: true
Nonlinearity correction enabled: false
Boxcar width: 0
XAxis mode: Wavelengths
Number of Pixels in Spectrum: 2048
>>>>>Begin Spectral Data<<<<<
223.165	-24.31
223.4	-24.31
223.635	-24.31
223.869	-4.31
224.104	-4.31
224.338	-20.31
224.573	-26.31
224.808	-9.31
225.042	-4.31
225.277	-3.31
225.511	-12.31
225.746	0.69
225.98	3.69
226.215	12.69
226.449	0.69
226.683	31.69
226.918	20.69
227.152	38.69
227.387	22.69
227.621	37.69
227.856	53.69
228.09	36.69
228.324	57.69
228.559	55.69
228.793	68.69
229.027	114.69
229.262	112.69
229.496	111.69
229.73	141.69
229.964	180.69
230.199	142.69
230.433	117.69
230.667	115.69
230.901	117.69
231.136	108.69
231.37	111.69
231.604	121.69
231.838	99.69
232.072	113.69
232.306	108.69
232.541	107.69
232.775	114.69
233.009	125.69
233.243	105.69
233.477	117.69
233.711	104.69
233.945	111.69
234.179	133.69
234.413	115.69
234.647	121.69
234.881	120.69
235.115	114.69
235.349	125.69
235.583	125.69
235.817	113.69
236.051	136.69
236.285	123.69
236.519	127.69
236.753	131.69
236.987	136.69
237.221	196.69
237.455	243.69
237.689	207.69
237.922	152.69
238.156	138.69
238.39	125.69
238.624	129.69
238.858	124.69
239.091	120.69
239.325	118.69
239.559	127.69
239.793	130.69
240.027	144.69
240.26	145.69
240.494	148.69
240.728	160.69
240.961	156.69
241.195	152.69
241.429	153.69
241.662	138.69
241.896	144.69
242.13	125.69
242.363	139.69
242.597	142.69
242.83	141.69
243.064	155.69
243.298	131.69
243.531	159.69
243.765	138.69
243.998	147.69
244.232	151.69
244.465	159.69
244.699	161.69
244.932	140.69
245.166	156.69
245.399	135.69
245.633	132.69
245.866	123.69
246.099	135.69
246.333	152.69
246.566	144.69
246.8	141.69
247.033	136.69
247.266	164.69
247.5	169.69
247.733	173.69
247.966	181.69
248.2	163.69
248.433	172.69
248.666	181.69
248.899	212.69
249.133	195.69
249.366	214.69
249.599	212.69
249.832	195.69
250.066	192.69
250.299	190.69
250.532	211.69
250.765	200.69
250.998	228.69
251.231	238.69
251.465	226.69
251.698	228.69
251.931	204.69
252.164	202.69
252.397	203.69
252.63	224.69
252.863	210.69
253.096	213.69
253.329	262.69
253.562	241.69
253.795	230.69
254.028	225.69
254.261	229.69
254.494	237.69
254.727	262.69
254.96	299.69
255.193	288.69
255.426	271.69
255.659	268.69
255.892	250.69
256.124	274.69
256.357	218.69
256.59	229.69
256.823	236.69
257.056	215.69
257.289	228.69
257.521	221.69
257.754	200.69
257.987	210.69
258.22	220.69
258.452	196.69
258.685	212.69
258.918	224.69
259.151	208.69
259.383	235.69
259.616	213.69
259.849	236.69
260.081	248.69
260.314	256.69
260.547	265.69
260.779	261.69
261.012	247.69
261.244	235.69
261.477	235.69
261.71	236.69
261.942	238.69
262.175	252.69
262.407	265.69
262.64	228.69
262.872	204.69
263.105	215.69
263.337	213.69
263.57	214.69
263.802	205.69
264.035	209.69
264.267	199.69
264.499	200.69
264.732	210.69
264.964	219.69
265.197	214.69
265.429	211.69
265.661	206.69
265.894	205.69
266.126	222.69
266.358	216.69
266.591	206.69
266.823	220.69
267.055	224.69
267.287	217.69
267.52	226.69
267.752	227.69
267.984	232.69
268.216	205.69
268.448	222.69
268.681	245.69
268.913	251.69
269.145	270.69
269.377	270.69
269.609	293.69
269.841	263.69
270.073	267.69
270.306	311.69
270.538	351.69
270.77	342.69
271.002	311.69
271.234	313.69
271.466	309.69
271.698	322.69
271.93	332.69
272.162	329.69
272.394	322.69
272.626	328.69
272.858	304.69
273.09	323.69
273.322	300.69
273.553	260.69
273.785	288.69
274.017	281.69
274.249	265.69
274.481	253.69
274.713	274.69
274.945	276.69
275.176	257.69
275.408	261.69
275.64	274.69
275.872	265.69
276.104	257.69
276.335	287.69
276.567	266.69
276.799	283.69
277.031	300.69
277.262	321.69
277.494	331.69
277.726	335.69
277.957	289.69
278.189	292.69
278.421	287.69
278.652	281.69
278.884	265.69
279.115	264.69
279.347	261.69
279.579	232.69
279.81	239.69
280.042	246.69
280.273	241.69
280.505	243.69
280.736	257.69
280.968	272.69
281.199	260.69
281.431	268.69
281.662	262.69
281.894	268.69
282.125	276.69
282.356	272.69
282.588	303.69
282.819	303.69
283.051	279.69
283.282	269.69
283.513	257.69
283.745	274.69
283.976	269.69
284.207	265.69
284.439	267.69
284.67	272.69
284.901	256.69
285.132	283.69
285.364	266.69
285.595	259.69
285.826	268.69
286.057	264.69
286.288	268.69
286.52	266.69
286.751	272.69
286.982	249.69
287.213	281.69
287.444	266.69
287.675	277.69
287.906	291.69
288.138	285.69
288.369	295.69
288.6	296.69
288.831	281.69
289.062	280.69
289.293	277.69
289.524	264.69
289.755	269.69
289.986	295.69
290.217	275.69
290.448	288.69
290.679	272.69
290.91	278.69
291.141	267.69
291.371	260.69
291.602	247.69
291.833	279.69
292.064	269.69
292.295	263.69
292.526	283.69
292.757	279.69
292.987	251.69
293.218	276.69
293.449	261.69
293.68	275.69
293.91	259.69
294.141	269.69
294.372	263.69
294.603	275.69
294.833	276.69
295.064	264.69
295.295	280.69
295.525	263.69
295.756	268.69
295.987	293.69
296.217	324.69
296.448	348.69
296.679	281.69
296.909	284.69
297.14	272.69
297.37	281.69
297.601	276.69
297.831	277.69
298.062	274.69
298.292	283.69
298.523	262.69
298.753	290.69
298.984	283.69
299.214	288.69
299.445	281.69
299.675	285.69
299.905	294.69
300.136	285.69
300.366	296.69
300.597	291.69
300.827	284.69
301.057	311.69
301.288	303.69
301.518	316.69
301.748	291.69
301.979	279.69
302.209	323.69
302.439	295.69
302.669	297.69
302.9	293.69
303.13	317.69
303.36	320.69
303.59	317.69
303.82	325.69
304.051	316.69
304.281	307.69
304.511	302.69
304.741	298.69
304.971	298.69
305.201	301.69
305.431	306.69
305.661	295.69
305.891	288.69
306.121	312.69
306.352	299.69
306.582	303.69
306.812	308.69
307.042	293.69
307.272	319.69
307.502	305.69
307.731	309.69
307.961	307.69
308.191	306.69
308.421	327.69
308.651	323.69
308.881	321.69
309.111	317.69
309.341	305.69
309.571	327.69
309.8	341.69
310.03	356.69
310.26	374.69
310.49	371.69
310.72	364.69
310.949	385.69
311.179	399.69
311.409	370.69
311.639	371.69
311.868	375.69
312.098	365.69
312.328	387.69
312.557	389.69
312.787	403.69
313.017	409.69
313.246	371.69
313.476	387.69
313.706	349.69
313.935	363.69
314.165	380.69
314.394	387.69
314.624	381.69
314.853	369.69
315.083	373.69
315.312	360.69
315.542	357.69
315.771	347.69
316.001	335.69
316.23	347.69
316.46	380.69
316.689	351.69
316.919	369.69
317.148	401.69
317.377	370.69
317.607	376.69
317.836	372.69
318.065	358.69
318.295	358.69
318.524	356.69
318.753	354.69
318.983	354.69
319.212	347.69
319.441	379.69
319.67	367.69
319.9	351.69
320.129	368.69
320.358	357.69
320.587	368.69
320.816	367.69
321.046	363.69
321.275	378.69
321.504	367.69
321.733	379.69
321.962	371.69
322.191	391.69
322.42	447.69
322.649	458.69
322.878	465.69
323.108	476.69
323.337	503.69
323.566	501.69
323.795	559.69
324.024	630.69
324.253	769.69
324.482	1092.69
324.71	1693.69
324.939	2424.69
325.168	2193.69
325.397	1155.69
325.626	757.69
325.855	585.69
326.084	573.69
326.313	540.69
326.542	503.69
326.77	587.69
326.999	708.69
327.228	972.69
327.457	1493.69
327.686	1892.69
327.914	1287.69
328.143	832.69
328.372	697.69
328.6	661.69
328.829	626.69
329.058	616.69
329.287	654.69
329.515	597.69
329.744	536.69
329.972	547.69
330.201	570.69
330.43	602.69
330.658	632.69
330.887	705.69
331.115	632.69
331.344	556.69
331.572	493.69
331.801	465.69
332.03	499.69
332.258	475.69
332.486	445.69
332.715	418.69
332.943	424.69
333.172	416.69
333.4	419.69
333.629	435.69
333.857	459.69
334.085	458.69
334.314	501.69
334.542	529.69
334.771	554.69
334.999	488.69
335.227	460.69
335.455	450.69
335.684	423.69
335.912	419.69
336.14	404.69
336.369	423.69
336.597	421.69
336.825	421.69
337.053	412.69
337.281	406.69
337.51	410.69
337.738	424.69
337.966	411.69
338.194	417.69
338.422	433.69
338.65	421.69
338.878	421.69
339.106	403.69
339.334	395.69
339.562	417.69
339.79	410.69
340.018	389.69
340.246	402.69
340.474	416.69
340.702	390.69
340.93	385.69
341.158	383.69
341.386	402.69
341.614	401.69
341.842	418.69
342.07	400.69
342.298	398.69
342.526	390.69
342.754	380.69
342.981	361.69
343.209	386.69
343.437	380.69
343.665	384.69
343.893	363.69
344.12	405.69
344.348	390.69
344.576	393.69
344.804	395.69
345.031	405.69
345.259	415.69
345.487	418.69
345.714	410.69
345.942	419.69
346.17	363.69
346.397	379.69
346.625	394.69
346.853	403.69
347.08	388.69
347.308	411.69
347.535	423.69
347.763	416.69
347.99	396.69
348.218	396.69
348.445	405.69
348.673	403.69
348.9	405.69
349.128	388.69
349.355	392.69
349.583	384.69
349.81	373.69
350.037	393.69
350.265	384.69
350.492	383.69
350.72	381.69
350.947	404.69
351.174	394.69
351.402	402.69
351.629	425.69
351.856	410.69
352.083	423.69
352.311	431.69
352.538	424.69
352.765	425.69
352.992	405.69
353.22	401.69
353.447	383.69
353.674	402.69
353.901	376.69
354.128	361.69
354.355	357.69
354.583	360.69
354.81	383.69
355.037	391.69
355.264	338.69
355.491	357.69
355.718	362.69
355.945	351.69
356.172	359.69
356.399	339.69
356.626	339.69
356.853	365.69
357.08	336.69
357.307	343.69
357.534	327.69
357.761	377.69
357.988	373.69
358.215	359.69
358.441	363.69
358.668	365.69
358.895	355.69
359.122	376.69
359.349	382.69
359.576	389.69
359.802	443.69
360.029	468.69
360.256	472.69
360.483	459.69
360.709	405.69
360.936	411.69
361.163	394.69
361.39	408.69
361.616	404.69
361.843	403.69
362.07	403.69
362.296	391.69
362.523	388.69
362.749	398.69
362.976	385.69
363.203	389.69
363.429	378.69
363.656	379.69
363.882	382.69
364.109	367.69
364.335	378.69
364.562	359.69
364.788	365.69
365.015	371.69
365.241	368.69
365.468	375.69
365.694	379.69
365.92	377.69
366.147	391.69
366.373	374.69
366.599	347.69
366.826	357.69
367.052	372.69
367.278	359.69
367.505	354.69
367.731	373.69
367.957	383.69
368.184	367.69
368.41	364.69
368.636	375.69
368.862	397.69
369.089	379.69
369.315	371.69
369.541	345.69
369.767	363.69
369.993	367.69
370.219	357.69
370.445	357.69
370.672	356.69
370.898	363.69
371.124	330.69
371.35	356.69
371.576	370.69
371.802	351.69
372.028	323.69
372.254	336.69
372.48	377.69
372.706	364.69
372.932	354.69
373.158	352.69
373.384	360.69
373.61	361.69
373.835	362.69
374.061	348.69
374.287	377.69
374.513	368.69
374.739	359.69
374.965	338.69
375.191	348.69
375.416	369.69
375.642	363.69
375.868	356.69
376.094	360.69
376.319	356.69
376.545	347.69
376.771	359.69
376.997	375.69
377.222	363.69
377.448	376.69
377.674	363.69
377.899	344.69
378.125	364.69
378.35	354.69
378.576	346.69
378.802	365.69
379.027	343.69
379.253	336.69
379.478	321.69
379.704	342.69
379.929	351.69
380.155	355.69
380.38	370.69
380.606	381.69
380.831	345.69
381.057	357.69
381.282	361.69
381.507	343.69
381.733	362.69
381.958	346.69
382.184	365.69
382.409	368.69
382.634	359.69
382.86	371.69
383.085	358.69
383.31	364.69
383.535	348.69
383.761	345.69
383.986	356.69
384.211	359.69
384.436	371.69
384.662	355.69
384.887	368.69
385.112	372.69
385.337	370.69
385.562	377.69
385.787	382.69
386.013	389.69
386.238	374.69
386.463	397.69
386.688	388.69
386.913	361.69
387.138	375.69
387.363	367.69
387.588	357.69
387.813	364.69
388.038	386.69
388.263	372.69
388.488	364.69
388.713	387.69
388.938	369.69
389.163	370.69
389.387	365.69
389.612	369.69
389.837	357.69
390.062	377.69
390.287	372.69
390.512	364.69
390.736	370.69
390.961	383.69
391.186	377.69
391.411	380.69
391.636	390.69
391.86	377.69
392.085	369.69
392.31	370.69
392.534	384.69
392.759	388.69
392.984	381.69
393.208	378.69
393.433	377.69
393.658	378.69
393.882	362.69
394.107	376.69
394.331	373.69
394.556	359.69
394.78	366.69
395.005	378.69
395.229	356.69
395.454	397.69
395.678	399.69
395.903	422.69
396.127	433.69
396.352	441.69
396.576	404.69
396.801	384.69
397.025	383.69
397.249	374.69
397.474	389.69
397.698	407.69
397.922	412.69
398.147	410.69
398.371	436.69
398.595	393.69
398.82	404.69
399.044	404.69
399.268	434.69
399.492	447.69
399.717	468.69
399.941	479.69
400.165	523.69
400.389	545.69
400.613	489.69
400.837	470.69
401.062	457.69
401.286	434.69
401.51	420.69
401.734	417.69
401.958	425.69
402.182	416.69
402.406	441.69
402.63	425.69
402.854	432.69
403.078	439.69
403.302	437.69
403.526	431.69
403.75	453.69
403.974	452.69
404.198	454.69
404.422	447.69
404.645	445.69
404.869	444.69
405.093	468.69
405.317	514.69
405.541	563.69
405.765	515.69
405.988	476.69
406.212	499.69
406.436	514.69
406.66	515.69
406.883	477.69
407.107	536.69
407.331	552.69
407.555	600.69
407.778	612.69
408.002	541.69
408.226	496.69
408.449	493.69
408.673	485.69
408.896	522.69
409.12	593.69
409.344	517.69
409.567	464.69
409.791	449.69
410.014	452.69
410.238	448.69
410.461	454.69
410.685	465.69
410.908	477.69
411.132	497.69
411.355	539.69
411.578	510.69
411.802	467.69
412.025	453.69
412.249	459.69
412.472	479.69
412.695	505.69
412.919	529.69
413.142	468.69
413.365	435.69
413.589	448.69
413.812	427.69
414.035	447.69
414.258	416.69
414.482	416.69
414.705	412.69
414.928	436.69
415.151	421.69
415.374	409.69
415.597	426.69
415.821	422.69
416.044	424.69
416.267	425.69
416.49	412.69
416.713	425.69
416.936	437.69
417.159	431.69
417.382	441.69
417.605	412.69
417.828	441.69
418.051	461.69
418.274	447.69
418.497	440.69
418.72	445.69
418.943	449.69
419.166	431.69
419.389	461.69
419.611	443.69
419.834	444.69
420.057	470.69
420.28	441.69
420.503	467.69
420.726	444.69
420.948	450.69
421.171	535.69
421.394	581.69
421.617	499.69
421.839	466.69
422.062	456.69
422.285	476.69
422.507	529.69
422.73	590.69
422.953	603.69
423.175	517.69
423.398	508.69
423.621	477.69
423.843	499.69
424.066	488.69
424.288	499.69
424.511	509.69
424.733	571.69
424.956	637.69
425.178	639.69
425.401	608.69
425.623	637.69
425.846	563.69
426.068	508.69
426.291	491.69
426.513	515.69
426.735	515.69
426.958	576.69
427.18	635.69
427.402	738.69
427.625	849.69
427.847	792.69
428.069	668.69
428.292	592.69
428.514	529.69
428.736	484.69
428.958	506.69
429.181	474.69
429.403	495.69
429.625	491.69
429.847	521.69
430.069	550.69
430.292	589.69
430.514	508.69
430.736	474.69
430.958	451.69
431.18	462.69
431.402	452.69
431.624	451.69
431.846	428.69
432.068	443.69
432.29	448.69
432.512	439.69
432.734	444.69
432.956	437.69
433.178	448.69
433.4	459.69
433.622	448.69
433.844	446.69
434.066	425.69
434.287	439.69
434.509	428.69
434.731	465.69
434.953	435.69
435.175	484.69
435.397	496.69
435.618	502.69
435.84	555.69
436.062	643.69
436.284	719.69
436.505	595.69
436.727	530.69
436.949	500.69
437.17	513.69
437.392	471.69
437.614	462.69
437.835	556.69
438.057	641.69
438.278	731.69
438.5	741.69
438.721	777.69
438.943	752.69
439.165	632.69
439.386	525.69
439.608	525.69
439.829	562.69
440.05	556.69
440.272	608.69
440.493	595.69
440.715	538.69
440.936	485.69
441.158	471.69
441.379	476.69
441.6	496.69
441.822	531.69
442.043	539.69
442.264	636.69
442.486	692.69
442.707	567.69
442.928	545.69
443.149	519.69
443.371	563.69
443.592	610.69
443.813	702.69
444.034	751.69
444.255	582.69
444.476	532.69
444.698	499.69
444.919	508.69
445.14	596.69
445.361	552.69
445.582	546.69
445.803	626.69
446.024	760.69
446.245	749.69
446.466	660.69
446.687	581.69
446.908	544.69
447.129	492.69
447.35	510.69
447.571	505.69
447.792	474.69
448.013	476.69
448.234	533.69
448.455	556.69
448.675	659.69
448.896	766.69
449.117	672.69
449.338	647.69
449.559	740.69
449.779	797.69
450	659.69
450.221	551.69
450.442	508.69
450.662	478.69
450.883	470.69
451.104	509.69
451.324	497.69
451.545	470.69
451.766	449.69
451.986	446.69
452.207	433.69
452.428	418.69
452.648	409.69
452.869	434.69
453.089	453.69
453.31	451.69
453.53	452.69
453.751	455.69
453.971	420.69
454.192	460.69
454.412	454.69
454.633	424.69
454.853	433.69
455.073	419.69
455.294	472.69
455.514	534.69
455.734	524.69
455.955	438.69
456.175	408.69
456.395	395.69
456.616	395.69
456.836	382.69
457.056	406.69
457.276	395.69
457.497	387.69
457.717	380.69
457.937	406.69
458.157	422.69
458.377	417.69
458.598	426.69
458.818	535.69
459.038	609.69
459.258	598.69
459.478	515.69
459.698	464.69
459.918	445.69
460.138	447.69
460.358	445.69
460.578	439.69
460.798	439.69
461.018	440.69
461.238	434.69
461.458	426.69
461.678	420.69
461.898	429.69
462.118	427.69
462.338	432.69
462.558	424.69
462.777	443.69
462.997	435.69
463.217	424.69
463.437	439.69
463.657	425.69
463.876	435.69
464.096	457.69
464.316	436.69
464.536	448.69
464.755	469.69
464.975	451.69
465.195	527.69
465.414	627.69
465.634	540.69
465.854	487.69
466.073	477.69
466.293	462.69
466.512	440.69
466.732	427.69
466.951	415.69
467.171	420.69
467.391	411.69
467.61	460.69
467.829	461.69
468.049	442.69
468.268	437.69
468.488	439.69
468.707	428.69
468.927	421.69
469.146	407.69
469.365	422.69
469.585	415.69
469.804	424.69
470.023	437.69
470.243	442.69
470.462	440.69
470.681	502.69
470.901	468.69
471.12	426.69
471.339	437.69
471.558	457.69
471.777	415.69
471.997	405.69
472.216	436.69
472.435	498.69
472.654	477.69
472.873	447.69
473.092	451.69
473.311	419.69
473.53	425.69
473.749	433.69
473.968	515.69
474.187	612.69
474.406	623.69
474.625	516.69
474.844	459.69
475.063	444.69
475.282	438.69
475.501	438.69
475.72	453.69
475.939	448.69
476.158	432.69
476.377	455.69
476.596	450.69
476.814	471.69
477.033	451.69
477.252	453.69
477.471	451.69
477.69	478.69
477.908	492.69
478.127	469.69
478.346	473.69
478.564	478.69
478.783	474.69
479.002	482.69
479.22	478.69
479.439	505.69
479.658	529.69
479.876	530.69
480.095	521.69
480.313	567.69
480.532	544.69
480.751	540.69
480.969	554.69
481.188	618.69
481.406	654.69
481.624	573.69
481.843	537.69
482.061	538.69
482.28	529.69
482.498	502.69
482.717	509.69
482.935	539.69
483.153	515.69
483.372	502.69
483.59	532.69
483.808	508.69
484.027	499.69
484.245	518.69
484.463	522.69
484.681	532.69
484.9	524.69
485.118	537.69
485.336	528.69
485.554	523.69
485.772	547.69
485.99	531.69
486.209	553.69
486.427	541.69
486.645	540.69
486.863	584.69
487.081	610.69
487.299	579.69
487.517	569.69
487.735	577.69
487.953	554.69
488.171	573.69
488.389	577.69
488.607	563.69
488.825	549.69
489.043	559.69
489.261	557.69
489.479	567.69
489.696	571.69
489.914	571.69
490.132	577.69
490.35	593.69
490.568	605.69
490.786	588.69
491.003	611.69
491.221	633.69
491.439	644.69
491.657	646.69
491.874	611.69
492.092	641.69
492.31	659.69
492.527	669.69
492.745	670.69
492.963	658.69
493.18	667.69
493.398	669.69
493.615	691.69
493.833	689.69
494.05	654.69
494.268	683.69
494.485	685.69
494.703	685.69
494.92	684.69
495.138	677.69
495.355	694.69
495.573	684.69
495.79	687.69
496.008	677.69
496.225	666.69
496.442	692.69
496.66	659.69
496.877	658.69
497.094	673.69
497.312	678.69
497.529	686.69
497.746	700.69
497.963	705.69
498.181	737.69
498.398	723.69
498.615	734.69
498.832	727.69
499.049	712.69
499.267	711.69
499.484	715.69
499.701	744.69
499.918	764.69
500.135	788.69
500.352	777.69
500.569	783.69
500.786	801.69
501.003	801.69
501.22	809.69
501.437	801.69
501.654	786.69
501.871	812.69
