Data from 1980.PennyLincolnUp.Lamp.En5.5.200Scan.071819.P1_HRD10591_16-37-30-958.txt Node
Date: Thu Jul 18 16:37:30 EDT 2019
User: cochatt
Spectrometer: HR+D1059
Trigger mode: 1
Integration Time (sec): 1.000000E-1
Scans to average: 1
Electric dark correction enabled: true
Nonlinearity correction enabled: false
Boxcar width: 0
XAxis mode: Wavelengths
Number of Pixels in Spectrum: 2048
>>>>>Begin Spectral Data<<<<<
223.165	-20.12
223.4	-20.12
223.635	-20.12
223.869	-21.12
224.104	-15.12
224.338	-0.12
224.573	-20.12
224.808	-11.12
225.042	-9.12
225.277	-6.12
225.511	2.88
225.746	19.88
225.98	8.88
226.215	2.88
226.449	12.88
226.683	13.88
226.918	8.88
227.152	32.88
227.387	32.88
227.621	38.88
227.856	32.88
228.09	52.88
228.324	43.88
228.559	59.88
228.793	70.88
229.027	102.88
229.262	111.88
229.496	116.88
229.73	150.88
229.964	162.88
230.199	146.88
230.433	123.88
230.667	111.88
230.901	117.88
231.136	98.88
231.37	106.88
231.604	122.88
231.838	101.88
232.072	124.88
232.306	111.88
232.541	120.88
232.775	99.88
233.009	122.88
233.243	86.88
233.477	112.88
233.711	114.88
233.945	122.88
234.179	116.88
234.413	133.88
234.647	127.88
234.881	119.88
235.115	111.88
235.349	127.88
235.583	104.88
235.817	132.88
236.051	130.88
236.285	129.88
236.519	104.88
236.753	126.88
236.987	128.88
237.221	191.88
237.455	231.88
237.689	194.88
237.922	138.88
238.156	133.88
238.39	145.88
238.624	131.88
238.858	126.88
239.091	125.88
239.325	125.88
239.559	122.88
239.793	124.88
240.027	142.88
240.26	138.88
240.494	150.88
240.728	160.88
240.961	154.88
241.195	152.88
241.429	146.88
241.662	125.88
241.896	139.88
242.13	145.88
242.363	117.88
242.597	142.88
242.83	152.88
243.064	136.88
243.298	135.88
243.531	147.88
243.765	120.88
243.998	135.88
244.232	130.88
244.465	132.88
244.699	154.88
244.932	152.88
245.166	147.88
245.399	154.88
245.633	146.88
245.866	134.88
246.099	150.88
246.333	166.88
246.566	141.88
246.8	136.88
247.033	142.88
247.266	152.88
247.5	173.88
247.733	166.88
247.966	174.88
248.2	181.88
248.433	189.88
248.666	181.88
248.899	206.88
249.133	204.88
249.366	236.88
249.599	210.88
249.832	186.88
250.066	195.88
250.299	180.88
250.532	176.88
250.765	206.88
250.998	221.88
251.231	228.88
251.465	226.88
251.698	219.88
251.931	194.88
252.164	199.88
252.397	222.88
252.63	221.88
252.863	221.88
253.096	218.88
253.329	243.88
253.562	242.88
253.795	220.88
254.028	227.88
254.261	222.88
254.494	235.88
254.727	260.88
254.96	275.88
255.193	266.88
255.426	254.88
255.659	249.88
255.892	235.88
256.124	244.88
256.357	225.88
256.59	234.88
256.823	246.88
257.056	220.88
257.289	216.88
257.521	228.88
257.754	215.88
257.987	195.88
258.22	219.88
258.452	178.88
258.685	214.88
258.918	221.88
259.151	211.88
259.383	219.88
259.616	217.88
259.849	217.88
260.081	229.88
260.314	250.88
260.547	250.88
260.779	249.88
261.012	257.88
261.244	240.88
261.477	236.88
261.71	237.88
261.942	244.88
262.175	250.88
262.407	238.88
262.64	204.88
262.872	213.88
263.105	222.88
263.337	213.88
263.57	214.88
263.802	214.88
264.035	203.88
264.267	200.88
264.499	205.88
264.732	211.88
264.964	223.88
265.197	208.88
265.429	220.88
265.661	217.88
265.894	196.88
266.126	214.88
266.358	203.88
266.591	219.88
266.823	231.88
267.055	216.88
267.287	210.88
267.52	212.88
267.752	201.88
267.984	228.88
268.216	223.88
268.448	223.88
268.681	215.88
268.913	222.88
269.145	263.88
269.377	278.88
269.609	264.88
269.841	254.88
270.073	292.88
270.306	319.88
270.538	315.88
270.77	314.88
271.002	311.88
271.234	278.88
271.466	294.88
271.698	312.88
271.93	326.88
272.162	307.88
272.394	298.88
272.626	301.88
272.858	297.88
273.09	271.88
273.322	264.88
273.553	271.88
273.785	258.88
274.017	270.88
274.249	254.88
274.481	256.88
274.713	259.88
274.945	252.88
275.176	257.88
275.408	260.88
275.64	246.88
275.872	243.88
276.104	250.88
276.335	265.88
276.567	274.88
276.799	267.88
277.031	295.88
277.262	320.88
277.494	330.88
277.726	289.88
277.957	278.88
278.189	269.88
278.421	286.88
278.652	278.88
278.884	260.88
279.115	266.88
279.347	275.88
279.579	272.88
279.81	248.88
280.042	276.88
280.273	271.88
280.505	251.88
280.736	250.88
280.968	234.88
281.199	252.88
281.431	247.88
281.662	252.88
281.894	239.88
282.125	258.88
282.356	266.88
282.588	293.88
282.819	303.88
283.051	274.88
283.282	269.88
283.513	252.88
283.745	256.88
283.976	264.88
284.207	267.88
284.439	263.88
284.67	255.88
284.901	285.88
285.132	255.88
285.364	255.88
285.595	247.88
285.826	253.88
286.057	265.88
286.288	245.88
286.52	250.88
286.751	251.88
286.982	253.88
287.213	261.88
287.444	267.88
287.675	254.88
287.906	285.88
288.138	286.88
288.369	297.88
288.6	292.88
288.831	312.88
289.062	276.88
289.293	273.88
289.524	264.88
289.755	271.88
289.986	274.88
290.217	260.88
290.448	277.88
290.679	276.88
290.91	278.88
291.141	282.88
291.371	263.88
291.602	267.88
291.833	270.88
292.064	267.88
292.295	283.88
292.526	265.88
292.757	275.88
292.987	263.88
293.218	282.88
293.449	266.88
293.68	267.88
293.91	261.88
294.141	266.88
294.372	281.88
294.603	267.88
294.833	274.88
295.064	271.88
295.295	280.88
295.525	261.88
295.756	271.88
295.987	279.88
296.217	316.88
296.448	321.88
296.679	306.88
296.909	270.88
297.14	263.88
297.37	266.88
297.601	260.88
297.831	271.88
298.062	276.88
298.292	282.88
298.523	276.88
298.753	299.88
298.984	271.88
299.214	293.88
299.445	298.88
299.675	276.88
299.905	299.88
300.136	288.88
300.366	301.88
300.597	278.88
300.827	290.88
301.057	280.88
301.288	302.88
301.518	295.88
301.748	299.88
301.979	295.88
302.209	307.88
302.439	298.88
302.669	284.88
302.9	291.88
303.13	310.88
303.36	284.88
303.59	322.88
303.82	323.88
304.051	302.88
304.281	302.88
304.511	304.88
304.741	294.88
304.971	295.88
305.201	294.88
305.431	306.88
305.661	303.88
305.891	275.88
306.121	299.88
306.352	312.88
306.582	319.88
306.812	288.88
307.042	322.88
307.272	305.88
307.502	269.88
307.731	299.88
307.961	311.88
308.191	303.88
308.421	298.88
308.651	317.88
308.881	318.88
309.111	301.88
309.341	322.88
309.571	330.88
309.8	336.88
310.03	359.88
310.26	356.88
310.49	350.88
310.72	380.88
310.949	378.88
311.179	371.88
311.409	371.88
311.639	344.88
311.868	376.88
312.098	346.88
312.328	370.88
312.557	382.88
312.787	390.88
313.017	400.88
313.246	389.88
313.476	352.88
313.706	354.88
313.935	364.88
314.165	375.88
314.394	398.88
314.624	380.88
314.853	368.88
315.083	357.88
315.312	356.88
315.542	334.88
315.771	331.88
316.001	355.88
316.23	338.88
316.46	329.88
316.689	356.88
316.919	351.88
317.148	360.88
317.377	366.88
317.607	342.88
317.836	370.88
318.065	335.88
318.295	342.88
318.524	372.88
318.753	355.88
318.983	358.88
319.212	356.88
319.441	371.88
319.67	351.88
319.9	366.88
320.129	346.88
320.358	338.88
320.587	372.88
320.816	356.88
321.046	385.88
321.275	392.88
321.504	395.88
321.733	386.88
321.962	380.88
322.191	415.88
322.42	410.88
322.649	446.88
322.878	458.88
323.108	449.88
323.337	485.88
323.566	520.88
323.795	570.88
324.024	587.88
324.253	732.88
324.482	1067.88
324.71	1595.88
324.939	2331.88
325.168	2062.88
325.397	1070.88
325.626	701.88
325.855	564.88
326.084	543.88
326.313	522.88
326.542	543.88
326.77	575.88
326.999	672.88
327.228	928.88
327.457	1405.88
327.686	1774.88
327.914	1191.88
328.143	798.88
328.372	670.88
328.6	599.88
328.829	600.88
329.058	623.88
329.287	622.88
329.515	561.88
329.744	536.88
329.972	522.88
330.201	550.88
330.43	598.88
330.658	586.88
330.887	629.88
331.115	618.88
331.344	532.88
331.572	475.88
331.801	484.88
332.03	489.88
332.258	442.88
332.486	428.88
332.715	438.88
332.943	440.88
333.172	443.88
333.4	422.88
333.629	430.88
333.857	438.88
334.085	468.88
334.314	475.88
334.542	509.88
334.771	527.88
334.999	453.88
335.227	446.88
335.455	431.88
335.684	414.88
335.912	406.88
336.14	408.88
336.369	401.88
336.597	426.88
336.825	423.88
337.053	421.88
337.281	409.88
337.51	406.88
337.738	414.88
337.966	392.88
338.194	412.88
338.422	399.88
338.65	406.88
338.878	414.88
339.106	381.88
339.334	384.88
339.562	391.88
339.79	395.88
340.018	392.88
340.246	389.88
340.474	408.88
340.702	409.88
340.93	386.88
341.158	394.88
341.386	403.88
341.614	394.88
341.842	410.88
342.07	383.88
342.298	380.88
342.526	388.88
342.754	382.88
342.981	359.88
343.209	367.88
343.437	390.88
343.665	370.88
343.893	381.88
344.12	385.88
344.348	392.88
344.576	408.88
344.804	411.88
345.031	422.88
345.259	444.88
345.487	404.88
345.714	414.88
345.942	399.88
346.17	396.88
346.397	383.88
346.625	374.88
346.853	378.88
347.08	393.88
347.308	401.88
347.535	421.88
347.763	419.88
347.99	407.88
348.218	398.88
348.445	406.88
348.673	391.88
348.9	374.88
349.128	383.88
349.355	375.88
349.583	375.88
349.81	377.88
350.037	365.88
350.265	373.88
350.492	374.88
350.72	382.88
350.947	376.88
351.174	398.88
351.402	410.88
351.629	403.88
351.856	395.88
352.083	415.88
352.311	429.88
352.538	400.88
352.765	420.88
352.992	404.88
353.22	401.88
353.447	394.88
353.674	381.88
353.901	383.88
354.128	357.88
354.355	351.88
354.583	368.88
354.81	349.88
355.037	350.88
355.264	343.88
355.491	351.88
355.718	359.88
355.945	362.88
356.172	345.88
356.399	342.88
356.626	371.88
356.853	356.88
357.08	347.88
357.307	354.88
357.534	351.88
357.761	334.88
357.988	326.88
358.215	367.88
358.441	350.88
358.668	336.88
358.895	355.88
359.122	357.88
359.349	354.88
359.576	393.88
359.802	408.88
360.029	443.88
360.256	470.88
360.483	452.88
360.709	384.88
360.936	397.88
361.163	401.88
361.39	382.88
361.616	405.88
361.843	391.88
362.07	389.88
362.296	405.88
362.523	404.88
362.749	364.88
362.976	383.88
363.203	378.88
363.429	379.88
363.656	360.88
363.882	368.88
364.109	360.88
364.335	359.88
364.562	367.88
364.788	365.88
365.015	366.88
365.241	376.88
365.468	382.88
365.694	363.88
365.92	374.88
366.147	372.88
366.373	375.88
366.599	370.88
366.826	358.88
367.052	350.88
367.278	362.88
367.505	357.88
367.731	354.88
367.957	359.88
368.184	362.88
368.41	350.88
368.636	378.88
368.862	365.88
369.089	366.88
369.315	339.88
369.541	351.88
369.767	364.88
369.993	352.88
370.219	367.88
370.445	354.88
370.672	355.88
370.898	364.88
371.124	354.88
371.35	349.88
371.576	354.88
371.802	356.88
372.028	351.88
372.254	352.88
372.48	376.88
372.706	358.88
372.932	365.88
373.158	348.88
373.384	354.88
373.61	364.88
373.835	359.88
374.061	346.88
374.287	364.88
374.513	337.88
374.739	374.88
374.965	377.88
375.191	355.88
375.416	359.88
375.642	352.88
375.868	338.88
376.094	348.88
376.319	361.88
376.545	358.88
376.771	362.88
376.997	359.88
377.222	350.88
377.448	363.88
377.674	360.88
377.899	353.88
378.125	345.88
378.35	345.88
378.576	333.88
378.802	365.88
379.027	354.88
379.253	334.88
379.478	346.88
379.704	346.88
379.929	362.88
380.155	367.88
380.38	350.88
380.606	355.88
380.831	335.88
381.057	339.88
381.282	356.88
381.507	362.88
381.733	359.88
381.958	359.88
382.184	345.88
382.409	351.88
382.634	360.88
382.86	367.88
383.085	331.88
383.31	344.88
383.535	328.88
383.761	346.88
383.986	358.88
384.211	343.88
384.436	374.88
384.662	358.88
384.887	360.88
385.112	373.88
385.337	361.88
385.562	370.88
385.787	361.88
386.013	384.88
386.238	376.88
386.463	398.88
386.688	381.88
386.913	378.88
387.138	374.88
387.363	362.88
387.588	382.88
387.813	365.88
388.038	370.88
388.263	370.88
388.488	366.88
388.713	365.88
388.938	392.88
389.163	368.88
389.387	388.88
389.612	355.88
389.837	366.88
390.062	372.88
390.287	365.88
390.512	356.88
390.736	380.88
390.961	372.88
391.186	359.88
391.411	380.88
391.636	380.88
391.86	382.88
392.085	395.88
392.31	377.88
392.534	377.88
392.759	380.88
392.984	376.88
393.208	355.88
393.433	377.88
393.658	367.88
393.882	365.88
394.107	371.88
394.331	372.88
394.556	371.88
394.78	382.88
395.005	381.88
395.229	373.88
395.454	388.88
395.678	383.88
395.903	416.88
396.127	405.88
396.352	425.88
396.576	391.88
396.801	404.88
397.025	379.88
397.249	388.88
397.474	385.88
397.698	401.88
397.922	404.88
398.147	425.88
398.371	402.88
398.595	404.88
398.82	393.88
399.044	411.88
399.268	428.88
399.492	447.88
399.717	468.88
399.941	484.88
400.165	516.88
400.389	534.88
400.613	492.88
400.837	430.88
401.062	431.88
401.286	424.88
401.51	423.88
401.734	407.88
401.958	451.88
402.182	425.88
402.406	428.88
402.63	442.88
402.854	445.88
403.078	459.88
403.302	431.88
403.526	459.88
403.75	424.88
403.974	438.88
404.198	425.88
404.422	452.88
404.645	448.88
404.869	461.88
405.093	516.88
405.317	500.88
405.541	552.88
405.765	495.88
405.988	465.88
406.212	478.88
406.436	493.88
406.66	524.88
406.883	478.88
407.107	480.88
407.331	555.88
407.555	611.88
407.778	601.88
408.002	546.88
408.226	486.88
408.449	504.88
408.673	506.88
408.896	508.88
409.12	559.88
409.344	526.88
409.567	488.88
409.791	438.88
410.014	442.88
410.238	448.88
410.461	449.88
410.685	434.88
410.908	461.88
411.132	517.88
411.355	543.88
411.578	514.88
411.802	476.88
412.025	430.88
412.249	461.88
412.472	482.88
412.695	498.88
412.919	526.88
413.142	458.88
413.365	445.88
413.589	423.88
413.812	430.88
414.035	422.88
414.258	399.88
414.482	412.88
414.705	406.88
414.928	413.88
415.151	427.88
415.374	406.88
415.597	408.88
415.821	416.88
416.044	436.88
416.267	420.88
416.49	418.88
416.713	387.88
416.936	422.88
417.159	409.88
417.382	445.88
417.605	418.88
417.828	456.88
418.051	446.88
418.274	452.88
418.497	415.88
418.72	426.88
418.943	410.88
419.166	437.88
419.389	464.88
419.611	460.88
419.834	441.88
420.057	444.88
420.28	460.88
420.503	463.88
420.726	462.88
420.948	469.88
421.171	515.88
421.394	549.88
421.617	488.88
421.839	446.88
422.062	457.88
422.285	475.88
422.507	518.88
422.73	592.88
422.953	603.88
423.175	510.88
423.398	477.88
423.621	486.88
423.843	495.88
424.066	492.88
424.288	486.88
424.511	503.88
424.733	555.88
424.956	662.88
425.178	616.88
425.401	611.88
425.623	656.88
425.846	562.88
426.068	536.88
426.291	502.88
426.513	490.88
426.735	525.88
426.958	542.88
427.18	612.88
427.402	751.88
427.625	841.88
427.847	750.88
428.069	638.88
428.292	552.88
428.514	509.88
428.736	491.88
428.958	487.88
429.181	470.88
429.403	475.88
429.625	465.88
429.847	517.88
430.069	560.88
430.292	599.88
430.514	491.88
430.736	481.88
430.958	470.88
431.18	430.88
431.402	407.88
431.624	442.88
431.846	430.88
432.068	398.88
432.29	423.88
432.512	444.88
432.734	422.88
432.956	442.88
433.178	445.88
433.4	455.88
433.622	442.88
433.844	460.88
434.066	454.88
434.287	423.88
434.509	429.88
434.731	445.88
434.953	446.88
435.175	470.88
435.397	490.88
435.618	501.88
435.84	556.88
436.062	642.88
436.284	710.88
436.505	592.88
436.727	523.88
436.949	487.88
437.17	494.88
437.392	486.88
437.614	501.88
437.835	523.88
438.057	639.88
438.278	735.88
438.5	697.88
438.721	776.88
438.943	752.88
439.165	591.88
439.386	552.88
439.608	522.88
439.829	536.88
440.05	556.88
440.272	610.88
440.493	555.88
440.715	508.88
440.936	494.88
441.158	488.88
441.379	466.88
441.6	462.88
441.822	510.88
442.043	555.88
442.264	627.88
442.486	671.88
442.707	551.88
442.928	514.88
443.149	510.88
443.371	566.88
443.592	600.88
443.813	665.88
444.034	731.88
444.255	597.88
444.476	518.88
444.698	498.88
444.919	480.88
445.14	616.88
445.361	570.88
445.582	560.88
445.803	609.88
446.024	720.88
446.245	737.88
446.466	640.88
446.687	562.88
446.908	544.88
447.129	490.88
447.35	476.88
447.571	467.88
447.792	462.88
448.013	468.88
448.234	493.88
448.455	578.88
448.675	636.88
448.896	750.88
449.117	652.88
449.338	621.88
449.559	702.88
449.779	795.88
450	640.88
450.221	523.88
450.442	503.88
450.662	504.88
450.883	463.88
451.104	518.88
451.324	512.88
451.545	467.88
451.766	459.88
451.986	426.88
452.207	425.88
452.428	422.88
452.648	417.88
452.869	424.88
453.089	430.88
453.31	468.88
453.53	428.88
453.751	430.88
453.971	429.88
454.192	460.88
454.412	458.88
454.633	421.88
454.853	430.88
455.073	432.88
455.294	463.88
455.514	512.88
455.734	491.88
455.955	422.88
456.175	393.88
456.395	400.88
456.616	390.88
456.836	399.88
457.056	413.88
457.276	386.88
457.497	382.88
457.717	384.88
457.937	412.88
458.157	398.88
458.377	420.88
458.598	435.88
458.818	494.88
459.038	599.88
459.258	598.88
459.478	493.88
459.698	438.88
459.918	441.88
460.138	410.88
460.358	434.88
460.578	424.88
460.798	425.88
461.018	440.88
461.238	418.88
461.458	410.88
461.678	405.88
461.898	438.88
462.118	404.88
462.338	422.88
462.558	421.88
462.777	427.88
462.997	437.88
463.217	436.88
463.437	455.88
463.657	434.88
463.876	421.88
464.096	450.88
464.316	456.88
464.536	460.88
464.755	444.88
464.975	475.88
465.195	515.88
465.414	626.88
465.634	530.88
465.854	465.88
466.073	457.88
466.293	436.88
466.512	433.88
466.732	411.88
466.951	407.88
467.171	432.88
467.391	412.88
467.61	424.88
467.829	451.88
468.049	446.88
468.268	446.88
468.488	427.88
468.707	420.88
468.927	416.88
469.146	385.88
469.365	396.88
469.585	400.88
469.804	436.88
470.023	451.88
470.243	415.88
470.462	443.88
470.681	458.88
470.901	447.88
471.12	448.88
471.339	407.88
471.558	432.88
471.777	430.88
471.997	434.88
472.216	449.88
472.435	470.88
472.654	459.88
472.873	446.88
473.092	434.88
473.311	417.88
473.53	444.88
473.749	446.88
473.968	485.88
474.187	590.88
474.406	597.88
474.625	531.88
474.844	452.88
475.063	436.88
475.282	441.88
475.501	461.88
475.72	436.88
475.939	447.88
476.158	454.88
476.377	448.88
476.596	445.88
476.814	452.88
477.033	468.88
477.252	460.88
477.471	478.88
477.69	475.88
477.908	459.88
478.127	464.88
478.346	478.88
478.564	462.88
478.783	459.88
479.002	476.88
479.22	494.88
479.439	487.88
479.658	508.88
479.876	533.88
480.095	534.88
480.313	538.88
480.532	523.88
480.751	511.88
480.969	536.88
481.188	606.88
481.406	656.88
481.624	585.88
481.843	535.88
482.061	514.88
482.28	510.88
482.498	514.88
482.717	516.88
482.935	519.88
483.153	496.88
483.372	518.88
483.59	499.88
483.808	500.88
484.027	495.88
484.245	496.88
484.463	515.88
484.681	525.88
484.9	526.88
485.118	529.88
485.336	525.88
485.554	505.88
485.772	529.88
485.99	513.88
486.209	539.88
486.427	544.88
486.645	536.88
486.863	572.88
487.081	549.88
487.299	553.88
487.517	563.88
487.735	541.88
487.953	549.88
488.171	537.88
488.389	533.88
488.607	542.88
488.825	537.88
489.043	551.88
489.261	548.88
489.479	574.88
489.696	554.88
489.914	563.88
490.132	570.88
490.35	575.88
490.568	566.88
490.786	572.88
491.003	600.88
491.221	602.88
491.439	616.88
491.657	610.88
491.874	637.88
492.092	637.88
492.31	628.88
492.527	647.88
492.745	651.88
492.963	680.88
493.18	656.88
493.398	644.88
493.615	640.88
493.833	670.88
494.05	660.88
494.268	666.88
494.485	662.88
494.703	651.88
494.92	656.88
495.138	667.88
495.355	640.88
495.573	679.88
495.79	669.88
496.008	668.88
496.225	663.88
496.442	665.88
496.66	649.88
496.877	684.88
497.094	668.88
497.312	651.88
497.529	680.88
497.746	679.88
497.963	678.88
498.181	682.88
498.398	709.88
498.615	700.88
498.832	682.88
499.049	694.88
499.267	708.88
499.484	726.88
499.701	730.88
499.918	740.88
500.135	789.88
500.352	806.88
500.569	789.88
500.786	825.88
501.003	831.88
501.22	803.88
501.437	778.88
501.654	798.88
501.871	809.88
