Data from 1980.PennyLincolnUp.Lamp.En5.5.200Scan.071819.P1_HRD10591_16-37-37-957.txt Node
Date: Thu Jul 18 16:37:37 EDT 2019
User: cochatt
Spectrometer: HR+D1059
Trigger mode: 1
Integration Time (sec): 1.000000E-1
Scans to average: 1
Electric dark correction enabled: true
Nonlinearity correction enabled: false
Boxcar width: 0
XAxis mode: Wavelengths
Number of Pixels in Spectrum: 2048
>>>>>Begin Spectral Data<<<<<
223.165	-8.31
223.4	-8.31
223.635	-8.31
223.869	-31.31
224.104	-14.31
224.338	-5.31
224.573	-4.31
224.808	-10.31
225.042	-7.31
225.277	-6.31
225.511	9.69
225.746	-1.31
225.98	10.69
226.215	0.69
226.449	-12.31
226.683	16.69
226.918	26.69
227.152	36.69
227.387	40.69
227.621	44.69
227.856	49.69
228.09	51.69
228.324	56.69
228.559	57.69
228.793	69.69
229.027	95.69
229.262	115.69
229.496	118.69
229.73	145.69
229.964	169.69
230.199	139.69
230.433	138.69
230.667	129.69
230.901	118.69
231.136	114.69
231.37	111.69
231.604	123.69
231.838	109.69
232.072	115.69
232.306	113.69
232.541	111.69
232.775	126.69
233.009	118.69
233.243	105.69
233.477	118.69
233.711	98.69
233.945	113.69
234.179	139.69
234.413	113.69
234.647	123.69
234.881	107.69
235.115	125.69
235.349	139.69
235.583	134.69
235.817	116.69
236.051	150.69
236.285	129.69
236.519	122.69
236.753	129.69
236.987	150.69
237.221	194.69
237.455	254.69
237.689	193.69
237.922	155.69
238.156	139.69
238.39	152.69
238.624	134.69
238.858	141.69
239.091	147.69
239.325	127.69
239.559	133.69
239.793	123.69
240.027	131.69
240.26	145.69
240.494	179.69
240.728	156.69
240.961	155.69
241.195	136.69
241.429	134.69
241.662	149.69
241.896	143.69
242.13	126.69
242.363	138.69
242.597	148.69
242.83	142.69
243.064	147.69
243.298	141.69
243.531	149.69
243.765	143.69
243.998	151.69
244.232	153.69
244.465	154.69
244.699	157.69
244.932	143.69
245.166	155.69
245.399	141.69
245.633	145.69
245.866	159.69
246.099	148.69
246.333	136.69
246.566	147.69
246.8	149.69
247.033	164.69
247.266	164.69
247.5	162.69
247.733	177.69
247.966	171.69
248.2	180.69
248.433	177.69
248.666	180.69
248.899	187.69
249.133	198.69
249.366	213.69
249.599	193.69
249.832	193.69
250.066	168.69
250.299	190.69
250.532	195.69
250.765	201.69
250.998	220.69
251.231	217.69
251.465	235.69
251.698	212.69
251.931	194.69
252.164	187.69
252.397	196.69
252.63	209.69
252.863	218.69
253.096	231.69
253.329	253.69
253.562	247.69
253.795	226.69
254.028	220.69
254.261	244.69
254.494	235.69
254.727	270.69
254.96	296.69
255.193	284.69
255.426	273.69
255.659	264.69
255.892	253.69
256.124	248.69
256.357	252.69
256.59	224.69
256.823	213.69
257.056	226.69
257.289	221.69
257.521	227.69
257.754	220.69
257.987	207.69
258.22	209.69
258.452	220.69
258.685	206.69
258.918	226.69
259.151	212.69
259.383	211.69
259.616	238.69
259.849	243.69
260.081	232.69
260.314	237.69
260.547	264.69
260.779	266.69
261.012	247.69
261.244	221.69
261.477	248.69
261.71	241.69
261.942	241.69
262.175	246.69
262.407	242.69
262.64	227.69
262.872	227.69
263.105	202.69
263.337	220.69
263.57	210.69
263.802	207.69
264.035	206.69
264.267	212.69
264.499	211.69
264.732	216.69
264.964	229.69
265.197	221.69
265.429	219.69
265.661	222.69
265.894	206.69
266.126	221.69
266.358	201.69
266.591	219.69
266.823	216.69
267.055	236.69
267.287	245.69
267.52	225.69
267.752	228.69
267.984	227.69
268.216	230.69
268.448	236.69
268.681	241.69
268.913	229.69
269.145	264.69
269.377	263.69
269.609	273.69
269.841	271.69
270.073	267.69
270.306	298.69
270.538	315.69
270.77	325.69
271.002	306.69
271.234	302.69
271.466	297.69
271.698	329.69
271.93	340.69
272.162	328.69
272.394	333.69
272.626	301.69
272.858	284.69
273.09	291.69
273.322	264.69
273.553	285.69
273.785	259.69
274.017	259.69
274.249	262.69
274.481	269.69
274.713	267.69
274.945	256.69
275.176	276.69
275.408	262.69
275.64	242.69
275.872	262.69
276.104	268.69
276.335	263.69
276.567	276.69
276.799	295.69
277.031	315.69
277.262	313.69
277.494	312.69
277.726	294.69
277.957	269.69
278.189	282.69
278.421	296.69
278.652	268.69
278.884	259.69
279.115	257.69
279.347	271.69
279.579	257.69
279.81	253.69
280.042	249.69
280.273	256.69
280.505	267.69
280.736	271.69
280.968	272.69
281.199	264.69
281.431	245.69
281.662	244.69
281.894	260.69
282.125	263.69
282.356	289.69
282.588	295.69
282.819	286.69
283.051	262.69
283.282	246.69
283.513	261.69
283.745	262.69
283.976	264.69
284.207	279.69
284.439	273.69
284.67	278.69
284.901	268.69
285.132	261.69
285.364	267.69
285.595	267.69
285.826	268.69
286.057	257.69
286.288	256.69
286.52	259.69
286.751	259.69
286.982	268.69
287.213	277.69
287.444	286.69
287.675	282.69
287.906	286.69
288.138	280.69
288.369	273.69
288.6	286.69
288.831	280.69
289.062	273.69
289.293	278.69
289.524	268.69
289.755	277.69
289.986	280.69
290.217	279.69
290.448	281.69
290.679	271.69
290.91	258.69
291.141	266.69
291.371	262.69
291.602	267.69
291.833	285.69
292.064	270.69
292.295	277.69
292.526	261.69
292.757	254.69
292.987	278.69
293.218	261.69
293.449	287.69
293.68	268.69
293.91	276.69
294.141	279.69
294.372	279.69
294.603	263.69
294.833	280.69
295.064	271.69
295.295	266.69
295.525	257.69
295.756	293.69
295.987	301.69
296.217	314.69
296.448	313.69
296.679	285.69
296.909	274.69
297.14	283.69
297.37	282.69
297.601	297.69
297.831	260.69
298.062	270.69
298.292	269.69
298.523	254.69
298.753	280.69
298.984	275.69
299.214	306.69
299.445	285.69
299.675	281.69
299.905	292.69
300.136	277.69
300.366	279.69
300.597	303.69
300.827	286.69
301.057	278.69
301.288	300.69
301.518	314.69
301.748	311.69
301.979	303.69
302.209	313.69
302.439	297.69
302.669	307.69
302.9	292.69
303.13	290.69
303.36	305.69
303.59	307.69
303.82	312.69
304.051	329.69
304.281	309.69
304.511	307.69
304.741	293.69
304.971	305.69
305.201	301.69
305.431	314.69
305.661	289.69
305.891	301.69
306.121	322.69
306.352	300.69
306.582	302.69
306.812	302.69
307.042	314.69
307.272	313.69
307.502	325.69
307.731	311.69
307.961	306.69
308.191	302.69
308.421	302.69
308.651	316.69
308.881	309.69
309.111	320.69
309.341	351.69
309.571	327.69
309.8	341.69
310.03	358.69
310.26	366.69
310.49	357.69
310.72	387.69
310.949	399.69
311.179	401.69
311.409	379.69
311.639	357.69
311.868	373.69
312.098	374.69
312.328	359.69
312.557	373.69
312.787	403.69
313.017	412.69
313.246	369.69
313.476	365.69
313.706	369.69
313.935	375.69
314.165	385.69
314.394	385.69
314.624	387.69
314.853	373.69
315.083	385.69
315.312	365.69
315.542	350.69
315.771	350.69
316.001	377.69
316.23	365.69
316.46	369.69
316.689	369.69
316.919	342.69
317.148	380.69
317.377	353.69
317.607	385.69
317.836	368.69
318.065	360.69
318.295	353.69
318.524	346.69
318.753	348.69
318.983	361.69
319.212	357.69
319.441	384.69
319.67	371.69
319.9	366.69
320.129	354.69
320.358	366.69
320.587	366.69
320.816	374.69
321.046	403.69
321.275	399.69
321.504	381.69
321.733	386.69
321.962	389.69
322.191	391.69
322.42	415.69
322.649	437.69
322.878	468.69
323.108	463.69
323.337	487.69
323.566	518.69
323.795	567.69
324.024	643.69
324.253	740.69
324.482	1065.69
324.71	1665.69
324.939	2297.69
325.168	2112.69
325.397	1081.69
325.626	717.69
325.855	607.69
326.084	521.69
326.313	517.69
326.542	484.69
326.77	562.69
326.999	683.69
327.228	945.69
327.457	1443.69
327.686	1801.69
327.914	1204.69
328.143	769.69
328.372	682.69
328.6	631.69
328.829	585.69
329.058	637.69
329.287	617.69
329.515	565.69
329.744	508.69
329.972	503.69
330.201	542.69
330.43	600.69
330.658	615.69
330.887	671.69
331.115	617.69
331.344	521.69
331.572	489.69
331.801	489.69
332.03	470.69
332.258	467.69
332.486	433.69
332.715	430.69
332.943	432.69
333.172	457.69
333.4	418.69
333.629	418.69
333.857	461.69
334.085	459.69
334.314	494.69
334.542	488.69
334.771	525.69
334.999	500.69
335.227	445.69
335.455	435.69
335.684	431.69
335.912	426.69
336.14	405.69
336.369	403.69
336.597	427.69
336.825	421.69
337.053	408.69
337.281	411.69
337.51	405.69
337.738	423.69
337.966	404.69
338.194	429.69
338.422	394.69
338.65	406.69
338.878	415.69
339.106	392.69
339.334	403.69
339.562	395.69
339.79	402.69
340.018	406.69
340.246	399.69
340.474	409.69
340.702	403.69
340.93	393.69
341.158	389.69
341.386	421.69
341.614	407.69
341.842	407.69
342.07	416.69
342.298	396.69
342.526	387.69
342.754	404.69
342.981	395.69
343.209	389.69
343.437	390.69
343.665	387.69
343.893	403.69
344.12	401.69
344.348	405.69
344.576	400.69
344.804	413.69
345.031	406.69
345.259	414.69
345.487	388.69
345.714	414.69
345.942	418.69
346.17	409.69
346.397	391.69
346.625	409.69
346.853	412.69
347.08	391.69
347.308	412.69
347.535	406.69
347.763	414.69
347.99	425.69
348.218	399.69
348.445	424.69
348.673	414.69
348.9	427.69
349.128	386.69
349.355	374.69
349.583	380.69
349.81	365.69
350.037	377.69
350.265	371.69
350.492	375.69
350.72	394.69
350.947	423.69
351.174	389.69
351.402	419.69
351.629	410.69
351.856	415.69
352.083	388.69
352.311	413.69
352.538	436.69
352.765	408.69
352.992	417.69
353.22	402.69
353.447	424.69
353.674	411.69
353.901	390.69
354.128	373.69
354.355	353.69
354.583	366.69
354.81	377.69
355.037	369.69
355.264	360.69
355.491	371.69
355.718	360.69
355.945	371.69
356.172	357.69
356.399	357.69
356.626	351.69
356.853	361.69
357.08	389.69
357.307	377.69
357.534	352.69
357.761	363.69
357.988	375.69
358.215	369.69
358.441	364.69
358.668	349.69
358.895	358.69
359.122	373.69
359.349	373.69
359.576	399.69
359.802	434.69
360.029	454.69
360.256	461.69
360.483	446.69
360.709	397.69
360.936	406.69
361.163	402.69
361.39	400.69
361.616	420.69
361.843	397.69
362.07	399.69
362.296	406.69
362.523	399.69
362.749	396.69
362.976	385.69
363.203	393.69
363.429	379.69
363.656	369.69
363.882	384.69
364.109	363.69
364.335	379.69
364.562	387.69
364.788	380.69
365.015	388.69
365.241	375.69
365.468	397.69
365.694	375.69
365.92	386.69
366.147	377.69
366.373	374.69
366.599	385.69
366.826	355.69
367.052	374.69
367.278	361.69
367.505	361.69
367.731	366.69
367.957	379.69
368.184	370.69
368.41	377.69
368.636	377.69
368.862	386.69
369.089	391.69
369.315	369.69
369.541	358.69
369.767	369.69
369.993	375.69
370.219	360.69
370.445	379.69
370.672	378.69
370.898	372.69
371.124	358.69
371.35	365.69
371.576	364.69
371.802	360.69
372.028	348.69
372.254	353.69
372.48	369.69
372.706	349.69
372.932	360.69
373.158	355.69
373.384	366.69
373.61	363.69
373.835	366.69
374.061	355.69
374.287	366.69
374.513	360.69
374.739	365.69
374.965	383.69
375.191	374.69
375.416	380.69
375.642	352.69
375.868	354.69
376.094	377.69
376.319	363.69
376.545	373.69
376.771	375.69
376.997	355.69
377.222	373.69
377.448	372.69
377.674	364.69
377.899	364.69
378.125	369.69
378.35	363.69
378.576	369.69
378.802	362.69
379.027	352.69
379.253	353.69
379.478	347.69
379.704	373.69
379.929	377.69
380.155	365.69
380.38	358.69
380.606	363.69
380.831	375.69
381.057	376.69
381.282	381.69
381.507	362.69
381.733	354.69
381.958	354.69
382.184	344.69
382.409	386.69
382.634	371.69
382.86	379.69
383.085	380.69
383.31	360.69
383.535	371.69
383.761	365.69
383.986	376.69
384.211	385.69
384.436	361.69
384.662	378.69
384.887	376.69
385.112	362.69
385.337	401.69
385.562	376.69
385.787	381.69
386.013	394.69
386.238	390.69
386.463	381.69
386.688	384.69
386.913	373.69
387.138	398.69
387.363	375.69
387.588	380.69
387.813	381.69
388.038	388.69
388.263	375.69
388.488	381.69
388.713	387.69
388.938	399.69
389.163	388.69
389.387	403.69
389.612	413.69
389.837	378.69
390.062	381.69
390.287	393.69
390.512	387.69
390.736	369.69
390.961	394.69
391.186	375.69
391.411	389.69
391.636	402.69
391.86	371.69
392.085	385.69
392.31	396.69
392.534	381.69
392.759	385.69
392.984	401.69
393.208	404.69
393.433	390.69
393.658	381.69
393.882	378.69
394.107	389.69
394.331	378.69
394.556	372.69
394.78	382.69
395.005	389.69
395.229	383.69
395.454	402.69
395.678	398.69
395.903	422.69
396.127	427.69
396.352	430.69
396.576	394.69
396.801	403.69
397.025	404.69
397.249	400.69
397.474	395.69
397.698	404.69
397.922	414.69
398.147	442.69
398.371	441.69
398.595	437.69
398.82	420.69
399.044	433.69
399.268	444.69
399.492	439.69
399.717	465.69
399.941	518.69
400.165	529.69
400.389	527.69
400.613	526.69
400.837	474.69
401.062	456.69
401.286	437.69
401.51	433.69
401.734	443.69
401.958	434.69
402.182	435.69
402.406	457.69
402.63	452.69
402.854	451.69
403.078	441.69
403.302	453.69
403.526	463.69
403.75	457.69
403.974	442.69
404.198	441.69
404.422	461.69
404.645	455.69
404.869	487.69
405.093	487.69
405.317	535.69
405.541	561.69
405.765	509.69
405.988	487.69
406.212	492.69
406.436	542.69
406.66	531.69
406.883	511.69
407.107	537.69
407.331	553.69
407.555	616.69
407.778	608.69
408.002	541.69
408.226	526.69
408.449	517.69
408.673	531.69
408.896	537.69
409.12	595.69
409.344	546.69
409.567	493.69
409.791	485.69
410.014	467.69
410.238	462.69
410.461	463.69
410.685	470.69
410.908	479.69
411.132	531.69
411.355	568.69
411.578	514.69
411.802	457.69
412.025	462.69
412.249	477.69
412.472	506.69
412.695	538.69
412.919	523.69
413.142	489.69
413.365	450.69
413.589	456.69
413.812	439.69
414.035	446.69
414.258	424.69
414.482	448.69
414.705	427.69
414.928	431.69
415.151	448.69
415.374	444.69
415.597	432.69
415.821	426.69
416.044	437.69
416.267	437.69
416.49	426.69
416.713	428.69
416.936	426.69
417.159	432.69
417.382	429.69
417.605	454.69
417.828	457.69
418.051	459.69
418.274	451.69
418.497	450.69
418.72	447.69
418.943	425.69
419.166	452.69
419.389	462.69
419.611	457.69
419.834	448.69
420.057	439.69
420.28	479.69
420.503	471.69
420.726	449.69
420.948	478.69
421.171	529.69
421.394	547.69
421.617	506.69
421.839	461.69
422.062	492.69
422.285	478.69
422.507	517.69
422.73	620.69
422.953	590.69
423.175	527.69
423.398	503.69
423.621	494.69
423.843	511.69
424.066	521.69
424.288	501.69
424.511	537.69
424.733	583.69
424.956	683.69
425.178	645.69
425.401	649.69
425.623	636.69
425.846	521.69
426.068	509.69
426.291	519.69
426.513	507.69
426.735	513.69
426.958	541.69
427.18	660.69
427.402	775.69
427.625	866.69
427.847	750.69
428.069	649.69
428.292	588.69
428.514	524.69
428.736	493.69
428.958	496.69
429.181	493.69
429.403	474.69
429.625	492.69
429.847	527.69
430.069	570.69
430.292	577.69
430.514	511.69
430.736	472.69
430.958	465.69
431.18	431.69
431.402	456.69
431.624	431.69
431.846	441.69
432.068	422.69
432.29	454.69
432.512	450.69
432.734	469.69
432.956	479.69
433.178	460.69
433.4	466.69
433.622	455.69
433.844	435.69
434.066	457.69
434.287	441.69
434.509	457.69
434.731	435.69
434.953	458.69
435.175	489.69
435.397	498.69
435.618	530.69
435.84	573.69
436.062	656.69
436.284	718.69
436.505	598.69
436.727	553.69
436.949	517.69
437.17	494.69
437.392	459.69
437.614	475.69
437.835	543.69
438.057	664.69
438.278	741.69
438.5	737.69
438.721	823.69
438.943	764.69
439.165	629.69
439.386	571.69
439.608	547.69
439.829	543.69
440.05	573.69
440.272	618.69
440.493	545.69
440.715	542.69
440.936	520.69
441.158	491.69
441.379	463.69
441.6	497.69
441.822	515.69
442.043	573.69
442.264	641.69
442.486	685.69
442.707	588.69
442.928	558.69
443.149	556.69
443.371	566.69
443.592	622.69
443.813	671.69
444.034	760.69
444.255	628.69
444.476	535.69
444.698	500.69
444.919	500.69
445.14	642.69
445.361	586.69
445.582	569.69
445.803	636.69
446.024	746.69
446.245	774.69
446.466	673.69
446.687	571.69
446.908	517.69
447.129	509.69
447.35	488.69
447.571	470.69
447.792	490.69
448.013	472.69
448.234	499.69
448.455	580.69
448.675	682.69
448.896	780.69
449.117	677.69
449.338	604.69
449.559	743.69
449.779	847.69
450	662.69
450.221	563.69
450.442	537.69
450.662	486.69
450.883	480.69
451.104	504.69
451.324	487.69
451.545	475.69
451.766	452.69
451.986	448.69
452.207	424.69
452.428	423.69
452.648	437.69
452.869	421.69
453.089	439.69
453.31	445.69
453.53	453.69
453.751	431.69
453.971	458.69
454.192	462.69
454.412	449.69
454.633	435.69
454.853	433.69
455.073	414.69
455.294	453.69
455.514	528.69
455.734	517.69
455.955	458.69
456.175	421.69
456.395	395.69
456.616	400.69
456.836	402.69
457.056	399.69
457.276	407.69
457.497	396.69
457.717	414.69
457.937	413.69
458.157	413.69
458.377	428.69
458.598	416.69
458.818	509.69
459.038	599.69
459.258	613.69
459.478	511.69
459.698	449.69
459.918	446.69
460.138	428.69
460.358	439.69
460.578	439.69
460.798	453.69
461.018	454.69
461.238	433.69
461.458	428.69
461.678	399.69
461.898	435.69
462.118	426.69
462.338	435.69
462.558	440.69
462.777	436.69
462.997	452.69
463.217	445.69
463.437	465.69
463.657	450.69
463.876	444.69
464.096	457.69
464.316	453.69
464.536	472.69
464.755	464.69
464.975	478.69
465.195	506.69
465.414	599.69
465.634	540.69
465.854	479.69
466.073	458.69
466.293	444.69
466.512	437.69
466.732	423.69
466.951	439.69
467.171	429.69
467.391	456.69
467.61	445.69
467.829	451.69
468.049	439.69
468.268	446.69
468.488	439.69
468.707	436.69
468.927	411.69
469.146	450.69
469.365	409.69
469.585	430.69
469.804	454.69
470.023	447.69
470.243	449.69
470.462	452.69
470.681	465.69
470.901	452.69
471.12	449.69
471.339	439.69
471.558	441.69
471.777	446.69
471.997	443.69
472.216	446.69
472.435	499.69
472.654	488.69
472.873	465.69
473.092	451.69
473.311	451.69
473.53	453.69
473.749	451.69
473.968	502.69
474.187	620.69
474.406	645.69
474.625	515.69
474.844	462.69
475.063	443.69
475.282	449.69
475.501	458.69
475.72	479.69
475.939	461.69
476.158	461.69
476.377	444.69
476.596	455.69
476.814	465.69
477.033	469.69
477.252	481.69
477.471	482.69
477.69	482.69
477.908	462.69
478.127	488.69
478.346	485.69
478.564	488.69
478.783	481.69
479.002	491.69
479.22	485.69
479.439	530.69
479.658	551.69
479.876	549.69
480.095	546.69
480.313	555.69
480.532	554.69
480.751	547.69
480.969	575.69
481.188	626.69
481.406	659.69
481.624	620.69
481.843	567.69
482.061	523.69
482.28	526.69
482.498	506.69
482.717	526.69
482.935	502.69
483.153	526.69
483.372	522.69
483.59	538.69
483.808	535.69
484.027	519.69
484.245	540.69
484.463	533.69
484.681	537.69
484.9	534.69
485.118	550.69
485.336	541.69
485.554	557.69
485.772	541.69
485.99	535.69
486.209	562.69
486.427	567.69
486.645	558.69
486.863	598.69
487.081	567.69
487.299	563.69
487.517	551.69
487.735	554.69
487.953	582.69
488.171	581.69
488.389	579.69
488.607	570.69
488.825	551.69
489.043	561.69
489.261	587.69
489.479	589.69
489.696	579.69
489.914	584.69
490.132	614.69
490.35	606.69
490.568	590.69
490.786	611.69
491.003	621.69
491.221	630.69
491.439	651.69
491.657	626.69
491.874	664.69
492.092	647.69
492.31	665.69
492.527	659.69
492.745	652.69
492.963	679.69
493.18	645.69
493.398	683.69
493.615	659.69
493.833	689.69
494.05	693.69
494.268	690.69
494.485	697.69
494.703	670.69
494.92	661.69
495.138	699.69
495.355	678.69
495.573	697.69
495.79	664.69
496.008	699.69
496.225	691.69
496.442	685.69
496.66	693.69
496.877	675.69
497.094	675.69
497.312	675.69
497.529	675.69
497.746	683.69
497.963	710.69
498.181	685.69
498.398	743.69
498.615	733.69
498.832	752.69
499.049	716.69
499.267	748.69
499.484	756.69
499.701	777.69
499.918	769.69
500.135	820.69
500.352	823.69
500.569	827.69
500.786	848.69
501.003	860.69
501.22	843.69
501.437	808.69
501.654	822.69
501.871	819.69
