Data from 1980.PennyLincolnUp.Lamp.En5.5.200Scan.071819.P1_HRD10591_16-38-11-957.txt Node
Date: Thu Jul 18 16:38:11 EDT 2019
User: cochatt
Spectrometer: HR+D1059
Trigger mode: 1
Integration Time (sec): 1.000000E-1
Scans to average: 1
Electric dark correction enabled: true
Nonlinearity correction enabled: false
Boxcar width: 0
XAxis mode: Wavelengths
Number of Pixels in Spectrum: 2048
>>>>>Begin Spectral Data<<<<<
223.165	-12.62
223.4	-12.62
223.635	-12.62
223.869	-5.62
224.104	-17.62
224.338	-18.62
224.573	-14.62
224.808	-24.62
225.042	7.38
225.277	7.38
225.511	-20.62
225.746	10.38
225.98	0.38
226.215	-4.62
226.449	15.38
226.683	23.38
226.918	23.38
227.152	31.38
227.387	27.38
227.621	51.38
227.856	31.38
228.09	30.38
228.324	53.38
228.559	59.38
228.793	75.38
229.027	86.38
229.262	112.38
229.496	105.38
229.73	135.38
229.964	152.38
230.199	131.38
230.433	129.38
230.667	101.38
230.901	123.38
231.136	115.38
231.37	107.38
231.604	110.38
231.838	110.38
232.072	125.38
232.306	105.38
232.541	119.38
232.775	90.38
233.009	118.38
233.243	116.38
233.477	111.38
233.711	118.38
233.945	113.38
234.179	125.38
234.413	117.38
234.647	111.38
234.881	109.38
235.115	123.38
235.349	113.38
235.583	125.38
235.817	127.38
236.051	131.38
236.285	143.38
236.519	138.38
236.753	143.38
236.987	168.38
237.221	213.38
237.455	253.38
237.689	204.38
237.922	157.38
238.156	135.38
238.39	129.38
238.624	135.38
238.858	128.38
239.091	124.38
239.325	118.38
239.559	127.38
239.793	127.38
240.027	119.38
240.26	142.38
240.494	158.38
240.728	161.38
240.961	157.38
241.195	143.38
241.429	148.38
241.662	126.38
241.896	130.38
242.13	124.38
242.363	151.38
242.597	146.38
242.83	141.38
243.064	141.38
243.298	126.38
243.531	150.38
243.765	136.38
243.998	142.38
244.232	143.38
244.465	155.38
244.699	148.38
244.932	152.38
245.166	151.38
245.399	130.38
245.633	148.38
245.866	131.38
246.099	143.38
246.333	145.38
246.566	165.38
246.8	151.38
247.033	155.38
247.266	165.38
247.5	176.38
247.733	163.38
247.966	170.38
248.2	178.38
248.433	161.38
248.666	168.38
248.899	182.38
249.133	204.38
249.366	218.38
249.599	218.38
249.832	198.38
250.066	203.38
250.299	180.38
250.532	204.38
250.765	212.38
250.998	218.38
251.231	255.38
251.465	235.38
251.698	231.38
251.931	199.38
252.164	218.38
252.397	185.38
252.63	213.38
252.863	221.38
253.096	230.38
253.329	220.38
253.562	241.38
253.795	240.38
254.028	227.38
254.261	214.38
254.494	243.38
254.727	251.38
254.96	312.38
255.193	292.38
255.426	265.38
255.659	257.38
255.892	249.38
256.124	232.38
256.357	250.38
256.59	240.38
256.823	218.38
257.056	215.38
257.289	207.38
257.521	227.38
257.754	207.38
257.987	194.38
258.22	203.38
258.452	212.38
258.685	213.38
258.918	222.38
259.151	224.38
259.383	231.38
259.616	223.38
259.849	225.38
260.081	234.38
260.314	257.38
260.547	283.38
260.779	238.38
261.012	249.38
261.244	239.38
261.477	238.38
261.71	222.38
261.942	254.38
262.175	248.38
262.407	242.38
262.64	230.38
262.872	229.38
263.105	217.38
263.337	213.38
263.57	213.38
263.802	232.38
264.035	226.38
264.267	199.38
264.499	199.38
264.732	202.38
264.964	212.38
265.197	214.38
265.429	217.38
265.661	206.38
265.894	215.38
266.126	222.38
266.358	216.38
266.591	212.38
266.823	210.38
267.055	233.38
267.287	222.38
267.52	211.38
267.752	222.38
267.984	208.38
268.216	226.38
268.448	245.38
268.681	246.38
268.913	240.38
269.145	259.38
269.377	289.38
269.609	290.38
269.841	279.38
270.073	271.38
270.306	293.38
270.538	342.38
270.77	333.38
271.002	315.38
271.234	311.38
271.466	300.38
271.698	317.38
271.93	337.38
272.162	336.38
272.394	330.38
272.626	307.38
272.858	286.38
273.09	308.38
273.322	293.38
273.553	280.38
273.785	264.38
274.017	266.38
274.249	280.38
274.481	278.38
274.713	256.38
274.945	283.38
275.176	262.38
275.408	268.38
275.64	259.38
275.872	283.38
276.104	269.38
276.335	263.38
276.567	287.38
276.799	281.38
277.031	314.38
277.262	320.38
277.494	330.38
277.726	310.38
277.957	305.38
278.189	263.38
278.421	282.38
278.652	276.38
278.884	259.38
279.115	261.38
279.347	262.38
279.579	257.38
279.81	255.38
280.042	259.38
280.273	262.38
280.505	256.38
280.736	258.38
280.968	243.38
281.199	241.38
281.431	251.38
281.662	260.38
281.894	258.38
282.125	273.38
282.356	283.38
282.588	309.38
282.819	321.38
283.051	266.38
283.282	266.38
283.513	255.38
283.745	274.38
283.976	281.38
284.207	283.38
284.439	247.38
284.67	299.38
284.901	254.38
285.132	252.38
285.364	258.38
285.595	253.38
285.826	265.38
286.057	274.38
286.288	256.38
286.52	268.38
286.751	264.38
286.982	257.38
287.213	276.38
287.444	267.38
287.675	276.38
287.906	275.38
288.138	302.38
288.369	303.38
288.6	303.38
288.831	279.38
289.062	268.38
289.293	270.38
289.524	281.38
289.755	266.38
289.986	276.38
290.217	274.38
290.448	260.38
290.679	272.38
290.91	256.38
291.141	286.38
291.371	282.38
291.602	250.38
291.833	271.38
292.064	252.38
292.295	266.38
292.526	280.38
292.757	269.38
292.987	276.38
293.218	279.38
293.449	268.38
293.68	274.38
293.91	250.38
294.141	273.38
294.372	278.38
294.603	269.38
294.833	260.38
295.064	266.38
295.295	257.38
295.525	291.38
295.756	284.38
295.987	280.38
296.217	325.38
296.448	332.38
296.679	291.38
296.909	276.38
297.14	276.38
297.37	275.38
297.601	286.38
297.831	276.38
298.062	278.38
298.292	287.38
298.523	297.38
298.753	284.38
298.984	282.38
299.214	277.38
299.445	283.38
299.675	284.38
299.905	299.38
300.136	275.38
300.366	311.38
300.597	290.38
300.827	284.38
301.057	284.38
301.288	330.38
301.518	306.38
301.748	306.38
301.979	316.38
302.209	297.38
302.439	310.38
302.669	316.38
302.9	304.38
303.13	308.38
303.36	311.38
303.59	305.38
303.82	327.38
304.051	319.38
304.281	310.38
304.511	315.38
304.741	329.38
304.971	298.38
305.201	310.38
305.431	285.38
305.661	306.38
305.891	291.38
306.121	310.38
306.352	302.38
306.582	330.38
306.812	329.38
307.042	326.38
307.272	307.38
307.502	307.38
307.731	320.38
307.961	315.38
308.191	299.38
308.421	318.38
308.651	294.38
308.881	310.38
309.111	326.38
309.341	321.38
309.571	333.38
309.8	359.38
310.03	368.38
310.26	374.38
310.49	379.38
310.72	380.38
310.949	396.38
311.179	411.38
311.409	382.38
311.639	366.38
311.868	377.38
312.098	375.38
312.328	388.38
312.557	406.38
312.787	415.38
313.017	402.38
313.246	387.38
313.476	367.38
313.706	359.38
313.935	369.38
314.165	384.38
314.394	392.38
314.624	399.38
314.853	395.38
315.083	371.38
315.312	372.38
315.542	356.38
315.771	366.38
316.001	368.38
316.23	355.38
316.46	339.38
316.689	357.38
316.919	373.38
317.148	370.38
317.377	388.38
317.607	378.38
317.836	356.38
318.065	355.38
318.295	355.38
318.524	362.38
318.753	358.38
318.983	360.38
319.212	358.38
319.441	384.38
319.67	355.38
319.9	363.38
320.129	363.38
320.358	352.38
320.587	384.38
320.816	370.38
321.046	409.38
321.275	403.38
321.504	413.38
321.733	395.38
321.962	411.38
322.191	435.38
322.42	434.38
322.649	466.38
322.878	471.38
323.108	464.38
323.337	511.38
323.566	539.38
323.795	566.38
324.024	642.38
324.253	776.38
324.482	1114.38
324.71	1739.38
324.939	2473.38
325.168	2185.38
325.397	1123.38
325.626	750.38
325.855	609.38
326.084	548.38
326.313	542.38
326.542	558.38
326.77	610.38
326.999	713.38
327.228	983.38
327.457	1554.38
327.686	1916.38
327.914	1305.38
328.143	845.38
328.372	705.38
328.6	660.38
328.829	637.38
329.058	648.38
329.287	649.38
329.515	600.38
329.744	550.38
329.972	549.38
330.201	549.38
330.43	632.38
330.658	644.38
330.887	671.38
331.115	643.38
331.344	541.38
331.572	499.38
331.801	513.38
332.03	508.38
332.258	496.38
332.486	461.38
332.715	436.38
332.943	430.38
333.172	424.38
333.4	441.38
333.629	450.38
333.857	459.38
334.085	468.38
334.314	482.38
334.542	541.38
334.771	546.38
334.999	482.38
335.227	459.38
335.455	430.38
335.684	442.38
335.912	434.38
336.14	423.38
336.369	402.38
336.597	432.38
336.825	421.38
337.053	425.38
337.281	422.38
337.51	415.38
337.738	423.38
337.966	406.38
338.194	430.38
338.422	418.38
338.65	400.38
338.878	416.38
339.106	392.38
339.334	400.38
339.562	399.38
339.79	388.38
340.018	409.38
340.246	409.38
340.474	420.38
340.702	425.38
340.93	396.38
341.158	419.38
341.386	414.38
341.614	397.38
341.842	409.38
342.07	402.38
342.298	406.38
342.526	391.38
342.754	369.38
342.981	384.38
343.209	378.38
343.437	403.38
343.665	392.38
343.893	377.38
344.12	387.38
344.348	406.38
344.576	394.38
344.804	408.38
345.031	426.38
345.259	430.38
345.487	429.38
345.714	428.38
345.942	400.38
346.17	416.38
346.397	404.38
346.625	401.38
346.853	396.38
347.08	406.38
347.308	392.38
347.535	401.38
347.763	413.38
347.99	421.38
348.218	419.38
348.445	426.38
348.673	414.38
348.9	386.38
349.128	383.38
349.355	368.38
349.583	382.38
349.81	388.38
350.037	386.38
350.265	391.38
350.492	377.38
350.72	385.38
350.947	400.38
351.174	410.38
351.402	415.38
351.629	393.38
351.856	410.38
352.083	427.38
352.311	433.38
352.538	447.38
352.765	420.38
352.992	430.38
353.22	412.38
353.447	414.38
353.674	377.38
353.901	382.38
354.128	381.38
354.355	371.38
354.583	363.38
354.81	378.38
355.037	372.38
355.264	356.38
355.491	354.38
355.718	353.38
355.945	336.38
356.172	370.38
356.399	354.38
356.626	348.38
356.853	374.38
357.08	362.38
357.307	343.38
357.534	366.38
357.761	341.38
357.988	363.38
358.215	387.38
358.441	346.38
358.668	352.38
358.895	382.38
359.122	374.38
359.349	384.38
359.576	394.38
359.802	434.38
360.029	468.38
360.256	491.38
360.483	473.38
360.709	434.38
360.936	406.38
361.163	394.38
361.39	394.38
361.616	421.38
361.843	418.38
362.07	375.38
362.296	394.38
362.523	375.38
362.749	401.38
362.976	403.38
363.203	390.38
363.429	370.38
363.656	380.38
363.882	376.38
364.109	387.38
364.335	380.38
364.562	377.38
364.788	369.38
365.015	369.38
365.241	367.38
365.468	375.38
365.694	367.38
365.92	405.38
366.147	384.38
366.373	373.38
366.599	349.38
366.826	375.38
367.052	366.38
367.278	376.38
367.505	378.38
367.731	366.38
367.957	382.38
368.184	379.38
368.41	359.38
368.636	376.38
368.862	386.38
369.089	368.38
369.315	380.38
369.541	376.38
369.767	363.38
369.993	376.38
370.219	374.38
370.445	350.38
370.672	361.38
370.898	373.38
371.124	368.38
371.35	370.38
371.576	375.38
371.802	356.38
372.028	366.38
372.254	366.38
372.48	347.38
372.706	362.38
372.932	350.38
373.158	370.38
373.384	355.38
373.61	355.38
373.835	355.38
374.061	359.38
374.287	375.38
374.513	369.38
374.739	370.38
374.965	363.38
375.191	361.38
375.416	372.38
375.642	350.38
375.868	370.38
376.094	376.38
376.319	358.38
376.545	350.38
376.771	370.38
376.997	359.38
377.222	354.38
377.448	371.38
377.674	384.38
377.899	346.38
378.125	368.38
378.35	350.38
378.576	344.38
378.802	372.38
379.027	361.38
379.253	347.38
379.478	346.38
379.704	364.38
379.929	366.38
380.155	360.38
380.38	359.38
380.606	363.38
380.831	358.38
381.057	367.38
381.282	366.38
381.507	356.38
381.733	360.38
381.958	357.38
382.184	366.38
382.409	368.38
382.634	373.38
382.86	378.38
383.085	362.38
383.31	375.38
383.535	372.38
383.761	387.38
383.986	388.38
384.211	364.38
384.436	384.38
384.662	377.38
384.887	372.38
385.112	378.38
385.337	395.38
385.562	370.38
385.787	383.38
386.013	391.38
386.238	421.38
386.463	400.38
386.688	386.38
386.913	371.38
387.138	390.38
387.363	388.38
387.588	386.38
387.813	386.38
388.038	375.38
388.263	385.38
388.488	382.38
388.713	393.38
388.938	374.38
389.163	420.38
389.387	384.38
389.612	385.38
389.837	385.38
390.062	383.38
390.287	371.38
390.512	398.38
390.736	369.38
390.961	392.38
391.186	390.38
391.411	375.38
391.636	396.38
391.86	401.38
392.085	380.38
392.31	402.38
392.534	392.38
392.759	404.38
392.984	385.38
393.208	371.38
393.433	382.38
393.658	378.38
393.882	390.38
394.107	400.38
394.331	376.38
394.556	386.38
394.78	374.38
395.005	362.38
395.229	388.38
395.454	402.38
395.678	391.38
395.903	410.38
396.127	415.38
396.352	413.38
396.576	419.38
396.801	400.38
397.025	407.38
397.249	400.38
397.474	415.38
397.698	415.38
397.922	414.38
398.147	428.38
398.371	451.38
398.595	416.38
398.82	416.38
399.044	437.38
399.268	433.38
399.492	459.38
399.717	481.38
399.941	477.38
400.165	528.38
400.389	534.38
400.613	487.38
400.837	491.38
401.062	457.38
401.286	455.38
401.51	418.38
401.734	438.38
401.958	444.38
402.182	446.38
402.406	455.38
402.63	459.38
402.854	443.38
403.078	436.38
403.302	450.38
403.526	472.38
403.75	460.38
403.974	450.38
404.198	455.38
404.422	475.38
404.645	465.38
404.869	464.38
405.093	502.38
405.317	515.38
405.541	576.38
405.765	523.38
405.988	507.38
406.212	516.38
406.436	519.38
406.66	539.38
406.883	507.38
407.107	538.38
407.331	576.38
407.555	617.38
407.778	630.38
408.002	584.38
408.226	530.38
408.449	524.38
408.673	508.38
408.896	529.38
409.12	570.38
409.344	527.38
409.567	479.38
409.791	466.38
410.014	470.38
410.238	452.38
410.461	449.38
410.685	467.38
410.908	487.38
411.132	534.38
411.355	533.38
411.578	520.38
411.802	494.38
412.025	472.38
412.249	481.38
412.472	504.38
412.695	538.38
412.919	536.38
413.142	465.38
413.365	460.38
413.589	450.38
413.812	438.38
414.035	456.38
414.258	431.38
414.482	444.38
414.705	432.38
414.928	427.38
415.151	411.38
415.374	437.38
415.597	425.38
415.821	416.38
416.044	440.38
416.267	431.38
416.49	440.38
416.713	420.38
416.936	417.38
417.159	430.38
417.382	440.38
417.605	424.38
417.828	477.38
418.051	456.38
418.274	460.38
418.497	427.38
418.72	427.38
418.943	449.38
419.166	457.38
419.389	475.38
419.611	463.38
419.834	449.38
420.057	475.38
420.28	475.38
420.503	471.38
420.726	475.38
420.948	480.38
421.171	519.38
421.394	555.38
421.617	499.38
421.839	458.38
422.062	466.38
422.285	495.38
422.507	552.38
422.73	625.38
422.953	598.38
423.175	524.38
423.398	495.38
423.621	477.38
423.843	518.38
424.066	520.38
424.288	525.38
424.511	554.38
424.733	588.38
424.956	695.38
425.178	631.38
425.401	651.38
425.623	652.38
425.846	555.38
426.068	511.38
426.291	532.38
426.513	531.38
426.735	565.38
426.958	584.38
427.18	660.38
427.402	781.38
427.625	862.38
427.847	774.38
428.069	675.38
428.292	607.38
428.514	558.38
428.736	495.38
428.958	488.38
429.181	479.38
429.403	474.38
429.625	494.38
429.847	520.38
430.069	600.38
430.292	581.38
430.514	512.38
430.736	478.38
430.958	486.38
431.18	478.38
431.402	447.38
431.624	456.38
431.846	417.38
432.068	451.38
432.29	448.38
432.512	420.38
432.734	467.38
432.956	447.38
433.178	454.38
433.4	489.38
433.622	474.38
433.844	465.38
434.066	447.38
434.287	442.38
434.509	442.38
434.731	461.38
434.953	468.38
435.175	466.38
435.397	498.38
435.618	534.38
435.84	576.38
436.062	651.38
436.284	738.38
436.505	602.38
436.727	557.38
436.949	502.38
437.17	492.38
437.392	480.38
437.614	501.38
437.835	566.38
438.057	626.38
438.278	744.38
438.5	751.38
438.721	804.38
438.943	775.38
439.165	598.38
439.386	564.38
439.608	554.38
439.829	548.38
440.05	574.38
440.272	624.38
440.493	590.38
440.715	513.38
440.936	498.38
441.158	486.38
441.379	485.38
441.6	485.38
441.822	521.38
442.043	561.38
442.264	670.38
442.486	708.38
442.707	578.38
442.928	553.38
443.149	572.38
443.371	572.38
443.592	599.38
443.813	683.38
444.034	767.38
444.255	636.38
444.476	536.38
444.698	518.38
444.919	522.38
445.14	589.38
445.361	588.38
445.582	589.38
445.803	649.38
446.024	735.38
446.245	743.38
446.466	691.38
446.687	584.38
446.908	534.38
447.129	515.38
447.35	512.38
447.571	497.38
447.792	475.38
448.013	487.38
448.234	489.38
448.455	559.38
448.675	666.38
448.896	790.38
449.117	661.38
449.338	638.38
449.559	737.38
449.779	814.38
450	688.38
450.221	570.38
450.442	514.38
450.662	515.38
450.883	496.38
451.104	544.38
451.324	509.38
451.545	488.38
451.766	461.38
451.986	441.38
452.207	422.38
452.428	456.38
452.648	413.38
452.869	436.38
453.089	451.38
453.31	453.38
453.53	455.38
453.751	469.38
453.971	424.38
454.192	479.38
454.412	468.38
454.633	444.38
454.853	425.38
455.073	435.38
455.294	475.38
455.514	555.38
455.734	523.38
455.955	434.38
456.175	422.38
456.395	410.38
456.616	408.38
456.836	411.38
457.056	391.38
457.276	396.38
457.497	415.38
457.717	421.38
457.937	424.38
458.157	419.38
458.377	440.38
458.598	439.38
458.818	510.38
459.038	601.38
459.258	617.38
459.478	523.38
459.698	471.38
459.918	438.38
460.138	418.38
460.358	445.38
460.578	465.38
460.798	443.38
461.018	443.38
461.238	435.38
461.458	417.38
461.678	427.38
461.898	436.38
462.118	443.38
462.338	428.38
462.558	452.38
462.777	445.38
462.997	458.38
463.217	437.38
463.437	450.38
463.657	447.38
463.876	448.38
464.096	456.38
464.316	450.38
464.536	462.38
464.755	485.38
464.975	491.38
465.195	551.38
465.414	649.38
465.634	554.38
465.854	491.38
466.073	470.38
466.293	452.38
466.512	455.38
466.732	429.38
466.951	446.38
467.171	420.38
467.391	430.38
467.61	466.38
467.829	464.38
468.049	472.38
468.268	441.38
468.488	459.38
468.707	439.38
468.927	442.38
469.146	411.38
469.365	421.38
469.585	425.38
469.804	451.38
470.023	464.38
470.243	455.38
470.462	456.38
470.681	467.38
470.901	483.38
471.12	436.38
471.339	451.38
471.558	460.38
471.777	433.38
471.997	442.38
472.216	456.38
472.435	514.38
472.654	469.38
472.873	471.38
473.092	450.38
473.311	442.38
473.53	450.38
473.749	460.38
473.968	501.38
474.187	621.38
474.406	636.38
474.625	523.38
474.844	456.38
475.063	452.38
475.282	459.38
475.501	439.38
475.72	439.38
475.939	445.38
476.158	462.38
476.377	467.38
476.596	431.38
476.814	470.38
477.033	483.38
477.252	469.38
477.471	468.38
477.69	490.38
477.908	474.38
478.127	481.38
478.346	491.38
478.564	467.38
478.783	503.38
479.002	494.38
479.22	469.38
479.439	498.38
479.658	551.38
479.876	529.38
480.095	530.38
480.313	565.38
480.532	564.38
480.751	524.38
480.969	586.38
481.188	629.38
481.406	694.38
481.624	614.38
481.843	546.38
482.061	545.38
482.28	548.38
482.498	544.38
482.717	528.38
482.935	519.38
483.153	512.38
483.372	523.38
483.59	514.38
483.808	524.38
484.027	528.38
484.245	532.38
484.463	501.38
484.681	532.38
484.9	534.38
485.118	533.38
485.336	559.38
485.554	546.38
485.772	551.38
485.99	546.38
486.209	534.38
486.427	542.38
486.645	560.38
486.863	592.38
487.081	609.38
487.299	570.38
487.517	576.38
487.735	574.38
487.953	576.38
488.171	580.38
488.389	598.38
488.607	551.38
488.825	569.38
489.043	574.38
489.261	564.38
489.479	590.38
489.696	588.38
489.914	594.38
490.132	588.38
490.35	611.38
490.568	618.38
490.786	630.38
491.003	632.38
491.221	635.38
491.439	638.38
491.657	660.38
491.874	683.38
492.092	660.38
492.31	683.38
492.527	651.38
492.745	670.38
492.963	700.38
493.18	696.38
493.398	690.38
493.615	666.38
493.833	677.38
494.05	699.38
494.268	690.38
494.485	722.38
494.703	715.38
494.92	706.38
495.138	687.38
495.355	680.38
495.573	692.38
495.79	681.38
496.008	692.38
496.225	691.38
496.442	676.38
496.66	686.38
496.877	684.38
497.094	680.38
497.312	712.38
497.529	707.38
497.746	697.38
497.963	704.38
498.181	712.38
498.398	722.38
498.615	719.38
498.832	732.38
499.049	723.38
499.267	740.38
499.484	747.38
499.701	755.38
499.918	787.38
500.135	823.38
500.352	815.38
500.569	818.38
500.786	822.38
501.003	838.38
501.22	844.38
501.437	803.38
501.654	818.38
501.871	798.38
