Data from 1980.PennyLincolnUp.Lamp.En5.5.200Scan.071819.P1_HRD10591_16-38-41-958.txt Node
Date: Thu Jul 18 16:38:41 EDT 2019
User: cochatt
Spectrometer: HR+D1059
Trigger mode: 1
Integration Time (sec): 1.000000E-1
Scans to average: 1
Electric dark correction enabled: true
Nonlinearity correction enabled: false
Boxcar width: 0
XAxis mode: Wavelengths
Number of Pixels in Spectrum: 2048
>>>>>Begin Spectral Data<<<<<
223.165	-19.56
223.4	-19.56
223.635	-19.56
223.869	-24.56
224.104	-10.56
224.338	-10.56
224.573	-7.56
224.808	-8.56
225.042	-8.56
225.277	-12.56
225.511	-4.56
225.746	7.44
225.98	2.44
226.215	6.44
226.449	23.44
226.683	16.44
226.918	22.44
227.152	28.44
227.387	18.44
227.621	35.44
227.856	47.44
228.09	41.44
228.324	49.44
228.559	42.44
228.793	69.44
229.027	106.44
229.262	99.44
229.496	116.44
229.73	131.44
229.964	185.44
230.199	139.44
230.433	111.44
230.667	108.44
230.901	121.44
231.136	126.44
231.37	107.44
231.604	104.44
231.838	111.44
232.072	111.44
232.306	108.44
232.541	103.44
232.775	113.44
233.009	100.44
233.243	131.44
233.477	119.44
233.711	106.44
233.945	121.44
234.179	126.44
234.413	125.44
234.647	113.44
234.881	129.44
235.115	120.44
235.349	131.44
235.583	115.44
235.817	123.44
236.051	135.44
236.285	121.44
236.519	129.44
236.753	138.44
236.987	139.44
237.221	177.44
237.455	241.44
237.689	203.44
237.922	147.44
238.156	148.44
238.39	148.44
238.624	132.44
238.858	108.44
239.091	131.44
239.325	125.44
239.559	133.44
239.793	135.44
240.027	150.44
240.26	155.44
240.494	157.44
240.728	152.44
240.961	169.44
241.195	145.44
241.429	125.44
241.662	145.44
241.896	143.44
242.13	138.44
242.363	122.44
242.597	134.44
242.83	144.44
243.064	133.44
243.298	143.44
243.531	151.44
243.765	140.44
243.998	139.44
244.232	154.44
244.465	141.44
244.699	141.44
244.932	151.44
245.166	157.44
245.399	132.44
245.633	145.44
245.866	145.44
246.099	157.44
246.333	151.44
246.566	141.44
246.8	141.44
247.033	147.44
247.266	154.44
247.5	162.44
247.733	171.44
247.966	176.44
248.2	169.44
248.433	164.44
248.666	166.44
248.899	188.44
249.133	200.44
249.366	232.44
249.599	213.44
249.832	190.44
250.066	196.44
250.299	199.44
250.532	192.44
250.765	207.44
250.998	219.44
251.231	245.44
251.465	229.44
251.698	203.44
251.931	218.44
252.164	210.44
252.397	219.44
252.63	210.44
252.863	217.44
253.096	241.44
253.329	232.44
253.562	227.44
253.795	233.44
254.028	217.44
254.261	213.44
254.494	237.44
254.727	268.44
254.96	287.44
255.193	306.44
255.426	271.44
255.659	253.44
255.892	245.44
256.124	246.44
256.357	247.44
256.59	232.44
256.823	216.44
257.056	223.44
257.289	215.44
257.521	222.44
257.754	220.44
257.987	199.44
258.22	220.44
258.452	231.44
258.685	207.44
258.918	222.44
259.151	218.44
259.383	232.44
259.616	218.44
259.849	229.44
260.081	247.44
260.314	257.44
260.547	272.44
260.779	275.44
261.012	237.44
261.244	229.44
261.477	224.44
261.71	234.44
261.942	238.44
262.175	259.44
262.407	252.44
262.64	227.44
262.872	230.44
263.105	227.44
263.337	225.44
263.57	224.44
263.802	213.44
264.035	208.44
264.267	207.44
264.499	201.44
264.732	212.44
264.964	211.44
265.197	229.44
265.429	207.44
265.661	203.44
265.894	215.44
266.126	207.44
266.358	211.44
266.591	222.44
266.823	220.44
267.055	219.44
267.287	215.44
267.52	223.44
267.752	218.44
267.984	215.44
268.216	224.44
268.448	239.44
268.681	224.44
268.913	235.44
269.145	252.44
269.377	277.44
269.609	286.44
269.841	265.44
270.073	290.44
270.306	305.44
270.538	331.44
270.77	323.44
271.002	313.44
271.234	308.44
271.466	294.44
271.698	317.44
271.93	329.44
272.162	316.44
272.394	318.44
272.626	295.44
272.858	296.44
273.09	282.44
273.322	274.44
273.553	279.44
273.785	273.44
274.017	262.44
274.249	270.44
274.481	296.44
274.713	261.44
274.945	265.44
275.176	265.44
275.408	269.44
275.64	265.44
275.872	256.44
276.104	233.44
276.335	268.44
276.567	283.44
276.799	298.44
277.031	307.44
277.262	333.44
277.494	316.44
277.726	323.44
277.957	286.44
278.189	283.44
278.421	284.44
278.652	280.44
278.884	249.44
279.115	249.44
279.347	244.44
279.579	274.44
279.81	272.44
280.042	257.44
280.273	273.44
280.505	258.44
280.736	278.44
280.968	249.44
281.199	259.44
281.431	269.44
281.662	265.44
281.894	266.44
282.125	264.44
282.356	285.44
282.588	315.44
282.819	283.44
283.051	284.44
283.282	249.44
283.513	260.44
283.745	269.44
283.976	265.44
284.207	282.44
284.439	265.44
284.67	271.44
284.901	268.44
285.132	261.44
285.364	269.44
285.595	252.44
285.826	273.44
286.057	268.44
286.288	264.44
286.52	285.44
286.751	268.44
286.982	270.44
287.213	278.44
287.444	248.44
287.675	266.44
287.906	293.44
288.138	276.44
288.369	270.44
288.6	284.44
288.831	271.44
289.062	291.44
289.293	281.44
289.524	259.44
289.755	269.44
289.986	267.44
290.217	277.44
290.448	248.44
290.679	262.44
290.91	284.44
291.141	277.44
291.371	266.44
291.602	268.44
291.833	266.44
292.064	262.44
292.295	267.44
292.526	286.44
292.757	275.44
292.987	277.44
293.218	257.44
293.449	275.44
293.68	271.44
293.91	265.44
294.141	263.44
294.372	283.44
294.603	257.44
294.833	258.44
295.064	267.44
295.295	264.44
295.525	266.44
295.756	263.44
295.987	273.44
296.217	312.44
296.448	321.44
296.679	288.44
296.909	277.44
297.14	274.44
297.37	264.44
297.601	259.44
297.831	278.44
298.062	283.44
298.292	290.44
298.523	288.44
298.753	275.44
298.984	315.44
299.214	287.44
299.445	261.44
299.675	283.44
299.905	291.44
300.136	275.44
300.366	276.44
300.597	301.44
300.827	289.44
301.057	297.44
301.288	303.44
301.518	312.44
301.748	297.44
301.979	315.44
302.209	296.44
302.439	312.44
302.669	288.44
302.9	307.44
303.13	293.44
303.36	294.44
303.59	327.44
303.82	320.44
304.051	327.44
304.281	305.44
304.511	283.44
304.741	298.44
304.971	308.44
305.201	289.44
305.431	300.44
305.661	295.44
305.891	309.44
306.121	313.44
306.352	300.44
306.582	303.44
306.812	314.44
307.042	319.44
307.272	319.44
307.502	306.44
307.731	315.44
307.961	314.44
308.191	321.44
308.421	311.44
308.651	319.44
308.881	335.44
309.111	335.44
309.341	337.44
309.571	342.44
309.8	353.44
310.03	353.44
310.26	375.44
310.49	357.44
310.72	371.44
310.949	389.44
311.179	397.44
311.409	368.44
311.639	368.44
311.868	373.44
312.098	359.44
312.328	377.44
312.557	373.44
312.787	408.44
313.017	409.44
313.246	376.44
313.476	381.44
313.706	356.44
313.935	376.44
314.165	375.44
314.394	394.44
314.624	376.44
314.853	390.44
315.083	351.44
315.312	344.44
315.542	363.44
315.771	351.44
316.001	354.44
316.23	354.44
316.46	352.44
316.689	358.44
316.919	356.44
317.148	371.44
317.377	377.44
317.607	364.44
317.836	373.44
318.065	358.44
318.295	345.44
318.524	361.44
318.753	346.44
318.983	332.44
319.212	347.44
319.441	375.44
319.67	383.44
319.9	359.44
320.129	369.44
320.358	391.44
320.587	382.44
320.816	367.44
321.046	371.44
321.275	391.44
321.504	396.44
321.733	391.44
321.962	408.44
322.191	409.44
322.42	433.44
322.649	444.44
322.878	458.44
323.108	472.44
323.337	483.44
323.566	534.44
323.795	553.44
324.024	615.44
324.253	745.44
324.482	1085.44
324.71	1688.44
324.939	2424.44
325.168	2152.44
325.397	1118.44
325.626	731.44
325.855	610.44
326.084	532.44
326.313	513.44
326.542	533.44
326.77	589.44
326.999	695.44
327.228	966.44
327.457	1455.44
327.686	1856.44
327.914	1285.44
328.143	838.44
328.372	704.44
328.6	654.44
328.829	603.44
329.058	631.44
329.287	632.44
329.515	586.44
329.744	521.44
329.972	542.44
330.201	555.44
330.43	593.44
330.658	622.44
330.887	670.44
331.115	645.44
331.344	546.44
331.572	489.44
331.801	483.44
332.03	487.44
332.258	485.44
332.486	434.44
332.715	431.44
332.943	437.44
333.172	441.44
333.4	434.44
333.629	447.44
333.857	456.44
334.085	465.44
334.314	481.44
334.542	536.44
334.771	546.44
334.999	494.44
335.227	444.44
335.455	433.44
335.684	427.44
335.912	417.44
336.14	392.44
336.369	431.44
336.597	414.44
336.825	427.44
337.053	442.44
337.281	409.44
337.51	402.44
337.738	407.44
337.966	435.44
338.194	410.44
338.422	437.44
338.65	398.44
338.878	391.44
339.106	390.44
339.334	403.44
339.562	374.44
339.79	379.44
340.018	384.44
340.246	398.44
340.474	408.44
340.702	406.44
340.93	410.44
341.158	405.44
341.386	407.44
341.614	412.44
341.842	402.44
342.07	408.44
342.298	387.44
342.526	395.44
342.754	370.44
342.981	398.44
343.209	367.44
343.437	385.44
343.665	378.44
343.893	390.44
344.12	404.44
344.348	399.44
344.576	411.44
344.804	402.44
345.031	410.44
345.259	429.44
345.487	417.44
345.714	403.44
345.942	402.44
346.17	404.44
346.397	379.44
346.625	379.44
346.853	395.44
347.08	395.44
347.308	404.44
347.535	408.44
347.763	404.44
347.99	387.44
348.218	424.44
348.445	424.44
348.673	413.44
348.9	394.44
349.128	375.44
349.355	377.44
349.583	388.44
349.81	383.44
350.037	357.44
350.265	383.44
350.492	409.44
350.72	384.44
350.947	385.44
351.174	404.44
351.402	409.44
351.629	408.44
351.856	402.44
352.083	406.44
352.311	418.44
352.538	434.44
352.765	426.44
352.992	423.44
353.22	405.44
353.447	412.44
353.674	388.44
353.901	393.44
354.128	373.44
354.355	369.44
354.583	359.44
354.81	381.44
355.037	360.44
355.264	357.44
355.491	365.44
355.718	367.44
355.945	367.44
356.172	351.44
356.399	350.44
356.626	374.44
356.853	336.44
357.08	359.44
357.307	361.44
357.534	368.44
357.761	369.44
357.988	356.44
358.215	349.44
358.441	356.44
358.668	354.44
358.895	375.44
359.122	367.44
359.349	380.44
359.576	404.44
359.802	421.44
360.029	455.44
360.256	464.44
360.483	461.44
360.709	397.44
360.936	396.44
361.163	401.44
361.39	406.44
361.616	391.44
361.843	378.44
362.07	385.44
362.296	412.44
362.523	392.44
362.749	386.44
362.976	389.44
363.203	376.44
363.429	369.44
363.656	373.44
363.882	384.44
364.109	351.44
364.335	371.44
364.562	367.44
364.788	369.44
365.015	397.44
365.241	378.44
365.468	381.44
365.694	376.44
365.92	381.44
366.147	378.44
366.373	361.44
366.599	367.44
366.826	370.44
367.052	345.44
367.278	349.44
367.505	361.44
367.731	364.44
367.957	373.44
368.184	371.44
368.41	388.44
368.636	398.44
368.862	388.44
369.089	376.44
369.315	359.44
369.541	356.44
369.767	372.44
369.993	354.44
370.219	380.44
370.445	388.44
370.672	361.44
370.898	358.44
371.124	361.44
371.35	360.44
371.576	361.44
371.802	343.44
372.028	354.44
372.254	365.44
372.48	356.44
372.706	367.44
372.932	359.44
373.158	361.44
373.384	355.44
373.61	357.44
373.835	345.44
374.061	363.44
374.287	373.44
374.513	364.44
374.739	361.44
374.965	369.44
375.191	367.44
375.416	377.44
375.642	362.44
375.868	357.44
376.094	379.44
376.319	353.44
376.545	369.44
376.771	347.44
376.997	379.44
377.222	370.44
377.448	365.44
377.674	345.44
377.899	369.44
378.125	351.44
378.35	332.44
378.576	348.44
378.802	364.44
379.027	360.44
379.253	354.44
379.478	340.44
379.704	349.44
379.929	355.44
380.155	343.44
380.38	336.44
380.606	329.44
380.831	359.44
381.057	360.44
381.282	352.44
381.507	364.44
381.733	373.44
381.958	364.44
382.184	370.44
382.409	374.44
382.634	348.44
382.86	367.44
383.085	351.44
383.31	349.44
383.535	367.44
383.761	364.44
383.986	356.44
384.211	372.44
384.436	373.44
384.662	363.44
384.887	371.44
385.112	369.44
385.337	372.44
385.562	378.44
385.787	361.44
386.013	399.44
386.238	372.44
386.463	376.44
386.688	368.44
386.913	374.44
387.138	368.44
387.363	373.44
387.588	389.44
387.813	375.44
388.038	377.44
388.263	389.44
388.488	368.44
388.713	353.44
388.938	386.44
389.163	391.44
389.387	374.44
389.612	372.44
389.837	372.44
390.062	377.44
390.287	384.44
390.512	378.44
390.736	377.44
390.961	379.44
391.186	383.44
391.411	373.44
391.636	374.44
391.86	358.44
392.085	375.44
392.31	392.44
392.534	390.44
392.759	383.44
392.984	396.44
393.208	375.44
393.433	376.44
393.658	373.44
393.882	375.44
394.107	375.44
394.331	375.44
394.556	389.44
394.78	384.44
395.005	375.44
395.229	363.44
395.454	389.44
395.678	397.44
395.903	393.44
396.127	428.44
396.352	419.44
396.576	417.44
396.801	382.44
397.025	377.44
397.249	400.44
397.474	387.44
397.698	399.44
397.922	402.44
398.147	407.44
398.371	417.44
398.595	419.44
398.82	424.44
399.044	434.44
399.268	425.44
399.492	457.44
399.717	448.44
399.941	497.44
400.165	509.44
400.389	532.44
400.613	477.44
400.837	453.44
401.062	449.44
401.286	435.44
401.51	449.44
401.734	419.44
401.958	437.44
402.182	448.44
402.406	452.44
402.63	447.44
402.854	439.44
403.078	417.44
403.302	439.44
403.526	442.44
403.75	453.44
403.974	443.44
404.198	426.44
404.422	467.44
404.645	449.44
404.869	467.44
405.093	484.44
405.317	539.44
405.541	573.44
405.765	517.44
405.988	486.44
406.212	487.44
406.436	531.44
406.66	528.44
406.883	488.44
407.107	498.44
407.331	529.44
407.555	607.44
407.778	602.44
408.002	551.44
408.226	509.44
408.449	498.44
408.673	499.44
408.896	519.44
409.12	563.44
409.344	529.44
409.567	493.44
409.791	464.44
410.014	444.44
410.238	446.44
410.461	441.44
410.685	440.44
410.908	474.44
411.132	505.44
411.355	531.44
411.578	503.44
411.802	476.44
412.025	460.44
412.249	460.44
412.472	475.44
412.695	525.44
412.919	530.44
413.142	465.44
413.365	453.44
413.589	440.44
413.812	421.44
414.035	394.44
414.258	433.44
414.482	418.44
414.705	429.44
414.928	416.44
415.151	400.44
415.374	427.44
415.597	413.44
415.821	411.44
416.044	424.44
416.267	419.44
416.49	438.44
416.713	415.44
416.936	417.44
417.159	434.44
417.382	443.44
417.605	447.44
417.828	460.44
418.051	468.44
418.274	455.44
418.497	450.44
418.72	417.44
418.943	396.44
419.166	447.44
419.389	462.44
419.611	470.44
419.834	447.44
420.057	466.44
420.28	441.44
420.503	472.44
420.726	468.44
420.948	464.44
421.171	540.44
421.394	540.44
421.617	479.44
421.839	482.44
422.062	446.44
422.285	473.44
422.507	528.44
422.73	595.44
422.953	585.44
423.175	538.44
423.398	475.44
423.621	478.44
423.843	482.44
424.066	499.44
424.288	505.44
424.511	523.44
424.733	572.44
424.956	647.44
425.178	635.44
425.401	624.44
425.623	659.44
425.846	559.44
426.068	502.44
426.291	500.44
426.513	513.44
426.735	496.44
426.958	541.44
427.18	660.44
427.402	749.44
427.625	852.44
427.847	768.44
428.069	673.44
428.292	605.44
428.514	513.44
428.736	516.44
428.958	480.44
429.181	466.44
429.403	470.44
429.625	483.44
429.847	517.44
430.069	556.44
430.292	582.44
430.514	495.44
430.736	475.44
430.958	470.44
431.18	423.44
431.402	432.44
431.624	441.44
431.846	434.44
432.068	437.44
432.29	453.44
432.512	448.44
432.734	445.44
432.956	455.44
433.178	456.44
433.4	458.44
433.622	418.44
433.844	456.44
434.066	445.44
434.287	433.44
434.509	444.44
434.731	443.44
434.953	451.44
435.175	472.44
435.397	483.44
435.618	519.44
435.84	577.44
436.062	653.44
436.284	708.44
436.505	607.44
436.727	541.44
436.949	485.44
437.17	499.44
437.392	468.44
437.614	491.44
437.835	524.44
438.057	631.44
438.278	736.44
438.5	733.44
438.721	768.44
438.943	745.44
439.165	607.44
439.386	538.44
439.608	540.44
439.829	547.44
440.05	581.44
440.272	620.44
440.493	567.44
440.715	524.44
440.936	493.44
441.158	474.44
441.379	500.44
441.6	483.44
441.822	526.44
442.043	549.44
442.264	634.44
442.486	657.44
442.707	556.44
442.928	539.44
443.149	539.44
443.371	556.44
443.592	616.44
443.813	695.44
444.034	725.44
444.255	622.44
444.476	536.44
444.698	525.44
444.919	513.44
445.14	595.44
445.361	566.44
445.582	576.44
445.803	608.44
446.024	721.44
446.245	727.44
446.466	683.44
446.687	584.44
446.908	565.44
447.129	500.44
447.35	467.44
447.571	486.44
447.792	484.44
448.013	497.44
448.234	503.44
448.455	548.44
448.675	646.44
448.896	794.44
449.117	663.44
449.338	623.44
449.559	724.44
449.779	805.44
450	676.44
450.221	548.44
450.442	523.44
450.662	499.44
450.883	492.44
451.104	505.44
451.324	489.44
451.545	457.44
451.766	466.44
451.986	450.44
452.207	439.44
452.428	426.44
452.648	411.44
452.869	424.44
453.089	434.44
453.31	463.44
453.53	438.44
453.751	425.44
453.971	451.44
454.192	453.44
454.412	437.44
454.633	429.44
454.853	439.44
455.073	440.44
455.294	468.44
455.514	532.44
455.734	558.44
455.955	442.44
456.175	411.44
456.395	401.44
456.616	408.44
456.836	379.44
457.056	404.44
457.276	376.44
457.497	383.44
457.717	388.44
457.937	402.44
458.157	429.44
458.377	419.44
458.598	449.44
458.818	524.44
459.038	616.44
459.258	644.44
459.478	488.44
459.698	446.44
459.918	458.44
460.138	437.44
460.358	427.44
460.578	447.44
460.798	427.44
461.018	428.44
461.238	433.44
461.458	429.44
461.678	419.44
461.898	433.44
462.118	402.44
462.338	425.44
462.558	405.44
462.777	408.44
462.997	455.44
463.217	447.44
463.437	447.44
463.657	428.44
463.876	456.44
464.096	451.44
464.316	457.44
464.536	462.44
464.755	462.44
464.975	454.44
465.195	514.44
465.414	636.44
465.634	542.44
465.854	511.44
466.073	461.44
466.293	437.44
466.512	421.44
466.732	436.44
466.951	439.44
467.171	433.44
467.391	436.44
467.61	428.44
467.829	439.44
468.049	460.44
468.268	444.44
468.488	432.44
468.707	447.44
468.927	437.44
469.146	405.44
469.365	422.44
469.585	405.44
469.804	439.44
470.023	464.44
470.243	442.44
470.462	438.44
470.681	468.44
470.901	452.44
471.12	458.44
471.339	449.44
471.558	435.44
471.777	443.44
471.997	426.44
472.216	432.44
472.435	493.44
472.654	456.44
472.873	449.44
473.092	441.44
473.311	436.44
473.53	446.44
473.749	439.44
473.968	489.44
474.187	600.44
474.406	663.44
474.625	527.44
474.844	464.44
475.063	443.44
475.282	447.44
475.501	437.44
475.72	437.44
475.939	443.44
476.158	441.44
476.377	438.44
476.596	457.44
476.814	447.44
477.033	452.44
477.252	451.44
477.471	475.44
477.69	462.44
477.908	460.44
478.127	469.44
478.346	463.44
478.564	476.44
478.783	475.44
479.002	481.44
479.22	490.44
479.439	519.44
479.658	521.44
479.876	528.44
480.095	565.44
480.313	555.44
480.532	556.44
480.751	529.44
480.969	540.44
481.188	635.44
481.406	693.44
481.624	594.44
481.843	562.44
482.061	522.44
482.28	533.44
482.498	526.44
482.717	550.44
482.935	525.44
483.153	521.44
483.372	556.44
483.59	504.44
483.808	520.44
484.027	519.44
484.245	525.44
484.463	499.44
484.681	523.44
484.9	529.44
485.118	536.44
485.336	532.44
485.554	518.44
485.772	528.44
485.99	529.44
486.209	544.44
486.427	549.44
486.645	524.44
486.863	594.44
487.081	596.44
487.299	573.44
487.517	565.44
487.735	558.44
487.953	550.44
488.171	589.44
488.389	559.44
488.607	556.44
488.825	579.44
489.043	565.44
489.261	574.44
489.479	559.44
489.696	590.44
489.914	591.44
490.132	586.44
490.35	580.44
490.568	604.44
490.786	601.44
491.003	606.44
491.221	636.44
491.439	647.44
491.657	650.44
491.874	642.44
492.092	651.44
492.31	652.44
492.527	643.44
492.745	667.44
492.963	672.44
493.18	684.44
493.398	659.44
493.615	685.44
493.833	676.44
494.05	681.44
494.268	670.44
494.485	679.44
494.703	669.44
494.92	689.44
495.138	703.44
495.355	687.44
495.573	685.44
495.79	681.44
496.008	674.44
496.225	665.44
496.442	675.44
496.66	676.44
496.877	649.44
497.094	674.44
497.312	673.44
497.529	695.44
497.746	699.44
497.963	700.44
498.181	723.44
498.398	718.44
498.615	703.44
498.832	710.44
499.049	726.44
499.267	742.44
499.484	722.44
499.701	756.44
499.918	767.44
500.135	781.44
500.352	811.44
500.569	796.44
500.786	839.44
501.003	802.44
501.22	792.44
501.437	788.44
501.654	790.44
501.871	792.44
