Data from 1980.PennyLincolnUp.Lamp.En5.5.200Scan.071819.P1_HRD10591_16-36-40-956.txt Node
Date: Thu Jul 18 16:36:40 EDT 2019
User: cochatt
Spectrometer: HR+D1059
Trigger mode: 1
Integration Time (sec): 1.000000E-1
Scans to average: 1
Electric dark correction enabled: true
Nonlinearity correction enabled: false
Boxcar width: 0
XAxis mode: Wavelengths
Number of Pixels in Spectrum: 2048
>>>>>Begin Spectral Data<<<<<
223.165	-19.38
223.4	-19.38
223.635	-19.38
223.869	-30.38
224.104	-14.38
224.338	-0.38
224.573	-23.38
224.808	-8.38
225.042	1.62
225.277	-6.38
225.511	-2.38
225.746	-6.38
225.98	14.62
226.215	13.62
226.449	8.62
226.683	12.62
226.918	25.62
227.152	34.62
227.387	30.62
227.621	38.62
227.856	41.62
228.09	32.62
228.324	52.62
228.559	56.62
228.793	60.62
229.027	99.62
229.262	84.62
229.496	119.62
229.73	133.62
229.964	147.62
230.199	131.62
230.433	118.62
230.667	106.62
230.901	123.62
231.136	116.62
231.37	102.62
231.604	118.62
231.838	113.62
232.072	125.62
232.306	111.62
232.541	106.62
232.775	113.62
233.009	119.62
233.243	107.62
233.477	109.62
233.711	108.62
233.945	102.62
234.179	102.62
234.413	115.62
234.647	110.62
234.881	104.62
235.115	105.62
235.349	114.62
235.583	125.62
235.817	115.62
236.051	123.62
236.285	122.62
236.519	113.62
236.753	130.62
236.987	155.62
237.221	170.62
237.455	219.62
237.689	179.62
237.922	144.62
238.156	129.62
238.39	127.62
238.624	133.62
238.858	127.62
239.091	108.62
239.325	107.62
239.559	134.62
239.793	120.62
240.027	131.62
240.26	132.62
240.494	138.62
240.728	157.62
240.961	142.62
241.195	143.62
241.429	127.62
241.662	114.62
241.896	130.62
242.13	128.62
242.363	131.62
242.597	125.62
242.83	126.62
243.064	133.62
243.298	115.62
243.531	118.62
243.765	134.62
243.998	133.62
244.232	140.62
244.465	133.62
244.699	144.62
244.932	145.62
245.166	136.62
245.399	139.62
245.633	130.62
245.866	121.62
246.099	143.62
246.333	152.62
246.566	137.62
246.8	142.62
247.033	143.62
247.266	140.62
247.5	141.62
247.733	169.62
247.966	142.62
248.2	165.62
248.433	164.62
248.666	168.62
248.899	171.62
249.133	183.62
249.366	194.62
249.599	189.62
249.832	182.62
250.066	167.62
250.299	182.62
250.532	181.62
250.765	204.62
250.998	212.62
251.231	211.62
251.465	197.62
251.698	181.62
251.931	187.62
252.164	180.62
252.397	196.62
252.63	195.62
252.863	189.62
253.096	208.62
253.329	220.62
253.562	221.62
253.795	220.62
254.028	202.62
254.261	213.62
254.494	227.62
254.727	237.62
254.96	259.62
255.193	259.62
255.426	224.62
255.659	245.62
255.892	226.62
256.124	218.62
256.357	236.62
256.59	220.62
256.823	211.62
257.056	213.62
257.289	209.62
257.521	196.62
257.754	189.62
257.987	198.62
258.22	208.62
258.452	187.62
258.685	211.62
258.918	196.62
259.151	186.62
259.383	222.62
259.616	226.62
259.849	232.62
260.081	228.62
260.314	218.62
260.547	236.62
260.779	239.62
261.012	234.62
261.244	209.62
261.477	230.62
261.71	209.62
261.942	213.62
262.175	233.62
262.407	219.62
262.64	209.62
262.872	195.62
263.105	192.62
263.337	202.62
263.57	207.62
263.802	190.62
264.035	190.62
264.267	197.62
264.499	209.62
264.732	206.62
264.964	208.62
265.197	199.62
265.429	191.62
265.661	208.62
265.894	212.62
266.126	195.62
266.358	202.62
266.591	204.62
266.823	194.62
267.055	228.62
267.287	206.62
267.52	203.62
267.752	218.62
267.984	200.62
268.216	219.62
268.448	211.62
268.681	199.62
268.913	220.62
269.145	233.62
269.377	250.62
269.609	248.62
269.841	243.62
270.073	237.62
270.306	272.62
270.538	318.62
270.77	305.62
271.002	275.62
271.234	277.62
271.466	286.62
271.698	284.62
271.93	289.62
272.162	297.62
272.394	290.62
272.626	295.62
272.858	245.62
273.09	253.62
273.322	246.62
273.553	242.62
273.785	239.62
274.017	239.62
274.249	254.62
274.481	250.62
274.713	255.62
274.945	250.62
275.176	213.62
275.408	244.62
275.64	236.62
275.872	221.62
276.104	246.62
276.335	234.62
276.567	241.62
276.799	257.62
277.031	299.62
277.262	291.62
277.494	269.62
277.726	277.62
277.957	258.62
278.189	241.62
278.421	251.62
278.652	238.62
278.884	234.62
279.115	225.62
279.347	241.62
279.579	238.62
279.81	235.62
280.042	244.62
280.273	230.62
280.505	214.62
280.736	239.62
280.968	224.62
281.199	229.62
281.431	227.62
281.662	229.62
281.894	245.62
282.125	231.62
282.356	257.62
282.588	281.62
282.819	276.62
283.051	254.62
283.282	242.62
283.513	241.62
283.745	243.62
283.976	251.62
284.207	241.62
284.439	252.62
284.67	234.62
284.901	247.62
285.132	238.62
285.364	247.62
285.595	249.62
285.826	259.62
286.057	245.62
286.288	253.62
286.52	253.62
286.751	231.62
286.982	251.62
287.213	253.62
287.444	253.62
287.675	250.62
287.906	239.62
288.138	278.62
288.369	265.62
288.6	250.62
288.831	264.62
289.062	270.62
289.293	245.62
289.524	253.62
289.755	267.62
289.986	264.62
290.217	249.62
290.448	230.62
290.679	257.62
290.91	241.62
291.141	250.62
291.371	248.62
291.602	255.62
291.833	243.62
292.064	238.62
292.295	245.62
292.526	255.62
292.757	250.62
292.987	244.62
293.218	250.62
293.449	265.62
293.68	248.62
293.91	235.62
294.141	277.62
294.372	247.62
294.603	245.62
294.833	250.62
295.064	245.62
295.295	239.62
295.525	242.62
295.756	271.62
295.987	242.62
296.217	305.62
296.448	283.62
296.679	268.62
296.909	256.62
297.14	263.62
297.37	270.62
297.601	269.62
297.831	258.62
298.062	257.62
298.292	241.62
298.523	262.62
298.753	263.62
298.984	269.62
299.214	269.62
299.445	264.62
299.675	254.62
299.905	278.62
300.136	253.62
300.366	263.62
300.597	283.62
300.827	279.62
301.057	272.62
301.288	273.62
301.518	271.62
301.748	272.62
301.979	259.62
302.209	287.62
302.439	274.62
302.669	276.62
302.9	274.62
303.13	261.62
303.36	271.62
303.59	289.62
303.82	284.62
304.051	289.62
304.281	289.62
304.511	288.62
304.741	286.62
304.971	281.62
305.201	277.62
305.431	277.62
305.661	274.62
305.891	277.62
306.121	289.62
306.352	268.62
306.582	293.62
306.812	275.62
307.042	287.62
307.272	265.62
307.502	300.62
307.731	294.62
307.961	295.62
308.191	285.62
308.421	287.62
308.651	284.62
308.881	307.62
309.111	294.62
309.341	303.62
309.571	311.62
309.8	329.62
310.03	336.62
310.26	331.62
310.49	326.62
310.72	337.62
310.949	353.62
311.179	353.62
311.409	332.62
311.639	316.62
311.868	342.62
312.098	338.62
312.328	335.62
312.557	361.62
312.787	365.62
313.017	378.62
313.246	363.62
313.476	325.62
313.706	342.62
313.935	330.62
314.165	349.62
314.394	342.62
314.624	359.62
314.853	339.62
315.083	339.62
315.312	334.62
315.542	328.62
315.771	304.62
316.001	327.62
316.23	326.62
316.46	314.62
316.689	309.62
316.919	321.62
317.148	320.62
317.377	349.62
317.607	330.62
317.836	322.62
318.065	327.62
318.295	323.62
318.524	307.62
318.753	322.62
318.983	311.62
319.212	313.62
319.441	331.62
319.67	322.62
319.9	346.62
320.129	324.62
320.358	302.62
320.587	329.62
320.816	342.62
321.046	367.62
321.275	349.62
321.504	364.62
321.733	352.62
321.962	373.62
322.191	369.62
322.42	359.62
322.649	395.62
322.878	413.62
323.108	413.62
323.337	436.62
323.566	454.62
323.795	471.62
324.024	511.62
324.253	623.62
324.482	906.62
324.71	1359.62
324.939	2013.62
325.168	1770.62
325.397	911.62
325.626	614.62
325.855	519.62
326.084	454.62
326.313	466.62
326.542	461.62
326.77	488.62
326.999	574.62
327.228	801.62
327.457	1211.62
327.686	1513.62
327.914	1034.62
328.143	671.62
328.372	569.62
328.6	562.62
328.829	500.62
329.058	531.62
329.287	515.62
329.515	498.62
329.744	434.62
329.972	462.62
330.201	479.62
330.43	484.62
330.658	525.62
330.887	558.62
331.115	528.62
331.344	465.62
331.572	435.62
331.801	443.62
332.03	417.62
332.258	419.62
332.486	382.62
332.715	391.62
332.943	385.62
333.172	368.62
333.4	388.62
333.629	389.62
333.857	414.62
334.085	430.62
334.314	406.62
334.542	435.62
334.771	468.62
334.999	414.62
335.227	412.62
335.455	385.62
335.684	373.62
335.912	385.62
336.14	359.62
336.369	391.62
336.597	373.62
336.825	380.62
337.053	385.62
337.281	371.62
337.51	351.62
337.738	377.62
337.966	365.62
338.194	365.62
338.422	370.62
338.65	377.62
338.878	365.62
339.106	366.62
339.334	364.62
339.562	371.62
339.79	349.62
340.018	361.62
340.246	362.62
340.474	386.62
340.702	381.62
340.93	380.62
341.158	351.62
341.386	364.62
341.614	364.62
341.842	372.62
342.07	353.62
342.298	366.62
342.526	333.62
342.754	363.62
342.981	376.62
343.209	337.62
343.437	359.62
343.665	355.62
343.893	354.62
344.12	369.62
344.348	383.62
344.576	362.62
344.804	379.62
345.031	385.62
345.259	369.62
345.487	374.62
345.714	366.62
345.942	365.62
346.17	346.62
346.397	362.62
346.625	357.62
346.853	370.62
347.08	363.62
347.308	382.62
347.535	369.62
347.763	359.62
347.99	357.62
348.218	373.62
348.445	379.62
348.673	359.62
348.9	369.62
349.128	348.62
349.355	354.62
349.583	359.62
349.81	340.62
350.037	338.62
350.265	357.62
350.492	351.62
350.72	346.62
350.947	359.62
351.174	362.62
351.402	377.62
351.629	360.62
351.856	368.62
352.083	379.62
352.311	367.62
352.538	389.62
352.765	377.62
352.992	369.62
353.22	354.62
353.447	375.62
353.674	350.62
353.901	329.62
354.128	340.62
354.355	327.62
354.583	341.62
354.81	321.62
355.037	335.62
355.264	333.62
355.491	328.62
355.718	306.62
355.945	356.62
356.172	319.62
356.399	325.62
356.626	345.62
356.853	345.62
357.08	323.62
357.307	329.62
357.534	335.62
357.761	338.62
357.988	339.62
358.215	321.62
358.441	333.62
358.668	338.62
358.895	342.62
359.122	367.62
359.349	371.62
359.576	362.62
359.802	389.62
360.029	401.62
360.256	397.62
360.483	399.62
360.709	370.62
360.936	364.62
361.163	349.62
361.39	369.62
361.616	341.62
361.843	372.62
362.07	341.62
362.296	360.62
362.523	356.62
362.749	355.62
362.976	359.62
363.203	335.62
363.429	335.62
363.656	355.62
363.882	348.62
364.109	353.62
364.335	351.62
364.562	324.62
364.788	329.62
365.015	359.62
365.241	336.62
365.468	363.62
365.694	363.62
365.92	363.62
366.147	348.62
366.373	342.62
366.599	340.62
366.826	319.62
367.052	327.62
367.278	342.62
367.505	348.62
367.731	353.62
367.957	333.62
368.184	348.62
368.41	339.62
368.636	351.62
368.862	354.62
369.089	334.62
369.315	332.62
369.541	336.62
369.767	341.62
369.993	352.62
370.219	340.62
370.445	345.62
370.672	341.62
370.898	356.62
371.124	339.62
371.35	346.62
371.576	344.62
371.802	334.62
372.028	333.62
372.254	337.62
372.48	333.62
372.706	333.62
372.932	343.62
373.158	357.62
373.384	345.62
373.61	337.62
373.835	339.62
374.061	353.62
374.287	335.62
374.513	341.62
374.739	344.62
374.965	339.62
375.191	331.62
375.416	341.62
375.642	356.62
375.868	358.62
376.094	346.62
376.319	329.62
376.545	338.62
376.771	340.62
376.997	343.62
377.222	326.62
377.448	335.62
377.674	327.62
377.899	339.62
378.125	334.62
378.35	325.62
378.576	339.62
378.802	336.62
379.027	309.62
379.253	339.62
379.478	339.62
379.704	335.62
379.929	345.62
380.155	351.62
380.38	333.62
380.606	337.62
380.831	343.62
381.057	335.62
381.282	351.62
381.507	345.62
381.733	334.62
381.958	342.62
382.184	348.62
382.409	346.62
382.634	354.62
382.86	347.62
383.085	352.62
383.31	358.62
383.535	349.62
383.761	343.62
383.986	345.62
384.211	359.62
384.436	342.62
384.662	339.62
384.887	355.62
385.112	362.62
385.337	351.62
385.562	357.62
385.787	346.62
386.013	371.62
386.238	348.62
386.463	366.62
386.688	343.62
386.913	352.62
387.138	365.62
387.363	371.62
387.588	367.62
387.813	366.62
388.038	374.62
388.263	349.62
388.488	360.62
388.713	381.62
388.938	364.62
389.163	358.62
389.387	372.62
389.612	366.62
389.837	367.62
390.062	349.62
390.287	372.62
390.512	365.62
390.736	367.62
390.961	376.62
391.186	365.62
391.411	361.62
391.636	350.62
391.86	379.62
392.085	381.62
392.31	375.62
392.534	390.62
392.759	362.62
392.984	362.62
393.208	363.62
393.433	375.62
393.658	377.62
393.882	355.62
394.107	357.62
394.331	362.62
394.556	361.62
394.78	353.62
395.005	354.62
395.229	366.62
395.454	382.62
395.678	382.62
395.903	388.62
396.127	398.62
396.352	401.62
396.576	396.62
396.801	363.62
397.025	370.62
397.249	373.62
397.474	371.62
397.698	390.62
397.922	380.62
398.147	391.62
398.371	413.62
398.595	387.62
398.82	401.62
399.044	392.62
399.268	407.62
399.492	414.62
399.717	453.62
399.941	463.62
400.165	500.62
400.389	502.62
400.613	476.62
400.837	435.62
401.062	425.62
401.286	402.62
401.51	407.62
401.734	396.62
401.958	430.62
402.182	426.62
402.406	425.62
402.63	425.62
402.854	376.62
403.078	423.62
403.302	405.62
403.526	411.62
403.75	424.62
403.974	421.62
404.198	409.62
404.422	426.62
404.645	424.62
404.869	424.62
405.093	450.62
405.317	487.62
405.541	508.62
405.765	478.62
405.988	452.62
406.212	466.62
406.436	487.62
406.66	479.62
406.883	462.62
407.107	480.62
407.331	497.62
407.555	573.62
407.778	579.62
408.002	526.62
408.226	477.62
408.449	467.62
408.673	482.62
408.896	503.62
409.12	519.62
409.344	499.62
409.567	469.62
409.791	430.62
410.014	437.62
410.238	441.62
410.461	430.62
410.685	453.62
410.908	455.62
411.132	456.62
411.355	507.62
411.578	456.62
411.802	454.62
412.025	428.62
412.249	437.62
412.472	427.62
412.695	485.62
412.919	486.62
413.142	458.62
413.365	422.62
413.589	405.62
413.812	406.62
414.035	419.62
414.258	425.62
414.482	406.62
414.705	414.62
414.928	402.62
415.151	394.62
415.374	409.62
415.597	400.62
415.821	408.62
416.044	406.62
416.267	413.62
416.49	379.62
416.713	422.62
416.936	397.62
417.159	391.62
417.382	405.62
417.605	424.62
417.828	419.62
418.051	435.62
418.274	417.62
418.497	406.62
418.72	399.62
418.943	417.62
419.166	419.62
419.389	448.62
419.611	429.62
419.834	435.62
420.057	437.62
420.28	434.62
420.503	448.62
420.726	415.62
420.948	442.62
421.171	497.62
421.394	531.62
421.617	453.62
421.839	437.62
422.062	435.62
422.285	435.62
422.507	491.62
422.73	565.62
422.953	569.62
423.175	477.62
423.398	441.62
423.621	464.62
423.843	465.62
424.066	471.62
424.288	477.62
424.511	489.62
424.733	541.62
424.956	595.62
425.178	605.62
425.401	588.62
425.623	602.62
425.846	516.62
426.068	495.62
426.291	461.62
426.513	472.62
426.735	483.62
426.958	503.62
427.18	613.62
427.402	725.62
427.625	799.62
427.847	713.62
428.069	629.62
428.292	515.62
428.514	485.62
428.736	476.62
428.958	459.62
429.181	448.62
429.403	460.62
429.625	453.62
429.847	490.62
430.069	535.62
430.292	549.62
430.514	447.62
430.736	443.62
430.958	429.62
431.18	421.62
431.402	425.62
431.624	421.62
431.846	413.62
432.068	403.62
432.29	407.62
432.512	419.62
432.734	433.62
432.956	435.62
433.178	408.62
433.4	447.62
433.622	412.62
433.844	417.62
434.066	414.62
434.287	417.62
434.509	414.62
434.731	419.62
434.953	427.62
435.175	434.62
435.397	468.62
435.618	482.62
435.84	512.62
436.062	595.62
436.284	657.62
436.505	551.62
436.727	474.62
436.949	449.62
437.17	450.62
437.392	460.62
437.614	469.62
437.835	498.62
438.057	581.62
438.278	657.62
438.5	661.62
438.721	715.62
438.943	697.62
439.165	553.62
439.386	499.62
439.608	478.62
439.829	488.62
440.05	509.62
440.272	544.62
440.493	518.62
440.715	497.62
440.936	481.62
441.158	446.62
441.379	438.62
441.6	451.62
441.822	485.62
442.043	484.62
442.264	598.62
442.486	615.62
442.707	531.62
442.928	489.62
443.149	502.62
443.371	520.62
443.592	581.62
443.813	620.62
444.034	663.62
444.255	551.62
444.476	524.62
444.698	484.62
444.919	482.62
445.14	558.62
445.361	533.62
445.582	522.62
445.803	567.62
446.024	648.62
446.245	665.62
446.466	603.62
446.687	505.62
446.908	505.62
447.129	448.62
447.35	463.62
447.571	434.62
447.792	438.62
448.013	459.62
448.234	463.62
448.455	531.62
448.675	612.62
448.896	697.62
449.117	613.62
449.338	589.62
449.559	667.62
449.779	737.62
450	622.62
450.221	503.62
450.442	476.62
450.662	453.62
450.883	452.62
451.104	476.62
451.324	448.62
451.545	429.62
451.766	414.62
451.986	420.62
452.207	396.62
452.428	374.62
452.648	391.62
452.869	394.62
453.089	413.62
453.31	433.62
453.53	415.62
453.751	390.62
453.971	413.62
454.192	427.62
454.412	422.62
454.633	396.62
454.853	403.62
455.073	389.62
455.294	419.62
455.514	473.62
455.734	468.62
455.955	393.62
456.175	369.62
456.395	364.62
456.616	383.62
456.836	377.62
457.056	355.62
457.276	373.62
457.497	383.62
457.717	359.62
457.937	381.62
458.157	363.62
458.377	385.62
458.598	417.62
458.818	446.62
459.038	545.62
459.258	559.62
459.478	454.62
459.698	429.62
459.918	422.62
460.138	401.62
460.358	421.62
460.578	401.62
460.798	391.62
461.018	435.62
461.238	390.62
461.458	417.62
461.678	407.62
461.898	407.62
462.118	391.62
462.338	419.62
462.558	413.62
462.777	426.62
462.997	420.62
463.217	423.62
463.437	432.62
463.657	433.62
463.876	439.62
464.096	444.62
464.316	436.62
464.536	440.62
464.755	445.62
464.975	442.62
465.195	495.62
465.414	572.62
465.634	509.62
465.854	453.62
466.073	436.62
466.293	418.62
466.512	394.62
466.732	376.62
466.951	405.62
467.171	409.62
467.391	413.62
467.61	402.62
467.829	427.62
468.049	410.62
468.268	412.62
468.488	380.62
468.707	381.62
468.927	403.62
469.146	389.62
469.365	379.62
469.585	395.62
469.804	402.62
470.023	414.62
470.243	441.62
470.462	412.62
470.681	415.62
470.901	425.62
471.12	415.62
471.339	405.62
471.558	410.62
471.777	402.62
471.997	397.62
472.216	414.62
472.435	424.62
472.654	412.62
472.873	391.62
473.092	424.62
473.311	397.62
473.53	405.62
473.749	439.62
473.968	459.62
474.187	540.62
474.406	565.62
474.625	471.62
474.844	429.62
475.063	405.62
475.282	418.62
475.501	422.62
475.72	437.62
475.939	421.62
476.158	411.62
476.377	420.62
476.596	428.62
476.814	432.62
477.033	423.62
477.252	418.62
477.471	414.62
477.69	440.62
477.908	421.62
478.127	453.62
478.346	439.62
478.564	462.62
478.783	446.62
479.002	468.62
479.22	460.62
479.439	493.62
479.658	490.62
479.876	497.62
480.095	518.62
480.313	521.62
480.532	468.62
480.751	513.62
480.969	463.62
481.188	573.62
481.406	565.62
481.624	527.62
481.843	481.62
482.061	483.62
482.28	499.62
482.498	481.62
482.717	486.62
482.935	486.62
483.153	468.62
483.372	463.62
483.59	499.62
483.808	477.62
484.027	491.62
484.245	474.62
484.463	479.62
484.681	507.62
484.9	473.62
485.118	502.62
485.336	498.62
485.554	480.62
485.772	473.62
485.99	488.62
486.209	509.62
486.427	498.62
486.645	501.62
486.863	539.62
487.081	517.62
487.299	541.62
487.517	519.62
487.735	513.62
487.953	521.62
488.171	517.62
488.389	516.62
488.607	527.62
488.825	523.62
489.043	529.62
489.261	545.62
489.479	540.62
489.696	549.62
489.914	539.62
490.132	544.62
490.35	563.62
490.568	577.62
490.786	553.62
491.003	561.62
491.221	569.62
491.439	586.62
491.657	587.62
491.874	602.62
492.092	621.62
492.31	618.62
492.527	601.62
492.745	616.62
492.963	585.62
493.18	594.62
493.398	604.62
493.615	624.62
493.833	643.62
494.05	589.62
494.268	622.62
494.485	627.62
494.703	614.62
494.92	603.62
495.138	618.62
495.355	623.62
495.573	633.62
495.79	611.62
496.008	637.62
496.225	618.62
496.442	633.62
496.66	614.62
496.877	608.62
497.094	636.62
497.312	611.62
497.529	637.62
497.746	643.62
497.963	643.62
498.181	656.62
498.398	666.62
498.615	666.62
498.832	658.62
499.049	652.62
499.267	664.62
499.484	718.62
499.701	717.62
499.918	715.62
500.135	767.62
500.352	741.62
500.569	771.62
500.786	805.62
501.003	771.62
501.22	754.62
501.437	743.62
501.654	766.62
501.871	759.62
