Data from 1980.PennyLincolnUp.Lamp.En5.5.200Scan.071819.P1_HRD10591_16-37-04-956.txt Node
Date: Thu Jul 18 16:37:04 EDT 2019
User: cochatt
Spectrometer: HR+D1059
Trigger mode: 1
Integration Time (sec): 1.000000E-1
Scans to average: 1
Electric dark correction enabled: true
Nonlinearity correction enabled: false
Boxcar width: 0
XAxis mode: Wavelengths
Number of Pixels in Spectrum: 2048
>>>>>Begin Spectral Data<<<<<
223.165	0.25
223.4	0.25
223.635	0.25
223.869	-3.75
224.104	-20.75
224.338	-11.75
224.573	-6.75
224.808	-8.75
225.042	-10.75
225.277	-21.75
225.511	-11.75
225.746	5.25
225.98	9.25
226.215	0.25
226.449	18.25
226.683	30.25
226.918	20.25
227.152	12.25
227.387	35.25
227.621	28.25
227.856	39.25
228.09	42.25
228.324	20.25
228.559	51.25
228.793	64.25
229.027	79.25
229.262	107.25
229.496	102.25
229.73	123.25
229.964	165.25
230.199	152.25
230.433	113.25
230.667	107.25
230.901	111.25
231.136	96.25
231.37	100.25
231.604	107.25
231.838	107.25
232.072	106.25
232.306	123.25
232.541	104.25
232.775	116.25
233.009	115.25
233.243	106.25
233.477	97.25
233.711	98.25
233.945	114.25
234.179	104.25
234.413	107.25
234.647	114.25
234.881	119.25
235.115	109.25
235.349	120.25
235.583	117.25
235.817	102.25
236.051	127.25
236.285	106.25
236.519	122.25
236.753	136.25
236.987	154.25
237.221	181.25
237.455	239.25
237.689	176.25
237.922	133.25
238.156	127.25
238.39	117.25
238.624	107.25
238.858	120.25
239.091	114.25
239.325	123.25
239.559	122.25
239.793	111.25
240.027	135.25
240.26	129.25
240.494	152.25
240.728	142.25
240.961	141.25
241.195	125.25
241.429	140.25
241.662	123.25
241.896	139.25
242.13	147.25
242.363	124.25
242.597	128.25
242.83	127.25
243.064	131.25
243.298	128.25
243.531	126.25
243.765	126.25
243.998	137.25
244.232	134.25
244.465	130.25
244.699	136.25
244.932	139.25
245.166	128.25
245.399	154.25
245.633	151.25
245.866	136.25
246.099	145.25
246.333	133.25
246.566	142.25
246.8	145.25
247.033	148.25
247.266	150.25
247.5	145.25
247.733	161.25
247.966	149.25
248.2	169.25
248.433	191.25
248.666	167.25
248.899	181.25
249.133	194.25
249.366	225.25
249.599	204.25
249.832	190.25
250.066	172.25
250.299	171.25
250.532	186.25
250.765	197.25
250.998	218.25
251.231	223.25
251.465	204.25
251.698	213.25
251.931	202.25
252.164	194.25
252.397	197.25
252.63	188.25
252.863	199.25
253.096	199.25
253.329	237.25
253.562	210.25
253.795	222.25
254.028	228.25
254.261	216.25
254.494	225.25
254.727	271.25
254.96	275.25
255.193	281.25
255.426	256.25
255.659	250.25
255.892	227.25
256.124	225.25
256.357	213.25
256.59	224.25
256.823	220.25
257.056	205.25
257.289	217.25
257.521	215.25
257.754	208.25
257.987	202.25
258.22	183.25
258.452	186.25
258.685	218.25
258.918	195.25
259.151	192.25
259.383	214.25
259.616	203.25
259.849	226.25
260.081	213.25
260.314	234.25
260.547	263.25
260.779	230.25
261.012	231.25
261.244	230.25
261.477	243.25
261.71	210.25
261.942	216.25
262.175	241.25
262.407	250.25
262.64	203.25
262.872	205.25
263.105	197.25
263.337	191.25
263.57	219.25
263.802	204.25
264.035	207.25
264.267	212.25
264.499	202.25
264.732	208.25
264.964	202.25
265.197	195.25
265.429	198.25
265.661	205.25
265.894	187.25
266.126	202.25
266.358	189.25
266.591	203.25
266.823	224.25
267.055	223.25
267.287	199.25
267.52	204.25
267.752	213.25
267.984	205.25
268.216	207.25
268.448	225.25
268.681	232.25
268.913	225.25
269.145	238.25
269.377	263.25
269.609	275.25
269.841	258.25
270.073	273.25
270.306	275.25
270.538	311.25
270.77	314.25
271.002	299.25
271.234	267.25
271.466	295.25
271.698	310.25
271.93	307.25
272.162	308.25
272.394	291.25
272.626	298.25
272.858	283.25
273.09	260.25
273.322	261.25
273.553	263.25
273.785	236.25
274.017	244.25
274.249	267.25
274.481	243.25
274.713	231.25
274.945	256.25
275.176	248.25
275.408	261.25
275.64	239.25
275.872	232.25
276.104	236.25
276.335	256.25
276.567	257.25
276.799	275.25
277.031	295.25
277.262	303.25
277.494	318.25
277.726	294.25
277.957	273.25
278.189	271.25
278.421	273.25
278.652	264.25
278.884	244.25
279.115	247.25
279.347	232.25
279.579	266.25
279.81	242.25
280.042	246.25
280.273	228.25
280.505	234.25
280.736	231.25
280.968	250.25
281.199	237.25
281.431	234.25
281.662	242.25
281.894	245.25
282.125	270.25
282.356	270.25
282.588	308.25
282.819	298.25
283.051	261.25
283.282	253.25
283.513	242.25
283.745	255.25
283.976	256.25
284.207	248.25
284.439	243.25
284.67	247.25
284.901	264.25
285.132	248.25
285.364	258.25
285.595	255.25
285.826	243.25
286.057	262.25
286.288	268.25
286.52	254.25
286.751	245.25
286.982	244.25
287.213	272.25
287.444	267.25
287.675	268.25
287.906	257.25
288.138	276.25
288.369	282.25
288.6	285.25
288.831	263.25
289.062	274.25
289.293	259.25
289.524	273.25
289.755	255.25
289.986	265.25
290.217	267.25
290.448	264.25
290.679	242.25
290.91	264.25
291.141	246.25
291.371	269.25
291.602	251.25
291.833	253.25
292.064	263.25
292.295	252.25
292.526	255.25
292.757	255.25
292.987	253.25
293.218	247.25
293.449	243.25
293.68	241.25
293.91	261.25
294.141	277.25
294.372	264.25
294.603	253.25
294.833	246.25
295.064	263.25
295.295	284.25
295.525	263.25
295.756	251.25
295.987	288.25
296.217	293.25
296.448	321.25
296.679	285.25
296.909	281.25
297.14	260.25
297.37	266.25
297.601	267.25
297.831	251.25
298.062	283.25
298.292	275.25
298.523	276.25
298.753	275.25
298.984	263.25
299.214	269.25
299.445	264.25
299.675	269.25
299.905	299.25
300.136	275.25
300.366	269.25
300.597	277.25
300.827	284.25
301.057	293.25
301.288	293.25
301.518	289.25
301.748	293.25
301.979	292.25
302.209	294.25
302.439	308.25
302.669	285.25
302.9	279.25
303.13	280.25
303.36	292.25
303.59	297.25
303.82	328.25
304.051	303.25
304.281	298.25
304.511	289.25
304.741	289.25
304.971	279.25
305.201	283.25
305.431	277.25
305.661	269.25
305.891	290.25
306.121	289.25
306.352	296.25
306.582	289.25
306.812	295.25
307.042	305.25
307.272	277.25
307.502	304.25
307.731	297.25
307.961	285.25
308.191	291.25
308.421	308.25
308.651	303.25
308.881	321.25
309.111	304.25
309.341	309.25
309.571	326.25
309.8	333.25
310.03	343.25
310.26	345.25
310.49	336.25
310.72	367.25
310.949	379.25
311.179	389.25
311.409	361.25
311.639	328.25
311.868	359.25
312.098	334.25
312.328	352.25
312.557	364.25
312.787	401.25
313.017	391.25
313.246	368.25
313.476	320.25
313.706	345.25
313.935	339.25
314.165	362.25
314.394	365.25
314.624	386.25
314.853	347.25
315.083	358.25
315.312	351.25
315.542	327.25
315.771	336.25
316.001	349.25
316.23	328.25
316.46	339.25
316.689	330.25
316.919	366.25
317.148	339.25
317.377	374.25
317.607	353.25
317.836	347.25
318.065	351.25
318.295	331.25
318.524	346.25
318.753	328.25
318.983	338.25
319.212	341.25
319.441	341.25
319.67	361.25
319.9	356.25
320.129	341.25
320.358	335.25
320.587	341.25
320.816	339.25
321.046	360.25
321.275	369.25
321.504	363.25
321.733	362.25
321.962	370.25
322.191	414.25
322.42	418.25
322.649	433.25
322.878	443.25
323.108	459.25
323.337	472.25
323.566	485.25
323.795	523.25
324.024	565.25
324.253	704.25
324.482	1027.25
324.71	1549.25
324.939	2213.25
325.168	2029.25
325.397	1068.25
325.626	676.25
325.855	557.25
326.084	508.25
326.313	483.25
326.542	489.25
326.77	548.25
326.999	641.25
327.228	903.25
327.457	1366.25
327.686	1676.25
327.914	1167.25
328.143	731.25
328.372	661.25
328.6	609.25
328.829	567.25
329.058	567.25
329.287	568.25
329.515	524.25
329.744	489.25
329.972	480.25
330.201	508.25
330.43	549.25
330.658	586.25
330.887	613.25
331.115	617.25
331.344	515.25
331.572	481.25
331.801	478.25
332.03	448.25
332.258	438.25
332.486	425.25
332.715	411.25
332.943	404.25
333.172	397.25
333.4	421.25
333.629	416.25
333.857	449.25
334.085	445.25
334.314	470.25
334.542	507.25
334.771	488.25
334.999	443.25
335.227	413.25
335.455	392.25
335.684	409.25
335.912	397.25
336.14	380.25
336.369	385.25
336.597	393.25
336.825	400.25
337.053	408.25
337.281	409.25
337.51	386.25
337.738	397.25
337.966	406.25
338.194	403.25
338.422	384.25
338.65	374.25
338.878	379.25
339.106	373.25
339.334	378.25
339.562	372.25
339.79	364.25
340.018	385.25
340.246	373.25
340.474	392.25
340.702	401.25
340.93	388.25
341.158	363.25
341.386	375.25
341.614	404.25
341.842	387.25
342.07	384.25
342.298	377.25
342.526	373.25
342.754	379.25
342.981	364.25
343.209	355.25
343.437	357.25
343.665	347.25
343.893	358.25
344.12	389.25
344.348	375.25
344.576	368.25
344.804	388.25
345.031	378.25
345.259	401.25
345.487	409.25
345.714	399.25
345.942	370.25
346.17	388.25
346.397	377.25
346.625	363.25
346.853	358.25
347.08	386.25
347.308	376.25
347.535	382.25
347.763	379.25
347.99	383.25
348.218	401.25
348.445	406.25
348.673	393.25
348.9	372.25
349.128	357.25
349.355	365.25
349.583	376.25
349.81	359.25
350.037	355.25
350.265	347.25
350.492	358.25
350.72	361.25
350.947	362.25
351.174	374.25
351.402	393.25
351.629	381.25
351.856	389.25
352.083	401.25
352.311	404.25
352.538	392.25
352.765	411.25
352.992	383.25
353.22	410.25
353.447	382.25
353.674	354.25
353.901	387.25
354.128	352.25
354.355	344.25
354.583	345.25
354.81	358.25
355.037	349.25
355.264	370.25
355.491	339.25
355.718	339.25
355.945	345.25
356.172	323.25
356.399	347.25
356.626	333.25
356.853	328.25
357.08	341.25
357.307	354.25
357.534	354.25
357.761	346.25
357.988	331.25
358.215	350.25
358.441	346.25
358.668	352.25
358.895	343.25
359.122	348.25
359.349	360.25
359.576	376.25
359.802	409.25
360.029	458.25
360.256	441.25
360.483	432.25
360.709	369.25
360.936	397.25
361.163	403.25
361.39	379.25
361.616	387.25
361.843	364.25
362.07	375.25
362.296	378.25
362.523	361.25
362.749	369.25
362.976	361.25
363.203	351.25
363.429	357.25
363.656	374.25
363.882	351.25
364.109	351.25
364.335	348.25
364.562	333.25
364.788	371.25
365.015	374.25
365.241	380.25
365.468	369.25
365.694	361.25
365.92	375.25
366.147	367.25
366.373	352.25
366.599	347.25
366.826	339.25
367.052	361.25
367.278	333.25
367.505	340.25
367.731	362.25
367.957	328.25
368.184	348.25
368.41	343.25
368.636	371.25
368.862	367.25
369.089	360.25
369.315	343.25
369.541	358.25
369.767	366.25
369.993	341.25
370.219	375.25
370.445	355.25
370.672	347.25
370.898	337.25
371.124	360.25
371.35	358.25
371.576	367.25
371.802	347.25
372.028	353.25
372.254	331.25
372.48	343.25
372.706	345.25
372.932	347.25
373.158	354.25
373.384	344.25
373.61	333.25
373.835	343.25
374.061	337.25
374.287	354.25
374.513	350.25
374.739	364.25
374.965	335.25
375.191	348.25
375.416	356.25
375.642	367.25
375.868	349.25
376.094	351.25
376.319	349.25
376.545	334.25
376.771	355.25
376.997	339.25
377.222	373.25
377.448	367.25
377.674	351.25
377.899	338.25
378.125	338.25
378.35	349.25
378.576	325.25
378.802	342.25
379.027	347.25
379.253	334.25
379.478	341.25
379.704	355.25
379.929	354.25
380.155	347.25
380.38	363.25
380.606	358.25
380.831	336.25
381.057	348.25
381.282	360.25
381.507	355.25
381.733	345.25
381.958	360.25
382.184	349.25
382.409	337.25
382.634	357.25
382.86	345.25
383.085	358.25
383.31	356.25
383.535	364.25
383.761	352.25
383.986	347.25
384.211	352.25
384.436	374.25
384.662	358.25
384.887	373.25
385.112	367.25
385.337	361.25
385.562	377.25
385.787	358.25
386.013	358.25
386.238	367.25
386.463	379.25
386.688	387.25
386.913	363.25
387.138	360.25
387.363	367.25
387.588	360.25
387.813	377.25
388.038	378.25
388.263	360.25
388.488	355.25
388.713	354.25
388.938	357.25
389.163	361.25
389.387	377.25
389.612	393.25
389.837	386.25
390.062	372.25
390.287	379.25
390.512	358.25
390.736	361.25
390.961	358.25
391.186	371.25
391.411	357.25
391.636	360.25
391.86	369.25
392.085	359.25
392.31	358.25
392.534	374.25
392.759	379.25
392.984	361.25
393.208	360.25
393.433	372.25
393.658	357.25
393.882	375.25
394.107	380.25
394.331	377.25
394.556	380.25
394.78	365.25
395.005	356.25
395.229	364.25
395.454	383.25
395.678	373.25
395.903	376.25
396.127	399.25
396.352	401.25
396.576	379.25
396.801	377.25
397.025	383.25
397.249	384.25
397.474	400.25
397.698	388.25
397.922	389.25
398.147	403.25
398.371	425.25
398.595	403.25
398.82	403.25
399.044	413.25
399.268	437.25
399.492	427.25
399.717	463.25
399.941	464.25
400.165	500.25
400.389	506.25
400.613	479.25
400.837	433.25
401.062	435.25
401.286	414.25
401.51	445.25
401.734	408.25
401.958	409.25
402.182	410.25
402.406	440.25
402.63	433.25
402.854	431.25
403.078	416.25
403.302	439.25
403.526	427.25
403.75	442.25
403.974	404.25
404.198	417.25
404.422	447.25
404.645	436.25
404.869	440.25
405.093	466.25
405.317	521.25
405.541	539.25
405.765	503.25
405.988	469.25
406.212	471.25
406.436	483.25
406.66	512.25
406.883	479.25
407.107	497.25
407.331	544.25
407.555	578.25
407.778	586.25
408.002	528.25
408.226	474.25
408.449	479.25
408.673	492.25
408.896	498.25
409.12	548.25
409.344	522.25
409.567	452.25
409.791	443.25
410.014	435.25
410.238	431.25
410.461	440.25
410.685	466.25
410.908	451.25
411.132	489.25
411.355	509.25
411.578	507.25
411.802	456.25
412.025	446.25
412.249	444.25
412.472	460.25
412.695	501.25
412.919	507.25
413.142	468.25
413.365	422.25
413.589	423.25
413.812	426.25
414.035	415.25
414.258	417.25
414.482	428.25
414.705	424.25
414.928	421.25
415.151	395.25
415.374	398.25
415.597	397.25
415.821	403.25
416.044	395.25
416.267	405.25
416.49	400.25
416.713	418.25
416.936	408.25
417.159	421.25
417.382	407.25
417.605	438.25
417.828	431.25
418.051	435.25
418.274	406.25
418.497	403.25
418.72	403.25
418.943	415.25
419.166	435.25
419.389	437.25
419.611	413.25
419.834	445.25
420.057	438.25
420.28	447.25
420.503	453.25
420.726	431.25
420.948	434.25
421.171	484.25
421.394	525.25
421.617	460.25
421.839	435.25
422.062	461.25
422.285	459.25
422.507	527.25
422.73	571.25
422.953	543.25
423.175	492.25
423.398	459.25
423.621	450.25
423.843	473.25
424.066	484.25
424.288	468.25
424.511	488.25
424.733	568.25
424.956	637.25
425.178	611.25
425.401	607.25
425.623	629.25
425.846	541.25
426.068	497.25
426.291	492.25
426.513	483.25
426.735	479.25
426.958	551.25
427.18	645.25
427.402	742.25
427.625	820.25
427.847	761.25
428.069	630.25
428.292	545.25
428.514	513.25
428.736	476.25
428.958	455.25
429.181	443.25
429.403	466.25
429.625	466.25
429.847	485.25
430.069	567.25
430.292	548.25
430.514	470.25
430.736	447.25
430.958	442.25
431.18	425.25
431.402	441.25
431.624	419.25
431.846	417.25
432.068	421.25
432.29	409.25
432.512	424.25
432.734	413.25
432.956	437.25
433.178	458.25
433.4	464.25
433.622	433.25
433.844	412.25
434.066	403.25
434.287	418.25
434.509	428.25
434.731	444.25
434.953	449.25
435.175	452.25
435.397	483.25
435.618	496.25
435.84	522.25
436.062	616.25
436.284	671.25
436.505	571.25
436.727	515.25
436.949	471.25
437.17	461.25
437.392	474.25
437.614	486.25
437.835	504.25
438.057	604.25
438.278	706.25
438.5	717.25
438.721	734.25
438.943	700.25
439.165	585.25
439.386	531.25
439.608	536.25
439.829	508.25
440.05	520.25
440.272	567.25
440.493	547.25
440.715	529.25
440.936	474.25
441.158	442.25
441.379	449.25
441.6	484.25
441.822	491.25
442.043	535.25
442.264	608.25
442.486	663.25
442.707	564.25
442.928	503.25
443.149	513.25
443.371	533.25
443.592	555.25
443.813	658.25
444.034	726.25
444.255	592.25
444.476	516.25
444.698	496.25
444.919	500.25
445.14	590.25
445.361	543.25
445.582	517.25
445.803	592.25
446.024	693.25
446.245	724.25
446.466	669.25
446.687	528.25
446.908	539.25
447.129	485.25
447.35	480.25
447.571	479.25
447.792	445.25
448.013	449.25
448.234	474.25
448.455	537.25
448.675	625.25
448.896	709.25
449.117	644.25
449.338	608.25
449.559	680.25
449.779	752.25
450	641.25
450.221	513.25
450.442	480.25
450.662	455.25
450.883	461.25
451.104	496.25
451.324	480.25
451.545	458.25
451.766	415.25
451.986	424.25
452.207	406.25
452.428	417.25
452.648	412.25
452.869	415.25
453.089	420.25
453.31	439.25
453.53	429.25
453.751	411.25
453.971	436.25
454.192	451.25
454.412	419.25
454.633	424.25
454.853	412.25
455.073	389.25
455.294	440.25
455.514	500.25
455.734	491.25
455.955	418.25
456.175	398.25
456.395	373.25
456.616	375.25
456.836	355.25
457.056	367.25
457.276	366.25
457.497	390.25
457.717	373.25
457.937	403.25
458.157	379.25
458.377	385.25
458.598	424.25
458.818	479.25
459.038	572.25
459.258	583.25
459.478	493.25
459.698	443.25
459.918	415.25
460.138	415.25
460.358	418.25
460.578	429.25
460.798	408.25
461.018	431.25
461.238	381.25
461.458	419.25
461.678	403.25
461.898	407.25
462.118	432.25
462.338	428.25
462.558	429.25
462.777	420.25
462.997	444.25
463.217	435.25
463.437	440.25
463.657	446.25
463.876	435.25
464.096	447.25
464.316	416.25
464.536	451.25
464.755	436.25
464.975	437.25
465.195	521.25
465.414	596.25
465.634	517.25
465.854	458.25
466.073	455.25
466.293	448.25
466.512	427.25
466.732	400.25
466.951	416.25
467.171	404.25
467.391	411.25
467.61	448.25
467.829	431.25
468.049	419.25
468.268	420.25
468.488	412.25
468.707	420.25
468.927	394.25
469.146	409.25
469.365	414.25
469.585	407.25
469.804	412.25
470.023	425.25
470.243	436.25
470.462	428.25
470.681	433.25
470.901	433.25
471.12	396.25
471.339	415.25
471.558	404.25
471.777	417.25
471.997	406.25
472.216	429.25
472.435	455.25
472.654	442.25
472.873	423.25
473.092	432.25
473.311	419.25
473.53	423.25
473.749	431.25
473.968	465.25
474.187	577.25
474.406	601.25
474.625	496.25
474.844	448.25
475.063	428.25
475.282	413.25
475.501	433.25
475.72	419.25
475.939	443.25
476.158	416.25
476.377	431.25
476.596	439.25
476.814	468.25
477.033	454.25
477.252	439.25
477.471	453.25
477.69	466.25
477.908	456.25
478.127	468.25
478.346	459.25
478.564	446.25
478.783	471.25
479.002	493.25
479.22	467.25
479.439	483.25
479.658	508.25
479.876	525.25
480.095	495.25
480.313	540.25
480.532	531.25
480.751	531.25
480.969	537.25
481.188	578.25
481.406	634.25
481.624	558.25
481.843	509.25
482.061	497.25
482.28	488.25
482.498	473.25
482.717	501.25
482.935	508.25
483.153	493.25
483.372	510.25
483.59	505.25
483.808	503.25
484.027	485.25
484.245	525.25
484.463	500.25
484.681	512.25
484.9	490.25
485.118	521.25
485.336	497.25
485.554	513.25
485.772	517.25
485.99	527.25
486.209	525.25
486.427	511.25
486.645	539.25
486.863	549.25
487.081	547.25
487.299	533.25
487.517	538.25
487.735	531.25
487.953	540.25
488.171	516.25
488.389	538.25
488.607	543.25
488.825	541.25
489.043	531.25
489.261	543.25
489.479	534.25
489.696	541.25
489.914	538.25
490.132	556.25
490.35	580.25
490.568	567.25
490.786	603.25
491.003	593.25
491.221	597.25
491.439	595.25
491.657	607.25
491.874	628.25
492.092	630.25
492.31	620.25
492.527	631.25
492.745	621.25
492.963	627.25
493.18	627.25
493.398	631.25
493.615	645.25
493.833	614.25
494.05	633.25
494.268	636.25
494.485	639.25
494.703	635.25
494.92	647.25
495.138	668.25
495.355	648.25
495.573	661.25
495.79	635.25
496.008	647.25
496.225	615.25
496.442	663.25
496.66	650.25
496.877	653.25
497.094	640.25
497.312	633.25
497.529	636.25
497.746	676.25
497.963	678.25
498.181	699.25
498.398	696.25
498.615	690.25
498.832	685.25
499.049	673.25
499.267	703.25
499.484	715.25
499.701	725.25
499.918	744.25
500.135	766.25
500.352	775.25
500.569	771.25
500.786	802.25
501.003	794.25
501.22	779.25
501.437	769.25
501.654	770.25
501.871	765.25
502.088	781.25
