Data from 1980.PennyLincolnUp.Lamp.En5.5.200Scan.071819.P1_HRD10591_16-37-11-956.txt Node
Date: Thu Jul 18 16:37:11 EDT 2019
User: cochatt
Spectrometer: HR+D1059
Trigger mode: 1
Integration Time (sec): 1.000000E-1
Scans to average: 1
Electric dark correction enabled: true
Nonlinearity correction enabled: false
Boxcar width: 0
XAxis mode: Wavelengths
Number of Pixels in Spectrum: 2048
>>>>>Begin Spectral Data<<<<<
223.165	-17.44
223.4	-17.44
223.635	-17.44
223.869	-15.44
224.104	-33.44
224.338	-6.44
224.573	-17.44
224.808	-10.44
225.042	1.56
225.277	-9.44
225.511	3.56
225.746	-7.44
225.98	6.56
226.215	13.56
226.449	20.56
226.683	15.56
226.918	30.56
227.152	25.56
227.387	25.56
227.621	38.56
227.856	44.56
228.09	37.56
228.324	57.56
228.559	65.56
228.793	68.56
229.027	99.56
229.262	111.56
229.496	117.56
229.73	132.56
229.964	163.56
230.199	126.56
230.433	129.56
230.667	129.56
230.901	115.56
231.136	99.56
231.37	127.56
231.604	101.56
231.838	121.56
232.072	98.56
232.306	103.56
232.541	124.56
232.775	119.56
233.009	129.56
233.243	114.56
233.477	101.56
233.711	112.56
233.945	110.56
234.179	111.56
234.413	109.56
234.647	118.56
234.881	115.56
235.115	124.56
235.349	131.56
235.583	110.56
235.817	117.56
236.051	109.56
236.285	116.56
236.519	125.56
236.753	132.56
236.987	150.56
237.221	182.56
237.455	234.56
237.689	204.56
237.922	138.56
238.156	150.56
238.39	121.56
238.624	107.56
238.858	117.56
239.091	111.56
239.325	125.56
239.559	126.56
239.793	123.56
240.027	121.56
240.26	141.56
240.494	165.56
240.728	154.56
240.961	144.56
241.195	133.56
241.429	141.56
241.662	133.56
241.896	146.56
242.13	129.56
242.363	137.56
242.597	132.56
242.83	132.56
243.064	124.56
243.298	133.56
243.531	125.56
243.765	131.56
243.998	131.56
244.232	130.56
244.465	143.56
244.699	146.56
244.932	135.56
245.166	129.56
245.399	155.56
245.633	137.56
245.866	166.56
246.099	157.56
246.333	141.56
246.566	154.56
246.8	138.56
247.033	156.56
247.266	155.56
247.5	157.56
247.733	164.56
247.966	175.56
248.2	168.56
248.433	188.56
248.666	189.56
248.899	192.56
249.133	217.56
249.366	184.56
249.599	196.56
249.832	204.56
250.066	185.56
250.299	189.56
250.532	197.56
250.765	198.56
250.998	228.56
251.231	241.56
251.465	209.56
251.698	207.56
251.931	206.56
252.164	209.56
252.397	202.56
252.63	203.56
252.863	216.56
253.096	214.56
253.329	221.56
253.562	226.56
253.795	220.56
254.028	230.56
254.261	231.56
254.494	224.56
254.727	250.56
254.96	279.56
255.193	271.56
255.426	271.56
255.659	236.56
255.892	230.56
256.124	228.56
256.357	237.56
256.59	228.56
256.823	220.56
257.056	209.56
257.289	208.56
257.521	205.56
257.754	206.56
257.987	214.56
258.22	214.56
258.452	191.56
258.685	202.56
258.918	189.56
259.151	217.56
259.383	211.56
259.616	235.56
259.849	230.56
260.081	239.56
260.314	246.56
260.547	271.56
260.779	259.56
261.012	228.56
261.244	218.56
261.477	226.56
261.71	220.56
261.942	220.56
262.175	259.56
262.407	234.56
262.64	207.56
262.872	208.56
263.105	208.56
263.337	223.56
263.57	211.56
263.802	211.56
264.035	205.56
264.267	223.56
264.499	207.56
264.732	207.56
264.964	224.56
265.197	202.56
265.429	200.56
265.661	190.56
265.894	205.56
266.126	207.56
266.358	211.56
266.591	201.56
266.823	214.56
267.055	219.56
267.287	222.56
267.52	219.56
267.752	223.56
267.984	215.56
268.216	234.56
268.448	213.56
268.681	233.56
268.913	225.56
269.145	261.56
269.377	283.56
269.609	266.56
269.841	279.56
270.073	275.56
270.306	290.56
270.538	297.56
270.77	315.56
271.002	295.56
271.234	298.56
271.466	309.56
271.698	310.56
271.93	312.56
272.162	316.56
272.394	328.56
272.626	307.56
272.858	301.56
273.09	273.56
273.322	267.56
273.553	260.56
273.785	230.56
274.017	251.56
274.249	260.56
274.481	268.56
274.713	252.56
274.945	279.56
275.176	256.56
275.408	261.56
275.64	263.56
275.872	262.56
276.104	264.56
276.335	249.56
276.567	270.56
276.799	282.56
277.031	297.56
277.262	306.56
277.494	310.56
277.726	285.56
277.957	289.56
278.189	270.56
278.421	283.56
278.652	269.56
278.884	259.56
279.115	253.56
279.347	247.56
279.579	252.56
279.81	238.56
280.042	253.56
280.273	243.56
280.505	261.56
280.736	254.56
280.968	235.56
281.199	242.56
281.431	272.56
281.662	244.56
281.894	241.56
282.125	245.56
282.356	283.56
282.588	306.56
282.819	307.56
283.051	269.56
283.282	265.56
283.513	259.56
283.745	265.56
283.976	258.56
284.207	258.56
284.439	266.56
284.67	259.56
284.901	258.56
285.132	262.56
285.364	251.56
285.595	260.56
285.826	243.56
286.057	249.56
286.288	253.56
286.52	254.56
286.751	259.56
286.982	265.56
287.213	256.56
287.444	263.56
287.675	259.56
287.906	286.56
288.138	285.56
288.369	297.56
288.6	267.56
288.831	268.56
289.062	262.56
289.293	272.56
289.524	276.56
289.755	270.56
289.986	261.56
290.217	278.56
290.448	269.56
290.679	264.56
290.91	242.56
291.141	243.56
291.371	284.56
291.602	270.56
291.833	272.56
292.064	270.56
292.295	253.56
292.526	255.56
292.757	276.56
292.987	256.56
293.218	252.56
293.449	262.56
293.68	287.56
293.91	275.56
294.141	265.56
294.372	250.56
294.603	242.56
294.833	256.56
295.064	266.56
295.295	283.56
295.525	255.56
295.756	276.56
295.987	283.56
296.217	290.56
296.448	322.56
296.679	302.56
296.909	288.56
297.14	258.56
297.37	260.56
297.601	269.56
297.831	266.56
298.062	260.56
298.292	261.56
298.523	275.56
298.753	278.56
298.984	279.56
299.214	286.56
299.445	296.56
299.675	286.56
299.905	281.56
300.136	269.56
300.366	291.56
300.597	292.56
300.827	281.56
301.057	315.56
301.288	295.56
301.518	308.56
301.748	309.56
301.979	292.56
302.209	289.56
302.439	301.56
302.669	292.56
302.9	285.56
303.13	277.56
303.36	302.56
303.59	295.56
303.82	305.56
304.051	303.56
304.281	297.56
304.511	279.56
304.741	296.56
304.971	299.56
305.201	300.56
305.431	288.56
305.661	309.56
305.891	282.56
306.121	290.56
306.352	299.56
306.582	313.56
306.812	298.56
307.042	319.56
307.272	297.56
307.502	297.56
307.731	299.56
307.961	309.56
308.191	317.56
308.421	309.56
308.651	297.56
308.881	324.56
309.111	307.56
309.341	298.56
309.571	328.56
309.8	330.56
310.03	330.56
310.26	364.56
310.49	340.56
310.72	361.56
310.949	380.56
311.179	383.56
311.409	374.56
311.639	338.56
311.868	347.56
312.098	361.56
312.328	355.56
312.557	383.56
312.787	386.56
313.017	395.56
313.246	373.56
313.476	354.56
313.706	357.56
313.935	378.56
314.165	362.56
314.394	380.56
314.624	366.56
314.853	392.56
315.083	355.56
315.312	360.56
315.542	350.56
315.771	356.56
316.001	338.56
316.23	349.56
316.46	337.56
316.689	355.56
316.919	351.56
317.148	374.56
317.377	369.56
317.607	368.56
317.836	370.56
318.065	362.56
318.295	359.56
318.524	341.56
318.753	368.56
318.983	340.56
319.212	362.56
319.441	358.56
319.67	367.56
319.9	345.56
320.129	353.56
320.358	351.56
320.587	349.56
320.816	382.56
321.046	364.56
321.275	376.56
321.504	391.56
321.733	383.56
321.962	393.56
322.191	419.56
322.42	412.56
322.649	453.56
322.878	441.56
323.108	470.56
323.337	467.56
323.566	495.56
323.795	541.56
324.024	605.56
324.253	730.56
324.482	1081.56
324.71	1625.56
324.939	2351.56
325.168	2051.56
325.397	1091.56
325.626	706.56
325.855	581.56
326.084	526.56
326.313	499.56
326.542	514.56
326.77	567.56
326.999	669.56
327.228	903.56
327.457	1405.56
327.686	1755.56
327.914	1213.56
328.143	783.56
328.372	660.56
328.6	627.56
328.829	567.56
329.058	595.56
329.287	614.56
329.515	589.56
329.744	500.56
329.972	504.56
330.201	523.56
330.43	574.56
330.658	610.56
330.887	637.56
331.115	617.56
331.344	526.56
331.572	476.56
331.801	473.56
332.03	478.56
332.258	440.56
332.486	435.56
332.715	419.56
332.943	429.56
333.172	426.56
333.4	425.56
333.629	416.56
333.857	419.56
334.085	443.56
334.314	448.56
334.542	501.56
334.771	529.56
334.999	476.56
335.227	428.56
335.455	435.56
335.684	410.56
335.912	417.56
336.14	407.56
336.369	397.56
336.597	434.56
336.825	405.56
337.053	411.56
337.281	397.56
337.51	401.56
337.738	412.56
337.966	399.56
338.194	412.56
338.422	409.56
338.65	426.56
338.878	394.56
339.106	392.56
339.334	375.56
339.562	383.56
339.79	391.56
340.018	398.56
340.246	389.56
340.474	414.56
340.702	390.56
340.93	363.56
341.158	389.56
341.386	379.56
341.614	373.56
341.842	397.56
342.07	376.56
342.298	385.56
342.526	377.56
342.754	372.56
342.981	369.56
343.209	374.56
343.437	371.56
343.665	393.56
343.893	388.56
344.12	384.56
344.348	389.56
344.576	387.56
344.804	390.56
345.031	421.56
345.259	425.56
345.487	417.56
345.714	397.56
345.942	381.56
346.17	410.56
346.397	388.56
346.625	399.56
346.853	378.56
347.08	389.56
347.308	377.56
347.535	379.56
347.763	421.56
347.99	397.56
348.218	406.56
348.445	400.56
348.673	403.56
348.9	376.56
349.128	409.56
349.355	379.56
349.583	366.56
349.81	360.56
350.037	366.56
350.265	338.56
350.492	376.56
350.72	379.56
350.947	390.56
351.174	368.56
351.402	399.56
351.629	374.56
351.856	396.56
352.083	414.56
352.311	397.56
352.538	394.56
352.765	400.56
352.992	394.56
353.22	390.56
353.447	390.56
353.674	382.56
353.901	369.56
354.128	396.56
354.355	354.56
354.583	350.56
354.81	363.56
355.037	366.56
355.264	351.56
355.491	339.56
355.718	350.56
355.945	358.56
356.172	353.56
356.399	339.56
356.626	331.56
356.853	353.56
357.08	349.56
357.307	344.56
357.534	356.56
357.761	355.56
357.988	347.56
358.215	350.56
358.441	335.56
358.668	327.56
358.895	345.56
359.122	374.56
359.349	369.56
359.576	397.56
359.802	405.56
360.029	419.56
360.256	454.56
360.483	428.56
360.709	398.56
360.936	393.56
361.163	389.56
361.39	388.56
361.616	385.56
361.843	378.56
362.07	397.56
362.296	403.56
362.523	394.56
362.749	385.56
362.976	377.56
363.203	373.56
363.429	367.56
363.656	355.56
363.882	363.56
364.109	370.56
364.335	371.56
364.562	355.56
364.788	367.56
365.015	363.56
365.241	376.56
365.468	376.56
365.694	369.56
365.92	384.56
366.147	372.56
366.373	369.56
366.599	361.56
366.826	361.56
367.052	373.56
367.278	351.56
367.505	348.56
367.731	348.56
367.957	357.56
368.184	356.56
368.41	369.56
368.636	371.56
368.862	380.56
369.089	385.56
369.315	361.56
369.541	352.56
369.767	360.56
369.993	361.56
370.219	359.56
370.445	364.56
370.672	374.56
370.898	345.56
371.124	372.56
371.35	368.56
371.576	368.56
371.802	363.56
372.028	353.56
372.254	361.56
372.48	355.56
372.706	348.56
372.932	340.56
373.158	366.56
373.384	353.56
373.61	370.56
373.835	357.56
374.061	362.56
374.287	369.56
374.513	351.56
374.739	358.56
374.965	366.56
375.191	337.56
375.416	375.56
375.642	362.56
375.868	355.56
376.094	360.56
376.319	352.56
376.545	382.56
376.771	354.56
376.997	344.56
377.222	333.56
377.448	367.56
377.674	351.56
377.899	327.56
378.125	350.56
378.35	353.56
378.576	364.56
378.802	350.56
379.027	347.56
379.253	340.56
379.478	357.56
379.704	335.56
379.929	347.56
380.155	363.56
380.38	361.56
380.606	352.56
380.831	348.56
381.057	360.56
381.282	347.56
381.507	357.56
381.733	336.56
381.958	375.56
382.184	380.56
382.409	366.56
382.634	370.56
382.86	345.56
383.085	356.56
383.31	380.56
383.535	391.56
383.761	352.56
383.986	341.56
384.211	334.56
384.436	379.56
384.662	381.56
384.887	353.56
385.112	366.56
385.337	387.56
385.562	378.56
385.787	374.56
386.013	397.56
386.238	354.56
386.463	373.56
386.688	386.56
386.913	391.56
387.138	393.56
387.363	375.56
387.588	377.56
387.813	385.56
388.038	384.56
388.263	386.56
388.488	384.56
388.713	367.56
388.938	365.56
389.163	379.56
389.387	379.56
389.612	375.56
389.837	371.56
390.062	372.56
390.287	356.56
390.512	357.56
390.736	379.56
390.961	369.56
391.186	377.56
391.411	386.56
391.636	381.56
391.86	387.56
392.085	377.56
392.31	374.56
392.534	380.56
392.759	367.56
392.984	387.56
393.208	385.56
393.433	389.56
393.658	371.56
393.882	371.56
394.107	375.56
394.331	395.56
394.556	382.56
394.78	386.56
395.005	387.56
395.229	372.56
395.454	372.56
395.678	380.56
395.903	398.56
396.127	425.56
396.352	423.56
396.576	394.56
396.801	405.56
397.025	401.56
397.249	413.56
397.474	412.56
397.698	405.56
397.922	417.56
398.147	422.56
398.371	428.56
398.595	430.56
398.82	433.56
399.044	427.56
399.268	445.56
399.492	443.56
399.717	451.56
399.941	498.56
400.165	505.56
400.389	550.56
400.613	501.56
400.837	467.56
401.062	449.56
401.286	437.56
401.51	419.56
401.734	427.56
401.958	410.56
402.182	429.56
402.406	438.56
402.63	438.56
402.854	423.56
403.078	442.56
403.302	443.56
403.526	439.56
403.75	437.56
403.974	433.56
404.198	450.56
404.422	461.56
404.645	439.56
404.869	455.56
405.093	477.56
405.317	518.56
405.541	554.56
405.765	518.56
405.988	474.56
406.212	511.56
406.436	508.56
406.66	534.56
406.883	505.56
407.107	529.56
407.331	566.56
407.555	588.56
407.778	597.56
408.002	548.56
408.226	498.56
408.449	496.56
408.673	519.56
408.896	521.56
409.12	550.56
409.344	546.56
409.567	482.56
409.791	473.56
410.014	439.56
410.238	449.56
410.461	454.56
410.685	467.56
410.908	486.56
411.132	509.56
411.355	551.56
411.578	521.56
411.802	461.56
412.025	452.56
412.249	466.56
412.472	488.56
412.695	519.56
412.919	515.56
413.142	446.56
413.365	435.56
413.589	423.56
413.812	451.56
414.035	421.56
414.258	447.56
414.482	431.56
414.705	428.56
414.928	408.56
415.151	400.56
415.374	423.56
415.597	426.56
415.821	404.56
416.044	430.56
416.267	426.56
416.49	435.56
416.713	421.56
416.936	418.56
417.159	425.56
417.382	429.56
417.605	425.56
417.828	444.56
418.051	475.56
418.274	466.56
418.497	437.56
418.72	439.56
418.943	413.56
419.166	436.56
419.389	448.56
419.611	442.56
419.834	435.56
420.057	467.56
420.28	462.56
420.503	422.56
420.726	453.56
420.948	455.56
421.171	517.56
421.394	544.56
421.617	469.56
421.839	470.56
422.062	463.56
422.285	461.56
422.507	520.56
422.73	594.56
422.953	573.56
423.175	518.56
423.398	491.56
423.621	481.56
423.843	494.56
424.066	490.56
424.288	495.56
424.511	522.56
424.733	575.56
424.956	643.56
425.178	631.56
425.401	623.56
425.623	625.56
425.846	576.56
426.068	527.56
426.291	500.56
426.513	511.56
426.735	490.56
426.958	539.56
427.18	646.56
427.402	739.56
427.625	828.56
427.847	765.56
428.069	629.56
428.292	561.56
428.514	522.56
428.736	477.56
428.958	510.56
429.181	460.56
429.403	456.56
429.625	472.56
429.847	517.56
430.069	593.56
430.292	588.56
430.514	480.56
430.736	473.56
430.958	475.56
431.18	450.56
431.402	430.56
431.624	446.56
431.846	417.56
432.068	417.56
432.29	430.56
432.512	436.56
432.734	437.56
432.956	455.56
433.178	441.56
433.4	448.56
433.622	460.56
433.844	439.56
434.066	450.56
434.287	428.56
434.509	429.56
434.731	442.56
434.953	457.56
435.175	466.56
435.397	517.56
435.618	490.56
435.84	569.56
436.062	664.56
436.284	691.56
436.505	583.56
436.727	550.56
436.949	506.56
437.17	463.56
437.392	475.56
437.614	480.56
437.835	527.56
438.057	629.56
438.278	723.56
438.5	723.56
438.721	786.56
438.943	741.56
439.165	583.56
439.386	531.56
439.608	525.56
439.829	539.56
440.05	544.56
440.272	599.56
440.493	578.56
440.715	530.56
440.936	484.56
441.158	489.56
441.379	463.56
441.6	477.56
441.822	517.56
442.043	537.56
442.264	647.56
442.486	683.56
442.707	595.56
442.928	542.56
443.149	550.56
443.371	568.56
443.592	579.56
443.813	685.56
444.034	721.56
444.255	621.56
444.476	535.56
444.698	522.56
444.919	506.56
445.14	587.56
445.361	574.56
445.582	554.56
445.803	607.56
446.024	703.56
446.245	733.56
446.466	669.56
446.687	570.56
446.908	533.56
447.129	482.56
447.35	490.56
447.571	477.56
447.792	455.56
448.013	496.56
448.234	481.56
448.455	542.56
448.675	680.56
448.896	719.56
449.117	627.56
449.338	611.56
449.559	696.56
449.779	781.56
450	659.56
450.221	517.56
450.442	505.56
450.662	459.56
450.883	488.56
451.104	508.56
451.324	491.56
451.545	466.56
451.766	458.56
451.986	417.56
452.207	428.56
452.428	425.56
452.648	424.56
452.869	420.56
453.089	446.56
453.31	466.56
453.53	453.56
453.751	416.56
453.971	435.56
454.192	444.56
454.412	458.56
454.633	432.56
454.853	421.56
455.073	420.56
455.294	458.56
455.514	518.56
455.734	482.56
455.955	434.56
456.175	389.56
456.395	383.56
456.616	385.56
456.836	391.56
457.056	390.56
457.276	375.56
457.497	384.56
457.717	398.56
457.937	398.56
458.157	412.56
458.377	405.56
458.598	425.56
458.818	507.56
459.038	594.56
459.258	597.56
459.478	516.56
459.698	471.56
459.918	426.56
460.138	436.56
460.358	418.56
460.578	443.56
460.798	415.56
461.018	425.56
461.238	434.56
461.458	429.56
461.678	433.56
461.898	433.56
462.118	426.56
462.338	421.56
462.558	448.56
462.777	430.56
462.997	445.56
463.217	443.56
463.437	465.56
463.657	468.56
463.876	443.56
464.096	462.56
464.316	437.56
464.536	462.56
464.755	458.56
464.975	468.56
465.195	533.56
465.414	610.56
465.634	543.56
465.854	504.56
466.073	464.56
466.293	439.56
466.512	433.56
466.732	427.56
466.951	425.56
467.171	417.56
467.391	430.56
467.61	427.56
467.829	457.56
468.049	440.56
468.268	434.56
468.488	413.56
468.707	414.56
468.927	404.56
469.146	406.56
469.365	422.56
469.585	403.56
469.804	401.56
470.023	436.56
470.243	410.56
470.462	435.56
470.681	456.56
470.901	450.56
471.12	424.56
471.339	438.56
471.558	430.56
471.777	426.56
471.997	440.56
472.216	443.56
472.435	497.56
472.654	469.56
472.873	439.56
473.092	426.56
473.311	421.56
473.53	431.56
473.749	451.56
473.968	484.56
474.187	597.56
474.406	628.56
474.625	503.56
474.844	451.56
475.063	415.56
475.282	437.56
475.501	440.56
475.72	459.56
475.939	457.56
476.158	460.56
476.377	437.56
476.596	436.56
476.814	456.56
477.033	458.56
477.252	442.56
477.471	446.56
477.69	458.56
477.908	486.56
478.127	454.56
478.346	455.56
478.564	468.56
478.783	479.56
479.002	492.56
479.22	485.56
479.439	501.56
479.658	519.56
479.876	515.56
480.095	534.56
480.313	531.56
480.532	540.56
480.751	524.56
480.969	543.56
481.188	597.56
481.406	656.56
481.624	595.56
481.843	561.56
482.061	521.56
482.28	524.56
482.498	492.56
482.717	515.56
482.935	491.56
483.153	511.56
483.372	530.56
483.59	502.56
483.808	511.56
484.027	522.56
484.245	523.56
484.463	532.56
484.681	533.56
484.9	544.56
485.118	526.56
485.336	542.56
485.554	520.56
485.772	533.56
485.99	535.56
486.209	521.56
486.427	555.56
486.645	550.56
486.863	562.56
487.081	571.56
487.299	536.56
487.517	548.56
487.735	582.56
487.953	554.56
488.171	555.56
488.389	562.56
488.607	550.56
488.825	572.56
489.043	550.56
489.261	553.56
489.479	577.56
489.696	556.56
489.914	575.56
490.132	593.56
490.35	588.56
490.568	577.56
490.786	590.56
491.003	599.56
491.221	596.56
491.439	621.56
491.657	628.56
491.874	629.56
492.092	638.56
492.31	634.56
492.527	634.56
492.745	656.56
492.963	637.56
493.18	645.56
493.398	652.56
493.615	658.56
493.833	644.56
494.05	652.56
494.268	664.56
494.485	640.56
494.703	646.56
494.92	661.56
495.138	670.56
495.355	685.56
495.573	654.56
495.79	650.56
496.008	686.56
496.225	676.56
496.442	673.56
496.66	655.56
496.877	663.56
497.094	664.56
497.312	654.56
497.529	666.56
497.746	661.56
497.963	665.56
498.181	705.56
498.398	695.56
498.615	698.56
498.832	711.56
499.049	726.56
499.267	714.56
499.484	759.56
499.701	733.56
499.918	761.56
500.135	791.56
500.352	809.56
500.569	790.56
500.786	837.56
501.003	817.56
501.22	788.56
501.437	833.56
501.654	771.56
501.871	799.56
