Data from 1980.PennyLincolnUp.Lamp.En5.5.200Scan.071819.P1_HRD10591_16-37-36-956.txt Node
Date: Thu Jul 18 16:37:36 EDT 2019
User: cochatt
Spectrometer: HR+D1059
Trigger mode: 1
Integration Time (sec): 1.000000E-1
Scans to average: 1
Electric dark correction enabled: true
Nonlinearity correction enabled: false
Boxcar width: 0
XAxis mode: Wavelengths
Number of Pixels in Spectrum: 2048
>>>>>Begin Spectral Data<<<<<
223.165	-8.06
223.4	-8.06
223.635	-8.06
223.869	-29.06
224.104	-10.06
224.338	-12.06
224.573	-19.06
224.808	-18.06
225.042	-5.06
225.277	1.94
225.511	-16.06
225.746	0.94
225.98	10.94
226.215	17.94
226.449	18.94
226.683	22.94
226.918	19.94
227.152	23.94
227.387	49.94
227.621	34.94
227.856	38.94
228.09	37.94
228.324	52.94
228.559	45.94
228.793	64.94
229.027	97.94
229.262	99.94
229.496	117.94
229.73	146.94
229.964	166.94
230.199	131.94
230.433	113.94
230.667	109.94
230.901	113.94
231.136	121.94
231.37	115.94
231.604	104.94
231.838	121.94
232.072	105.94
232.306	95.94
232.541	112.94
232.775	117.94
233.009	108.94
233.243	100.94
233.477	123.94
233.711	111.94
233.945	102.94
234.179	109.94
234.413	113.94
234.647	121.94
234.881	117.94
235.115	122.94
235.349	123.94
235.583	118.94
235.817	117.94
236.051	123.94
236.285	118.94
236.519	119.94
236.753	119.94
236.987	135.94
237.221	186.94
237.455	245.94
237.689	196.94
237.922	153.94
238.156	131.94
238.39	134.94
238.624	109.94
238.858	119.94
239.091	117.94
239.325	117.94
239.559	119.94
239.793	127.94
240.027	131.94
240.26	162.94
240.494	149.94
240.728	157.94
240.961	162.94
241.195	135.94
241.429	146.94
241.662	140.94
241.896	151.94
242.13	138.94
242.363	135.94
242.597	129.94
242.83	135.94
243.064	145.94
243.298	135.94
243.531	135.94
243.765	138.94
243.998	129.94
244.232	157.94
244.465	145.94
244.699	155.94
244.932	148.94
245.166	152.94
245.399	143.94
245.633	143.94
245.866	144.94
246.099	147.94
246.333	143.94
246.566	130.94
246.8	140.94
247.033	137.94
247.266	145.94
247.5	154.94
247.733	169.94
247.966	177.94
248.2	166.94
248.433	179.94
248.666	167.94
248.899	183.94
249.133	189.94
249.366	209.94
249.599	197.94
249.832	182.94
250.066	198.94
250.299	181.94
250.532	181.94
250.765	196.94
250.998	238.94
251.231	229.94
251.465	210.94
251.698	226.94
251.931	193.94
252.164	207.94
252.397	192.94
252.63	189.94
252.863	189.94
253.096	226.94
253.329	222.94
253.562	218.94
253.795	217.94
254.028	205.94
254.261	209.94
254.494	233.94
254.727	265.94
254.96	276.94
255.193	264.94
255.426	265.94
255.659	253.94
255.892	250.94
256.124	229.94
256.357	235.94
256.59	231.94
256.823	223.94
257.056	212.94
257.289	212.94
257.521	214.94
257.754	212.94
257.987	205.94
258.22	217.94
258.452	197.94
258.685	197.94
258.918	215.94
259.151	209.94
259.383	198.94
259.616	229.94
259.849	228.94
260.081	222.94
260.314	255.94
260.547	271.94
260.779	256.94
261.012	237.94
261.244	228.94
261.477	219.94
261.71	229.94
261.942	232.94
262.175	233.94
262.407	226.94
262.64	205.94
262.872	216.94
263.105	212.94
263.337	198.94
263.57	205.94
263.802	215.94
264.035	189.94
264.267	211.94
264.499	209.94
264.732	200.94
264.964	189.94
265.197	209.94
265.429	181.94
265.661	207.94
265.894	197.94
266.126	202.94
266.358	224.94
266.591	205.94
266.823	221.94
267.055	218.94
267.287	206.94
267.52	233.94
267.752	203.94
267.984	204.94
268.216	228.94
268.448	217.94
268.681	209.94
268.913	227.94
269.145	242.94
269.377	253.94
269.609	290.94
269.841	268.94
270.073	263.94
270.306	284.94
270.538	299.94
270.77	309.94
271.002	300.94
271.234	298.94
271.466	301.94
271.698	321.94
271.93	326.94
272.162	309.94
272.394	313.94
272.626	298.94
272.858	269.94
273.09	269.94
273.322	267.94
273.553	256.94
273.785	241.94
274.017	238.94
274.249	261.94
274.481	249.94
274.713	246.94
274.945	255.94
275.176	256.94
275.408	242.94
275.64	253.94
275.872	248.94
276.104	246.94
276.335	256.94
276.567	253.94
276.799	288.94
277.031	289.94
277.262	314.94
277.494	305.94
277.726	298.94
277.957	262.94
278.189	258.94
278.421	248.94
278.652	259.94
278.884	261.94
279.115	254.94
279.347	241.94
279.579	267.94
279.81	251.94
280.042	240.94
280.273	255.94
280.505	258.94
280.736	265.94
280.968	259.94
281.199	258.94
281.431	264.94
281.662	255.94
281.894	250.94
282.125	266.94
282.356	281.94
282.588	291.94
282.819	279.94
283.051	272.94
283.282	253.94
283.513	274.94
283.745	269.94
283.976	262.94
284.207	273.94
284.439	264.94
284.67	270.94
284.901	245.94
285.132	270.94
285.364	247.94
285.595	262.94
285.826	251.94
286.057	251.94
286.288	249.94
286.52	242.94
286.751	247.94
286.982	251.94
287.213	275.94
287.444	256.94
287.675	254.94
287.906	281.94
288.138	269.94
288.369	288.94
288.6	291.94
288.831	269.94
289.062	264.94
289.293	258.94
289.524	263.94
289.755	262.94
289.986	278.94
290.217	244.94
290.448	263.94
290.679	257.94
290.91	264.94
291.141	246.94
291.371	263.94
291.602	264.94
291.833	270.94
292.064	264.94
292.295	257.94
292.526	255.94
292.757	272.94
292.987	266.94
293.218	257.94
293.449	262.94
293.68	261.94
293.91	258.94
294.141	242.94
294.372	249.94
294.603	281.94
294.833	259.94
295.064	252.94
295.295	267.94
295.525	261.94
295.756	258.94
295.987	256.94
296.217	304.94
296.448	307.94
296.679	280.94
296.909	275.94
297.14	278.94
297.37	275.94
297.601	281.94
297.831	269.94
298.062	280.94
298.292	284.94
298.523	271.94
298.753	258.94
298.984	265.94
299.214	268.94
299.445	272.94
299.675	275.94
299.905	287.94
300.136	289.94
300.366	269.94
300.597	281.94
300.827	276.94
301.057	301.94
301.288	295.94
301.518	286.94
301.748	280.94
301.979	283.94
302.209	304.94
302.439	303.94
302.669	293.94
302.9	287.94
303.13	293.94
303.36	298.94
303.59	296.94
303.82	298.94
304.051	306.94
304.281	298.94
304.511	262.94
304.741	291.94
304.971	277.94
305.201	285.94
305.431	293.94
305.661	286.94
305.891	293.94
306.121	303.94
306.352	305.94
306.582	313.94
306.812	300.94
307.042	302.94
307.272	290.94
307.502	290.94
307.731	301.94
307.961	278.94
308.191	289.94
308.421	290.94
308.651	293.94
308.881	317.94
309.111	305.94
309.341	325.94
309.571	304.94
309.8	333.94
310.03	326.94
310.26	344.94
310.49	344.94
310.72	383.94
310.949	369.94
311.179	402.94
311.409	356.94
311.639	342.94
311.868	366.94
312.098	360.94
312.328	367.94
312.557	383.94
312.787	410.94
313.017	390.94
313.246	390.94
313.476	360.94
313.706	351.94
313.935	319.94
314.165	366.94
314.394	383.94
314.624	370.94
314.853	367.94
315.083	340.94
315.312	343.94
315.542	344.94
315.771	326.94
316.001	337.94
316.23	346.94
316.46	320.94
316.689	352.94
316.919	333.94
317.148	359.94
317.377	346.94
317.607	355.94
317.836	347.94
318.065	349.94
318.295	360.94
318.524	316.94
318.753	341.94
318.983	343.94
319.212	351.94
319.441	356.94
319.67	381.94
319.9	361.94
320.129	347.94
320.358	335.94
320.587	356.94
320.816	351.94
321.046	374.94
321.275	378.94
321.504	382.94
321.733	386.94
321.962	376.94
322.191	405.94
322.42	421.94
322.649	430.94
322.878	427.94
323.108	450.94
323.337	490.94
323.566	507.94
323.795	548.94
324.024	603.94
324.253	758.94
324.482	1058.94
324.71	1627.94
324.939	2312.94
325.168	2051.94
325.397	1094.94
325.626	709.94
325.855	567.94
326.084	534.94
326.313	516.94
326.542	517.94
326.77	559.94
326.999	680.94
327.228	951.94
327.457	1429.94
327.686	1787.94
327.914	1236.94
328.143	795.94
328.372	671.94
328.6	618.94
328.829	575.94
329.058	605.94
329.287	619.94
329.515	543.94
329.744	527.94
329.972	526.94
330.201	553.94
330.43	572.94
330.658	613.94
330.887	635.94
331.115	635.94
331.344	547.94
331.572	479.94
331.801	487.94
332.03	467.94
332.258	435.94
332.486	421.94
332.715	399.94
332.943	407.94
333.172	422.94
333.4	428.94
333.629	435.94
333.857	449.94
334.085	459.94
334.314	472.94
334.542	501.94
334.771	532.94
334.999	481.94
335.227	444.94
335.455	433.94
335.684	415.94
335.912	406.94
336.14	394.94
336.369	424.94
336.597	421.94
336.825	423.94
337.053	418.94
337.281	384.94
337.51	377.94
337.738	414.94
337.966	397.94
338.194	406.94
338.422	409.94
338.65	376.94
338.878	377.94
339.106	371.94
339.334	389.94
339.562	380.94
339.79	376.94
340.018	366.94
340.246	398.94
340.474	392.94
340.702	401.94
340.93	396.94
341.158	385.94
341.386	381.94
341.614	377.94
341.842	374.94
342.07	382.94
342.298	386.94
342.526	359.94
342.754	365.94
342.981	373.94
343.209	378.94
343.437	366.94
343.665	377.94
343.893	371.94
344.12	385.94
344.348	375.94
344.576	395.94
344.804	417.94
345.031	409.94
345.259	419.94
345.487	398.94
345.714	401.94
345.942	387.94
346.17	370.94
346.397	400.94
346.625	394.94
346.853	399.94
347.08	383.94
347.308	394.94
347.535	385.94
347.763	393.94
347.99	404.94
348.218	404.94
348.445	407.94
348.673	394.94
348.9	387.94
349.128	376.94
349.355	367.94
349.583	372.94
349.81	366.94
350.037	351.94
350.265	369.94
350.492	363.94
350.72	371.94
350.947	383.94
351.174	390.94
351.402	387.94
351.629	395.94
351.856	388.94
352.083	394.94
352.311	404.94
352.538	402.94
352.765	419.94
352.992	399.94
353.22	403.94
353.447	387.94
353.674	388.94
353.901	365.94
354.128	346.94
354.355	353.94
354.583	343.94
354.81	358.94
355.037	347.94
355.264	343.94
355.491	334.94
355.718	342.94
355.945	341.94
356.172	340.94
356.399	366.94
356.626	354.94
356.853	341.94
357.08	343.94
357.307	343.94
357.534	340.94
357.761	353.94
357.988	349.94
358.215	345.94
358.441	336.94
358.668	362.94
358.895	352.94
359.122	365.94
359.349	362.94
359.576	375.94
359.802	406.94
360.029	449.94
360.256	460.94
360.483	437.94
360.709	406.94
360.936	394.94
361.163	387.94
361.39	377.94
361.616	363.94
361.843	395.94
362.07	375.94
362.296	403.94
362.523	379.94
362.749	386.94
362.976	375.94
363.203	376.94
363.429	360.94
363.656	351.94
363.882	361.94
364.109	365.94
364.335	381.94
364.562	347.94
364.788	359.94
365.015	373.94
365.241	364.94
365.468	382.94
365.694	363.94
365.92	368.94
366.147	356.94
366.373	330.94
366.599	356.94
366.826	345.94
367.052	346.94
367.278	344.94
367.505	347.94
367.731	349.94
367.957	352.94
368.184	341.94
368.41	372.94
368.636	367.94
368.862	371.94
369.089	381.94
369.315	354.94
369.541	352.94
369.767	347.94
369.993	349.94
370.219	345.94
370.445	342.94
370.672	339.94
370.898	345.94
371.124	340.94
371.35	329.94
371.576	344.94
371.802	347.94
372.028	348.94
372.254	358.94
372.48	338.94
372.706	336.94
372.932	343.94
373.158	346.94
373.384	355.94
373.61	355.94
373.835	347.94
374.061	349.94
374.287	362.94
374.513	349.94
374.739	359.94
374.965	352.94
375.191	360.94
375.416	329.94
375.642	349.94
375.868	335.94
376.094	351.94
376.319	351.94
376.545	333.94
376.771	341.94
376.997	338.94
377.222	362.94
377.448	363.94
377.674	331.94
377.899	340.94
378.125	344.94
378.35	334.94
378.576	354.94
378.802	344.94
379.027	326.94
379.253	327.94
379.478	320.94
379.704	342.94
379.929	345.94
380.155	340.94
380.38	366.94
380.606	357.94
380.831	329.94
381.057	361.94
381.282	347.94
381.507	369.94
381.733	343.94
381.958	352.94
382.184	333.94
382.409	346.94
382.634	354.94
382.86	346.94
383.085	343.94
383.31	341.94
383.535	335.94
383.761	359.94
383.986	342.94
384.211	334.94
384.436	350.94
384.662	353.94
384.887	370.94
385.112	359.94
385.337	371.94
385.562	358.94
385.787	367.94
386.013	413.94
386.238	381.94
386.463	382.94
386.688	373.94
386.913	376.94
387.138	366.94
387.363	368.94
387.588	355.94
387.813	379.94
388.038	355.94
388.263	347.94
388.488	371.94
388.713	350.94
388.938	369.94
389.163	391.94
389.387	378.94
389.612	369.94
389.837	360.94
390.062	350.94
390.287	358.94
390.512	358.94
390.736	355.94
390.961	362.94
391.186	362.94
391.411	366.94
391.636	379.94
391.86	375.94
392.085	370.94
392.31	377.94
392.534	365.94
392.759	365.94
392.984	389.94
393.208	362.94
393.433	355.94
393.658	358.94
393.882	362.94
394.107	365.94
394.331	369.94
394.556	359.94
394.78	348.94
395.005	373.94
395.229	368.94
395.454	369.94
395.678	400.94
395.903	390.94
396.127	411.94
396.352	411.94
396.576	388.94
396.801	362.94
397.025	388.94
397.249	378.94
397.474	371.94
397.698	395.94
397.922	399.94
398.147	435.94
398.371	401.94
398.595	394.94
398.82	401.94
399.044	417.94
399.268	407.94
399.492	435.94
399.717	441.94
399.941	473.94
400.165	477.94
400.389	536.94
400.613	465.94
400.837	436.94
401.062	442.94
401.286	431.94
401.51	429.94
401.734	419.94
401.958	427.94
402.182	433.94
402.406	449.94
402.63	436.94
402.854	409.94
403.078	416.94
403.302	441.94
403.526	447.94
403.75	417.94
403.974	439.94
404.198	417.94
404.422	443.94
404.645	446.94
404.869	434.94
405.093	475.94
405.317	517.94
405.541	541.94
405.765	483.94
405.988	455.94
406.212	487.94
406.436	488.94
406.66	513.94
406.883	477.94
407.107	504.94
407.331	532.94
407.555	595.94
407.778	584.94
408.002	547.94
408.226	495.94
408.449	486.94
408.673	497.94
408.896	495.94
409.12	557.94
409.344	510.94
409.567	475.94
409.791	447.94
410.014	453.94
410.238	415.94
410.461	433.94
410.685	444.94
410.908	454.94
411.132	495.94
411.355	517.94
411.578	515.94
411.802	447.94
412.025	445.94
412.249	447.94
412.472	481.94
412.695	503.94
412.919	503.94
413.142	440.94
413.365	445.94
413.589	420.94
413.812	410.94
414.035	421.94
414.258	437.94
414.482	436.94
414.705	415.94
414.928	411.94
415.151	407.94
415.374	411.94
415.597	417.94
415.821	414.94
416.044	407.94
416.267	430.94
416.49	423.94
416.713	415.94
416.936	407.94
417.159	408.94
417.382	397.94
417.605	413.94
417.828	446.94
418.051	461.94
418.274	433.94
418.497	410.94
418.72	418.94
418.943	394.94
419.166	424.94
419.389	447.94
419.611	445.94
419.834	450.94
420.057	454.94
420.28	453.94
420.503	440.94
420.726	456.94
420.948	448.94
421.171	489.94
421.394	527.94
421.617	480.94
421.839	457.94
422.062	450.94
422.285	470.94
422.507	521.94
422.73	581.94
422.953	573.94
423.175	489.94
423.398	481.94
423.621	474.94
423.843	484.94
424.066	511.94
424.288	495.94
424.511	496.94
424.733	565.94
424.956	658.94
425.178	627.94
425.401	610.94
425.623	626.94
425.846	535.94
426.068	487.94
426.291	523.94
426.513	486.94
426.735	519.94
426.958	545.94
427.18	617.94
427.402	745.94
427.625	828.94
427.847	745.94
428.069	656.94
428.292	563.94
428.514	509.94
428.736	477.94
428.958	488.94
429.181	466.94
429.403	460.94
429.625	462.94
429.847	521.94
430.069	577.94
430.292	554.94
430.514	485.94
430.736	455.94
430.958	439.94
431.18	441.94
431.402	455.94
431.624	440.94
431.846	423.94
432.068	429.94
432.29	424.94
432.512	419.94
432.734	430.94
432.956	450.94
433.178	435.94
433.4	438.94
433.622	429.94
433.844	433.94
434.066	433.94
434.287	421.94
434.509	424.94
434.731	443.94
434.953	441.94
435.175	464.94
435.397	489.94
435.618	493.94
435.84	524.94
436.062	631.94
436.284	689.94
436.505	576.94
436.727	517.94
436.949	466.94
437.17	454.94
437.392	443.94
437.614	507.94
437.835	515.94
438.057	617.94
438.278	698.94
438.5	692.94
438.721	777.94
438.943	725.94
439.165	588.94
439.386	523.94
439.608	529.94
439.829	510.94
440.05	544.94
440.272	579.94
440.493	564.94
440.715	504.94
440.936	488.94
441.158	486.94
441.379	448.94
441.6	493.94
441.822	509.94
442.043	536.94
442.264	607.94
442.486	666.94
442.707	580.94
442.928	545.94
443.149	527.94
443.371	526.94
443.592	599.94
443.813	691.94
444.034	730.94
444.255	587.94
444.476	547.94
444.698	515.94
444.919	486.94
445.14	627.94
445.361	583.94
445.582	564.94
445.803	610.94
446.024	728.94
446.245	714.94
446.466	636.94
446.687	557.94
446.908	523.94
447.129	497.94
447.35	469.94
447.571	469.94
447.792	457.94
448.013	467.94
448.234	471.94
448.455	515.94
448.675	664.94
448.896	764.94
449.117	632.94
449.338	590.94
449.559	691.94
449.779	796.94
450	641.94
450.221	537.94
450.442	479.94
450.662	457.94
450.883	465.94
451.104	488.94
451.324	496.94
451.545	458.94
451.766	452.94
451.986	409.94
452.207	392.94
452.428	409.94
452.648	401.94
452.869	434.94
453.089	413.94
453.31	437.94
453.53	441.94
453.751	426.94
453.971	422.94
454.192	474.94
454.412	446.94
454.633	433.94
454.853	398.94
455.073	401.94
455.294	443.94
455.514	518.94
455.734	483.94
455.955	432.94
456.175	407.94
456.395	387.94
456.616	385.94
456.836	394.94
457.056	381.94
457.276	373.94
457.497	382.94
457.717	381.94
457.937	392.94
458.157	405.94
458.377	409.94
458.598	414.94
458.818	496.94
459.038	583.94
459.258	612.94
459.478	505.94
459.698	435.94
459.918	445.94
460.138	425.94
460.358	436.94
460.578	429.94
460.798	434.94
461.018	449.94
461.238	437.94
461.458	397.94
461.678	403.94
461.898	411.94
462.118	413.94
462.338	429.94
462.558	418.94
462.777	450.94
462.997	439.94
463.217	431.94
463.437	443.94
463.657	448.94
463.876	455.94
464.096	425.94
464.316	443.94
464.536	446.94
464.755	458.94
464.975	471.94
465.195	535.94
465.414	631.94
465.634	547.94
465.854	464.94
466.073	439.94
466.293	429.94
466.512	418.94
466.732	416.94
466.951	413.94
467.171	392.94
467.391	405.94
467.61	421.94
467.829	451.94
468.049	441.94
468.268	431.94
468.488	432.94
468.707	401.94
468.927	410.94
469.146	395.94
469.365	402.94
469.585	412.94
469.804	415.94
470.023	424.94
470.243	441.94
470.462	437.94
470.681	463.94
470.901	455.94
471.12	427.94
471.339	433.94
471.558	429.94
471.777	431.94
471.997	418.94
472.216	449.94
472.435	488.94
472.654	458.94
472.873	453.94
473.092	435.94
473.311	415.94
473.53	409.94
473.749	439.94
473.968	483.94
474.187	581.94
474.406	595.94
474.625	481.94
474.844	441.94
475.063	432.94
475.282	447.94
475.501	421.94
475.72	439.94
475.939	425.94
476.158	423.94
476.377	445.94
476.596	432.94
476.814	463.94
477.033	460.94
477.252	461.94
477.471	440.94
477.69	437.94
477.908	430.94
478.127	465.94
478.346	470.94
478.564	475.94
478.783	452.94
479.002	463.94
479.22	478.94
479.439	522.94
479.658	521.94
479.876	517.94
480.095	522.94
480.313	535.94
480.532	543.94
480.751	545.94
480.969	526.94
481.188	592.94
481.406	644.94
481.624	562.94
481.843	553.94
482.061	524.94
482.28	500.94
482.498	513.94
482.717	500.94
482.935	482.94
483.153	511.94
483.372	486.94
483.59	516.94
483.808	491.94
484.027	515.94
484.245	492.94
484.463	507.94
484.681	514.94
484.9	525.94
485.118	529.94
485.336	503.94
485.554	507.94
485.772	528.94
485.99	520.94
486.209	522.94
486.427	523.94
486.645	553.94
486.863	553.94
487.081	559.94
487.299	547.94
487.517	542.94
487.735	555.94
487.953	545.94
488.171	523.94
488.389	558.94
488.607	545.94
488.825	545.94
489.043	543.94
489.261	569.94
489.479	555.94
489.696	547.94
489.914	558.94
490.132	547.94
490.35	559.94
490.568	564.94
490.786	583.94
491.003	592.94
491.221	625.94
491.439	629.94
491.657	608.94
491.874	642.94
492.092	633.94
492.31	653.94
492.527	657.94
492.745	638.94
492.963	655.94
493.18	648.94
493.398	661.94
493.615	624.94
493.833	643.94
494.05	643.94
494.268	655.94
494.485	655.94
494.703	670.94
494.92	645.94
495.138	634.94
495.355	637.94
495.573	662.94
495.79	657.94
496.008	636.94
496.225	641.94
496.442	672.94
496.66	665.94
496.877	667.94
497.094	662.94
497.312	670.94
497.529	635.94
497.746	685.94
497.963	671.94
498.181	711.94
498.398	686.94
498.615	679.94
498.832	707.94
499.049	693.94
499.267	706.94
499.484	727.94
499.701	737.94
499.918	742.94
500.135	753.94
500.352	804.94
500.569	797.94
500.786	787.94
501.003	761.94
501.22	778.94
501.437	769.94
501.654	775.94
501.871	793.94
