Data from 1980.PennyLincolnUp.Lamp.En5.5.200Scan.071819.P1_HRD10591_16-39-19-957.txt Node
Date: Thu Jul 18 16:39:19 EDT 2019
User: cochatt
Spectrometer: HR+D1059
Trigger mode: 1
Integration Time (sec): 1.000000E-1
Scans to average: 1
Electric dark correction enabled: true
Nonlinearity correction enabled: false
Boxcar width: 0
XAxis mode: Wavelengths
Number of Pixels in Spectrum: 2048
>>>>>Begin Spectral Data<<<<<
223.165	-6.19
223.4	-6.19
223.635	-6.19
223.869	-11.19
224.104	-25.19
224.338	-16.19
224.573	-21.19
224.808	-14.19
225.042	-12.19
225.277	0.81
225.511	-12.19
225.746	2.81
225.98	12.81
226.215	2.81
226.449	19.81
226.683	15.81
226.918	32.81
227.152	30.81
227.387	42.81
227.621	34.81
227.856	28.81
228.09	42.81
228.324	43.81
228.559	50.81
228.793	52.81
229.027	108.81
229.262	127.81
229.496	132.81
229.73	143.81
229.964	172.81
230.199	143.81
230.433	119.81
230.667	109.81
230.901	113.81
231.136	109.81
231.37	116.81
231.604	122.81
231.838	131.81
232.072	122.81
232.306	105.81
232.541	114.81
232.775	121.81
233.009	114.81
233.243	100.81
233.477	116.81
233.711	111.81
233.945	115.81
234.179	118.81
234.413	111.81
234.647	119.81
234.881	129.81
235.115	122.81
235.349	115.81
235.583	121.81
235.817	114.81
236.051	124.81
236.285	131.81
236.519	136.81
236.753	134.81
236.987	149.81
237.221	191.81
237.455	279.81
237.689	199.81
237.922	167.81
238.156	151.81
238.39	130.81
238.624	114.81
238.858	129.81
239.091	115.81
239.325	127.81
239.559	119.81
239.793	130.81
240.027	128.81
240.26	129.81
240.494	167.81
240.728	168.81
240.961	176.81
241.195	162.81
241.429	147.81
241.662	122.81
241.896	149.81
242.13	133.81
242.363	136.81
242.597	139.81
242.83	138.81
243.064	141.81
243.298	141.81
243.531	147.81
243.765	153.81
243.998	128.81
244.232	151.81
244.465	146.81
244.699	153.81
244.932	154.81
245.166	147.81
245.399	161.81
245.633	160.81
245.866	148.81
246.099	141.81
246.333	146.81
246.566	144.81
246.8	156.81
247.033	168.81
247.266	155.81
247.5	159.81
247.733	154.81
247.966	160.81
248.2	183.81
248.433	177.81
248.666	197.81
248.899	187.81
249.133	221.81
249.366	224.81
249.599	205.81
249.832	189.81
250.066	197.81
250.299	207.81
250.532	213.81
250.765	223.81
250.998	244.81
251.231	253.81
251.465	239.81
251.698	230.81
251.931	208.81
252.164	203.81
252.397	206.81
252.63	217.81
252.863	213.81
253.096	221.81
253.329	229.81
253.562	242.81
253.795	251.81
254.028	242.81
254.261	232.81
254.494	248.81
254.727	281.81
254.96	316.81
255.193	315.81
255.426	277.81
255.659	252.81
255.892	259.81
256.124	265.81
256.357	258.81
256.59	279.81
256.823	238.81
257.056	239.81
257.289	224.81
257.521	227.81
257.754	216.81
257.987	230.81
258.22	205.81
258.452	218.81
258.685	229.81
258.918	207.81
259.151	223.81
259.383	225.81
259.616	241.81
259.849	243.81
260.081	250.81
260.314	289.81
260.547	283.81
260.779	250.81
261.012	244.81
261.244	253.81
261.477	230.81
261.71	237.81
261.942	252.81
262.175	267.81
262.407	243.81
262.64	239.81
262.872	225.81
263.105	229.81
263.337	232.81
263.57	199.81
263.802	215.81
264.035	204.81
264.267	241.81
264.499	203.81
264.732	234.81
264.964	220.81
265.197	216.81
265.429	208.81
265.661	214.81
265.894	225.81
266.126	220.81
266.358	217.81
266.591	210.81
266.823	225.81
267.055	221.81
267.287	233.81
267.52	243.81
267.752	227.81
267.984	226.81
268.216	229.81
268.448	240.81
268.681	255.81
268.913	251.81
269.145	261.81
269.377	298.81
269.609	281.81
269.841	293.81
270.073	295.81
270.306	313.81
270.538	344.81
270.77	345.81
271.002	328.81
271.234	323.81
271.466	334.81
271.698	339.81
271.93	354.81
272.162	342.81
272.394	349.81
272.626	319.81
272.858	323.81
273.09	307.81
273.322	288.81
273.553	291.81
273.785	276.81
274.017	284.81
274.249	266.81
274.481	271.81
274.713	299.81
274.945	268.81
275.176	292.81
275.408	286.81
275.64	275.81
275.872	276.81
276.104	265.81
276.335	279.81
276.567	274.81
276.799	289.81
277.031	328.81
277.262	337.81
277.494	334.81
277.726	322.81
277.957	316.81
278.189	299.81
278.421	277.81
278.652	268.81
278.884	275.81
279.115	271.81
279.347	270.81
279.579	255.81
279.81	269.81
280.042	285.81
280.273	273.81
280.505	272.81
280.736	250.81
280.968	280.81
281.199	275.81
281.431	267.81
281.662	270.81
281.894	276.81
282.125	260.81
282.356	291.81
282.588	310.81
282.819	329.81
283.051	275.81
283.282	284.81
283.513	274.81
283.745	252.81
283.976	273.81
284.207	276.81
284.439	277.81
284.67	270.81
284.901	282.81
285.132	277.81
285.364	279.81
285.595	272.81
285.826	270.81
286.057	279.81
286.288	284.81
286.52	267.81
286.751	262.81
286.982	275.81
287.213	283.81
287.444	276.81
287.675	269.81
287.906	299.81
288.138	285.81
288.369	296.81
288.6	308.81
288.831	302.81
289.062	326.81
289.293	280.81
289.524	287.81
289.755	281.81
289.986	287.81
290.217	293.81
290.448	288.81
290.679	285.81
290.91	307.81
291.141	295.81
291.371	276.81
291.602	290.81
291.833	281.81
292.064	285.81
292.295	288.81
292.526	284.81
292.757	279.81
292.987	261.81
293.218	282.81
293.449	269.81
293.68	276.81
293.91	267.81
294.141	273.81
294.372	282.81
294.603	273.81
294.833	267.81
295.064	275.81
295.295	286.81
295.525	275.81
295.756	287.81
295.987	300.81
296.217	328.81
296.448	338.81
296.679	310.81
296.909	302.81
297.14	292.81
297.37	297.81
297.601	292.81
297.831	277.81
298.062	280.81
298.292	290.81
298.523	309.81
298.753	284.81
298.984	299.81
299.214	295.81
299.445	280.81
299.675	308.81
299.905	318.81
300.136	298.81
300.366	312.81
300.597	299.81
300.827	299.81
301.057	315.81
301.288	327.81
301.518	317.81
301.748	306.81
301.979	289.81
302.209	326.81
302.439	337.81
302.669	337.81
302.9	306.81
303.13	326.81
303.36	327.81
303.59	332.81
303.82	347.81
304.051	325.81
304.281	305.81
304.511	304.81
304.741	314.81
304.971	322.81
305.201	315.81
305.431	306.81
305.661	310.81
305.891	306.81
306.121	309.81
306.352	323.81
306.582	319.81
306.812	322.81
307.042	324.81
307.272	324.81
307.502	333.81
307.731	325.81
307.961	318.81
308.191	320.81
308.421	328.81
308.651	328.81
308.881	326.81
309.111	329.81
309.341	334.81
309.571	357.81
309.8	354.81
310.03	359.81
310.26	375.81
310.49	393.81
310.72	389.81
310.949	416.81
311.179	418.81
311.409	398.81
311.639	368.81
311.868	389.81
312.098	408.81
312.328	395.81
312.557	398.81
312.787	440.81
313.017	413.81
313.246	390.81
313.476	394.81
313.706	376.81
313.935	363.81
314.165	407.81
314.394	408.81
314.624	412.81
314.853	397.81
315.083	383.81
315.312	382.81
315.542	377.81
315.771	370.81
316.001	361.81
316.23	357.81
316.46	372.81
316.689	365.81
316.919	385.81
317.148	384.81
317.377	383.81
317.607	410.81
317.836	374.81
318.065	376.81
318.295	369.81
318.524	369.81
318.753	369.81
318.983	363.81
319.212	374.81
319.441	385.81
319.67	403.81
319.9	386.81
320.129	360.81
320.358	373.81
320.587	377.81
320.816	389.81
321.046	370.81
321.275	406.81
321.504	407.81
321.733	415.81
321.962	394.81
322.191	421.81
322.42	443.81
322.649	482.81
322.878	471.81
323.108	486.81
323.337	535.81
323.566	541.81
323.795	583.81
324.024	663.81
324.253	826.81
324.482	1176.81
324.71	1855.81
324.939	2687.81
325.168	2323.81
325.397	1188.81
325.626	756.81
325.855	637.81
326.084	577.81
326.313	549.81
326.542	544.81
326.77	624.81
326.999	708.81
327.228	1021.81
327.457	1587.81
327.686	1984.81
327.914	1352.81
328.143	875.81
328.372	762.81
328.6	681.81
328.829	640.81
329.058	641.81
329.287	664.81
329.515	603.81
329.744	553.81
329.972	576.81
330.201	578.81
330.43	645.81
330.658	663.81
330.887	699.81
331.115	696.81
331.344	569.81
331.572	532.81
331.801	503.81
332.03	529.81
332.258	474.81
332.486	476.81
332.715	465.81
332.943	457.81
333.172	449.81
333.4	455.81
333.629	484.81
333.857	481.81
334.085	495.81
334.314	520.81
334.542	534.81
334.771	610.81
334.999	518.81
335.227	473.81
335.455	474.81
335.684	451.81
335.912	455.81
336.14	424.81
336.369	428.81
336.597	445.81
336.825	441.81
337.053	440.81
337.281	419.81
337.51	423.81
337.738	438.81
337.966	461.81
338.194	448.81
338.422	429.81
338.65	426.81
338.878	424.81
339.106	422.81
339.334	394.81
339.562	429.81
339.79	404.81
340.018	417.81
340.246	435.81
340.474	421.81
340.702	420.81
340.93	422.81
341.158	409.81
341.386	431.81
341.614	415.81
341.842	441.81
342.07	419.81
342.298	410.81
342.526	414.81
342.754	389.81
342.981	409.81
343.209	382.81
343.437	381.81
343.665	402.81
343.893	401.81
344.12	415.81
344.348	430.81
344.576	416.81
344.804	433.81
345.031	443.81
345.259	451.81
345.487	449.81
345.714	440.81
345.942	409.81
346.17	416.81
346.397	413.81
346.625	411.81
346.853	406.81
347.08	411.81
347.308	430.81
347.535	436.81
347.763	423.81
347.99	410.81
348.218	441.81
348.445	445.81
348.673	437.81
348.9	429.81
349.128	422.81
349.355	423.81
349.583	396.81
349.81	401.81
350.037	385.81
350.265	390.81
350.492	396.81
350.72	388.81
350.947	399.81
351.174	409.81
351.402	439.81
351.629	423.81
351.856	423.81
352.083	441.81
352.311	443.81
352.538	448.81
352.765	456.81
352.992	412.81
353.22	417.81
353.447	426.81
353.674	416.81
353.901	404.81
354.128	398.81
354.355	376.81
354.583	383.81
354.81	375.81
355.037	375.81
355.264	383.81
355.491	368.81
355.718	346.81
355.945	371.81
356.172	353.81
356.399	364.81
356.626	381.81
356.853	355.81
357.08	372.81
357.307	379.81
357.534	345.81
357.761	371.81
357.988	371.81
358.215	374.81
358.441	377.81
358.668	369.81
358.895	394.81
359.122	379.81
359.349	407.81
359.576	421.81
359.802	428.81
360.029	476.81
360.256	479.81
360.483	464.81
360.709	414.81
360.936	418.81
361.163	420.81
361.39	435.81
361.616	412.81
361.843	407.81
362.07	409.81
362.296	411.81
362.523	400.81
362.749	413.81
362.976	385.81
363.203	396.81
363.429	383.81
363.656	382.81
363.882	395.81
364.109	385.81
364.335	389.81
364.562	397.81
364.788	385.81
365.015	391.81
365.241	401.81
365.468	395.81
365.694	382.81
365.92	388.81
366.147	388.81
366.373	390.81
366.599	390.81
366.826	409.81
367.052	390.81
367.278	364.81
367.505	387.81
367.731	385.81
367.957	376.81
368.184	376.81
368.41	396.81
368.636	401.81
368.862	389.81
369.089	419.81
369.315	377.81
369.541	368.81
369.767	380.81
369.993	390.81
370.219	376.81
370.445	379.81
370.672	370.81
370.898	361.81
371.124	364.81
371.35	383.81
371.576	381.81
371.802	367.81
372.028	371.81
372.254	360.81
372.48	363.81
372.706	373.81
372.932	387.81
373.158	372.81
373.384	374.81
373.61	367.81
373.835	380.81
374.061	397.81
374.287	382.81
374.513	389.81
374.739	392.81
374.965	379.81
375.191	373.81
375.416	376.81
375.642	356.81
375.868	363.81
376.094	355.81
376.319	375.81
376.545	335.81
376.771	377.81
376.997	371.81
377.222	355.81
377.448	356.81
377.674	353.81
377.899	370.81
378.125	370.81
378.35	365.81
378.576	364.81
378.802	359.81
379.027	366.81
379.253	359.81
379.478	345.81
379.704	368.81
379.929	357.81
380.155	363.81
380.38	374.81
380.606	391.81
380.831	387.81
381.057	369.81
381.282	341.81
381.507	371.81
381.733	364.81
381.958	377.81
382.184	377.81
382.409	370.81
382.634	373.81
382.86	381.81
383.085	390.81
383.31	381.81
383.535	371.81
383.761	385.81
383.986	386.81
384.211	400.81
384.436	387.81
384.662	364.81
384.887	385.81
385.112	379.81
385.337	395.81
385.562	402.81
385.787	405.81
386.013	392.81
386.238	389.81
386.463	416.81
386.688	403.81
386.913	399.81
387.138	412.81
387.363	409.81
387.588	384.81
387.813	401.81
388.038	378.81
388.263	404.81
388.488	379.81
388.713	391.81
388.938	405.81
389.163	403.81
389.387	408.81
389.612	393.81
389.837	385.81
390.062	380.81
390.287	375.81
390.512	376.81
390.736	400.81
390.961	367.81
391.186	405.81
391.411	387.81
391.636	414.81
391.86	392.81
392.085	405.81
392.31	403.81
392.534	427.81
392.759	403.81
392.984	402.81
393.208	387.81
393.433	393.81
393.658	411.81
393.882	395.81
394.107	381.81
394.331	397.81
394.556	403.81
394.78	413.81
395.005	394.81
395.229	398.81
395.454	397.81
395.678	407.81
395.903	405.81
396.127	435.81
396.352	427.81
396.576	415.81
396.801	410.81
397.025	407.81
397.249	394.81
397.474	397.81
397.698	395.81
397.922	430.81
398.147	421.81
398.371	459.81
398.595	432.81
398.82	427.81
399.044	433.81
399.268	447.81
399.492	477.81
399.717	487.81
399.941	502.81
400.165	537.81
400.389	552.81
400.613	522.81
400.837	488.81
401.062	441.81
401.286	433.81
401.51	446.81
401.734	436.81
401.958	459.81
402.182	447.81
402.406	457.81
402.63	461.81
402.854	460.81
403.078	435.81
403.302	449.81
403.526	466.81
403.75	460.81
403.974	470.81
404.198	449.81
404.422	467.81
404.645	487.81
404.869	465.81
405.093	520.81
405.317	551.81
405.541	582.81
405.765	540.81
405.988	477.81
406.212	521.81
406.436	559.81
406.66	545.81
406.883	544.81
407.107	553.81
407.331	603.81
407.555	649.81
407.778	651.81
408.002	603.81
408.226	535.81
408.449	522.81
408.673	531.81
408.896	572.81
409.12	588.81
409.344	555.81
409.567	495.81
409.791	479.81
410.014	497.81
410.238	465.81
410.461	473.81
410.685	472.81
410.908	487.81
411.132	538.81
411.355	550.81
411.578	541.81
411.802	492.81
412.025	450.81
412.249	482.81
412.472	504.81
412.695	571.81
412.919	540.81
413.142	465.81
413.365	457.81
413.589	460.81
413.812	466.81
414.035	454.81
414.258	466.81
414.482	439.81
414.705	460.81
414.928	435.81
415.151	432.81
415.374	425.81
415.597	419.81
415.821	458.81
416.044	469.81
416.267	470.81
416.49	444.81
416.713	444.81
416.936	430.81
417.159	456.81
417.382	476.81
417.605	448.81
417.828	478.81
418.051	487.81
418.274	463.81
418.497	449.81
418.72	452.81
418.943	439.81
419.166	483.81
419.389	457.81
419.611	495.81
419.834	495.81
420.057	480.81
420.28	471.81
420.503	460.81
420.726	463.81
420.948	491.81
421.171	540.81
421.394	571.81
421.617	529.81
421.839	487.81
422.062	468.81
422.285	499.81
422.507	565.81
422.73	653.81
422.953	591.81
423.175	554.81
423.398	506.81
423.621	509.81
423.843	527.81
424.066	516.81
424.288	544.81
424.511	548.81
424.733	597.81
424.956	709.81
425.178	658.81
425.401	666.81
425.623	656.81
425.846	577.81
426.068	542.81
426.291	535.81
426.513	548.81
426.735	552.81
426.958	613.81
427.18	692.81
427.402	779.81
427.625	870.81
427.847	794.81
428.069	721.81
428.292	606.81
428.514	543.81
428.736	524.81
428.958	521.81
429.181	501.81
429.403	507.81
429.625	512.81
429.847	563.81
430.069	610.81
430.292	614.81
430.514	533.81
430.736	507.81
430.958	488.81
431.18	471.81
431.402	467.81
431.624	456.81
431.846	423.81
432.068	466.81
432.29	451.81
432.512	475.81
432.734	451.81
432.956	463.81
433.178	471.81
433.4	493.81
433.622	467.81
433.844	458.81
434.066	442.81
434.287	471.81
434.509	467.81
434.731	461.81
434.953	453.81
435.175	479.81
435.397	504.81
435.618	547.81
435.84	569.81
436.062	655.81
436.284	746.81
436.505	642.81
436.727	556.81
436.949	523.81
437.17	508.81
437.392	478.81
437.614	513.81
437.835	567.81
438.057	673.81
438.278	764.81
438.5	761.81
438.721	824.81
438.943	789.81
439.165	643.81
439.386	577.81
439.608	576.81
439.829	556.81
440.05	603.81
440.272	653.81
440.493	609.81
440.715	539.81
440.936	530.81
441.158	516.81
441.379	497.81
441.6	524.81
441.822	539.81
442.043	594.81
442.264	685.81
442.486	712.81
442.707	598.81
442.928	562.81
443.149	588.81
443.371	595.81
443.592	635.81
443.813	709.81
444.034	746.81
444.255	639.81
444.476	583.81
444.698	561.81
444.919	544.81
445.14	637.81
445.361	585.81
445.582	591.81
445.803	658.81
446.024	744.81
446.245	797.81
446.466	713.81
446.687	603.81
446.908	553.81
447.129	523.81
447.35	522.81
447.571	508.81
447.792	517.81
448.013	488.81
448.234	521.81
448.455	594.81
448.675	697.81
448.896	803.81
449.117	701.81
449.338	671.81
449.559	729.81
449.779	817.81
450	701.81
450.221	575.81
450.442	538.81
450.662	519.81
450.883	478.81
451.104	535.81
451.324	516.81
451.545	486.81
451.766	459.81
451.986	452.81
452.207	438.81
452.428	459.81
452.648	458.81
452.869	479.81
453.089	484.81
453.31	488.81
453.53	465.81
453.751	451.81
453.971	451.81
454.192	485.81
454.412	491.81
454.633	465.81
454.853	463.81
455.073	449.81
455.294	477.81
455.514	563.81
455.734	543.81
455.955	453.81
456.175	432.81
456.395	429.81
456.616	427.81
456.836	404.81
457.056	439.81
457.276	403.81
457.497	397.81
457.717	399.81
457.937	408.81
458.157	435.81
458.377	433.81
458.598	454.81
458.818	531.81
459.038	624.81
459.258	651.81
459.478	519.81
459.698	475.81
459.918	459.81
460.138	443.81
460.358	434.81
460.578	446.81
460.798	449.81
461.018	453.81
461.238	450.81
461.458	443.81
461.678	423.81
461.898	428.81
462.118	433.81
462.338	470.81
462.558	454.81
462.777	437.81
462.997	457.81
463.217	456.81
463.437	461.81
463.657	459.81
463.876	469.81
464.096	454.81
464.316	470.81
464.536	464.81
464.755	504.81
464.975	489.81
465.195	587.81
465.414	669.81
465.634	586.81
465.854	517.81
466.073	497.81
466.293	463.81
466.512	467.81
466.732	458.81
466.951	445.81
467.171	432.81
467.391	454.81
467.61	455.81
467.829	477.81
468.049	486.81
468.268	484.81
468.488	460.81
468.707	459.81
468.927	445.81
469.146	437.81
469.365	434.81
469.585	438.81
469.804	435.81
470.023	438.81
470.243	452.81
470.462	472.81
470.681	474.81
470.901	490.81
471.12	479.81
471.339	450.81
471.558	455.81
471.777	474.81
471.997	444.81
472.216	445.81
472.435	504.81
472.654	493.81
472.873	456.81
473.092	465.81
473.311	476.81
473.53	460.81
473.749	479.81
473.968	513.81
474.187	616.81
474.406	667.81
474.625	529.81
474.844	479.81
475.063	466.81
475.282	476.81
475.501	455.81
475.72	459.81
475.939	472.81
476.158	461.81
476.377	460.81
476.596	465.81
476.814	477.81
477.033	486.81
477.252	502.81
477.471	492.81
477.69	492.81
477.908	501.81
478.127	504.81
478.346	512.81
478.564	468.81
478.783	510.81
479.002	517.81
479.22	515.81
479.439	543.81
479.658	539.81
479.876	581.81
480.095	553.81
480.313	599.81
480.532	575.81
480.751	588.81
480.969	561.81
481.188	655.81
481.406	707.81
481.624	631.81
481.843	559.81
482.061	559.81
482.28	560.81
482.498	546.81
482.717	545.81
482.935	538.81
483.153	539.81
483.372	544.81
483.59	557.81
483.808	537.81
484.027	554.81
484.245	540.81
484.463	520.81
484.681	545.81
484.9	539.81
485.118	561.81
485.336	540.81
485.554	545.81
485.772	558.81
485.99	569.81
486.209	582.81
486.427	563.81
486.645	596.81
486.863	613.81
487.081	593.81
487.299	579.81
487.517	582.81
487.735	598.81
487.953	589.81
488.171	599.81
488.389	595.81
488.607	589.81
488.825	587.81
489.043	584.81
489.261	602.81
489.479	613.81
489.696	593.81
489.914	600.81
490.132	599.81
490.35	608.81
490.568	633.81
490.786	643.81
491.003	652.81
491.221	662.81
491.439	666.81
491.657	652.81
491.874	684.81
492.092	684.81
492.31	701.81
492.527	699.81
492.745	677.81
492.963	684.81
493.18	706.81
493.398	703.81
493.615	712.81
493.833	715.81
494.05	718.81
494.268	716.81
494.485	703.81
494.703	729.81
494.92	698.81
495.138	714.81
495.355	697.81
495.573	729.81
495.79	729.81
496.008	717.81
496.225	703.81
496.442	697.81
496.66	716.81
496.877	695.81
497.094	703.81
497.312	696.81
497.529	733.81
497.746	713.81
497.963	718.81
498.181	747.81
498.398	735.81
498.615	743.81
498.832	770.81
499.049	729.81
499.267	737.81
499.484	789.81
499.701	788.81
499.918	777.81
500.135	833.81
500.352	821.81
500.569	874.81
500.786	845.81
501.003	835.81
501.22	845.81
501.437	842.81
501.654	816.81
501.871	832.81
