Data from 1980.PennyLincolnUp.Lamp.En5.5.200Scan.071819.P1_HRD10591_16-36-38-956.txt Node
Date: Thu Jul 18 16:36:38 EDT 2019
User: cochatt
Spectrometer: HR+D1059
Trigger mode: 1
Integration Time (sec): 1.000000E-1
Scans to average: 1
Electric dark correction enabled: true
Nonlinearity correction enabled: false
Boxcar width: 0
XAxis mode: Wavelengths
Number of Pixels in Spectrum: 2048
>>>>>Begin Spectral Data<<<<<
223.165	-13.69
223.4	-13.69
223.635	-13.69
223.869	-3.69
224.104	-19.69
224.338	-10.69
224.573	-1.69
224.808	0.31
225.042	-14.69
225.277	-23.69
225.511	-8.69
225.746	1.31
225.98	7.31
226.215	13.31
226.449	7.31
226.683	19.31
226.918	20.31
227.152	27.31
227.387	41.31
227.621	40.31
227.856	29.31
228.09	44.31
228.324	44.31
228.559	57.31
228.793	66.31
229.027	88.31
229.262	111.31
229.496	119.31
229.73	128.31
229.964	158.31
230.199	129.31
230.433	104.31
230.667	125.31
230.901	118.31
231.136	89.31
231.37	111.31
231.604	116.31
231.838	118.31
232.072	112.31
232.306	119.31
232.541	122.31
232.775	112.31
233.009	126.31
233.243	118.31
233.477	111.31
233.711	118.31
233.945	113.31
234.179	100.31
234.413	126.31
234.647	126.31
234.881	118.31
235.115	107.31
235.349	123.31
235.583	118.31
235.817	106.31
236.051	102.31
236.285	121.31
236.519	124.31
236.753	130.31
236.987	130.31
237.221	163.31
237.455	219.31
237.689	190.31
237.922	141.31
238.156	150.31
238.39	124.31
238.624	107.31
238.858	126.31
239.091	126.31
239.325	126.31
239.559	122.31
239.793	143.31
240.027	134.31
240.26	140.31
240.494	157.31
240.728	138.31
240.961	146.31
241.195	139.31
241.429	144.31
241.662	140.31
241.896	145.31
242.13	150.31
242.363	140.31
242.597	127.31
242.83	128.31
243.064	135.31
243.298	128.31
243.531	134.31
243.765	142.31
243.998	146.31
244.232	144.31
244.465	148.31
244.699	118.31
244.932	144.31
245.166	122.31
245.399	138.31
245.633	138.31
245.866	141.31
246.099	147.31
246.333	148.31
246.566	118.31
246.8	142.31
247.033	156.31
247.266	138.31
247.5	153.31
247.733	169.31
247.966	167.31
248.2	160.31
248.433	147.31
248.666	172.31
248.899	184.31
249.133	170.31
249.366	193.31
249.599	205.31
249.832	178.31
250.066	190.31
250.299	172.31
250.532	191.31
250.765	168.31
250.998	209.31
251.231	213.31
251.465	200.31
251.698	197.31
251.931	211.31
252.164	199.31
252.397	201.31
252.63	190.31
252.863	206.31
253.096	206.31
253.329	235.31
253.562	212.31
253.795	226.31
254.028	221.31
254.261	212.31
254.494	217.31
254.727	235.31
254.96	256.31
255.193	257.31
255.426	229.31
255.659	222.31
255.892	246.31
256.124	216.31
256.357	224.31
256.59	225.31
256.823	205.31
257.056	207.31
257.289	198.31
257.521	188.31
257.754	214.31
257.987	219.31
258.22	200.31
258.452	190.31
258.685	199.31
258.918	193.31
259.151	200.31
259.383	206.31
259.616	210.31
259.849	215.31
260.081	224.31
260.314	234.31
260.547	226.31
260.779	236.31
261.012	227.31
261.244	204.31
261.477	228.31
261.71	212.31
261.942	218.31
262.175	239.31
262.407	216.31
262.64	211.31
262.872	197.31
263.105	201.31
263.337	211.31
263.57	193.31
263.802	190.31
264.035	200.31
264.267	199.31
264.499	191.31
264.732	212.31
264.964	209.31
265.197	197.31
265.429	192.31
265.661	195.31
265.894	197.31
266.126	204.31
266.358	195.31
266.591	199.31
266.823	199.31
267.055	228.31
267.287	206.31
267.52	211.31
267.752	208.31
267.984	200.31
268.216	225.31
268.448	195.31
268.681	217.31
268.913	233.31
269.145	245.31
269.377	253.31
269.609	272.31
269.841	258.31
270.073	239.31
270.306	272.31
270.538	281.31
270.77	292.31
271.002	278.31
271.234	258.31
271.466	257.31
271.698	289.31
271.93	302.31
272.162	296.31
272.394	287.31
272.626	263.31
272.858	261.31
273.09	247.31
273.322	248.31
273.553	243.31
273.785	246.31
274.017	237.31
274.249	250.31
274.481	247.31
274.713	244.31
274.945	242.31
275.176	233.31
275.408	256.31
275.64	248.31
275.872	251.31
276.104	247.31
276.335	233.31
276.567	269.31
276.799	268.31
277.031	273.31
277.262	276.31
277.494	283.31
277.726	276.31
277.957	264.31
278.189	267.31
278.421	229.31
278.652	250.31
278.884	248.31
279.115	235.31
279.347	246.31
279.579	235.31
279.81	222.31
280.042	225.31
280.273	242.31
280.505	232.31
280.736	231.31
280.968	253.31
281.199	236.31
281.431	235.31
281.662	245.31
281.894	246.31
282.125	247.31
282.356	270.31
282.588	268.31
282.819	266.31
283.051	238.31
283.282	240.31
283.513	270.31
283.745	231.31
283.976	262.31
284.207	248.31
284.439	250.31
284.67	244.31
284.901	247.31
285.132	246.31
285.364	238.31
285.595	251.31
285.826	238.31
286.057	247.31
286.288	246.31
286.52	251.31
286.751	258.31
286.982	253.31
287.213	248.31
287.444	243.31
287.675	237.31
287.906	265.31
288.138	265.31
288.369	259.31
288.6	280.31
288.831	257.31
289.062	258.31
289.293	273.31
289.524	242.31
289.755	258.31
289.986	269.31
290.217	258.31
290.448	261.31
290.679	250.31
290.91	248.31
291.141	250.31
291.371	244.31
291.602	242.31
291.833	253.31
292.064	238.31
292.295	248.31
292.526	232.31
292.757	251.31
292.987	251.31
293.218	240.31
293.449	266.31
293.68	246.31
293.91	244.31
294.141	254.31
294.372	259.31
294.603	263.31
294.833	253.31
295.064	260.31
295.295	262.31
295.525	260.31
295.756	275.31
295.987	268.31
296.217	283.31
296.448	315.31
296.679	286.31
296.909	260.31
297.14	249.31
297.37	252.31
297.601	256.31
297.831	260.31
298.062	262.31
298.292	260.31
298.523	249.31
298.753	262.31
298.984	258.31
299.214	260.31
299.445	267.31
299.675	255.31
299.905	274.31
300.136	270.31
300.366	272.31
300.597	287.31
300.827	293.31
301.057	279.31
301.288	283.31
301.518	281.31
301.748	302.31
301.979	270.31
302.209	283.31
302.439	283.31
302.669	289.31
302.9	265.31
303.13	276.31
303.36	293.31
303.59	291.31
303.82	309.31
304.051	294.31
304.281	303.31
304.511	299.31
304.741	288.31
304.971	282.31
305.201	268.31
305.431	276.31
305.661	271.31
305.891	272.31
306.121	279.31
306.352	277.31
306.582	290.31
306.812	293.31
307.042	288.31
307.272	303.31
307.502	281.31
307.731	298.31
307.961	287.31
308.191	294.31
308.421	254.31
308.651	301.31
308.881	299.31
309.111	297.31
309.341	291.31
309.571	315.31
309.8	314.31
310.03	318.31
310.26	332.31
310.49	337.31
310.72	330.31
310.949	348.31
311.179	370.31
311.409	340.31
311.639	318.31
311.868	323.31
312.098	311.31
312.328	343.31
312.557	363.31
312.787	350.31
313.017	339.31
313.246	339.31
313.476	326.31
313.706	331.31
313.935	336.31
314.165	356.31
314.394	349.31
314.624	340.31
314.853	352.31
315.083	347.31
315.312	331.31
315.542	334.31
315.771	333.31
316.001	309.31
316.23	327.31
316.46	333.31
316.689	346.31
316.919	338.31
317.148	339.31
317.377	345.31
317.607	328.31
317.836	333.31
318.065	344.31
318.295	332.31
318.524	334.31
318.753	323.31
318.983	322.31
319.212	339.31
319.441	349.31
319.67	346.31
319.9	351.31
320.129	321.31
320.358	331.31
320.587	368.31
320.816	348.31
321.046	360.31
321.275	343.31
321.504	348.31
321.733	363.31
321.962	363.31
322.191	362.31
322.42	399.31
322.649	412.31
322.878	398.31
323.108	426.31
323.337	414.31
323.566	452.31
323.795	478.31
324.024	527.31
324.253	638.31
324.482	925.31
324.71	1387.31
324.939	1974.31
325.168	1766.31
325.397	921.31
325.626	636.31
325.855	492.31
326.084	489.31
326.313	438.31
326.542	455.31
326.77	501.31
326.999	587.31
327.228	809.31
327.457	1206.31
327.686	1528.31
327.914	1011.31
328.143	664.31
328.372	602.31
328.6	551.31
328.829	508.31
329.058	546.31
329.287	514.31
329.515	476.31
329.744	457.31
329.972	436.31
330.201	459.31
330.43	490.31
330.658	550.31
330.887	586.31
331.115	534.31
331.344	482.31
331.572	434.31
331.801	438.31
332.03	445.31
332.258	414.31
332.486	396.31
332.715	384.31
332.943	406.31
333.172	386.31
333.4	393.31
333.629	411.31
333.857	400.31
334.085	428.31
334.314	414.31
334.542	442.31
334.771	459.31
334.999	440.31
335.227	400.31
335.455	392.31
335.684	401.31
335.912	394.31
336.14	380.31
336.369	393.31
336.597	396.31
336.825	397.31
337.053	365.31
337.281	381.31
337.51	361.31
337.738	376.31
337.966	372.31
338.194	398.31
338.422	382.31
338.65	375.31
338.878	373.31
339.106	373.31
339.334	356.31
339.562	361.31
339.79	358.31
340.018	381.31
340.246	363.31
340.474	382.31
340.702	367.31
340.93	366.31
341.158	371.31
341.386	351.31
341.614	376.31
341.842	376.31
342.07	366.31
342.298	355.31
342.526	370.31
342.754	354.31
342.981	333.31
343.209	355.31
343.437	351.31
343.665	356.31
343.893	372.31
344.12	360.31
344.348	363.31
344.576	376.31
344.804	410.31
345.031	393.31
345.259	400.31
345.487	375.31
345.714	391.31
345.942	371.31
346.17	343.31
346.397	380.31
346.625	375.31
346.853	375.31
347.08	358.31
347.308	372.31
347.535	363.31
347.763	357.31
347.99	379.31
348.218	358.31
348.445	375.31
348.673	382.31
348.9	371.31
349.128	371.31
349.355	354.31
349.583	354.31
349.81	352.31
350.037	368.31
350.265	339.31
350.492	342.31
350.72	356.31
350.947	371.31
351.174	370.31
351.402	372.31
351.629	357.31
351.856	364.31
352.083	374.31
352.311	386.31
352.538	388.31
352.765	392.31
352.992	372.31
353.22	372.31
353.447	387.31
353.674	352.31
353.901	341.31
354.128	334.31
354.355	341.31
354.583	341.31
354.81	331.31
355.037	326.31
355.264	339.31
355.491	327.31
355.718	329.31
355.945	329.31
356.172	350.31
356.399	346.31
356.626	323.31
356.853	344.31
357.08	311.31
357.307	336.31
357.534	346.31
357.761	312.31
357.988	328.31
358.215	328.31
358.441	325.31
358.668	335.31
358.895	337.31
359.122	336.31
359.349	335.31
359.576	366.31
359.802	392.31
360.029	428.31
360.256	424.31
360.483	387.31
360.709	395.31
360.936	348.31
361.163	364.31
361.39	350.31
361.616	394.31
361.843	367.31
362.07	369.31
362.296	376.31
362.523	364.31
362.749	360.31
362.976	386.31
363.203	342.31
363.429	339.31
363.656	360.31
363.882	350.31
364.109	344.31
364.335	334.31
364.562	343.31
364.788	342.31
365.015	355.31
365.241	365.31
365.468	350.31
365.694	346.31
365.92	348.31
366.147	356.31
366.373	340.31
366.599	342.31
366.826	335.31
367.052	360.31
367.278	338.31
367.505	358.31
367.731	351.31
367.957	342.31
368.184	352.31
368.41	372.31
368.636	352.31
368.862	370.31
369.089	342.31
369.315	342.31
369.541	343.31
369.767	355.31
369.993	339.31
370.219	350.31
370.445	352.31
370.672	355.31
370.898	331.31
371.124	326.31
371.35	347.31
371.576	334.31
371.802	353.31
372.028	345.31
372.254	356.31
372.48	347.31
372.706	335.31
372.932	351.31
373.158	343.31
373.384	333.31
373.61	340.31
373.835	342.31
374.061	335.31
374.287	323.31
374.513	338.31
374.739	337.31
374.965	350.31
375.191	331.31
375.416	350.31
375.642	343.31
375.868	347.31
376.094	340.31
376.319	340.31
376.545	334.31
376.771	326.31
376.997	340.31
377.222	328.31
377.448	342.31
377.674	336.31
377.899	337.31
378.125	355.31
378.35	320.31
378.576	338.31
378.802	324.31
379.027	339.31
379.253	319.31
379.478	324.31
379.704	355.31
379.929	345.31
380.155	344.31
380.38	351.31
380.606	359.31
380.831	338.31
381.057	343.31
381.282	362.31
381.507	351.31
381.733	337.31
381.958	331.31
382.184	322.31
382.409	326.31
382.634	333.31
382.86	348.31
383.085	340.31
383.31	335.31
383.535	351.31
383.761	344.31
383.986	343.31
384.211	357.31
384.436	376.31
384.662	364.31
384.887	362.31
385.112	351.31
385.337	373.31
385.562	355.31
385.787	365.31
386.013	365.31
386.238	375.31
386.463	365.31
386.688	357.31
386.913	367.31
387.138	356.31
387.363	378.31
387.588	384.31
387.813	368.31
388.038	370.31
388.263	377.31
388.488	364.31
388.713	374.31
388.938	370.31
389.163	364.31
389.387	376.31
389.612	383.31
389.837	366.31
390.062	354.31
390.287	399.31
390.512	376.31
390.736	360.31
390.961	374.31
391.186	356.31
391.411	366.31
391.636	372.31
391.86	366.31
392.085	374.31
392.31	386.31
392.534	372.31
392.759	360.31
392.984	374.31
393.208	382.31
393.433	390.31
393.658	375.31
393.882	373.31
394.107	361.31
394.331	373.31
394.556	380.31
394.78	352.31
395.005	372.31
395.229	342.31
395.454	353.31
395.678	377.31
395.903	386.31
396.127	413.31
396.352	412.31
396.576	392.31
396.801	382.31
397.025	396.31
397.249	393.31
397.474	404.31
397.698	383.31
397.922	407.31
398.147	405.31
398.371	412.31
398.595	416.31
398.82	406.31
399.044	430.31
399.268	412.31
399.492	435.31
399.717	464.31
399.941	467.31
400.165	511.31
400.389	524.31
400.613	464.31
400.837	440.31
401.062	441.31
401.286	424.31
401.51	409.31
401.734	408.31
401.958	418.31
402.182	412.31
402.406	423.31
402.63	428.31
402.854	418.31
403.078	439.31
403.302	446.31
403.526	442.31
403.75	426.31
403.974	431.31
404.198	426.31
404.422	427.31
404.645	438.31
404.869	441.31
405.093	466.31
405.317	514.31
405.541	538.31
405.765	515.31
405.988	447.31
406.212	470.31
406.436	499.31
406.66	493.31
406.883	471.31
407.107	494.31
407.331	549.31
407.555	607.31
407.778	572.31
408.002	528.31
408.226	498.31
408.449	469.31
408.673	475.31
408.896	509.31
409.12	534.31
409.344	510.31
409.567	452.31
409.791	424.31
410.014	437.31
410.238	438.31
410.461	448.31
410.685	439.31
410.908	456.31
411.132	475.31
411.355	524.31
411.578	496.31
411.802	432.31
412.025	432.31
412.249	448.31
412.472	461.31
412.695	517.31
412.919	471.31
413.142	451.31
413.365	414.31
413.589	421.31
413.812	436.31
414.035	429.31
414.258	407.31
414.482	414.31
414.705	400.31
414.928	392.31
415.151	414.31
415.374	393.31
415.597	396.31
415.821	416.31
416.044	443.31
416.267	418.31
416.49	400.31
416.713	416.31
416.936	414.31
417.159	393.31
417.382	408.31
417.605	398.31
417.828	425.31
418.051	448.31
418.274	416.31
418.497	431.31
418.72	425.31
418.943	398.31
419.166	410.31
419.389	446.31
419.611	456.31
419.834	430.31
420.057	449.31
420.28	450.31
420.503	427.31
420.726	414.31
420.948	441.31
421.171	474.31
421.394	522.31
421.617	458.31
421.839	439.31
422.062	432.31
422.285	455.31
422.507	491.31
422.73	561.31
422.953	568.31
423.175	483.31
423.398	464.31
423.621	437.31
423.843	462.31
424.066	478.31
424.288	478.31
424.511	486.31
424.733	533.31
424.956	599.31
425.178	598.31
425.401	610.31
425.623	618.31
425.846	527.31
426.068	491.31
426.291	474.31
426.513	492.31
426.735	485.31
426.958	524.31
427.18	578.31
427.402	728.31
427.625	776.31
427.847	676.31
428.069	609.31
428.292	530.31
428.514	478.31
428.736	453.31
428.958	459.31
429.181	427.31
429.403	450.31
429.625	440.31
429.847	463.31
430.069	550.31
430.292	546.31
430.514	454.31
430.736	444.31
430.958	440.31
431.18	445.31
431.402	437.31
431.624	397.31
431.846	428.31
432.068	419.31
432.29	414.31
432.512	400.31
432.734	416.31
432.956	438.31
433.178	426.31
433.4	453.31
433.622	444.31
433.844	426.31
434.066	404.31
434.287	397.31
434.509	418.31
434.731	411.31
434.953	430.31
435.175	438.31
435.397	467.31
435.618	465.31
435.84	531.31
436.062	603.31
436.284	662.31
436.505	568.31
436.727	516.31
436.949	460.31
437.17	460.31
437.392	423.31
437.614	470.31
437.835	490.31
438.057	576.31
438.278	648.31
438.5	669.31
438.721	708.31
438.943	708.31
439.165	551.31
439.386	494.31
439.608	494.31
439.829	495.31
440.05	531.31
440.272	554.31
440.493	515.31
440.715	462.31
440.936	470.31
441.158	432.31
441.379	440.31
441.6	480.31
441.822	473.31
442.043	532.31
442.264	594.31
442.486	632.31
442.707	535.31
442.928	495.31
443.149	499.31
443.371	534.31
443.592	542.31
443.813	631.31
444.034	680.31
444.255	594.31
444.476	518.31
444.698	496.31
444.919	476.31
445.14	562.31
445.361	520.31
445.582	538.31
445.803	551.31
446.024	670.31
446.245	670.31
446.466	602.31
446.687	518.31
446.908	504.31
447.129	464.31
447.35	454.31
447.571	428.31
447.792	447.31
448.013	458.31
448.234	458.31
448.455	507.31
448.675	613.31
448.896	696.31
449.117	626.31
449.338	581.31
449.559	657.31
449.779	736.31
450	591.31
450.221	493.31
450.442	460.31
450.662	456.31
450.883	459.31
451.104	466.31
451.324	443.31
451.545	425.31
451.766	408.31
451.986	388.31
452.207	392.31
452.428	395.31
452.648	406.31
452.869	416.31
453.089	394.31
453.31	431.31
453.53	421.31
453.751	398.31
453.971	420.31
454.192	437.31
454.412	434.31
454.633	412.31
454.853	381.31
455.073	388.31
455.294	416.31
455.514	491.31
455.734	487.31
455.955	424.31
456.175	408.31
456.395	356.31
456.616	366.31
456.836	370.31
457.056	356.31
457.276	370.31
457.497	372.31
457.717	379.31
457.937	410.31
458.157	392.31
458.377	394.31
458.598	399.31
458.818	464.31
459.038	544.31
459.258	551.31
459.478	462.31
459.698	414.31
459.918	410.31
460.138	408.31
460.358	411.31
460.578	406.31
460.798	420.31
461.018	415.31
461.238	414.31
461.458	386.31
461.678	404.31
461.898	393.31
462.118	408.31
462.338	407.31
462.558	430.31
462.777	428.31
462.997	420.31
463.217	410.31
463.437	424.31
463.657	427.31
463.876	422.31
464.096	440.31
464.316	448.31
464.536	452.31
464.755	453.31
464.975	435.31
465.195	501.31
465.414	572.31
465.634	504.31
465.854	443.31
466.073	442.31
466.293	429.31
466.512	409.31
466.732	417.31
466.951	407.31
467.171	406.31
467.391	407.31
467.61	395.31
467.829	428.31
468.049	431.31
468.268	420.31
468.488	420.31
468.707	396.31
468.927	406.31
469.146	381.31
469.365	388.31
469.585	394.31
469.804	401.31
470.023	422.31
470.243	431.31
470.462	415.31
470.681	434.31
470.901	420.31
471.12	420.31
471.339	421.31
471.558	421.31
471.777	407.31
471.997	409.31
472.216	408.31
472.435	427.31
472.654	427.31
472.873	445.31
473.092	415.31
473.311	399.31
473.53	401.31
473.749	422.31
473.968	458.31
474.187	547.31
474.406	547.31
474.625	469.31
474.844	445.31
475.063	421.31
475.282	410.31
475.501	427.31
475.72	422.31
475.939	431.31
476.158	431.31
476.377	414.31
476.596	428.31
476.814	449.31
477.033	438.31
477.252	463.31
477.471	434.31
477.69	447.31
477.908	455.31
478.127	464.31
478.346	439.31
478.564	439.31
478.783	468.31
479.002	450.31
479.22	478.31
479.439	498.31
479.658	490.31
479.876	489.31
480.095	469.31
480.313	525.31
480.532	510.31
480.751	510.31
480.969	506.31
481.188	558.31
481.406	582.31
481.624	542.31
481.843	505.31
482.061	488.31
482.28	487.31
482.498	468.31
482.717	483.31
482.935	496.31
483.153	474.31
483.372	495.31
483.59	488.31
483.808	495.31
484.027	482.31
484.245	482.31
484.463	485.31
484.681	500.31
484.9	500.31
485.118	516.31
485.336	503.31
485.554	486.31
485.772	496.31
485.99	491.31
486.209	496.31
486.427	519.31
486.645	529.31
486.863	542.31
487.081	549.31
487.299	524.31
487.517	541.31
487.735	535.31
487.953	527.31
488.171	532.31
488.389	507.31
488.607	528.31
488.825	543.31
489.043	536.31
489.261	542.31
489.479	524.31
489.696	544.31
489.914	541.31
490.132	534.31
490.35	562.31
490.568	556.31
490.786	574.31
491.003	562.31
491.221	564.31
491.439	596.31
491.657	592.31
491.874	617.31
492.092	592.31
492.31	611.31
492.527	607.31
492.745	594.31
492.963	615.31
493.18	615.31
493.398	617.31
493.615	615.31
493.833	603.31
494.05	619.31
494.268	633.31
494.485	626.31
494.703	612.31
494.92	619.31
495.138	618.31
495.355	634.31
495.573	629.31
495.79	620.31
496.008	646.31
496.225	621.31
496.442	618.31
496.66	639.31
496.877	631.31
497.094	638.31
497.312	611.31
497.529	630.31
497.746	623.31
497.963	652.31
498.181	675.31
498.398	670.31
498.615	676.31
498.832	670.31
499.049	663.31
499.267	692.31
499.484	721.31
499.701	731.31
499.918	742.31
500.135	748.31
500.352	772.31
500.569	791.31
500.786	808.31
501.003	783.31
501.22	768.31
501.437	761.31
501.654	752.31
501.871	751.31
502.088	732.31
