Data from 1980.PennyLincolnUp.Lamp.En5.5.200Scan.071819.P1_HRD10591_16-39-20-958.txt Node
Date: Thu Jul 18 16:39:20 EDT 2019
User: cochatt
Spectrometer: HR+D1059
Trigger mode: 1
Integration Time (sec): 1.000000E-1
Scans to average: 1
Electric dark correction enabled: true
Nonlinearity correction enabled: false
Boxcar width: 0
XAxis mode: Wavelengths
Number of Pixels in Spectrum: 2048
>>>>>Begin Spectral Data<<<<<
223.165	-18.19
223.4	-18.19
223.635	-18.19
223.869	-22.19
224.104	-16.19
224.338	-16.19
224.573	3.81
224.808	-16.19
225.042	-19.19
225.277	9.81
225.511	-7.19
225.746	-3.19
225.98	4.81
226.215	11.81
226.449	12.81
226.683	14.81
226.918	25.81
227.152	34.81
227.387	34.81
227.621	48.81
227.856	53.81
228.09	52.81
228.324	37.81
228.559	50.81
228.793	58.81
229.027	95.81
229.262	101.81
229.496	134.81
229.73	147.81
229.964	186.81
230.199	134.81
230.433	114.81
230.667	116.81
230.901	114.81
231.136	114.81
231.37	123.81
231.604	121.81
231.838	113.81
232.072	138.81
232.306	114.81
232.541	123.81
232.775	102.81
233.009	118.81
233.243	115.81
233.477	112.81
233.711	120.81
233.945	120.81
234.179	116.81
234.413	119.81
234.647	127.81
234.881	107.81
235.115	126.81
235.349	124.81
235.583	108.81
235.817	138.81
236.051	132.81
236.285	142.81
236.519	135.81
236.753	122.81
236.987	141.81
237.221	210.81
237.455	250.81
237.689	221.81
237.922	146.81
238.156	144.81
238.39	134.81
238.624	127.81
238.858	134.81
239.091	132.81
239.325	114.81
239.559	134.81
239.793	127.81
240.027	145.81
240.26	153.81
240.494	181.81
240.728	151.81
240.961	163.81
241.195	157.81
241.429	159.81
241.662	139.81
241.896	143.81
242.13	137.81
242.363	134.81
242.597	131.81
242.83	144.81
243.064	136.81
243.298	134.81
243.531	150.81
243.765	155.81
243.998	145.81
244.232	132.81
244.465	148.81
244.699	158.81
244.932	143.81
245.166	138.81
245.399	149.81
245.633	160.81
245.866	139.81
246.099	138.81
246.333	152.81
246.566	149.81
246.8	160.81
247.033	162.81
247.266	166.81
247.5	172.81
247.733	171.81
247.966	185.81
248.2	165.81
248.433	193.81
248.666	177.81
248.899	182.81
249.133	203.81
249.366	231.81
249.599	208.81
249.832	184.81
250.066	205.81
250.299	198.81
250.532	201.81
250.765	206.81
250.998	229.81
251.231	261.81
251.465	249.81
251.698	206.81
251.931	199.81
252.164	205.81
252.397	224.81
252.63	207.81
252.863	223.81
253.096	234.81
253.329	241.81
253.562	225.81
253.795	233.81
254.028	236.81
254.261	236.81
254.494	234.81
254.727	255.81
254.96	322.81
255.193	291.81
255.426	263.81
255.659	231.81
255.892	248.81
256.124	244.81
256.357	259.81
256.59	253.81
256.823	217.81
257.056	219.81
257.289	212.81
257.521	217.81
257.754	213.81
257.987	203.81
258.22	194.81
258.452	212.81
258.685	212.81
258.918	225.81
259.151	214.81
259.383	229.81
259.616	233.81
259.849	229.81
260.081	237.81
260.314	249.81
260.547	277.81
260.779	254.81
261.012	232.81
261.244	229.81
261.477	227.81
261.71	250.81
261.942	247.81
262.175	258.81
262.407	262.81
262.64	220.81
262.872	210.81
263.105	216.81
263.337	224.81
263.57	220.81
263.802	211.81
264.035	207.81
264.267	210.81
264.499	217.81
264.732	220.81
264.964	213.81
265.197	214.81
265.429	224.81
265.661	217.81
265.894	228.81
266.126	229.81
266.358	210.81
266.591	201.81
266.823	224.81
267.055	225.81
267.287	232.81
267.52	233.81
267.752	231.81
267.984	238.81
268.216	231.81
268.448	236.81
268.681	235.81
268.913	236.81
269.145	257.81
269.377	287.81
269.609	289.81
269.841	290.81
270.073	280.81
270.306	317.81
270.538	340.81
270.77	333.81
271.002	339.81
271.234	324.81
271.466	312.81
271.698	329.81
271.93	342.81
272.162	337.81
272.394	348.81
272.626	310.81
272.858	293.81
273.09	291.81
273.322	269.81
273.553	275.81
273.785	265.81
274.017	286.81
274.249	266.81
274.481	251.81
274.713	281.81
274.945	279.81
275.176	274.81
275.408	258.81
275.64	280.81
275.872	279.81
276.104	275.81
276.335	268.81
276.567	284.81
276.799	310.81
277.031	333.81
277.262	324.81
277.494	321.81
277.726	311.81
277.957	300.81
278.189	310.81
278.421	262.81
278.652	286.81
278.884	249.81
279.115	280.81
279.347	274.81
279.579	258.81
279.81	260.81
280.042	253.81
280.273	279.81
280.505	261.81
280.736	272.81
280.968	251.81
281.199	259.81
281.431	248.81
281.662	256.81
281.894	262.81
282.125	276.81
282.356	294.81
282.588	326.81
282.819	303.81
283.051	261.81
283.282	260.81
283.513	255.81
283.745	277.81
283.976	272.81
284.207	284.81
284.439	273.81
284.67	277.81
284.901	267.81
285.132	280.81
285.364	258.81
285.595	257.81
285.826	276.81
286.057	276.81
286.288	278.81
286.52	263.81
286.751	277.81
286.982	270.81
287.213	258.81
287.444	274.81
287.675	266.81
287.906	279.81
288.138	278.81
288.369	295.81
288.6	293.81
288.831	275.81
289.062	279.81
289.293	257.81
289.524	280.81
289.755	281.81
289.986	265.81
290.217	259.81
290.448	282.81
290.679	277.81
290.91	275.81
291.141	259.81
291.371	267.81
291.602	284.81
291.833	286.81
292.064	282.81
292.295	274.81
292.526	271.81
292.757	266.81
292.987	259.81
293.218	272.81
293.449	276.81
293.68	283.81
293.91	279.81
294.141	275.81
294.372	266.81
294.603	290.81
294.833	268.81
295.064	288.81
295.295	276.81
295.525	278.81
295.756	295.81
295.987	292.81
296.217	328.81
296.448	323.81
296.679	282.81
296.909	280.81
297.14	265.81
297.37	284.81
297.601	270.81
297.831	266.81
298.062	263.81
298.292	268.81
298.523	290.81
298.753	314.81
298.984	288.81
299.214	292.81
299.445	288.81
299.675	304.81
299.905	282.81
300.136	284.81
300.366	299.81
300.597	284.81
300.827	279.81
301.057	303.81
301.288	328.81
301.518	309.81
301.748	285.81
301.979	306.81
302.209	314.81
302.439	294.81
302.669	306.81
302.9	322.81
303.13	309.81
303.36	301.81
303.59	326.81
303.82	328.81
304.051	325.81
304.281	308.81
304.511	319.81
304.741	307.81
304.971	310.81
305.201	312.81
305.431	303.81
305.661	318.81
305.891	297.81
306.121	296.81
306.352	322.81
306.582	320.81
306.812	314.81
307.042	320.81
307.272	306.81
307.502	303.81
307.731	318.81
307.961	319.81
308.191	295.81
308.421	336.81
308.651	319.81
308.881	322.81
309.111	329.81
309.341	333.81
309.571	358.81
309.8	372.81
310.03	358.81
310.26	376.81
310.49	382.81
310.72	400.81
310.949	366.81
311.179	406.81
311.409	384.81
311.639	378.81
311.868	370.81
312.098	367.81
312.328	374.81
312.557	394.81
312.787	411.81
313.017	414.81
313.246	383.81
313.476	378.81
313.706	380.81
313.935	364.81
314.165	383.81
314.394	400.81
314.624	404.81
314.853	404.81
315.083	379.81
315.312	366.81
315.542	364.81
315.771	354.81
316.001	319.81
316.23	366.81
316.46	341.81
316.689	354.81
316.919	349.81
317.148	395.81
317.377	383.81
317.607	374.81
317.836	360.81
318.065	342.81
318.295	350.81
318.524	343.81
318.753	338.81
318.983	336.81
319.212	377.81
319.441	395.81
319.67	383.81
319.9	364.81
320.129	380.81
320.358	364.81
320.587	392.81
320.816	386.81
321.046	388.81
321.275	377.81
321.504	386.81
321.733	399.81
321.962	384.81
322.191	418.81
322.42	446.81
322.649	459.81
322.878	458.81
323.108	469.81
323.337	515.81
323.566	540.81
323.795	574.81
324.024	642.81
324.253	780.81
324.482	1115.81
324.71	1791.81
324.939	2554.81
325.168	2224.81
325.397	1178.81
325.626	772.81
325.855	602.81
326.084	552.81
326.313	538.81
326.542	542.81
326.77	593.81
326.999	706.81
327.228	1025.81
327.457	1526.81
327.686	1953.81
327.914	1325.81
328.143	848.81
328.372	742.81
328.6	660.81
328.829	615.81
329.058	644.81
329.287	666.81
329.515	586.81
329.744	529.81
329.972	542.81
330.201	578.81
330.43	636.81
330.658	658.81
330.887	680.81
331.115	647.81
331.344	560.81
331.572	493.81
331.801	493.81
332.03	514.81
332.258	493.81
332.486	442.81
332.715	439.81
332.943	439.81
333.172	436.81
333.4	428.81
333.629	443.81
333.857	462.81
334.085	458.81
334.314	495.81
334.542	529.81
334.771	544.81
334.999	476.81
335.227	459.81
335.455	425.81
335.684	416.81
335.912	420.81
336.14	399.81
336.369	402.81
336.597	433.81
336.825	432.81
337.053	416.81
337.281	429.81
337.51	410.81
337.738	414.81
337.966	415.81
338.194	418.81
338.422	436.81
338.65	411.81
338.878	390.81
339.106	392.81
339.334	408.81
339.562	396.81
339.79	406.81
340.018	405.81
340.246	423.81
340.474	414.81
340.702	396.81
340.93	403.81
341.158	419.81
341.386	421.81
341.614	422.81
341.842	412.81
342.07	389.81
342.298	394.81
342.526	392.81
342.754	381.81
342.981	377.81
343.209	390.81
343.437	359.81
343.665	363.81
343.893	402.81
344.12	386.81
344.348	396.81
344.576	404.81
344.804	421.81
345.031	427.81
345.259	424.81
345.487	428.81
345.714	408.81
345.942	413.81
346.17	408.81
346.397	399.81
346.625	397.81
346.853	386.81
347.08	408.81
347.308	406.81
347.535	408.81
347.763	421.81
347.99	396.81
348.218	413.81
348.445	416.81
348.673	410.81
348.9	396.81
349.128	374.81
349.355	370.81
349.583	379.81
349.81	373.81
350.037	380.81
350.265	384.81
350.492	362.81
350.72	377.81
350.947	384.81
351.174	390.81
351.402	398.81
351.629	391.81
351.856	409.81
352.083	415.81
352.311	422.81
352.538	420.81
352.765	424.81
352.992	422.81
353.22	393.81
353.447	402.81
353.674	400.81
353.901	382.81
354.128	364.81
354.355	349.81
354.583	358.81
354.81	350.81
355.037	346.81
355.264	345.81
355.491	340.81
355.718	341.81
355.945	366.81
356.172	338.81
356.399	363.81
356.626	334.81
356.853	365.81
357.08	358.81
357.307	350.81
357.534	354.81
357.761	330.81
357.988	358.81
358.215	367.81
358.441	355.81
358.668	360.81
358.895	357.81
359.122	369.81
359.349	381.81
359.576	416.81
359.802	424.81
360.029	456.81
360.256	489.81
360.483	461.81
360.709	426.81
360.936	404.81
361.163	415.81
361.39	408.81
361.616	409.81
361.843	396.81
362.07	398.81
362.296	391.81
362.523	390.81
362.749	421.81
362.976	383.81
363.203	386.81
363.429	383.81
363.656	370.81
363.882	361.81
364.109	376.81
364.335	364.81
364.562	380.81
364.788	380.81
365.015	372.81
365.241	389.81
365.468	373.81
365.694	376.81
365.92	387.81
366.147	376.81
366.373	363.81
366.599	371.81
366.826	382.81
367.052	356.81
367.278	364.81
367.505	372.81
367.731	358.81
367.957	374.81
368.184	362.81
368.41	366.81
368.636	401.81
368.862	380.81
369.089	365.81
369.315	381.81
369.541	383.81
369.767	363.81
369.993	375.81
370.219	350.81
370.445	376.81
370.672	351.81
370.898	369.81
371.124	368.81
371.35	338.81
371.576	359.81
371.802	354.81
372.028	362.81
372.254	365.81
372.48	353.81
372.706	348.81
372.932	365.81
373.158	356.81
373.384	359.81
373.61	361.81
373.835	374.81
374.061	356.81
374.287	357.81
374.513	349.81
374.739	356.81
374.965	360.81
375.191	356.81
375.416	366.81
375.642	346.81
375.868	366.81
376.094	347.81
376.319	364.81
376.545	371.81
376.771	359.81
376.997	366.81
377.222	346.81
377.448	370.81
377.674	356.81
377.899	344.81
378.125	367.81
378.35	349.81
378.576	361.81
378.802	349.81
379.027	356.81
379.253	342.81
379.478	350.81
379.704	357.81
379.929	355.81
380.155	364.81
380.38	350.81
380.606	379.81
380.831	345.81
381.057	359.81
381.282	362.81
381.507	356.81
381.733	363.81
381.958	355.81
382.184	347.81
382.409	367.81
382.634	361.81
382.86	363.81
383.085	371.81
383.31	356.81
383.535	365.81
383.761	354.81
383.986	373.81
384.211	370.81
384.436	352.81
384.662	368.81
384.887	354.81
385.112	365.81
385.337	366.81
385.562	349.81
385.787	380.81
386.013	387.81
386.238	396.81
386.463	387.81
386.688	381.81
386.913	362.81
387.138	374.81
387.363	372.81
387.588	374.81
387.813	374.81
388.038	371.81
388.263	360.81
388.488	375.81
388.713	386.81
388.938	396.81
389.163	392.81
389.387	393.81
389.612	381.81
389.837	378.81
390.062	346.81
390.287	364.81
390.512	364.81
390.736	374.81
390.961	363.81
391.186	341.81
391.411	378.81
391.636	370.81
391.86	387.81
392.085	383.81
392.31	375.81
392.534	377.81
392.759	384.81
392.984	399.81
393.208	364.81
393.433	362.81
393.658	367.81
393.882	368.81
394.107	380.81
394.331	357.81
394.556	378.81
394.78	365.81
395.005	389.81
395.229	359.81
395.454	391.81
395.678	395.81
395.903	406.81
396.127	414.81
396.352	427.81
396.576	403.81
396.801	382.81
397.025	386.81
397.249	384.81
397.474	384.81
397.698	389.81
397.922	410.81
398.147	427.81
398.371	410.81
398.595	406.81
398.82	408.81
399.044	432.81
399.268	426.81
399.492	442.81
399.717	472.81
399.941	472.81
400.165	504.81
400.389	545.81
400.613	482.81
400.837	456.81
401.062	434.81
401.286	426.81
401.51	437.81
401.734	422.81
401.958	436.81
402.182	412.81
402.406	442.81
402.63	423.81
402.854	424.81
403.078	450.81
403.302	432.81
403.526	456.81
403.75	444.81
403.974	414.81
404.198	444.81
404.422	440.81
404.645	429.81
404.869	446.81
405.093	482.81
405.317	541.81
405.541	546.81
405.765	505.81
405.988	469.81
406.212	496.81
406.436	533.81
406.66	516.81
406.883	514.81
407.107	506.81
407.331	527.81
407.555	602.81
407.778	589.81
408.002	559.81
408.226	502.81
408.449	503.81
408.673	502.81
408.896	525.81
409.12	583.81
409.344	532.81
409.567	469.81
409.791	460.81
410.014	458.81
410.238	455.81
410.461	440.81
410.685	440.81
410.908	488.81
411.132	518.81
411.355	550.81
411.578	515.81
411.802	469.81
412.025	447.81
412.249	454.81
412.472	469.81
412.695	524.81
412.919	526.81
413.142	472.81
413.365	445.81
413.589	443.81
413.812	422.81
414.035	441.81
414.258	437.81
414.482	413.81
414.705	440.81
414.928	414.81
415.151	410.81
415.374	411.81
415.597	426.81
415.821	422.81
416.044	429.81
416.267	411.81
416.49	432.81
416.713	438.81
416.936	442.81
417.159	418.81
417.382	443.81
417.605	454.81
417.828	441.81
418.051	461.81
418.274	451.81
418.497	428.81
418.72	428.81
418.943	426.81
419.166	426.81
419.389	452.81
419.611	471.81
419.834	460.81
420.057	464.81
420.28	443.81
420.503	428.81
420.726	453.81
420.948	473.81
421.171	521.81
421.394	545.81
421.617	478.81
421.839	460.81
422.062	444.81
422.285	469.81
422.507	545.81
422.73	625.81
422.953	579.81
423.175	525.81
423.398	472.81
423.621	487.81
423.843	510.81
424.066	496.81
424.288	483.81
424.511	536.81
424.733	566.81
424.956	671.81
425.178	652.81
425.401	626.81
425.623	671.81
425.846	562.81
426.068	524.81
426.291	522.81
426.513	543.81
426.735	525.81
426.958	563.81
427.18	638.81
427.402	750.81
427.625	871.81
427.847	781.81
428.069	680.81
428.292	583.81
428.514	536.81
428.736	520.81
428.958	499.81
429.181	464.81
429.403	468.81
429.625	486.81
429.847	537.81
430.069	593.81
430.292	583.81
430.514	483.81
430.736	493.81
430.958	455.81
431.18	468.81
431.402	459.81
431.624	424.81
431.846	399.81
432.068	429.81
432.29	446.81
432.512	438.81
432.734	454.81
432.956	454.81
433.178	450.81
433.4	463.81
433.622	459.81
433.844	422.81
434.066	458.81
434.287	423.81
434.509	420.81
434.731	450.81
434.953	451.81
435.175	477.81
435.397	506.81
435.618	524.81
435.84	558.81
436.062	640.81
436.284	716.81
436.505	606.81
436.727	530.81
436.949	500.81
437.17	455.81
437.392	474.81
437.614	482.81
437.835	553.81
438.057	657.81
438.278	754.81
438.5	740.81
438.721	798.81
438.943	734.81
439.165	606.81
439.386	544.81
439.608	555.81
439.829	542.81
440.05	574.81
440.272	631.81
440.493	575.81
440.715	519.81
440.936	509.81
441.158	477.81
441.379	472.81
441.6	484.81
441.822	510.81
442.043	548.81
442.264	659.81
442.486	712.81
442.707	583.81
442.928	532.81
443.149	540.81
443.371	573.81
443.592	601.81
443.813	687.81
444.034	740.81
444.255	618.81
444.476	543.81
444.698	515.81
444.919	511.81
445.14	612.81
445.361	578.81
445.582	571.81
445.803	624.81
446.024	745.81
446.245	734.81
446.466	696.81
446.687	580.81
446.908	543.81
447.129	489.81
447.35	508.81
447.571	496.81
447.792	463.81
448.013	477.81
448.234	494.81
448.455	562.81
448.675	680.81
448.896	778.81
449.117	690.81
449.338	620.81
449.559	743.81
449.779	810.81
450	655.81
450.221	555.81
450.442	488.81
450.662	483.81
450.883	500.81
451.104	512.81
451.324	509.81
451.545	456.81
451.766	442.81
451.986	436.81
452.207	423.81
452.428	435.81
452.648	421.81
452.869	442.81
453.089	454.81
453.31	466.81
453.53	448.81
453.751	437.81
453.971	432.81
454.192	472.81
454.412	446.81
454.633	428.81
454.853	423.81
455.073	447.81
455.294	467.81
455.514	567.81
455.734	534.81
455.955	460.81
456.175	421.81
456.395	402.81
456.616	398.81
456.836	392.81
457.056	414.81
457.276	371.81
457.497	392.81
457.717	401.81
457.937	398.81
458.157	413.81
458.377	416.81
458.598	444.81
458.818	517.81
459.038	606.81
459.258	617.81
459.478	534.81
459.698	472.81
459.918	448.81
460.138	437.81
460.358	426.81
460.578	422.81
460.798	425.81
461.018	422.81
461.238	427.81
461.458	431.81
461.678	425.81
461.898	420.81
462.118	405.81
462.338	434.81
462.558	452.81
462.777	437.81
462.997	436.81
463.217	436.81
463.437	444.81
463.657	436.81
463.876	443.81
464.096	438.81
464.316	444.81
464.536	451.81
464.755	464.81
464.975	474.81
465.195	530.81
465.414	648.81
465.634	556.81
465.854	484.81
466.073	468.81
466.293	449.81
466.512	451.81
466.732	411.81
466.951	438.81
467.171	413.81
467.391	442.81
467.61	452.81
467.829	447.81
468.049	458.81
468.268	454.81
468.488	425.81
468.707	423.81
468.927	415.81
469.146	409.81
469.365	399.81
469.585	422.81
469.804	444.81
470.023	440.81
470.243	424.81
470.462	438.81
470.681	482.81
470.901	462.81
471.12	426.81
471.339	423.81
471.558	437.81
471.777	453.81
471.997	447.81
472.216	437.81
472.435	479.81
472.654	455.81
472.873	457.81
473.092	429.81
473.311	422.81
473.53	428.81
473.749	454.81
473.968	500.81
474.187	596.81
474.406	638.81
474.625	528.81
474.844	485.81
475.063	458.81
475.282	446.81
475.501	424.81
475.72	458.81
475.939	441.81
476.158	455.81
476.377	456.81
476.596	452.81
476.814	464.81
477.033	475.81
477.252	454.81
477.471	447.81
477.69	464.81
477.908	462.81
478.127	464.81
478.346	456.81
478.564	480.81
478.783	473.81
479.002	475.81
479.22	485.81
479.439	513.81
479.658	519.81
479.876	538.81
480.095	550.81
480.313	558.81
480.532	540.81
480.751	540.81
480.969	555.81
481.188	653.81
481.406	670.81
481.624	586.81
481.843	548.81
482.061	538.81
482.28	518.81
482.498	525.81
482.717	512.81
482.935	527.81
483.153	527.81
483.372	544.81
483.59	523.81
483.808	518.81
484.027	504.81
484.245	530.81
484.463	515.81
484.681	528.81
484.9	549.81
485.118	530.81
485.336	530.81
485.554	527.81
485.772	543.81
485.99	534.81
486.209	528.81
486.427	545.81
486.645	568.81
486.863	589.81
487.081	603.81
487.299	567.81
487.517	580.81
487.735	551.81
487.953	534.81
488.171	581.81
488.389	569.81
488.607	574.81
488.825	558.81
489.043	581.81
489.261	570.81
489.479	587.81
489.696	568.81
489.914	554.81
490.132	585.81
490.35	607.81
490.568	606.81
490.786	636.81
491.003	624.81
491.221	619.81
491.439	620.81
491.657	637.81
491.874	652.81
492.092	648.81
492.31	664.81
492.527	670.81
492.745	675.81
492.963	652.81
493.18	647.81
493.398	698.81
493.615	675.81
493.833	677.81
494.05	680.81
494.268	669.81
494.485	686.81
494.703	698.81
494.92	690.81
495.138	664.81
495.355	715.81
495.573	690.81
495.79	683.81
496.008	664.81
496.225	656.81
496.442	680.81
496.66	679.81
496.877	686.81
497.094	670.81
497.312	668.81
497.529	691.81
497.746	701.81
497.963	719.81
498.181	721.81
498.398	723.81
498.615	698.81
498.832	728.81
499.049	710.81
499.267	744.81
499.484	757.81
499.701	749.81
499.918	758.81
500.135	764.81
500.352	801.81
500.569	822.81
500.786	804.81
501.003	802.81
501.22	818.81
501.437	778.81
501.654	773.81
501.871	810.81
