Data from 1980.PennyLincolnUp.Lamp.En5.5.200Scan.071819.P1_HRD10591_16-35-37-956.txt Node
Date: Thu Jul 18 16:35:37 EDT 2019
User: cochatt
Spectrometer: HR+D1059
Trigger mode: 1
Integration Time (sec): 1.000000E-1
Scans to average: 1
Electric dark correction enabled: true
Nonlinearity correction enabled: false
Boxcar width: 0
XAxis mode: Wavelengths
Number of Pixels in Spectrum: 2048
>>>>>Begin Spectral Data<<<<<
223.165	-4.75
223.4	-4.75
223.635	-4.75
223.869	-12.75
224.104	-20.75
224.338	-15.75
224.573	-22.75
224.808	-16.75
225.042	-7.75
225.277	0.25
225.511	2.25
225.746	-2.75
225.98	17.25
226.215	4.25
226.449	13.25
226.683	29.25
226.918	15.25
227.152	22.25
227.387	30.25
227.621	43.25
227.856	45.25
228.09	45.25
228.324	42.25
228.559	56.25
228.793	71.25
229.027	75.25
229.262	90.25
229.496	82.25
229.73	84.25
229.964	93.25
230.199	101.25
230.433	90.25
230.667	89.25
230.901	87.25
231.136	86.25
231.37	80.25
231.604	81.25
231.838	101.25
232.072	107.25
232.306	89.25
232.541	102.25
232.775	95.25
233.009	91.25
233.243	109.25
233.477	96.25
233.711	87.25
233.945	90.25
234.179	94.25
234.413	90.25
234.647	79.25
234.881	102.25
235.115	90.25
235.349	93.25
235.583	91.25
235.817	90.25
236.051	101.25
236.285	94.25
236.519	104.25
236.753	99.25
236.987	102.25
237.221	121.25
237.455	137.25
237.689	110.25
237.922	112.25
238.156	99.25
238.39	101.25
238.624	101.25
238.858	102.25
239.091	112.25
239.325	96.25
239.559	79.25
239.793	108.25
240.027	101.25
240.26	111.25
240.494	103.25
240.728	90.25
240.961	97.25
241.195	103.25
241.429	103.25
241.662	92.25
241.896	78.25
242.13	99.25
242.363	86.25
242.597	93.25
242.83	104.25
243.064	94.25
243.298	103.25
243.531	114.25
243.765	88.25
243.998	87.25
244.232	100.25
244.465	95.25
244.699	100.25
244.932	94.25
245.166	100.25
245.399	103.25
245.633	99.25
245.866	111.25
246.099	109.25
246.333	120.25
246.566	96.25
246.8	83.25
247.033	100.25
247.266	96.25
247.5	106.25
247.733	114.25
247.966	103.25
248.2	103.25
248.433	102.25
248.666	114.25
248.899	117.25
249.133	111.25
249.366	124.25
249.599	114.25
249.832	116.25
250.066	99.25
250.299	121.25
250.532	125.25
250.765	129.25
250.998	105.25
251.231	127.25
251.465	126.25
251.698	117.25
251.931	122.25
252.164	117.25
252.397	118.25
252.63	107.25
252.863	124.25
253.096	128.25
253.329	128.25
253.562	136.25
253.795	115.25
254.028	132.25
254.261	127.25
254.494	120.25
254.727	111.25
254.96	140.25
255.193	123.25
255.426	131.25
255.659	132.25
255.892	133.25
256.124	108.25
256.357	124.25
256.59	130.25
256.823	116.25
257.056	111.25
257.289	130.25
257.521	116.25
257.754	116.25
257.987	115.25
258.22	117.25
258.452	119.25
258.685	126.25
258.918	122.25
259.151	118.25
259.383	126.25
259.616	120.25
259.849	114.25
260.081	132.25
260.314	136.25
260.547	137.25
260.779	137.25
261.012	115.25
261.244	124.25
261.477	130.25
261.71	124.25
261.942	124.25
262.175	142.25
262.407	128.25
262.64	118.25
262.872	131.25
263.105	122.25
263.337	118.25
263.57	117.25
263.802	101.25
264.035	122.25
264.267	103.25
264.499	113.25
264.732	127.25
264.964	123.25
265.197	111.25
265.429	111.25
265.661	111.25
265.894	127.25
266.126	105.25
266.358	124.25
266.591	111.25
266.823	128.25
267.055	121.25
267.287	117.25
267.52	116.25
267.752	126.25
267.984	123.25
268.216	121.25
268.448	96.25
268.681	126.25
268.913	117.25
269.145	132.25
269.377	138.25
269.609	149.25
269.841	128.25
270.073	133.25
270.306	147.25
270.538	152.25
270.77	136.25
271.002	144.25
271.234	156.25
271.466	143.25
271.698	164.25
271.93	137.25
272.162	160.25
272.394	154.25
272.626	152.25
272.858	140.25
273.09	148.25
273.322	141.25
273.553	148.25
273.785	125.25
274.017	124.25
274.249	152.25
274.481	149.25
274.713	150.25
274.945	137.25
275.176	135.25
275.408	148.25
275.64	121.25
275.872	127.25
276.104	126.25
276.335	123.25
276.567	127.25
276.799	134.25
277.031	135.25
277.262	174.25
277.494	161.25
277.726	138.25
277.957	139.25
278.189	137.25
278.421	130.25
278.652	119.25
278.884	130.25
279.115	133.25
279.347	145.25
279.579	148.25
279.81	131.25
280.042	139.25
280.273	140.25
280.505	130.25
280.736	128.25
280.968	141.25
281.199	121.25
281.431	127.25
281.662	123.25
281.894	135.25
282.125	122.25
282.356	117.25
282.588	161.25
282.819	140.25
283.051	124.25
283.282	128.25
283.513	137.25
283.745	128.25
283.976	135.25
284.207	141.25
284.439	146.25
284.67	137.25
284.901	129.25
285.132	135.25
285.364	140.25
285.595	122.25
285.826	121.25
286.057	126.25
286.288	137.25
286.52	135.25
286.751	135.25
286.982	124.25
287.213	133.25
287.444	130.25
287.675	127.25
287.906	134.25
288.138	142.25
288.369	153.25
288.6	150.25
288.831	163.25
289.062	138.25
289.293	131.25
289.524	123.25
289.755	128.25
289.986	120.25
290.217	141.25
290.448	130.25
290.679	135.25
290.91	122.25
291.141	119.25
291.371	148.25
291.602	137.25
291.833	126.25
292.064	128.25
292.295	136.25
292.526	123.25
292.757	133.25
292.987	120.25
293.218	124.25
293.449	132.25
293.68	118.25
293.91	123.25
294.141	131.25
294.372	141.25
294.603	127.25
294.833	134.25
295.064	128.25
295.295	144.25
295.525	119.25
295.756	118.25
295.987	141.25
296.217	129.25
296.448	139.25
296.679	137.25
296.909	128.25
297.14	138.25
297.37	132.25
297.601	126.25
297.831	139.25
298.062	141.25
298.292	132.25
298.523	143.25
298.753	124.25
298.984	132.25
299.214	139.25
299.445	139.25
299.675	135.25
299.905	138.25
300.136	132.25
300.366	138.25
300.597	142.25
300.827	133.25
301.057	130.25
301.288	141.25
301.518	142.25
301.748	125.25
301.979	143.25
302.209	125.25
302.439	140.25
302.669	146.25
302.9	120.25
303.13	134.25
303.36	139.25
303.59	137.25
303.82	145.25
304.051	145.25
304.281	135.25
304.511	131.25
304.741	126.25
304.971	136.25
305.201	150.25
305.431	140.25
305.661	131.25
305.891	138.25
306.121	119.25
306.352	152.25
306.582	141.25
306.812	135.25
307.042	134.25
307.272	142.25
307.502	126.25
307.731	138.25
307.961	160.25
308.191	136.25
308.421	149.25
308.651	156.25
308.881	162.25
309.111	152.25
309.341	163.25
309.571	151.25
309.8	171.25
310.03	157.25
310.26	161.25
310.49	168.25
310.72	175.25
310.949	171.25
311.179	167.25
311.409	174.25
311.639	157.25
311.868	170.25
312.098	158.25
312.328	159.25
312.557	171.25
312.787	191.25
313.017	168.25
313.246	162.25
313.476	148.25
313.706	169.25
313.935	153.25
314.165	172.25
314.394	158.25
314.624	165.25
314.853	174.25
315.083	168.25
315.312	158.25
315.542	151.25
315.771	167.25
316.001	150.25
316.23	168.25
316.46	159.25
316.689	142.25
316.919	178.25
317.148	163.25
317.377	166.25
317.607	161.25
317.836	148.25
318.065	147.25
318.295	149.25
318.524	147.25
318.753	146.25
318.983	152.25
319.212	152.25
319.441	161.25
319.67	162.25
319.9	150.25
320.129	153.25
320.358	169.25
320.587	159.25
320.816	180.25
321.046	149.25
321.275	170.25
321.504	165.25
321.733	162.25
321.962	182.25
322.191	182.25
322.42	186.25
322.649	190.25
322.878	185.25
323.108	212.25
323.337	212.25
323.566	212.25
323.795	242.25
324.024	237.25
324.253	314.25
324.482	394.25
324.71	568.25
324.939	658.25
325.168	576.25
325.397	401.25
325.626	284.25
325.855	247.25
326.084	221.25
326.313	231.25
326.542	225.25
326.77	234.25
326.999	283.25
327.228	367.25
327.457	478.25
327.686	531.25
327.914	400.25
328.143	303.25
328.372	289.25
328.6	260.25
328.829	256.25
329.058	272.25
329.287	250.25
329.515	227.25
329.744	209.25
329.972	228.25
330.201	229.25
330.43	225.25
330.658	257.25
330.887	279.25
331.115	264.25
331.344	219.25
331.572	198.25
331.801	203.25
332.03	210.25
332.258	180.25
332.486	175.25
332.715	192.25
332.943	186.25
333.172	180.25
333.4	172.25
333.629	191.25
333.857	169.25
334.085	180.25
334.314	182.25
334.542	203.25
334.771	182.25
334.999	171.25
335.227	188.25
335.455	170.25
335.684	180.25
335.912	167.25
336.14	161.25
336.369	175.25
336.597	178.25
336.825	164.25
337.053	175.25
337.281	172.25
337.51	154.25
337.738	167.25
337.966	169.25
338.194	182.25
338.422	178.25
338.65	158.25
338.878	178.25
339.106	168.25
339.334	186.25
339.562	162.25
339.79	167.25
340.018	182.25
340.246	191.25
340.474	188.25
340.702	160.25
340.93	162.25
341.158	158.25
341.386	172.25
341.614	152.25
341.842	166.25
342.07	173.25
342.298	173.25
342.526	173.25
342.754	143.25
342.981	162.25
343.209	153.25
343.437	174.25
343.665	155.25
343.893	175.25
344.12	164.25
344.348	157.25
344.576	164.25
344.804	175.25
345.031	175.25
345.259	166.25
345.487	186.25
345.714	167.25
345.942	184.25
346.17	168.25
346.397	166.25
346.625	165.25
346.853	167.25
347.08	159.25
347.308	168.25
347.535	166.25
347.763	183.25
347.99	174.25
348.218	163.25
348.445	167.25
348.673	173.25
348.9	180.25
349.128	161.25
349.355	154.25
349.583	175.25
349.81	167.25
350.037	179.25
350.265	165.25
350.492	164.25
350.72	162.25
350.947	156.25
351.174	159.25
351.402	173.25
351.629	171.25
351.856	172.25
352.083	179.25
352.311	182.25
352.538	170.25
352.765	168.25
352.992	174.25
353.22	166.25
353.447	166.25
353.674	166.25
353.901	168.25
354.128	156.25
354.355	144.25
354.583	151.25
354.81	155.25
355.037	176.25
355.264	149.25
355.491	158.25
355.718	154.25
355.945	159.25
356.172	178.25
356.399	152.25
356.626	164.25
356.853	171.25
357.08	152.25
357.307	158.25
357.534	151.25
357.761	155.25
357.988	172.25
358.215	155.25
358.441	162.25
358.668	153.25
358.895	166.25
359.122	152.25
359.349	154.25
359.576	175.25
359.802	187.25
360.029	204.25
360.256	214.25
360.483	197.25
360.709	165.25
360.936	168.25
361.163	174.25
361.39	166.25
361.616	171.25
361.843	167.25
362.07	173.25
362.296	173.25
362.523	172.25
362.749	175.25
362.976	171.25
363.203	173.25
363.429	174.25
363.656	168.25
363.882	170.25
364.109	165.25
364.335	158.25
364.562	163.25
364.788	157.25
365.015	157.25
365.241	159.25
365.468	158.25
365.694	151.25
365.92	166.25
366.147	165.25
366.373	171.25
366.599	155.25
366.826	161.25
367.052	168.25
367.278	159.25
367.505	159.25
367.731	164.25
367.957	161.25
368.184	159.25
368.41	161.25
368.636	163.25
368.862	179.25
369.089	162.25
369.315	164.25
369.541	170.25
369.767	155.25
369.993	158.25
370.219	163.25
370.445	159.25
370.672	148.25
370.898	151.25
371.124	157.25
371.35	162.25
371.576	137.25
371.802	158.25
372.028	151.25
372.254	164.25
372.48	154.25
372.706	157.25
372.932	147.25
373.158	153.25
373.384	154.25
373.61	169.25
373.835	154.25
374.061	158.25
374.287	148.25
374.513	159.25
374.739	162.25
374.965	150.25
375.191	174.25
375.416	151.25
375.642	166.25
375.868	171.25
376.094	153.25
376.319	157.25
376.545	149.25
376.771	160.25
376.997	153.25
377.222	165.25
377.448	162.25
377.674	154.25
377.899	149.25
378.125	154.25
378.35	154.25
378.576	156.25
378.802	155.25
379.027	159.25
379.253	167.25
379.478	150.25
379.704	154.25
379.929	152.25
380.155	163.25
380.38	160.25
380.606	164.25
380.831	155.25
381.057	162.25
381.282	174.25
381.507	150.25
381.733	162.25
381.958	166.25
382.184	158.25
382.409	175.25
382.634	156.25
382.86	159.25
383.085	152.25
383.31	154.25
383.535	157.25
383.761	158.25
383.986	152.25
384.211	149.25
384.436	158.25
384.662	171.25
384.887	144.25
385.112	167.25
385.337	164.25
385.562	167.25
385.787	167.25
386.013	172.25
386.238	159.25
386.463	164.25
386.688	153.25
386.913	150.25
387.138	164.25
387.363	162.25
387.588	160.25
387.813	164.25
388.038	180.25
388.263	153.25
388.488	150.25
388.713	159.25
388.938	160.25
389.163	141.25
389.387	144.25
389.612	151.25
389.837	150.25
390.062	153.25
390.287	151.25
390.512	148.25
390.736	152.25
390.961	159.25
391.186	148.25
391.411	166.25
391.636	165.25
391.86	157.25
392.085	173.25
392.31	168.25
392.534	176.25
392.759	171.25
392.984	173.25
393.208	173.25
393.433	188.25
393.658	195.25
393.882	164.25
394.107	145.25
394.331	178.25
394.556	171.25
394.78	180.25
395.005	161.25
395.229	172.25
395.454	166.25
395.678	168.25
395.903	159.25
396.127	170.25
396.352	162.25
396.576	172.25
396.801	159.25
397.025	181.25
397.249	180.25
397.474	181.25
397.698	178.25
397.922	169.25
398.147	165.25
398.371	186.25
398.595	173.25
398.82	178.25
399.044	168.25
399.268	188.25
399.492	169.25
399.717	188.25
399.941	179.25
400.165	188.25
400.389	192.25
400.613	191.25
400.837	165.25
401.062	166.25
401.286	171.25
401.51	173.25
401.734	167.25
401.958	170.25
402.182	162.25
402.406	188.25
402.63	173.25
402.854	193.25
403.078	178.25
403.302	167.25
403.526	170.25
403.75	183.25
403.974	176.25
404.198	172.25
404.422	197.25
404.645	189.25
404.869	171.25
405.093	189.25
405.317	199.25
405.541	208.25
405.765	186.25
405.988	190.25
406.212	194.25
406.436	201.25
406.66	207.25
406.883	197.25
407.107	195.25
407.331	203.25
407.555	212.25
407.778	205.25
408.002	206.25
408.226	210.25
408.449	194.25
408.673	189.25
408.896	195.25
409.12	212.25
409.344	183.25
409.567	194.25
409.791	192.25
410.014	162.25
410.238	174.25
410.461	166.25
410.685	176.25
410.908	166.25
411.132	190.25
411.355	205.25
411.578	189.25
411.802	182.25
412.025	176.25
412.249	173.25
412.472	187.25
412.695	208.25
412.919	190.25
413.142	182.25
413.365	170.25
413.589	167.25
413.812	162.25
414.035	165.25
414.258	163.25
414.482	183.25
414.705	181.25
414.928	175.25
415.151	164.25
415.374	176.25
415.597	162.25
415.821	182.25
416.044	175.25
416.267	192.25
416.49	166.25
416.713	157.25
416.936	171.25
417.159	171.25
417.382	181.25
417.605	170.25
417.828	173.25
418.051	192.25
418.274	162.25
418.497	166.25
418.72	170.25
418.943	167.25
419.166	175.25
419.389	174.25
419.611	180.25
419.834	173.25
420.057	169.25
420.28	183.25
420.503	178.25
420.726	186.25
420.948	197.25
421.171	188.25
421.394	207.25
421.617	200.25
421.839	190.25
422.062	188.25
422.285	190.25
422.507	199.25
422.73	223.25
422.953	221.25
423.175	204.25
423.398	198.25
423.621	188.25
423.843	195.25
424.066	193.25
424.288	199.25
424.511	204.25
424.733	219.25
424.956	232.25
425.178	225.25
425.401	221.25
425.623	224.25
425.846	206.25
426.068	223.25
426.291	188.25
426.513	222.25
426.735	204.25
426.958	227.25
427.18	238.25
427.402	263.25
427.625	274.25
427.847	264.25
428.069	241.25
428.292	217.25
428.514	208.25
428.736	188.25
428.958	218.25
429.181	188.25
429.403	182.25
429.625	182.25
429.847	198.25
430.069	226.25
430.292	210.25
430.514	176.25
430.736	195.25
430.958	179.25
431.18	182.25
431.402	175.25
431.624	177.25
431.846	168.25
432.068	186.25
432.29	174.25
432.512	178.25
432.734	182.25
432.956	188.25
433.178	192.25
433.4	187.25
433.622	179.25
433.844	171.25
434.066	181.25
434.287	165.25
434.509	187.25
434.731	176.25
434.953	194.25
435.175	181.25
435.397	196.25
435.618	211.25
435.84	217.25
436.062	228.25
436.284	237.25
436.505	188.25
436.727	224.25
436.949	184.25
437.17	183.25
437.392	196.25
437.614	215.25
437.835	231.25
438.057	239.25
438.278	271.25
438.5	261.25
438.721	291.25
438.943	267.25
439.165	228.25
439.386	211.25
439.608	207.25
439.829	233.25
440.05	215.25
440.272	206.25
440.493	207.25
440.715	211.25
440.936	200.25
441.158	209.25
441.379	219.25
441.6	213.25
441.822	219.25
442.043	215.25
442.264	226.25
442.486	239.25
442.707	221.25
442.928	199.25
443.149	206.25
443.371	216.25
443.592	220.25
443.813	224.25
444.034	245.25
444.255	238.25
444.476	215.25
444.698	217.25
444.919	219.25
445.14	306.25
445.361	259.25
445.582	203.25
445.803	208.25
446.024	236.25
446.245	235.25
446.466	233.25
446.687	229.25
446.908	208.25
447.129	194.25
447.35	189.25
447.571	184.25
447.792	204.25
448.013	201.25
448.234	208.25
448.455	225.25
448.675	255.25
448.896	237.25
449.117	251.25
449.338	219.25
449.559	266.25
449.779	269.25
450	234.25
450.221	214.25
450.442	207.25
450.662	204.25
450.883	190.25
451.104	230.25
451.324	203.25
451.545	201.25
451.766	197.25
451.986	189.25
452.207	174.25
452.428	175.25
452.648	187.25
452.869	176.25
453.089	190.25
453.31	194.25
453.53	201.25
453.751	194.25
453.971	192.25
454.192	183.25
454.412	200.25
454.633	188.25
454.853	172.25
455.073	189.25
455.294	189.25
455.514	219.25
455.734	216.25
455.955	182.25
456.175	171.25
456.395	166.25
456.616	157.25
456.836	171.25
457.056	170.25
457.276	161.25
457.497	178.25
457.717	171.25
457.937	180.25
458.157	171.25
458.377	164.25
458.598	180.25
458.818	220.25
459.038	255.25
459.258	232.25
459.478	202.25
459.698	214.25
459.918	184.25
460.138	183.25
460.358	172.25
460.578	178.25
460.798	168.25
461.018	165.25
461.238	174.25
461.458	175.25
461.678	185.25
461.898	171.25
462.118	182.25
462.338	180.25
462.558	175.25
462.777	180.25
462.997	165.25
463.217	168.25
463.437	172.25
463.657	171.25
463.876	167.25
464.096	193.25
464.316	175.25
464.536	194.25
464.755	175.25
464.975	204.25
465.195	227.25
465.414	280.25
465.634	224.25
465.854	207.25
466.073	198.25
466.293	196.25
466.512	175.25
466.732	157.25
466.951	189.25
467.171	172.25
467.391	191.25
467.61	184.25
467.829	199.25
468.049	196.25
468.268	186.25
468.488	191.25
468.707	174.25
468.927	178.25
469.146	164.25
469.365	170.25
469.585	172.25
469.804	194.25
470.023	151.25
470.243	196.25
470.462	207.25
470.681	207.25
470.901	196.25
471.12	195.25
471.339	196.25
471.558	191.25
471.777	182.25
471.997	163.25
472.216	185.25
472.435	195.25
472.654	191.25
472.873	175.25
473.092	194.25
473.311	176.25
473.53	194.25
473.749	196.25
473.968	208.25
474.187	238.25
474.406	238.25
474.625	207.25
474.844	166.25
475.063	170.25
475.282	187.25
475.501	173.25
475.72	182.25
475.939	186.25
476.158	190.25
476.377	180.25
476.596	189.25
476.814	176.25
477.033	175.25
477.252	190.25
477.471	199.25
477.69	182.25
477.908	193.25
478.127	190.25
478.346	178.25
478.564	192.25
478.783	205.25
479.002	203.25
479.22	216.25
479.439	208.25
479.658	215.25
479.876	211.25
480.095	226.25
480.313	226.25
480.532	215.25
480.751	219.25
480.969	211.25
481.188	204.25
481.406	243.25
481.624	213.25
481.843	212.25
482.061	213.25
482.28	213.25
482.498	193.25
482.717	195.25
482.935	197.25
483.153	209.25
483.372	218.25
483.59	214.25
483.808	204.25
484.027	211.25
484.245	230.25
484.463	185.25
484.681	210.25
484.9	221.25
485.118	213.25
485.336	219.25
485.554	212.25
485.772	212.25
485.99	215.25
486.209	219.25
486.427	219.25
486.645	236.25
486.863	247.25
487.081	231.25
487.299	222.25
487.517	226.25
487.735	203.25
487.953	217.25
488.171	227.25
488.389	216.25
488.607	211.25
488.825	218.25
489.043	221.25
489.261	228.25
489.479	223.25
489.696	226.25
489.914	226.25
490.132	226.25
490.35	222.25
490.568	226.25
490.786	233.25
491.003	246.25
491.221	238.25
491.439	245.25
491.657	244.25
491.874	282.25
492.092	249.25
492.31	262.25
492.527	271.25
492.745	268.25
492.963	270.25
493.18	269.25
493.398	251.25
493.615	271.25
493.833	250.25
494.05	269.25
494.268	281.25
494.485	266.25
494.703	267.25
494.92	267.25
495.138	270.25
495.355	267.25
495.573	277.25
495.79	262.25
496.008	276.25
496.225	278.25
496.442	273.25
496.66	267.25
496.877	276.25
497.094	245.25
497.312	267.25
497.529	276.25
497.746	259.25
497.963	267.25
498.181	264.25
498.398	263.25
498.615	265.25
498.832	288.25
499.049	271.25
499.267	290.25
499.484	266.25
499.701	296.25
499.918	270.25
500.135	267.25
500.352	303.25
500.569	303.25
500.786	287.25
501.003	285.25
501.22	293.25
501.437	288.25
501.654	300.25
501.871	307.25
502.088	286.25
502.305	277.25
502.522	262.25
502.739	287.25
