Data from 1980.PennyLincolnUp.Lamp.En5.5.200Scan.071819.P1_HRD10591_16-39-23-958.txt Node
Date: Thu Jul 18 16:39:23 EDT 2019
User: cochatt
Spectrometer: HR+D1059
Trigger mode: 1
Integration Time (sec): 1.000000E-1
Scans to average: 1
Electric dark correction enabled: true
Nonlinearity correction enabled: false
Boxcar width: 0
XAxis mode: Wavelengths
Number of Pixels in Spectrum: 2048
>>>>>Begin Spectral Data<<<<<
223.165	-27.19
223.4	-27.19
223.635	-27.19
223.869	-18.19
224.104	-18.19
224.338	-16.19
224.573	-4.19
224.808	-1.19
225.042	-8.19
225.277	-23.19
225.511	-10.19
225.746	-2.19
225.98	14.81
226.215	8.81
226.449	8.81
226.683	35.81
226.918	32.81
227.152	27.81
227.387	11.81
227.621	47.81
227.856	58.81
228.09	40.81
228.324	55.81
228.559	61.81
228.793	76.81
229.027	118.81
229.262	116.81
229.496	121.81
229.73	142.81
229.964	161.81
230.199	151.81
230.433	121.81
230.667	119.81
230.901	113.81
231.136	114.81
231.37	107.81
231.604	121.81
231.838	121.81
232.072	109.81
232.306	125.81
232.541	127.81
232.775	125.81
233.009	125.81
233.243	107.81
233.477	126.81
233.711	119.81
233.945	111.81
234.179	120.81
234.413	123.81
234.647	115.81
234.881	111.81
235.115	123.81
235.349	122.81
235.583	118.81
235.817	138.81
236.051	133.81
236.285	143.81
236.519	128.81
236.753	119.81
236.987	155.81
237.221	200.81
237.455	260.81
237.689	201.81
237.922	154.81
238.156	139.81
238.39	136.81
238.624	130.81
238.858	125.81
239.091	123.81
239.325	134.81
239.559	128.81
239.793	133.81
240.027	126.81
240.26	160.81
240.494	162.81
240.728	169.81
240.961	147.81
241.195	150.81
241.429	138.81
241.662	143.81
241.896	134.81
242.13	129.81
242.363	143.81
242.597	129.81
242.83	143.81
243.064	135.81
243.298	149.81
243.531	138.81
243.765	133.81
243.998	143.81
244.232	141.81
244.465	148.81
244.699	140.81
244.932	146.81
245.166	139.81
245.399	149.81
245.633	139.81
245.866	141.81
246.099	141.81
246.333	148.81
246.566	143.81
246.8	170.81
247.033	158.81
247.266	165.81
247.5	177.81
247.733	168.81
247.966	177.81
248.2	164.81
248.433	177.81
248.666	173.81
248.899	179.81
249.133	210.81
249.366	210.81
249.599	198.81
249.832	185.81
250.066	199.81
250.299	183.81
250.532	195.81
250.765	217.81
250.998	242.81
251.231	247.81
251.465	238.81
251.698	241.81
251.931	219.81
252.164	215.81
252.397	201.81
252.63	213.81
252.863	222.81
253.096	237.81
253.329	250.81
253.562	226.81
253.795	236.81
254.028	234.81
254.261	228.81
254.494	238.81
254.727	280.81
254.96	302.81
255.193	303.81
255.426	282.81
255.659	259.81
255.892	265.81
256.124	256.81
256.357	254.81
256.59	238.81
256.823	233.81
257.056	227.81
257.289	217.81
257.521	213.81
257.754	212.81
257.987	217.81
258.22	222.81
258.452	221.81
258.685	222.81
258.918	221.81
259.151	203.81
259.383	243.81
259.616	245.81
259.849	266.81
260.081	254.81
260.314	268.81
260.547	273.81
260.779	270.81
261.012	275.81
261.244	245.81
261.477	229.81
261.71	228.81
261.942	249.81
262.175	248.81
262.407	265.81
262.64	218.81
262.872	225.81
263.105	222.81
263.337	233.81
263.57	211.81
263.802	227.81
264.035	221.81
264.267	210.81
264.499	209.81
264.732	210.81
264.964	205.81
265.197	224.81
265.429	221.81
265.661	209.81
265.894	216.81
266.126	241.81
266.358	230.81
266.591	216.81
266.823	212.81
267.055	242.81
267.287	248.81
267.52	236.81
267.752	237.81
267.984	237.81
268.216	228.81
268.448	243.81
268.681	232.81
268.913	260.81
269.145	269.81
269.377	286.81
269.609	284.81
269.841	302.81
270.073	278.81
270.306	307.81
270.538	327.81
270.77	342.81
271.002	333.81
271.234	331.81
271.466	320.81
271.698	310.81
271.93	328.81
272.162	354.81
272.394	334.81
272.626	329.81
272.858	319.81
273.09	283.81
273.322	292.81
273.553	273.81
273.785	277.81
274.017	290.81
274.249	268.81
274.481	281.81
274.713	269.81
274.945	283.81
275.176	264.81
275.408	270.81
275.64	275.81
275.872	263.81
276.104	270.81
276.335	283.81
276.567	274.81
276.799	312.81
277.031	328.81
277.262	325.81
277.494	335.81
277.726	307.81
277.957	297.81
278.189	274.81
278.421	269.81
278.652	275.81
278.884	257.81
279.115	285.81
279.347	264.81
279.579	281.81
279.81	265.81
280.042	280.81
280.273	269.81
280.505	261.81
280.736	253.81
280.968	287.81
281.199	277.81
281.431	286.81
281.662	264.81
281.894	263.81
282.125	278.81
282.356	285.81
282.588	312.81
282.819	299.81
283.051	279.81
283.282	268.81
283.513	286.81
283.745	263.81
283.976	276.81
284.207	268.81
284.439	279.81
284.67	269.81
284.901	279.81
285.132	279.81
285.364	263.81
285.595	259.81
285.826	257.81
286.057	280.81
286.288	259.81
286.52	261.81
286.751	272.81
286.982	275.81
287.213	287.81
287.444	266.81
287.675	270.81
287.906	290.81
288.138	289.81
288.369	279.81
288.6	298.81
288.831	273.81
289.062	285.81
289.293	283.81
289.524	290.81
289.755	267.81
289.986	266.81
290.217	274.81
290.448	272.81
290.679	277.81
290.91	289.81
291.141	276.81
291.371	261.81
291.602	276.81
291.833	269.81
292.064	283.81
292.295	282.81
292.526	287.81
292.757	286.81
292.987	278.81
293.218	282.81
293.449	276.81
293.68	283.81
293.91	269.81
294.141	269.81
294.372	285.81
294.603	272.81
294.833	275.81
295.064	282.81
295.295	275.81
295.525	285.81
295.756	274.81
295.987	282.81
296.217	313.81
296.448	340.81
296.679	313.81
296.909	275.81
297.14	280.81
297.37	279.81
297.601	279.81
297.831	297.81
298.062	275.81
298.292	287.81
298.523	298.81
298.753	275.81
298.984	279.81
299.214	275.81
299.445	300.81
299.675	290.81
299.905	295.81
300.136	316.81
300.366	295.81
300.597	291.81
300.827	306.81
301.057	297.81
301.288	324.81
301.518	333.81
301.748	313.81
301.979	324.81
302.209	321.81
302.439	311.81
302.669	291.81
302.9	314.81
303.13	314.81
303.36	309.81
303.59	330.81
303.82	336.81
304.051	312.81
304.281	318.81
304.511	314.81
304.741	286.81
304.971	312.81
305.201	325.81
305.431	326.81
305.661	308.81
305.891	305.81
306.121	321.81
306.352	328.81
306.582	330.81
306.812	331.81
307.042	314.81
307.272	319.81
307.502	328.81
307.731	311.81
307.961	312.81
308.191	317.81
308.421	333.81
308.651	320.81
308.881	307.81
309.111	329.81
309.341	349.81
309.571	346.81
309.8	357.81
310.03	371.81
310.26	391.81
310.49	367.81
310.72	381.81
310.949	414.81
311.179	391.81
311.409	396.81
311.639	389.81
311.868	367.81
312.098	372.81
312.328	369.81
312.557	392.81
312.787	415.81
313.017	429.81
313.246	402.81
313.476	362.81
313.706	370.81
313.935	383.81
314.165	377.81
314.394	413.81
314.624	417.81
314.853	392.81
315.083	369.81
315.312	389.81
315.542	360.81
315.771	359.81
316.001	358.81
316.23	374.81
316.46	363.81
316.689	365.81
316.919	384.81
317.148	376.81
317.377	388.81
317.607	391.81
317.836	390.81
318.065	386.81
318.295	364.81
318.524	366.81
318.753	359.81
318.983	369.81
319.212	379.81
319.441	367.81
319.67	382.81
319.9	376.81
320.129	384.81
320.358	391.81
320.587	366.81
320.816	377.81
321.046	412.81
321.275	386.81
321.504	407.81
321.733	437.81
321.962	409.81
322.191	422.81
322.42	439.81
322.649	481.81
322.878	472.81
323.108	476.81
323.337	524.81
323.566	537.81
323.795	596.81
324.024	641.81
324.253	801.81
324.482	1157.81
324.71	1784.81
324.939	2576.81
325.168	2310.81
325.397	1209.81
325.626	784.81
325.855	645.81
326.084	572.81
326.313	549.81
326.542	550.81
326.77	620.81
326.999	724.81
327.228	998.81
327.457	1592.81
327.686	1957.81
327.914	1316.81
328.143	872.81
328.372	735.81
328.6	668.81
328.829	619.81
329.058	661.81
329.287	656.81
329.515	613.81
329.744	563.81
329.972	563.81
330.201	584.81
330.43	647.81
330.658	673.81
330.887	704.81
331.115	669.81
331.344	573.81
331.572	517.81
331.801	515.81
332.03	497.81
332.258	485.81
332.486	431.81
332.715	427.81
332.943	445.81
333.172	450.81
333.4	454.81
333.629	468.81
333.857	459.81
334.085	511.81
334.314	515.81
334.542	557.81
334.771	558.81
334.999	532.81
335.227	483.81
335.455	451.81
335.684	431.81
335.912	435.81
336.14	437.81
336.369	446.81
336.597	442.81
336.825	449.81
337.053	419.81
337.281	433.81
337.51	428.81
337.738	417.81
337.966	430.81
338.194	439.81
338.422	417.81
338.65	422.81
338.878	426.81
339.106	418.81
339.334	378.81
339.562	391.81
339.79	404.81
340.018	423.81
340.246	422.81
340.474	435.81
340.702	428.81
340.93	401.81
341.158	421.81
341.386	411.81
341.614	420.81
341.842	403.81
342.07	405.81
342.298	398.81
342.526	391.81
342.754	398.81
342.981	377.81
343.209	375.81
343.437	381.81
343.665	397.81
343.893	414.81
344.12	413.81
344.348	391.81
344.576	425.81
344.804	419.81
345.031	430.81
345.259	449.81
345.487	435.81
345.714	428.81
345.942	402.81
346.17	406.81
346.397	398.81
346.625	409.81
346.853	421.81
347.08	429.81
347.308	428.81
347.535	403.81
347.763	418.81
347.99	437.81
348.218	413.81
348.445	428.81
348.673	407.81
348.9	411.81
349.128	405.81
349.355	395.81
349.583	384.81
349.81	401.81
350.037	406.81
350.265	387.81
350.492	389.81
350.72	385.81
350.947	379.81
351.174	416.81
351.402	395.81
351.629	410.81
351.856	430.81
352.083	430.81
352.311	440.81
352.538	441.81
352.765	441.81
352.992	432.81
353.22	417.81
353.447	394.81
353.674	399.81
353.901	381.81
354.128	379.81
354.355	387.81
354.583	377.81
354.81	393.81
355.037	370.81
355.264	382.81
355.491	374.81
355.718	362.81
355.945	370.81
356.172	372.81
356.399	363.81
356.626	349.81
356.853	361.81
357.08	364.81
357.307	355.81
357.534	355.81
357.761	345.81
357.988	373.81
358.215	370.81
358.441	365.81
358.668	375.81
358.895	377.81
359.122	390.81
359.349	397.81
359.576	407.81
359.802	452.81
360.029	483.81
360.256	482.81
360.483	464.81
360.709	425.81
360.936	422.81
361.163	426.81
361.39	426.81
361.616	391.81
361.843	407.81
362.07	421.81
362.296	420.81
362.523	386.81
362.749	392.81
362.976	385.81
363.203	377.81
363.429	390.81
363.656	379.81
363.882	379.81
364.109	392.81
364.335	373.81
364.562	366.81
364.788	390.81
365.015	377.81
365.241	359.81
365.468	391.81
365.694	389.81
365.92	410.81
366.147	387.81
366.373	395.81
366.599	376.81
366.826	375.81
367.052	369.81
367.278	374.81
367.505	377.81
367.731	391.81
367.957	387.81
368.184	385.81
368.41	378.81
368.636	366.81
368.862	401.81
369.089	393.81
369.315	374.81
369.541	363.81
369.767	358.81
369.993	371.81
370.219	381.81
370.445	381.81
370.672	357.81
370.898	374.81
371.124	367.81
371.35	350.81
371.576	351.81
371.802	379.81
372.028	370.81
372.254	387.81
372.48	378.81
372.706	368.81
372.932	346.81
373.158	377.81
373.384	371.81
373.61	362.81
373.835	381.81
374.061	385.81
374.287	369.81
374.513	389.81
374.739	374.81
374.965	377.81
375.191	372.81
375.416	381.81
375.642	381.81
375.868	370.81
376.094	362.81
376.319	364.81
376.545	373.81
376.771	364.81
376.997	362.81
377.222	343.81
377.448	382.81
377.674	382.81
377.899	355.81
378.125	369.81
378.35	347.81
378.576	353.81
378.802	361.81
379.027	364.81
379.253	373.81
379.478	373.81
379.704	359.81
379.929	377.81
380.155	382.81
380.38	356.81
380.606	372.81
380.831	350.81
381.057	378.81
381.282	380.81
381.507	365.81
381.733	364.81
381.958	370.81
382.184	372.81
382.409	368.81
382.634	372.81
382.86	370.81
383.085	379.81
383.31	376.81
383.535	366.81
383.761	393.81
383.986	365.81
384.211	376.81
384.436	381.81
384.662	387.81
384.887	379.81
385.112	382.81
385.337	389.81
385.562	411.81
385.787	381.81
386.013	410.81
386.238	396.81
386.463	387.81
386.688	377.81
386.913	377.81
387.138	386.81
387.363	393.81
387.588	379.81
387.813	381.81
388.038	379.81
388.263	403.81
388.488	383.81
388.713	393.81
388.938	379.81
389.163	389.81
389.387	411.81
389.612	377.81
389.837	389.81
390.062	393.81
390.287	395.81
390.512	386.81
390.736	408.81
390.961	391.81
391.186	385.81
391.411	380.81
391.636	377.81
391.86	391.81
392.085	394.81
392.31	377.81
392.534	407.81
392.759	391.81
392.984	391.81
393.208	378.81
393.433	389.81
393.658	395.81
393.882	395.81
394.107	396.81
394.331	397.81
394.556	398.81
394.78	390.81
395.005	373.81
395.229	393.81
395.454	414.81
395.678	403.81
395.903	412.81
396.127	436.81
396.352	434.81
396.576	400.81
396.801	399.81
397.025	406.81
397.249	411.81
397.474	426.81
397.698	411.81
397.922	437.81
398.147	445.81
398.371	451.81
398.595	439.81
398.82	415.81
399.044	449.81
399.268	439.81
399.492	466.81
399.717	463.81
399.941	506.81
400.165	533.81
400.389	538.81
400.613	533.81
400.837	479.81
401.062	450.81
401.286	440.81
401.51	443.81
401.734	459.81
401.958	425.81
402.182	441.81
402.406	469.81
402.63	471.81
402.854	454.81
403.078	435.81
403.302	461.81
403.526	471.81
403.75	449.81
403.974	437.81
404.198	453.81
404.422	445.81
404.645	472.81
404.869	493.81
405.093	507.81
405.317	537.81
405.541	592.81
405.765	533.81
405.988	486.81
406.212	517.81
406.436	535.81
406.66	563.81
406.883	529.81
407.107	524.81
407.331	593.81
407.555	639.81
407.778	633.81
408.002	573.81
408.226	520.81
408.449	532.81
408.673	549.81
408.896	537.81
409.12	606.81
409.344	542.81
409.567	485.81
409.791	487.81
410.014	467.81
410.238	487.81
410.461	489.81
410.685	463.81
410.908	479.81
411.132	531.81
411.355	552.81
411.578	535.81
411.802	498.81
412.025	483.81
412.249	471.81
412.472	497.81
412.695	537.81
412.919	523.81
413.142	489.81
413.365	473.81
413.589	456.81
413.812	443.81
414.035	414.81
414.258	466.81
414.482	445.81
414.705	433.81
414.928	434.81
415.151	433.81
415.374	433.81
415.597	443.81
415.821	429.81
416.044	439.81
416.267	459.81
416.49	458.81
416.713	446.81
416.936	445.81
417.159	439.81
417.382	469.81
417.605	435.81
417.828	455.81
418.051	458.81
418.274	454.81
418.497	443.81
418.72	454.81
418.943	447.81
419.166	454.81
419.389	462.81
419.611	472.81
419.834	459.81
420.057	461.81
420.28	475.81
420.503	462.81
420.726	485.81
420.948	481.81
421.171	510.81
421.394	550.81
421.617	506.81
421.839	471.81
422.062	483.81
422.285	483.81
422.507	546.81
422.73	621.81
422.953	605.81
423.175	549.81
423.398	533.81
423.621	500.81
423.843	518.81
424.066	518.81
424.288	526.81
424.511	550.81
424.733	597.81
424.956	653.81
425.178	660.81
425.401	646.81
425.623	673.81
425.846	563.81
426.068	528.81
426.291	531.81
426.513	521.81
426.735	526.81
426.958	595.81
427.18	660.81
427.402	796.81
427.625	876.81
427.847	782.81
428.069	687.81
428.292	622.81
428.514	558.81
428.736	533.81
428.958	507.81
429.181	498.81
429.403	503.81
429.625	499.81
429.847	530.81
430.069	609.81
430.292	606.81
430.514	519.81
430.736	517.81
430.958	478.81
431.18	441.81
431.402	462.81
431.624	440.81
431.846	461.81
432.068	463.81
432.29	455.81
432.512	456.81
432.734	457.81
432.956	440.81
433.178	469.81
433.4	471.81
433.622	471.81
433.844	449.81
434.066	461.81
434.287	463.81
434.509	440.81
434.731	445.81
434.953	454.81
435.175	477.81
435.397	539.81
435.618	513.81
435.84	584.81
436.062	653.81
436.284	728.81
436.505	617.81
436.727	575.81
436.949	499.81
437.17	518.81
437.392	485.81
437.614	525.81
437.835	539.81
438.057	669.81
438.278	770.81
438.5	768.81
438.721	817.81
438.943	781.81
439.165	608.81
439.386	549.81
439.608	576.81
439.829	554.81
440.05	588.81
440.272	641.81
440.493	587.81
440.715	551.81
440.936	504.81
441.158	499.81
441.379	493.81
441.6	505.81
441.822	531.81
442.043	567.81
442.264	675.81
442.486	702.81
442.707	607.81
442.928	560.81
443.149	582.81
443.371	589.81
443.592	616.81
443.813	699.81
444.034	784.81
444.255	669.81
444.476	553.81
444.698	545.81
444.919	498.81
445.14	631.81
445.361	607.81
445.582	597.81
445.803	650.81
446.024	763.81
446.245	796.81
446.466	718.81
446.687	595.81
446.908	538.81
447.129	521.81
447.35	500.81
447.571	507.81
447.792	487.81
448.013	500.81
448.234	537.81
448.455	618.81
448.675	675.81
448.896	795.81
449.117	670.81
449.338	645.81
449.559	746.81
449.779	832.81
450	670.81
450.221	561.81
450.442	523.81
450.662	480.81
450.883	509.81
451.104	549.81
451.324	523.81
451.545	474.81
451.766	466.81
451.986	452.81
452.207	436.81
452.428	453.81
452.648	454.81
452.869	450.81
453.089	470.81
453.31	470.81
453.53	446.81
453.751	441.81
453.971	466.81
454.192	489.81
454.412	451.81
454.633	453.81
454.853	453.81
455.073	408.81
455.294	465.81
455.514	540.81
455.734	554.81
455.955	449.81
456.175	417.81
456.395	394.81
456.616	411.81
456.836	427.81
457.056	417.81
457.276	402.81
457.497	404.81
457.717	415.81
457.937	409.81
458.157	408.81
458.377	425.81
458.598	457.81
458.818	544.81
459.038	611.81
459.258	646.81
459.478	538.81
459.698	462.81
459.918	450.81
460.138	440.81
460.358	451.81
460.578	447.81
460.798	426.81
461.018	449.81
461.238	452.81
461.458	443.81
461.678	453.81
461.898	431.81
462.118	431.81
462.338	437.81
462.558	435.81
462.777	457.81
462.997	443.81
463.217	451.81
463.437	475.81
463.657	459.81
463.876	458.81
464.096	439.81
464.316	449.81
464.536	482.81
464.755	462.81
464.975	490.81
465.195	549.81
465.414	641.81
465.634	557.81
465.854	516.81
466.073	481.81
466.293	452.81
466.512	449.81
466.732	444.81
466.951	452.81
467.171	426.81
467.391	417.81
467.61	440.81
467.829	463.81
468.049	455.81
468.268	489.81
468.488	430.81
468.707	445.81
468.927	446.81
469.146	418.81
469.365	430.81
469.585	422.81
469.804	462.81
470.023	451.81
470.243	437.81
470.462	459.81
470.681	474.81
470.901	489.81
471.12	458.81
471.339	448.81
471.558	443.81
471.777	459.81
471.997	444.81
472.216	457.81
472.435	494.81
472.654	497.81
472.873	451.81
473.092	453.81
473.311	450.81
473.53	450.81
473.749	469.81
473.968	515.81
474.187	609.81
474.406	661.81
474.625	539.81
474.844	502.81
475.063	457.81
475.282	452.81
475.501	455.81
475.72	459.81
475.939	473.81
476.158	477.81
476.377	467.81
476.596	466.81
476.814	470.81
477.033	469.81
477.252	478.81
477.471	520.81
477.69	512.81
477.908	468.81
478.127	476.81
478.346	454.81
478.564	499.81
478.783	495.81
479.002	513.81
479.22	514.81
479.439	522.81
479.658	549.81
479.876	552.81
480.095	574.81
480.313	583.81
480.532	558.81
480.751	581.81
480.969	588.81
481.188	637.81
481.406	705.81
481.624	592.81
481.843	576.81
482.061	538.81
482.28	503.81
482.498	526.81
482.717	547.81
482.935	551.81
483.153	546.81
483.372	534.81
483.59	528.81
483.808	522.81
484.027	537.81
484.245	531.81
484.463	564.81
484.681	570.81
484.9	554.81
485.118	563.81
485.336	563.81
485.554	533.81
485.772	562.81
485.99	555.81
486.209	547.81
486.427	578.81
486.645	571.81
486.863	575.81
487.081	588.81
487.299	591.81
487.517	574.81
487.735	574.81
487.953	555.81
488.171	575.81
488.389	560.81
488.607	599.81
488.825	573.81
489.043	599.81
489.261	580.81
489.479	594.81
489.696	603.81
489.914	600.81
490.132	597.81
490.35	613.81
490.568	622.81
490.786	605.81
491.003	633.81
491.221	653.81
491.439	652.81
491.657	646.81
491.874	657.81
492.092	680.81
492.31	685.81
492.527	693.81
492.745	685.81
492.963	693.81
493.18	682.81
493.398	707.81
493.615	673.81
493.833	691.81
494.05	695.81
494.268	675.81
494.485	669.81
494.703	718.81
494.92	715.81
495.138	696.81
495.355	701.81
495.573	685.81
495.79	699.81
496.008	712.81
496.225	702.81
496.442	671.81
496.66	659.81
496.877	674.81
497.094	701.81
497.312	716.81
497.529	714.81
497.746	735.81
497.963	714.81
498.181	739.81
498.398	729.81
498.615	730.81
498.832	762.81
499.049	763.81
499.267	757.81
499.484	780.81
499.701	768.81
499.918	793.81
500.135	810.81
500.352	826.81
500.569	821.81
500.786	829.81
501.003	840.81
501.22	843.81
501.437	823.81
501.654	818.81
501.871	832.81
