Data from 1980.PennyLincolnUp.Lamp.En5.5.200Scan.071819.P1_HRD10591_16-36-51-957.txt Node
Date: Thu Jul 18 16:36:51 EDT 2019
User: cochatt
Spectrometer: HR+D1059
Trigger mode: 1
Integration Time (sec): 1.000000E-1
Scans to average: 1
Electric dark correction enabled: true
Nonlinearity correction enabled: false
Boxcar width: 0
XAxis mode: Wavelengths
Number of Pixels in Spectrum: 2048
>>>>>Begin Spectral Data<<<<<
223.165	-20.12
223.4	-20.12
223.635	-20.12
223.869	-10.12
224.104	-19.12
224.338	-14.12
224.573	-8.12
224.808	-19.12
225.042	-17.12
225.277	9.88
225.511	-3.12
225.746	5.88
225.98	17.88
226.215	-1.12
226.449	4.88
226.683	29.88
226.918	19.88
227.152	23.88
227.387	39.88
227.621	30.88
227.856	36.88
228.09	51.88
228.324	33.88
228.559	51.88
228.793	55.88
229.027	85.88
229.262	89.88
229.496	120.88
229.73	125.88
229.964	138.88
230.199	133.88
230.433	107.88
230.667	117.88
230.901	114.88
231.136	104.88
231.37	99.88
231.604	115.88
231.838	129.88
232.072	116.88
232.306	125.88
232.541	101.88
232.775	99.88
233.009	100.88
233.243	97.88
233.477	108.88
233.711	119.88
233.945	117.88
234.179	115.88
234.413	108.88
234.647	94.88
234.881	100.88
235.115	103.88
235.349	120.88
235.583	118.88
235.817	111.88
236.051	116.88
236.285	124.88
236.519	126.88
236.753	125.88
236.987	127.88
237.221	192.88
237.455	229.88
237.689	195.88
237.922	147.88
238.156	120.88
238.39	132.88
238.624	123.88
238.858	137.88
239.091	128.88
239.325	119.88
239.559	131.88
239.793	125.88
240.027	134.88
240.26	120.88
240.494	149.88
240.728	148.88
240.961	155.88
241.195	121.88
241.429	127.88
241.662	146.88
241.896	125.88
242.13	145.88
242.363	132.88
242.597	130.88
242.83	144.88
243.064	150.88
243.298	127.88
243.531	139.88
243.765	115.88
243.998	138.88
244.232	137.88
244.465	133.88
244.699	148.88
244.932	143.88
245.166	118.88
245.399	148.88
245.633	147.88
245.866	136.88
246.099	137.88
246.333	134.88
246.566	137.88
246.8	142.88
247.033	139.88
247.266	163.88
247.5	167.88
247.733	148.88
247.966	167.88
248.2	155.88
248.433	161.88
248.666	183.88
248.899	179.88
249.133	207.88
249.366	198.88
249.599	183.88
249.832	178.88
250.066	183.88
250.299	176.88
250.532	179.88
250.765	205.88
250.998	213.88
251.231	221.88
251.465	217.88
251.698	211.88
251.931	194.88
252.164	199.88
252.397	212.88
252.63	192.88
252.863	193.88
253.096	224.88
253.329	209.88
253.562	227.88
253.795	213.88
254.028	224.88
254.261	209.88
254.494	222.88
254.727	245.88
254.96	265.88
255.193	268.88
255.426	258.88
255.659	246.88
255.892	242.88
256.124	220.88
256.357	220.88
256.59	222.88
256.823	207.88
257.056	188.88
257.289	214.88
257.521	213.88
257.754	203.88
257.987	206.88
258.22	209.88
258.452	201.88
258.685	193.88
258.918	191.88
259.151	202.88
259.383	208.88
259.616	210.88
259.849	224.88
260.081	239.88
260.314	237.88
260.547	248.88
260.779	239.88
261.012	224.88
261.244	198.88
261.477	222.88
261.71	218.88
261.942	229.88
262.175	229.88
262.407	220.88
262.64	204.88
262.872	191.88
263.105	212.88
263.337	205.88
263.57	228.88
263.802	195.88
264.035	215.88
264.267	201.88
264.499	196.88
264.732	192.88
264.964	201.88
265.197	199.88
265.429	197.88
265.661	182.88
265.894	185.88
266.126	213.88
266.358	189.88
266.591	209.88
266.823	212.88
267.055	233.88
267.287	214.88
267.52	213.88
267.752	214.88
267.984	212.88
268.216	203.88
268.448	210.88
268.681	225.88
268.913	224.88
269.145	233.88
269.377	248.88
269.609	263.88
269.841	273.88
270.073	259.88
270.306	279.88
270.538	303.88
270.77	303.88
271.002	293.88
271.234	289.88
271.466	296.88
271.698	303.88
271.93	301.88
272.162	293.88
272.394	313.88
272.626	290.88
272.858	293.88
273.09	269.88
273.322	271.88
273.553	256.88
273.785	246.88
274.017	250.88
274.249	245.88
274.481	247.88
274.713	257.88
274.945	268.88
275.176	240.88
275.408	253.88
275.64	247.88
275.872	226.88
276.104	255.88
276.335	257.88
276.567	264.88
276.799	266.88
277.031	267.88
277.262	296.88
277.494	294.88
277.726	270.88
277.957	283.88
278.189	269.88
278.421	253.88
278.652	261.88
278.884	263.88
279.115	261.88
279.347	255.88
279.579	261.88
279.81	241.88
280.042	255.88
280.273	223.88
280.505	253.88
280.736	255.88
280.968	228.88
281.199	235.88
281.431	251.88
281.662	240.88
281.894	236.88
282.125	264.88
282.356	255.88
282.588	281.88
282.819	291.88
283.051	273.88
283.282	241.88
283.513	257.88
283.745	258.88
283.976	242.88
284.207	263.88
284.439	244.88
284.67	257.88
284.901	260.88
285.132	264.88
285.364	256.88
285.595	257.88
285.826	255.88
286.057	244.88
286.288	253.88
286.52	245.88
286.751	258.88
286.982	264.88
287.213	236.88
287.444	242.88
287.675	268.88
287.906	268.88
288.138	269.88
288.369	268.88
288.6	269.88
288.831	273.88
289.062	280.88
289.293	278.88
289.524	261.88
289.755	269.88
289.986	253.88
290.217	267.88
290.448	241.88
290.679	268.88
290.91	272.88
291.141	242.88
291.371	257.88
291.602	261.88
291.833	244.88
292.064	251.88
292.295	252.88
292.526	257.88
292.757	279.88
292.987	249.88
293.218	262.88
293.449	267.88
293.68	257.88
293.91	258.88
294.141	270.88
294.372	269.88
294.603	265.88
294.833	266.88
295.064	271.88
295.295	271.88
295.525	280.88
295.756	263.88
295.987	271.88
296.217	296.88
296.448	290.88
296.679	289.88
296.909	256.88
297.14	273.88
297.37	265.88
297.601	266.88
297.831	272.88
298.062	263.88
298.292	258.88
298.523	270.88
298.753	294.88
298.984	265.88
299.214	273.88
299.445	280.88
299.675	265.88
299.905	287.88
300.136	273.88
300.366	269.88
300.597	282.88
300.827	284.88
301.057	293.88
301.288	285.88
301.518	285.88
301.748	294.88
301.979	266.88
302.209	289.88
302.439	303.88
302.669	269.88
302.9	292.88
303.13	287.88
303.36	291.88
303.59	295.88
303.82	284.88
304.051	288.88
304.281	282.88
304.511	288.88
304.741	287.88
304.971	278.88
305.201	288.88
305.431	282.88
305.661	287.88
305.891	285.88
306.121	287.88
306.352	284.88
306.582	296.88
306.812	288.88
307.042	300.88
307.272	291.88
307.502	281.88
307.731	290.88
307.961	289.88
308.191	297.88
308.421	282.88
308.651	300.88
308.881	291.88
309.111	315.88
309.341	304.88
309.571	329.88
309.8	309.88
310.03	324.88
310.26	333.88
310.49	328.88
310.72	329.88
310.949	345.88
311.179	351.88
311.409	357.88
311.639	332.88
311.868	335.88
312.098	348.88
312.328	345.88
312.557	353.88
312.787	377.88
313.017	378.88
313.246	357.88
313.476	327.88
313.706	348.88
313.935	363.88
314.165	365.88
314.394	376.88
314.624	353.88
314.853	357.88
315.083	343.88
315.312	344.88
315.542	316.88
315.771	348.88
316.001	345.88
316.23	319.88
316.46	349.88
316.689	332.88
316.919	345.88
317.148	340.88
317.377	337.88
317.607	344.88
317.836	357.88
318.065	346.88
318.295	335.88
318.524	341.88
318.753	319.88
318.983	326.88
319.212	346.88
319.441	335.88
319.67	358.88
319.9	339.88
320.129	355.88
320.358	356.88
320.587	342.88
320.816	357.88
321.046	373.88
321.275	355.88
321.504	362.88
321.733	378.88
321.962	369.88
322.191	376.88
322.42	433.88
322.649	411.88
322.878	431.88
323.108	413.88
323.337	461.88
323.566	474.88
323.795	507.88
324.024	560.88
324.253	692.88
324.482	967.88
324.71	1475.88
324.939	2177.88
325.168	1889.88
325.397	981.88
325.626	663.88
325.855	549.88
326.084	505.88
326.313	486.88
326.542	483.88
326.77	535.88
326.999	649.88
327.228	841.88
327.457	1283.88
327.686	1622.88
327.914	1107.88
328.143	728.88
328.372	639.88
328.6	585.88
328.829	559.88
329.058	563.88
329.287	569.88
329.515	520.88
329.744	469.88
329.972	474.88
330.201	483.88
330.43	536.88
330.658	562.88
330.887	589.88
331.115	580.88
331.344	485.88
331.572	433.88
331.801	454.88
332.03	432.88
332.258	430.88
332.486	432.88
332.715	397.88
332.943	397.88
333.172	417.88
333.4	400.88
333.629	378.88
333.857	438.88
334.085	441.88
334.314	443.88
334.542	475.88
334.771	492.88
334.999	454.88
335.227	430.88
335.455	393.88
335.684	396.88
335.912	406.88
336.14	393.88
336.369	376.88
336.597	385.88
336.825	417.88
337.053	385.88
337.281	372.88
337.51	397.88
337.738	389.88
337.966	395.88
338.194	394.88
338.422	392.88
338.65	391.88
338.878	387.88
339.106	371.88
339.334	369.88
339.562	370.88
339.79	377.88
340.018	377.88
340.246	386.88
340.474	389.88
340.702	383.88
340.93	370.88
341.158	385.88
341.386	358.88
341.614	401.88
341.842	381.88
342.07	369.88
342.298	374.88
342.526	372.88
342.754	372.88
342.981	367.88
343.209	344.88
343.437	373.88
343.665	385.88
343.893	391.88
344.12	379.88
344.348	401.88
344.576	375.88
344.804	392.88
345.031	420.88
345.259	406.88
345.487	395.88
345.714	389.88
345.942	363.88
346.17	357.88
346.397	376.88
346.625	385.88
346.853	375.88
347.08	378.88
347.308	372.88
347.535	373.88
347.763	397.88
347.99	387.88
348.218	392.88
348.445	385.88
348.673	403.88
348.9	377.88
349.128	396.88
349.355	346.88
349.583	358.88
349.81	376.88
350.037	367.88
350.265	362.88
350.492	367.88
350.72	367.88
350.947	373.88
351.174	368.88
351.402	398.88
351.629	375.88
351.856	384.88
352.083	386.88
352.311	362.88
352.538	397.88
352.765	395.88
352.992	381.88
353.22	376.88
353.447	354.88
353.674	373.88
353.901	364.88
354.128	371.88
354.355	361.88
354.583	343.88
354.81	341.88
355.037	345.88
355.264	342.88
355.491	337.88
355.718	337.88
355.945	352.88
356.172	359.88
356.399	330.88
356.626	344.88
356.853	343.88
357.08	340.88
357.307	344.88
357.534	333.88
357.761	357.88
357.988	336.88
358.215	325.88
358.441	340.88
358.668	344.88
358.895	324.88
359.122	353.88
359.349	355.88
359.576	372.88
359.802	391.88
360.029	417.88
360.256	424.88
360.483	417.88
360.709	376.88
360.936	369.88
361.163	373.88
361.39	360.88
361.616	365.88
361.843	373.88
362.07	367.88
362.296	404.88
362.523	381.88
362.749	363.88
362.976	364.88
363.203	367.88
363.429	361.88
363.656	356.88
363.882	370.88
364.109	360.88
364.335	337.88
364.562	359.88
364.788	359.88
365.015	372.88
365.241	355.88
365.468	358.88
365.694	341.88
365.92	351.88
366.147	356.88
366.373	344.88
366.599	351.88
366.826	353.88
367.052	356.88
367.278	339.88
367.505	367.88
367.731	347.88
367.957	337.88
368.184	363.88
368.41	339.88
368.636	363.88
368.862	375.88
369.089	346.88
369.315	338.88
369.541	351.88
369.767	359.88
369.993	336.88
370.219	368.88
370.445	335.88
370.672	348.88
370.898	357.88
371.124	338.88
371.35	335.88
371.576	355.88
371.802	346.88
372.028	359.88
372.254	330.88
372.48	356.88
372.706	359.88
372.932	355.88
373.158	335.88
373.384	358.88
373.61	364.88
373.835	352.88
374.061	352.88
374.287	354.88
374.513	361.88
374.739	356.88
374.965	341.88
375.191	364.88
375.416	355.88
375.642	347.88
375.868	344.88
376.094	351.88
376.319	348.88
376.545	341.88
376.771	329.88
376.997	343.88
377.222	348.88
377.448	370.88
377.674	343.88
377.899	343.88
378.125	341.88
378.35	354.88
378.576	328.88
378.802	339.88
379.027	347.88
379.253	336.88
379.478	343.88
379.704	331.88
379.929	348.88
380.155	337.88
380.38	355.88
380.606	360.88
380.831	358.88
381.057	351.88
381.282	356.88
381.507	346.88
381.733	353.88
381.958	348.88
382.184	340.88
382.409	353.88
382.634	355.88
382.86	347.88
383.085	369.88
383.31	371.88
383.535	359.88
383.761	345.88
383.986	359.88
384.211	358.88
384.436	343.88
384.662	352.88
384.887	363.88
385.112	358.88
385.337	376.88
385.562	370.88
385.787	365.88
386.013	383.88
386.238	387.88
386.463	370.88
386.688	372.88
386.913	376.88
387.138	360.88
387.363	377.88
387.588	359.88
387.813	364.88
388.038	356.88
388.263	355.88
388.488	357.88
388.713	347.88
388.938	376.88
389.163	360.88
389.387	371.88
389.612	377.88
389.837	362.88
390.062	355.88
390.287	364.88
390.512	358.88
390.736	373.88
390.961	360.88
391.186	358.88
391.411	368.88
391.636	373.88
391.86	364.88
392.085	378.88
392.31	376.88
392.534	390.88
392.759	374.88
392.984	367.88
393.208	373.88
393.433	377.88
393.658	362.88
393.882	376.88
394.107	379.88
394.331	352.88
394.556	367.88
394.78	375.88
395.005	380.88
395.229	383.88
395.454	361.88
395.678	373.88
395.903	375.88
396.127	422.88
396.352	420.88
396.576	413.88
396.801	380.88
397.025	398.88
397.249	379.88
397.474	391.88
397.698	380.88
397.922	406.88
398.147	424.88
398.371	410.88
398.595	409.88
398.82	396.88
399.044	416.88
399.268	433.88
399.492	454.88
399.717	460.88
399.941	474.88
400.165	488.88
400.389	525.88
400.613	503.88
400.837	440.88
401.062	429.88
401.286	431.88
401.51	431.88
401.734	400.88
401.958	414.88
402.182	421.88
402.406	433.88
402.63	421.88
402.854	427.88
403.078	419.88
403.302	438.88
403.526	465.88
403.75	453.88
403.974	437.88
404.198	420.88
404.422	437.88
404.645	439.88
404.869	451.88
405.093	478.88
405.317	488.88
405.541	554.88
405.765	493.88
405.988	476.88
406.212	479.88
406.436	508.88
406.66	500.88
406.883	478.88
407.107	502.88
407.331	523.88
407.555	601.88
407.778	603.88
408.002	546.88
408.226	521.88
408.449	480.88
408.673	482.88
408.896	512.88
409.12	547.88
409.344	503.88
409.567	479.88
409.791	446.88
410.014	452.88
410.238	419.88
410.461	449.88
410.685	420.88
410.908	484.88
411.132	491.88
411.355	518.88
411.578	499.88
411.802	447.88
412.025	429.88
412.249	437.88
412.472	471.88
412.695	495.88
412.919	485.88
413.142	461.88
413.365	439.88
413.589	419.88
413.812	412.88
414.035	402.88
414.258	415.88
414.482	408.88
414.705	428.88
414.928	420.88
415.151	411.88
415.374	416.88
415.597	419.88
415.821	407.88
416.044	412.88
416.267	417.88
416.49	417.88
416.713	408.88
416.936	417.88
417.159	419.88
417.382	442.88
417.605	438.88
417.828	423.88
418.051	439.88
418.274	439.88
418.497	424.88
418.72	413.88
418.943	404.88
419.166	424.88
419.389	440.88
419.611	448.88
419.834	441.88
420.057	435.88
420.28	438.88
420.503	438.88
420.726	443.88
420.948	459.88
421.171	487.88
421.394	543.88
421.617	466.88
421.839	417.88
422.062	439.88
422.285	475.88
422.507	488.88
422.73	584.88
422.953	552.88
423.175	483.88
423.398	477.88
423.621	491.88
423.843	500.88
424.066	490.88
424.288	516.88
424.511	488.88
424.733	546.88
424.956	609.88
425.178	611.88
425.401	612.88
425.623	605.88
425.846	538.88
426.068	480.88
426.291	492.88
426.513	491.88
426.735	492.88
426.958	536.88
427.18	614.88
427.402	747.88
427.625	796.88
427.847	726.88
428.069	611.88
428.292	552.88
428.514	532.88
428.736	484.88
428.958	475.88
429.181	484.88
429.403	455.88
429.625	452.88
429.847	507.88
430.069	548.88
430.292	544.88
430.514	490.88
430.736	465.88
430.958	461.88
431.18	438.88
431.402	432.88
431.624	405.88
431.846	429.88
432.068	419.88
432.29	419.88
432.512	433.88
432.734	435.88
432.956	446.88
433.178	455.88
433.4	431.88
433.622	441.88
433.844	411.88
434.066	400.88
434.287	422.88
434.509	436.88
434.731	420.88
434.953	432.88
435.175	464.88
435.397	510.88
435.618	516.88
435.84	537.88
436.062	613.88
436.284	668.88
436.505	568.88
436.727	517.88
436.949	492.88
437.17	466.88
437.392	468.88
437.614	465.88
437.835	503.88
438.057	633.88
438.278	717.88
438.5	674.88
438.721	746.88
438.943	709.88
439.165	553.88
439.386	527.88
439.608	529.88
439.829	471.88
440.05	524.88
440.272	579.88
440.493	545.88
440.715	491.88
440.936	458.88
441.158	469.88
441.379	468.88
441.6	461.88
441.822	481.88
442.043	523.88
442.264	629.88
442.486	633.88
442.707	556.88
442.928	527.88
443.149	516.88
443.371	517.88
443.592	557.88
443.813	653.88
444.034	704.88
444.255	573.88
444.476	524.88
444.698	502.88
444.919	474.88
445.14	564.88
445.361	545.88
445.582	550.88
445.803	606.88
446.024	695.88
446.245	711.88
446.466	666.88
446.687	568.88
446.908	503.88
447.129	469.88
447.35	467.88
447.571	460.88
447.792	440.88
448.013	461.88
448.234	483.88
448.455	537.88
448.675	623.88
448.896	722.88
449.117	597.88
449.338	597.88
449.559	683.88
449.779	755.88
450	629.88
450.221	520.88
450.442	487.88
450.662	480.88
450.883	467.88
451.104	490.88
451.324	458.88
451.545	431.88
451.766	435.88
451.986	419.88
452.207	415.88
452.428	415.88
452.648	409.88
452.869	393.88
453.089	415.88
453.31	418.88
453.53	428.88
453.751	399.88
453.971	419.88
454.192	463.88
454.412	441.88
454.633	411.88
454.853	404.88
455.073	400.88
455.294	437.88
455.514	497.88
455.734	501.88
455.955	422.88
456.175	395.88
456.395	394.88
456.616	378.88
456.836	389.88
457.056	378.88
457.276	382.88
457.497	377.88
457.717	372.88
457.937	398.88
458.157	387.88
458.377	392.88
458.598	414.88
458.818	448.88
459.038	548.88
459.258	559.88
459.478	483.88
459.698	421.88
459.918	425.88
460.138	417.88
460.358	427.88
460.578	409.88
460.798	425.88
461.018	426.88
461.238	417.88
461.458	408.88
461.678	417.88
461.898	398.88
462.118	402.88
462.338	436.88
462.558	410.88
462.777	412.88
462.997	401.88
463.217	439.88
463.437	443.88
463.657	427.88
463.876	413.88
464.096	431.88
464.316	445.88
464.536	460.88
464.755	440.88
464.975	439.88
465.195	489.88
465.414	575.88
465.634	518.88
465.854	470.88
466.073	433.88
466.293	401.88
466.512	421.88
466.732	401.88
466.951	412.88
467.171	419.88
467.391	398.88
467.61	423.88
467.829	435.88
468.049	411.88
468.268	412.88
468.488	415.88
468.707	395.88
468.927	400.88
469.146	402.88
469.365	394.88
469.585	397.88
469.804	435.88
470.023	427.88
470.243	420.88
470.462	442.88
470.681	434.88
470.901	440.88
471.12	417.88
471.339	408.88
471.558	414.88
471.777	410.88
471.997	423.88
472.216	441.88
472.435	452.88
472.654	436.88
472.873	407.88
473.092	410.88
473.311	403.88
473.53	413.88
473.749	428.88
473.968	477.88
474.187	561.88
474.406	603.88
474.625	480.88
474.844	448.88
475.063	433.88
475.282	440.88
475.501	433.88
475.72	439.88
475.939	432.88
476.158	423.88
476.377	438.88
476.596	432.88
476.814	441.88
477.033	445.88
477.252	442.88
477.471	430.88
477.69	440.88
477.908	445.88
478.127	462.88
478.346	460.88
478.564	474.88
478.783	447.88
479.002	463.88
479.22	467.88
479.439	472.88
479.658	501.88
479.876	522.88
480.095	519.88
480.313	534.88
480.532	550.88
480.751	501.88
480.969	513.88
481.188	564.88
481.406	592.88
481.624	553.88
481.843	541.88
482.061	504.88
482.28	493.88
482.498	507.88
482.717	495.88
482.935	489.88
483.153	487.88
483.372	485.88
483.59	498.88
483.808	492.88
484.027	505.88
484.245	495.88
484.463	487.88
484.681	509.88
484.9	518.88
485.118	502.88
485.336	519.88
485.554	514.88
485.772	503.88
485.99	507.88
486.209	507.88
486.427	508.88
486.645	532.88
486.863	563.88
487.081	557.88
487.299	543.88
487.517	560.88
487.735	556.88
487.953	560.88
488.171	534.88
488.389	540.88
488.607	561.88
488.825	515.88
489.043	526.88
489.261	535.88
489.479	532.88
489.696	548.88
489.914	565.88
490.132	537.88
490.35	568.88
490.568	578.88
490.786	567.88
491.003	570.88
491.221	599.88
491.439	598.88
491.657	617.88
491.874	612.88
492.092	628.88
492.31	642.88
492.527	629.88
492.745	644.88
492.963	623.88
493.18	635.88
493.398	626.88
493.615	643.88
493.833	629.88
494.05	638.88
494.268	643.88
494.485	643.88
494.703	662.88
494.92	653.88
495.138	617.88
495.355	645.88
495.573	637.88
495.79	613.88
496.008	643.88
496.225	663.88
496.442	645.88
496.66	645.88
496.877	617.88
497.094	651.88
497.312	652.88
497.529	665.88
497.746	662.88
497.963	665.88
498.181	685.88
498.398	666.88
498.615	689.88
498.832	685.88
499.049	703.88
499.267	694.88
499.484	703.88
499.701	725.88
499.918	740.88
500.135	765.88
500.352	796.88
500.569	800.88
500.786	801.88
501.003	780.88
501.22	785.88
501.437	781.88
501.654	763.88
501.871	769.88
502.088	737.88
