Data from 1980.PennyLincolnUp.Lamp.En5.5.200Scan.071819.P1_HRD10591_16-37-01-956.txt Node
Date: Thu Jul 18 16:37:01 EDT 2019
User: cochatt
Spectrometer: HR+D1059
Trigger mode: 1
Integration Time (sec): 1.000000E-1
Scans to average: 1
Electric dark correction enabled: true
Nonlinearity correction enabled: false
Boxcar width: 0
XAxis mode: Wavelengths
Number of Pixels in Spectrum: 2048
>>>>>Begin Spectral Data<<<<<
223.165	-15.38
223.4	-15.38
223.635	-15.38
223.869	-19.38
224.104	-20.38
224.338	-13.38
224.573	-14.38
224.808	-6.38
225.042	-3.38
225.277	7.62
225.511	-12.38
225.746	-4.38
225.98	1.62
226.215	9.62
226.449	19.62
226.683	23.62
226.918	20.62
227.152	26.62
227.387	37.62
227.621	35.62
227.856	41.62
228.09	54.62
228.324	62.62
228.559	54.62
228.793	86.62
229.027	111.62
229.262	121.62
229.496	115.62
229.73	151.62
229.964	162.62
230.199	141.62
230.433	120.62
230.667	115.62
230.901	127.62
231.136	115.62
231.37	113.62
231.604	109.62
231.838	119.62
232.072	112.62
232.306	115.62
232.541	115.62
232.775	108.62
233.009	99.62
233.243	119.62
233.477	122.62
233.711	121.62
233.945	105.62
234.179	122.62
234.413	110.62
234.647	125.62
234.881	119.62
235.115	114.62
235.349	109.62
235.583	109.62
235.817	130.62
236.051	128.62
236.285	125.62
236.519	130.62
236.753	127.62
236.987	134.62
237.221	198.62
237.455	244.62
237.689	206.62
237.922	131.62
238.156	131.62
238.39	133.62
238.624	150.62
238.858	140.62
239.091	118.62
239.325	125.62
239.559	116.62
239.793	131.62
240.027	150.62
240.26	139.62
240.494	167.62
240.728	147.62
240.961	155.62
241.195	162.62
241.429	146.62
241.662	142.62
241.896	133.62
242.13	125.62
242.363	132.62
242.597	142.62
242.83	143.62
243.064	138.62
243.298	135.62
243.531	140.62
243.765	135.62
243.998	142.62
244.232	131.62
244.465	132.62
244.699	138.62
244.932	139.62
245.166	143.62
245.399	144.62
245.633	133.62
245.866	141.62
246.099	150.62
246.333	150.62
246.566	147.62
246.8	153.62
247.033	169.62
247.266	161.62
247.5	166.62
247.733	161.62
247.966	187.62
248.2	169.62
248.433	198.62
248.666	170.62
248.899	186.62
249.133	201.62
249.366	200.62
249.599	219.62
249.832	187.62
250.066	181.62
250.299	183.62
250.532	209.62
250.765	200.62
250.998	228.62
251.231	243.62
251.465	226.62
251.698	222.62
251.931	202.62
252.164	198.62
252.397	206.62
252.63	202.62
252.863	219.62
253.096	214.62
253.329	240.62
253.562	233.62
253.795	215.62
254.028	215.62
254.261	221.62
254.494	238.62
254.727	276.62
254.96	281.62
255.193	280.62
255.426	257.62
255.659	254.62
255.892	237.62
256.124	242.62
256.357	220.62
256.59	229.62
256.823	224.62
257.056	203.62
257.289	205.62
257.521	227.62
257.754	205.62
257.987	214.62
258.22	206.62
258.452	212.62
258.685	203.62
258.918	204.62
259.151	212.62
259.383	222.62
259.616	244.62
259.849	223.62
260.081	237.62
260.314	262.62
260.547	250.62
260.779	240.62
261.012	222.62
261.244	231.62
261.477	246.62
261.71	224.62
261.942	225.62
262.175	231.62
262.407	241.62
262.64	238.62
262.872	220.62
263.105	219.62
263.337	212.62
263.57	205.62
263.802	206.62
264.035	205.62
264.267	214.62
264.499	204.62
264.732	185.62
264.964	198.62
265.197	218.62
265.429	207.62
265.661	203.62
265.894	211.62
266.126	202.62
266.358	209.62
266.591	223.62
266.823	216.62
267.055	223.62
267.287	226.62
267.52	222.62
267.752	203.62
267.984	220.62
268.216	217.62
268.448	231.62
268.681	230.62
268.913	244.62
269.145	255.62
269.377	297.62
269.609	270.62
269.841	259.62
270.073	268.62
270.306	289.62
270.538	315.62
270.77	312.62
271.002	298.62
271.234	313.62
271.466	319.62
271.698	315.62
271.93	326.62
272.162	318.62
272.394	323.62
272.626	315.62
272.858	302.62
273.09	286.62
273.322	283.62
273.553	263.62
273.785	263.62
274.017	254.62
274.249	263.62
274.481	258.62
274.713	273.62
274.945	280.62
275.176	267.62
275.408	260.62
275.64	273.62
275.872	266.62
276.104	251.62
276.335	259.62
276.567	260.62
276.799	276.62
277.031	302.62
277.262	303.62
277.494	294.62
277.726	315.62
277.957	297.62
278.189	271.62
278.421	277.62
278.652	262.62
278.884	266.62
279.115	270.62
279.347	245.62
279.579	258.62
279.81	279.62
280.042	258.62
280.273	249.62
280.505	264.62
280.736	254.62
280.968	264.62
281.199	266.62
281.431	262.62
281.662	259.62
281.894	255.62
282.125	255.62
282.356	268.62
282.588	285.62
282.819	278.62
283.051	272.62
283.282	256.62
283.513	280.62
283.745	247.62
283.976	271.62
284.207	259.62
284.439	279.62
284.67	257.62
284.901	267.62
285.132	260.62
285.364	261.62
285.595	265.62
285.826	259.62
286.057	251.62
286.288	266.62
286.52	286.62
286.751	272.62
286.982	259.62
287.213	259.62
287.444	252.62
287.675	273.62
287.906	269.62
288.138	277.62
288.369	273.62
288.6	289.62
288.831	280.62
289.062	282.62
289.293	280.62
289.524	271.62
289.755	265.62
289.986	265.62
290.217	285.62
290.448	277.62
290.679	256.62
290.91	264.62
291.141	269.62
291.371	260.62
291.602	273.62
291.833	284.62
292.064	258.62
292.295	272.62
292.526	269.62
292.757	271.62
292.987	254.62
293.218	266.62
293.449	275.62
293.68	273.62
293.91	281.62
294.141	261.62
294.372	263.62
294.603	269.62
294.833	272.62
295.064	269.62
295.295	273.62
295.525	264.62
295.756	269.62
295.987	278.62
296.217	313.62
296.448	309.62
296.679	283.62
296.909	284.62
297.14	278.62
297.37	268.62
297.601	286.62
297.831	288.62
298.062	245.62
298.292	273.62
298.523	269.62
298.753	292.62
298.984	270.62
299.214	281.62
299.445	262.62
299.675	281.62
299.905	282.62
300.136	276.62
300.366	283.62
300.597	278.62
300.827	300.62
301.057	310.62
301.288	309.62
301.518	301.62
301.748	293.62
301.979	294.62
302.209	298.62
302.439	295.62
302.669	290.62
302.9	289.62
303.13	297.62
303.36	298.62
303.59	297.62
303.82	335.62
304.051	315.62
304.281	316.62
304.511	293.62
304.741	286.62
304.971	305.62
305.201	303.62
305.431	285.62
305.661	301.62
305.891	294.62
306.121	298.62
306.352	296.62
306.582	311.62
306.812	325.62
307.042	316.62
307.272	311.62
307.502	314.62
307.731	303.62
307.961	306.62
308.191	313.62
308.421	304.62
308.651	326.62
308.881	317.62
309.111	321.62
309.341	324.62
309.571	343.62
309.8	353.62
310.03	350.62
310.26	368.62
310.49	342.62
310.72	369.62
310.949	383.62
311.179	395.62
311.409	366.62
311.639	350.62
311.868	369.62
312.098	361.62
312.328	377.62
312.557	389.62
312.787	399.62
313.017	397.62
313.246	367.62
313.476	362.62
313.706	344.62
313.935	350.62
314.165	385.62
314.394	397.62
314.624	393.62
314.853	353.62
315.083	351.62
315.312	345.62
315.542	351.62
315.771	350.62
316.001	341.62
316.23	353.62
316.46	342.62
316.689	330.62
316.919	366.62
317.148	367.62
317.377	375.62
317.607	357.62
317.836	379.62
318.065	349.62
318.295	353.62
318.524	363.62
318.753	364.62
318.983	343.62
319.212	342.62
319.441	387.62
319.67	381.62
319.9	371.62
320.129	362.62
320.358	345.62
320.587	351.62
320.816	378.62
321.046	355.62
321.275	395.62
321.504	382.62
321.733	377.62
321.962	403.62
322.191	398.62
322.42	410.62
322.649	430.62
322.878	446.62
323.108	443.62
323.337	466.62
323.566	507.62
323.795	519.62
324.024	594.62
324.253	717.62
324.482	1006.62
324.71	1563.62
324.939	2249.62
325.168	2025.62
325.397	1051.62
325.626	667.62
325.855	547.62
326.084	510.62
326.313	505.62
326.542	515.62
326.77	547.62
326.999	658.62
327.228	929.62
327.457	1377.62
327.686	1728.62
327.914	1196.62
328.143	764.62
328.372	663.62
328.6	614.62
328.829	589.62
329.058	585.62
329.287	589.62
329.515	554.62
329.744	508.62
329.972	510.62
330.201	536.62
330.43	555.62
330.658	599.62
330.887	627.62
331.115	611.62
331.344	509.62
331.572	477.62
331.801	461.62
332.03	450.62
332.258	456.62
332.486	442.62
332.715	434.62
332.943	436.62
333.172	424.62
333.4	403.62
333.629	438.62
333.857	429.62
334.085	453.62
334.314	466.62
334.542	481.62
334.771	490.62
334.999	456.62
335.227	430.62
335.455	430.62
335.684	400.62
335.912	413.62
336.14	384.62
336.369	377.62
336.597	400.62
336.825	417.62
337.053	439.62
337.281	413.62
337.51	403.62
337.738	406.62
337.966	419.62
338.194	399.62
338.422	416.62
338.65	411.62
338.878	403.62
339.106	395.62
339.334	382.62
339.562	390.62
339.79	379.62
340.018	390.62
340.246	398.62
340.474	411.62
340.702	398.62
340.93	413.62
341.158	401.62
341.386	399.62
341.614	406.62
341.842	389.62
342.07	407.62
342.298	412.62
342.526	389.62
342.754	373.62
342.981	386.62
343.209	357.62
343.437	371.62
343.665	375.62
343.893	391.62
344.12	361.62
344.348	389.62
344.576	391.62
344.804	409.62
345.031	412.62
345.259	423.62
345.487	396.62
345.714	398.62
345.942	389.62
346.17	391.62
346.397	383.62
346.625	394.62
346.853	391.62
347.08	395.62
347.308	397.62
347.535	390.62
347.763	389.62
347.99	398.62
348.218	404.62
348.445	404.62
348.673	395.62
348.9	389.62
349.128	379.62
349.355	383.62
349.583	360.62
349.81	379.62
350.037	359.62
350.265	376.62
350.492	358.62
350.72	359.62
350.947	388.62
351.174	383.62
351.402	402.62
351.629	390.62
351.856	383.62
352.083	393.62
352.311	407.62
352.538	397.62
352.765	427.62
352.992	396.62
353.22	380.62
353.447	399.62
353.674	389.62
353.901	376.62
354.128	378.62
354.355	348.62
354.583	344.62
354.81	369.62
355.037	365.62
355.264	356.62
355.491	339.62
355.718	347.62
355.945	364.62
356.172	370.62
356.399	358.62
356.626	343.62
356.853	348.62
357.08	357.62
357.307	338.62
357.534	341.62
357.761	353.62
357.988	353.62
358.215	341.62
358.441	355.62
358.668	371.62
358.895	358.62
359.122	368.62
359.349	358.62
359.576	391.62
359.802	407.62
360.029	432.62
360.256	460.62
360.483	435.62
360.709	408.62
360.936	402.62
361.163	391.62
361.39	386.62
361.616	408.62
361.843	371.62
362.07	382.62
362.296	389.62
362.523	405.62
362.749	402.62
362.976	388.62
363.203	368.62
363.429	368.62
363.656	376.62
363.882	374.62
364.109	379.62
364.335	359.62
364.562	359.62
364.788	366.62
365.015	371.62
365.241	379.62
365.468	377.62
365.694	385.62
365.92	374.62
366.147	390.62
366.373	355.62
366.599	355.62
366.826	377.62
367.052	369.62
367.278	371.62
367.505	362.62
367.731	371.62
367.957	357.62
368.184	356.62
368.41	378.62
368.636	400.62
368.862	378.62
369.089	369.62
369.315	362.62
369.541	353.62
369.767	362.62
369.993	374.62
370.219	343.62
370.445	357.62
370.672	353.62
370.898	379.62
371.124	353.62
371.35	357.62
371.576	357.62
371.802	365.62
372.028	342.62
372.254	326.62
372.48	333.62
372.706	349.62
372.932	363.62
373.158	361.62
373.384	350.62
373.61	357.62
373.835	349.62
374.061	359.62
374.287	367.62
374.513	371.62
374.739	385.62
374.965	376.62
375.191	354.62
375.416	366.62
375.642	371.62
375.868	345.62
376.094	364.62
376.319	349.62
376.545	347.62
376.771	369.62
376.997	350.62
377.222	356.62
377.448	361.62
377.674	360.62
377.899	354.62
378.125	365.62
378.35	348.62
378.576	324.62
378.802	353.62
379.027	359.62
379.253	348.62
379.478	349.62
379.704	350.62
379.929	354.62
380.155	346.62
380.38	376.62
380.606	380.62
380.831	349.62
381.057	360.62
381.282	350.62
381.507	354.62
381.733	354.62
381.958	334.62
382.184	361.62
382.409	369.62
382.634	386.62
382.86	372.62
383.085	375.62
383.31	383.62
383.535	377.62
383.761	374.62
383.986	366.62
384.211	387.62
384.436	373.62
384.662	369.62
384.887	388.62
385.112	384.62
385.337	385.62
385.562	381.62
385.787	372.62
386.013	377.62
386.238	386.62
386.463	373.62
386.688	377.62
386.913	370.62
387.138	365.62
387.363	385.62
387.588	371.62
387.813	382.62
388.038	374.62
388.263	379.62
388.488	374.62
388.713	372.62
388.938	402.62
389.163	375.62
389.387	385.62
389.612	371.62
389.837	381.62
390.062	379.62
390.287	378.62
390.512	386.62
390.736	392.62
390.961	365.62
391.186	394.62
391.411	371.62
391.636	370.62
391.86	363.62
392.085	372.62
392.31	393.62
392.534	370.62
392.759	396.62
392.984	402.62
393.208	375.62
393.433	380.62
393.658	386.62
393.882	378.62
394.107	393.62
394.331	401.62
394.556	376.62
394.78	375.62
395.005	378.62
395.229	395.62
395.454	384.62
395.678	399.62
395.903	398.62
396.127	409.62
396.352	429.62
396.576	419.62
396.801	410.62
397.025	403.62
397.249	409.62
397.474	404.62
397.698	434.62
397.922	412.62
398.147	440.62
398.371	416.62
398.595	444.62
398.82	435.62
399.044	429.62
399.268	426.62
399.492	445.62
399.717	463.62
399.941	478.62
400.165	523.62
400.389	531.62
400.613	489.62
400.837	450.62
401.062	445.62
401.286	422.62
401.51	441.62
401.734	410.62
401.958	452.62
402.182	433.62
402.406	440.62
402.63	443.62
402.854	423.62
403.078	433.62
403.302	459.62
403.526	435.62
403.75	453.62
403.974	454.62
404.198	450.62
404.422	442.62
404.645	458.62
404.869	471.62
405.093	491.62
405.317	527.62
405.541	540.62
405.765	495.62
405.988	497.62
406.212	483.62
406.436	521.62
406.66	551.62
406.883	473.62
407.107	529.62
407.331	550.62
407.555	595.62
407.778	625.62
408.002	543.62
408.226	521.62
408.449	496.62
408.673	491.62
408.896	533.62
409.12	565.62
409.344	526.62
409.567	489.62
409.791	447.62
410.014	458.62
410.238	441.62
410.461	441.62
410.685	474.62
410.908	471.62
411.132	505.62
411.355	532.62
411.578	524.62
411.802	470.62
412.025	456.62
412.249	455.62
412.472	493.62
412.695	522.62
412.919	511.62
413.142	452.62
413.365	428.62
413.589	449.62
413.812	422.62
414.035	443.62
414.258	433.62
414.482	434.62
414.705	437.62
414.928	437.62
415.151	420.62
415.374	399.62
415.597	411.62
415.821	408.62
416.044	431.62
416.267	425.62
416.49	418.62
416.713	414.62
416.936	427.62
417.159	413.62
417.382	437.62
417.605	457.62
417.828	447.62
418.051	461.62
418.274	459.62
418.497	463.62
418.72	445.62
418.943	437.62
419.166	436.62
419.389	470.62
419.611	456.62
419.834	462.62
420.057	458.62
420.28	460.62
420.503	475.62
420.726	468.62
420.948	459.62
421.171	518.62
421.394	513.62
421.617	491.62
421.839	460.62
422.062	469.62
422.285	458.62
422.507	527.62
422.73	610.62
422.953	602.62
423.175	501.62
423.398	478.62
423.621	490.62
423.843	514.62
424.066	503.62
424.288	492.62
424.511	519.62
424.733	567.62
424.956	645.62
425.178	615.62
425.401	634.62
425.623	645.62
425.846	539.62
426.068	505.62
426.291	511.62
426.513	493.62
426.735	523.62
426.958	548.62
427.18	625.62
427.402	765.62
427.625	847.62
427.847	754.62
428.069	660.62
428.292	574.62
428.514	509.62
428.736	465.62
428.958	477.62
429.181	467.62
429.403	482.62
429.625	488.62
429.847	534.62
430.069	574.62
430.292	590.62
430.514	523.62
430.736	491.62
430.958	464.62
431.18	454.62
431.402	451.62
431.624	441.62
431.846	415.62
432.068	408.62
432.29	447.62
432.512	426.62
432.734	446.62
432.956	433.62
433.178	442.62
433.4	447.62
433.622	444.62
433.844	438.62
434.066	429.62
434.287	439.62
434.509	458.62
434.731	430.62
434.953	430.62
435.175	463.62
435.397	504.62
435.618	521.62
435.84	549.62
436.062	623.62
436.284	701.62
436.505	589.62
436.727	527.62
436.949	492.62
437.17	467.62
437.392	470.62
437.614	489.62
437.835	543.62
438.057	619.62
438.278	742.62
438.5	714.62
438.721	780.62
438.943	726.62
439.165	605.62
439.386	527.62
439.608	534.62
439.829	550.62
440.05	561.62
440.272	609.62
440.493	565.62
440.715	506.62
440.936	481.62
441.158	468.62
441.379	491.62
441.6	498.62
441.822	519.62
442.043	559.62
442.264	643.62
442.486	653.62
442.707	607.62
442.928	533.62
443.149	531.62
443.371	562.62
443.592	597.62
443.813	645.62
444.034	718.62
444.255	608.62
444.476	549.62
444.698	545.62
444.919	521.62
445.14	599.62
445.361	586.62
445.582	554.62
445.803	625.62
446.024	725.62
446.245	728.62
446.466	668.62
446.687	579.62
446.908	525.62
447.129	499.62
447.35	489.62
447.571	477.62
447.792	461.62
448.013	485.62
448.234	509.62
448.455	536.62
448.675	659.62
448.896	744.62
449.117	661.62
449.338	614.62
449.559	738.62
449.779	812.62
450	669.62
450.221	539.62
450.442	503.62
450.662	473.62
450.883	489.62
451.104	489.62
451.324	492.62
451.545	467.62
451.766	445.62
451.986	437.62
452.207	440.62
452.428	428.62
452.648	399.62
452.869	441.62
453.089	458.62
453.31	453.62
453.53	438.62
453.751	443.62
453.971	427.62
454.192	446.62
454.412	460.62
454.633	438.62
454.853	413.62
455.073	420.62
455.294	463.62
455.514	515.62
455.734	511.62
455.955	427.62
456.175	398.62
456.395	407.62
456.616	388.62
456.836	375.62
457.056	391.62
457.276	390.62
457.497	392.62
457.717	401.62
457.937	406.62
458.157	420.62
458.377	406.62
458.598	441.62
458.818	481.62
459.038	598.62
459.258	585.62
459.478	481.62
459.698	452.62
459.918	428.62
460.138	424.62
460.358	441.62
460.578	437.62
460.798	429.62
461.018	440.62
461.238	427.62
461.458	447.62
461.678	412.62
461.898	428.62
462.118	426.62
462.338	426.62
462.558	453.62
462.777	433.62
462.997	442.62
463.217	440.62
463.437	471.62
463.657	443.62
463.876	445.62
464.096	467.62
464.316	454.62
464.536	453.62
464.755	459.62
464.975	484.62
465.195	523.62
465.414	621.62
465.634	523.62
465.854	477.62
466.073	475.62
466.293	457.62
466.512	408.62
466.732	426.62
466.951	407.62
467.171	411.62
467.391	437.62
467.61	444.62
467.829	447.62
468.049	455.62
468.268	458.62
468.488	427.62
468.707	418.62
468.927	409.62
469.146	403.62
469.365	393.62
469.585	407.62
469.804	404.62
470.023	455.62
470.243	448.62
470.462	440.62
470.681	465.62
470.901	439.62
471.12	428.62
471.339	429.62
471.558	429.62
471.777	426.62
471.997	424.62
472.216	433.62
472.435	464.62
472.654	459.62
472.873	431.62
473.092	445.62
473.311	419.62
473.53	445.62
473.749	456.62
473.968	495.62
474.187	610.62
474.406	628.62
474.625	505.62
474.844	451.62
475.063	436.62
475.282	426.62
475.501	442.62
475.72	452.62
475.939	458.62
476.158	445.62
476.377	455.62
476.596	462.62
476.814	450.62
477.033	463.62
477.252	454.62
477.471	473.62
477.69	481.62
477.908	469.62
478.127	459.62
478.346	447.62
478.564	474.62
478.783	476.62
479.002	482.62
479.22	509.62
479.439	490.62
479.658	510.62
479.876	525.62
480.095	529.62
480.313	567.62
480.532	536.62
480.751	539.62
480.969	565.62
481.188	604.62
481.406	634.62
481.624	554.62
481.843	541.62
482.061	526.62
482.28	543.62
482.498	518.62
482.717	540.62
482.935	517.62
483.153	501.62
483.372	506.62
483.59	519.62
483.808	521.62
484.027	517.62
484.245	497.62
484.463	521.62
484.681	519.62
484.9	525.62
485.118	525.62
485.336	514.62
485.554	514.62
485.772	527.62
485.99	534.62
486.209	521.62
486.427	537.62
486.645	573.62
486.863	583.62
487.081	586.62
487.299	550.62
487.517	545.62
487.735	553.62
487.953	546.62
488.171	571.62
488.389	561.62
488.607	555.62
488.825	559.62
489.043	565.62
489.261	552.62
489.479	567.62
489.696	557.62
489.914	590.62
490.132	565.62
490.35	583.62
490.568	597.62
490.786	586.62
491.003	591.62
491.221	614.62
491.439	623.62
491.657	643.62
491.874	645.62
492.092	651.62
492.31	633.62
492.527	675.62
492.745	666.62
492.963	649.62
493.18	670.62
493.398	662.62
493.615	670.62
493.833	650.62
494.05	665.62
494.268	678.62
494.485	657.62
494.703	678.62
494.92	654.62
495.138	663.62
495.355	666.62
495.573	659.62
495.79	683.62
496.008	682.62
496.225	662.62
496.442	681.62
496.66	661.62
496.877	671.62
497.094	677.62
497.312	676.62
497.529	658.62
497.746	680.62
497.963	663.62
498.181	702.62
498.398	708.62
498.615	701.62
498.832	726.62
499.049	716.62
499.267	738.62
499.484	753.62
499.701	757.62
499.918	779.62
500.135	793.62
500.352	798.62
500.569	815.62
500.786	820.62
501.003	827.62
501.22	793.62
501.437	789.62
501.654	815.62
501.871	795.62
