Data from 1980.PennyLincolnUp.Lamp.En5.5.200Scan.071819.P1_HRD10591_16-36-22-956.txt Node
Date: Thu Jul 18 16:36:22 EDT 2019
User: cochatt
Spectrometer: HR+D1059
Trigger mode: 1
Integration Time (sec): 1.000000E-1
Scans to average: 1
Electric dark correction enabled: true
Nonlinearity correction enabled: false
Boxcar width: 0
XAxis mode: Wavelengths
Number of Pixels in Spectrum: 2048
>>>>>Begin Spectral Data<<<<<
223.165	-13.38
223.4	-13.38
223.635	-13.38
223.869	-13.38
224.104	-19.38
224.338	-5.38
224.573	-18.38
224.808	-18.38
225.042	-10.38
225.277	-9.38
225.511	-0.38
225.746	4.62
225.98	1.62
226.215	13.62
226.449	9.62
226.683	24.62
226.918	27.62
227.152	26.62
227.387	41.62
227.621	40.62
227.856	43.62
228.09	49.62
228.324	63.62
228.559	50.62
228.793	54.62
229.027	85.62
229.262	101.62
229.496	102.62
229.73	117.62
229.964	126.62
230.199	100.62
230.433	108.62
230.667	100.62
230.901	99.62
231.136	117.62
231.37	114.62
231.604	117.62
231.838	113.62
232.072	107.62
232.306	98.62
232.541	101.62
232.775	109.62
233.009	114.62
233.243	94.62
233.477	94.62
233.711	105.62
233.945	106.62
234.179	114.62
234.413	121.62
234.647	98.62
234.881	117.62
235.115	110.62
235.349	113.62
235.583	112.62
235.817	99.62
236.051	109.62
236.285	115.62
236.519	109.62
236.753	107.62
236.987	125.62
237.221	154.62
237.455	205.62
237.689	169.62
237.922	132.62
238.156	115.62
238.39	133.62
238.624	116.62
238.858	109.62
239.091	105.62
239.325	116.62
239.559	126.62
239.793	107.62
240.027	117.62
240.26	130.62
240.494	142.62
240.728	128.62
240.961	146.62
241.195	128.62
241.429	128.62
241.662	138.62
241.896	110.62
242.13	101.62
242.363	125.62
242.597	120.62
242.83	126.62
243.064	121.62
243.298	123.62
243.531	109.62
243.765	106.62
243.998	126.62
244.232	129.62
244.465	132.62
244.699	127.62
244.932	134.62
245.166	129.62
245.399	122.62
245.633	125.62
245.866	121.62
246.099	135.62
246.333	130.62
246.566	148.62
246.8	151.62
247.033	161.62
247.266	142.62
247.5	132.62
247.733	153.62
247.966	163.62
248.2	164.62
248.433	147.62
248.666	157.62
248.899	171.62
249.133	164.62
249.366	186.62
249.599	170.62
249.832	163.62
250.066	170.62
250.299	176.62
250.532	161.62
250.765	166.62
250.998	173.62
251.231	199.62
251.465	204.62
251.698	187.62
251.931	176.62
252.164	177.62
252.397	169.62
252.63	168.62
252.863	180.62
253.096	204.62
253.329	210.62
253.562	203.62
253.795	189.62
254.028	189.62
254.261	219.62
254.494	198.62
254.727	215.62
254.96	233.62
255.193	246.62
255.426	224.62
255.659	198.62
255.892	197.62
256.124	204.62
256.357	182.62
256.59	201.62
256.823	194.62
257.056	194.62
257.289	184.62
257.521	171.62
257.754	192.62
257.987	172.62
258.22	175.62
258.452	184.62
258.685	177.62
258.918	181.62
259.151	189.62
259.383	185.62
259.616	193.62
259.849	207.62
260.081	199.62
260.314	220.62
260.547	220.62
260.779	219.62
261.012	214.62
261.244	193.62
261.477	186.62
261.71	193.62
261.942	195.62
262.175	221.62
262.407	198.62
262.64	186.62
262.872	202.62
263.105	180.62
263.337	184.62
263.57	184.62
263.802	176.62
264.035	183.62
264.267	188.62
264.499	173.62
264.732	186.62
264.964	196.62
265.197	196.62
265.429	164.62
265.661	198.62
265.894	191.62
266.126	192.62
266.358	186.62
266.591	189.62
266.823	196.62
267.055	183.62
267.287	200.62
267.52	187.62
267.752	198.62
267.984	188.62
268.216	207.62
268.448	203.62
268.681	189.62
268.913	187.62
269.145	212.62
269.377	238.62
269.609	225.62
269.841	234.62
270.073	224.62
270.306	249.62
270.538	261.62
270.77	273.62
271.002	253.62
271.234	235.62
271.466	256.62
271.698	259.62
271.93	276.62
272.162	262.62
272.394	275.62
272.626	266.62
272.858	262.62
273.09	249.62
273.322	220.62
273.553	224.62
273.785	217.62
274.017	225.62
274.249	238.62
274.481	230.62
274.713	227.62
274.945	219.62
275.176	221.62
275.408	228.62
275.64	227.62
275.872	228.62
276.104	214.62
276.335	216.62
276.567	231.62
276.799	233.62
277.031	270.62
277.262	260.62
277.494	265.62
277.726	242.62
277.957	232.62
278.189	224.62
278.421	211.62
278.652	218.62
278.884	222.62
279.115	220.62
279.347	227.62
279.579	213.62
279.81	209.62
280.042	208.62
280.273	224.62
280.505	215.62
280.736	213.62
280.968	210.62
281.199	218.62
281.431	204.62
281.662	204.62
281.894	205.62
282.125	213.62
282.356	222.62
282.588	253.62
282.819	234.62
283.051	222.62
283.282	228.62
283.513	230.62
283.745	223.62
283.976	213.62
284.207	218.62
284.439	222.62
284.67	215.62
284.901	214.62
285.132	206.62
285.364	213.62
285.595	210.62
285.826	217.62
286.057	218.62
286.288	218.62
286.52	226.62
286.751	228.62
286.982	225.62
287.213	208.62
287.444	224.62
287.675	234.62
287.906	222.62
288.138	220.62
288.369	252.62
288.6	242.62
288.831	216.62
289.062	225.62
289.293	248.62
289.524	209.62
289.755	224.62
289.986	230.62
290.217	222.62
290.448	226.62
290.679	227.62
290.91	200.62
291.141	232.62
291.371	228.62
291.602	222.62
291.833	227.62
292.064	216.62
292.295	228.62
292.526	218.62
292.757	226.62
292.987	221.62
293.218	225.62
293.449	218.62
293.68	234.62
293.91	218.62
294.141	219.62
294.372	218.62
294.603	221.62
294.833	233.62
295.064	235.62
295.295	219.62
295.525	219.62
295.756	244.62
295.987	221.62
296.217	256.62
296.448	280.62
296.679	245.62
296.909	242.62
297.14	242.62
297.37	236.62
297.601	238.62
297.831	233.62
298.062	225.62
298.292	235.62
298.523	240.62
298.753	237.62
298.984	210.62
299.214	242.62
299.445	234.62
299.675	225.62
299.905	236.62
300.136	226.62
300.366	233.62
300.597	242.62
300.827	237.62
301.057	243.62
301.288	230.62
301.518	260.62
301.748	254.62
301.979	253.62
302.209	246.62
302.439	243.62
302.669	242.62
302.9	249.62
303.13	260.62
303.36	256.62
303.59	261.62
303.82	259.62
304.051	278.62
304.281	262.62
304.511	268.62
304.741	249.62
304.971	243.62
305.201	249.62
305.431	236.62
305.661	258.62
305.891	242.62
306.121	257.62
306.352	247.62
306.582	265.62
306.812	263.62
307.042	237.62
307.272	263.62
307.502	269.62
307.731	249.62
307.961	243.62
308.191	241.62
308.421	251.62
308.651	268.62
308.881	276.62
309.111	266.62
309.341	275.62
309.571	262.62
309.8	274.62
310.03	274.62
310.26	292.62
310.49	285.62
310.72	304.62
310.949	302.62
311.179	300.62
311.409	294.62
311.639	276.62
311.868	302.62
312.098	313.62
312.328	320.62
312.557	318.62
312.787	328.62
313.017	324.62
313.246	294.62
313.476	302.62
313.706	295.62
313.935	292.62
314.165	296.62
314.394	306.62
314.624	324.62
314.853	299.62
315.083	286.62
315.312	302.62
315.542	285.62
315.771	297.62
316.001	299.62
316.23	297.62
316.46	293.62
316.689	299.62
316.919	290.62
317.148	305.62
317.377	290.62
317.607	286.62
317.836	297.62
318.065	289.62
318.295	300.62
318.524	282.62
318.753	297.62
318.983	302.62
319.212	298.62
319.441	297.62
319.67	301.62
319.9	308.62
320.129	294.62
320.358	284.62
320.587	304.62
320.816	306.62
321.046	313.62
321.275	308.62
321.504	311.62
321.733	308.62
321.962	330.62
322.191	333.62
322.42	317.62
322.649	336.62
322.878	372.62
323.108	366.62
323.337	376.62
323.566	396.62
323.795	415.62
324.024	448.62
324.253	543.62
324.482	768.62
324.71	1209.62
324.939	1736.62
325.168	1544.62
325.397	802.62
325.626	533.62
325.855	445.62
326.084	425.62
326.313	388.62
326.542	404.62
326.77	434.62
326.999	525.62
327.228	675.62
327.457	1080.62
327.686	1338.62
327.914	884.62
328.143	585.62
328.372	506.62
328.6	470.62
328.829	432.62
329.058	466.62
329.287	457.62
329.515	434.62
329.744	389.62
329.972	397.62
330.201	399.62
330.43	424.62
330.658	457.62
330.887	499.62
331.115	479.62
331.344	400.62
331.572	372.62
331.801	376.62
332.03	386.62
332.258	375.62
332.486	354.62
332.715	356.62
332.943	337.62
333.172	341.62
333.4	349.62
333.629	337.62
333.857	363.62
334.085	357.62
334.314	387.62
334.542	384.62
334.771	381.62
334.999	364.62
335.227	334.62
335.455	347.62
335.684	352.62
335.912	337.62
336.14	322.62
336.369	324.62
336.597	354.62
336.825	357.62
337.053	318.62
337.281	343.62
337.51	333.62
337.738	339.62
337.966	337.62
338.194	333.62
338.422	350.62
338.65	352.62
338.878	317.62
339.106	325.62
339.334	330.62
339.562	336.62
339.79	317.62
340.018	318.62
340.246	335.62
340.474	340.62
340.702	335.62
340.93	321.62
341.158	349.62
341.386	326.62
341.614	321.62
341.842	322.62
342.07	311.62
342.298	336.62
342.526	321.62
342.754	313.62
342.981	304.62
343.209	310.62
343.437	292.62
343.665	312.62
343.893	330.62
344.12	323.62
344.348	325.62
344.576	350.62
344.804	331.62
345.031	344.62
345.259	353.62
345.487	344.62
345.714	348.62
345.942	328.62
346.17	334.62
346.397	333.62
346.625	318.62
346.853	329.62
347.08	331.62
347.308	302.62
347.535	334.62
347.763	333.62
347.99	339.62
348.218	345.62
348.445	343.62
348.673	329.62
348.9	337.62
349.128	324.62
349.355	317.62
349.583	302.62
349.81	326.62
350.037	315.62
350.265	316.62
350.492	320.62
350.72	298.62
350.947	328.62
351.174	302.62
351.402	309.62
351.629	333.62
351.856	325.62
352.083	344.62
352.311	337.62
352.538	324.62
352.765	348.62
352.992	339.62
353.22	336.62
353.447	329.62
353.674	310.62
353.901	308.62
354.128	312.62
354.355	310.62
354.583	307.62
354.81	299.62
355.037	299.62
355.264	304.62
355.491	313.62
355.718	294.62
355.945	300.62
356.172	294.62
356.399	293.62
356.626	285.62
356.853	288.62
357.08	276.62
357.307	300.62
357.534	293.62
357.761	290.62
357.988	286.62
358.215	297.62
358.441	294.62
358.668	293.62
358.895	326.62
359.122	302.62
359.349	317.62
359.576	329.62
359.802	345.62
360.029	368.62
360.256	362.62
360.483	349.62
360.709	335.62
360.936	309.62
361.163	315.62
361.39	339.62
361.616	334.62
361.843	334.62
362.07	326.62
362.296	329.62
362.523	323.62
362.749	334.62
362.976	323.62
363.203	320.62
363.429	319.62
363.656	308.62
363.882	315.62
364.109	305.62
364.335	302.62
364.562	309.62
364.788	292.62
365.015	294.62
365.241	313.62
365.468	316.62
365.694	324.62
365.92	310.62
366.147	311.62
366.373	292.62
366.599	315.62
366.826	288.62
367.052	308.62
367.278	307.62
367.505	306.62
367.731	301.62
367.957	306.62
368.184	295.62
368.41	308.62
368.636	336.62
368.862	317.62
369.089	341.62
369.315	309.62
369.541	291.62
369.767	325.62
369.993	312.62
370.219	332.62
370.445	318.62
370.672	301.62
370.898	312.62
371.124	286.62
371.35	324.62
371.576	316.62
371.802	315.62
372.028	280.62
372.254	301.62
372.48	320.62
372.706	328.62
372.932	324.62
373.158	291.62
373.384	318.62
373.61	303.62
373.835	290.62
374.061	310.62
374.287	316.62
374.513	306.62
374.739	308.62
374.965	313.62
375.191	318.62
375.416	307.62
375.642	309.62
375.868	305.62
376.094	298.62
376.319	310.62
376.545	318.62
376.771	314.62
376.997	294.62
377.222	318.62
377.448	318.62
377.674	304.62
377.899	309.62
378.125	306.62
378.35	313.62
378.576	314.62
378.802	306.62
379.027	320.62
379.253	308.62
379.478	316.62
379.704	307.62
379.929	306.62
380.155	316.62
380.38	306.62
380.606	307.62
380.831	320.62
381.057	327.62
381.282	296.62
381.507	317.62
381.733	298.62
381.958	321.62
382.184	317.62
382.409	304.62
382.634	313.62
382.86	294.62
383.085	314.62
383.31	309.62
383.535	323.62
383.761	304.62
383.986	305.62
384.211	320.62
384.436	310.62
384.662	328.62
384.887	321.62
385.112	324.62
385.337	338.62
385.562	305.62
385.787	310.62
386.013	342.62
386.238	325.62
386.463	332.62
386.688	323.62
386.913	330.62
387.138	320.62
387.363	322.62
387.588	315.62
387.813	321.62
388.038	338.62
388.263	325.62
388.488	325.62
388.713	326.62
388.938	332.62
389.163	331.62
389.387	324.62
389.612	337.62
389.837	304.62
390.062	339.62
390.287	336.62
390.512	313.62
390.736	324.62
390.961	355.62
391.186	317.62
391.411	307.62
391.636	320.62
391.86	332.62
392.085	331.62
392.31	333.62
392.534	308.62
392.759	336.62
392.984	327.62
393.208	334.62
393.433	321.62
393.658	351.62
393.882	333.62
394.107	332.62
394.331	325.62
394.556	345.62
394.78	313.62
395.005	315.62
395.229	338.62
395.454	340.62
395.678	340.62
395.903	342.62
396.127	341.62
396.352	359.62
396.576	352.62
396.801	326.62
397.025	346.62
397.249	344.62
397.474	345.62
397.698	355.62
397.922	359.62
398.147	352.62
398.371	389.62
398.595	348.62
398.82	360.62
399.044	349.62
399.268	351.62
399.492	361.62
399.717	400.62
399.941	398.62
400.165	425.62
400.389	452.62
400.613	411.62
400.837	389.62
401.062	373.62
401.286	366.62
401.51	372.62
401.734	374.62
401.958	380.62
402.182	376.62
402.406	380.62
402.63	387.62
402.854	374.62
403.078	360.62
403.302	368.62
403.526	361.62
403.75	387.62
403.974	381.62
404.198	357.62
404.422	390.62
404.645	370.62
404.869	375.62
405.093	416.62
405.317	454.62
405.541	457.62
405.765	406.62
405.988	401.62
406.212	417.62
406.436	459.62
406.66	413.62
406.883	440.62
407.107	443.62
407.331	461.62
407.555	518.62
407.778	494.62
408.002	467.62
408.226	437.62
408.449	427.62
408.673	412.62
408.896	439.62
409.12	475.62
409.344	461.62
409.567	415.62
409.791	380.62
410.014	400.62
410.238	386.62
410.461	387.62
410.685	393.62
410.908	382.62
411.132	442.62
411.355	447.62
411.578	449.62
411.802	402.62
412.025	399.62
412.249	377.62
412.472	397.62
412.695	426.62
412.919	422.62
413.142	394.62
413.365	396.62
413.589	370.62
413.812	403.62
414.035	370.62
414.258	347.62
414.482	372.62
414.705	384.62
414.928	353.62
415.151	350.62
415.374	358.62
415.597	355.62
415.821	348.62
416.044	368.62
416.267	380.62
416.49	363.62
416.713	363.62
416.936	361.62
417.159	350.62
417.382	383.62
417.605	360.62
417.828	367.62
418.051	376.62
418.274	374.62
418.497	364.62
418.72	374.62
418.943	365.62
419.166	374.62
419.389	377.62
419.611	375.62
419.834	370.62
420.057	385.62
420.28	400.62
420.503	371.62
420.726	403.62
420.948	394.62
421.171	421.62
421.394	446.62
421.617	390.62
421.839	385.62
422.062	402.62
422.285	408.62
422.507	470.62
422.73	506.62
422.953	502.62
423.175	441.62
423.398	416.62
423.621	398.62
423.843	430.62
424.066	419.62
424.288	414.62
424.511	440.62
424.733	490.62
424.956	541.62
425.178	529.62
425.401	531.62
425.623	547.62
425.846	465.62
426.068	443.62
426.291	427.62
426.513	436.62
426.735	453.62
426.958	477.62
427.18	536.62
427.402	635.62
427.625	676.62
427.847	636.62
428.069	525.62
428.292	469.62
428.514	434.62
428.736	410.62
428.958	430.62
429.181	391.62
429.403	422.62
429.625	418.62
429.847	427.62
430.069	467.62
430.292	495.62
430.514	432.62
430.736	407.62
430.958	380.62
431.18	390.62
431.402	378.62
431.624	371.62
431.846	373.62
432.068	370.62
432.29	359.62
432.512	356.62
432.734	378.62
432.956	378.62
433.178	388.62
433.4	402.62
433.622	388.62
433.844	374.62
434.066	371.62
434.287	368.62
434.509	381.62
434.731	367.62
434.953	360.62
435.175	396.62
435.397	402.62
435.618	413.62
435.84	471.62
436.062	543.62
436.284	612.62
436.505	508.62
436.727	440.62
436.949	419.62
437.17	415.62
437.392	384.62
437.614	413.62
437.835	447.62
438.057	514.62
438.278	597.62
438.5	573.62
438.721	649.62
438.943	628.62
439.165	492.62
439.386	468.62
439.608	441.62
439.829	438.62
440.05	453.62
440.272	517.62
440.493	470.62
440.715	449.62
440.936	407.62
441.158	396.62
441.379	398.62
441.6	420.62
441.822	434.62
442.043	456.62
442.264	523.62
442.486	577.62
442.707	481.62
442.928	452.62
443.149	450.62
443.371	478.62
443.592	505.62
443.813	571.62
444.034	622.62
444.255	506.62
444.476	460.62
444.698	438.62
444.919	441.62
445.14	518.62
445.361	481.62
445.582	492.62
445.803	503.62
446.024	602.62
446.245	592.62
446.466	539.62
446.687	481.62
446.908	453.62
447.129	397.62
447.35	399.62
447.571	402.62
447.792	392.62
448.013	430.62
448.234	420.62
448.455	448.62
448.675	562.62
448.896	608.62
449.117	556.62
449.338	529.62
449.559	594.62
449.779	667.62
450	554.62
450.221	448.62
450.442	398.62
450.662	407.62
450.883	408.62
451.104	407.62
451.324	419.62
451.545	372.62
451.766	393.62
451.986	376.62
452.207	360.62
452.428	376.62
452.648	356.62
452.869	354.62
453.089	353.62
453.31	363.62
453.53	346.62
453.751	357.62
453.971	369.62
454.192	389.62
454.412	367.62
454.633	368.62
454.853	378.62
455.073	332.62
455.294	362.62
455.514	425.62
455.734	426.62
455.955	373.62
456.175	346.62
456.395	341.62
456.616	331.62
456.836	328.62
457.056	335.62
457.276	336.62
457.497	339.62
457.717	329.62
457.937	351.62
458.157	346.62
458.377	355.62
458.598	356.62
458.818	407.62
459.038	477.62
459.258	498.62
459.478	424.62
459.698	380.62
459.918	366.62
460.138	374.62
460.358	356.62
460.578	361.62
460.798	359.62
461.018	357.62
461.238	361.62
461.458	360.62
461.678	335.62
461.898	376.62
462.118	359.62
462.338	374.62
462.558	351.62
462.777	364.62
462.997	376.62
463.217	382.62
463.437	361.62
463.657	376.62
463.876	376.62
464.096	382.62
464.316	380.62
464.536	394.62
464.755	380.62
464.975	401.62
465.195	453.62
465.414	498.62
465.634	450.62
465.854	400.62
466.073	383.62
466.293	365.62
466.512	362.62
466.732	353.62
466.951	345.62
467.171	373.62
467.391	363.62
467.61	368.62
467.829	368.62
468.049	345.62
468.268	365.62
468.488	349.62
468.707	350.62
468.927	360.62
469.146	334.62
469.365	360.62
469.585	350.62
469.804	343.62
470.023	360.62
470.243	363.62
470.462	372.62
470.681	394.62
470.901	360.62
471.12	372.62
471.339	357.62
471.558	352.62
471.777	377.62
471.997	352.62
472.216	359.62
472.435	376.62
472.654	374.62
472.873	359.62
473.092	359.62
473.311	352.62
473.53	384.62
473.749	379.62
473.968	428.62
474.187	489.62
474.406	516.62
474.625	429.62
474.844	364.62
475.063	376.62
475.282	370.62
475.501	372.62
475.72	368.62
475.939	377.62
476.158	384.62
476.377	370.62
476.596	370.62
476.814	381.62
477.033	370.62
477.252	382.62
477.471	384.62
477.69	398.62
477.908	395.62
478.127	385.62
478.346	394.62
478.564	403.62
478.783	394.62
479.002	400.62
479.22	402.62
479.439	406.62
479.658	444.62
479.876	433.62
480.095	417.62
480.313	469.62
480.532	442.62
480.751	445.62
480.969	462.62
481.188	490.62
481.406	500.62
481.624	444.62
481.843	452.62
482.061	422.62
482.28	437.62
482.498	438.62
482.717	426.62
482.935	427.62
483.153	432.62
483.372	440.62
483.59	441.62
483.808	426.62
484.027	434.62
484.245	429.62
484.463	456.62
484.681	435.62
484.9	461.62
485.118	452.62
485.336	460.62
485.554	442.62
485.772	427.62
485.99	438.62
486.209	436.62
486.427	434.62
486.645	440.62
486.863	460.62
487.081	483.62
487.299	465.62
487.517	458.62
487.735	463.62
487.953	481.62
488.171	480.62
488.389	461.62
488.607	458.62
488.825	456.62
489.043	453.62
489.261	484.62
489.479	492.62
489.696	471.62
489.914	473.62
490.132	473.62
490.35	493.62
490.568	503.62
490.786	509.62
491.003	499.62
491.221	533.62
491.439	525.62
491.657	522.62
491.874	532.62
492.092	540.62
492.31	524.62
492.527	537.62
492.745	542.62
492.963	534.62
493.18	550.62
493.398	524.62
493.615	568.62
493.833	580.62
494.05	526.62
494.268	546.62
494.485	548.62
494.703	541.62
494.92	539.62
495.138	573.62
495.355	547.62
495.573	574.62
495.79	564.62
496.008	565.62
496.225	546.62
496.442	538.62
496.66	562.62
496.877	564.62
497.094	551.62
497.312	576.62
497.529	546.62
497.746	570.62
497.963	580.62
498.181	590.62
498.398	594.62
498.615	586.62
498.832	600.62
499.049	589.62
499.267	607.62
499.484	625.62
499.701	643.62
499.918	660.62
500.135	666.62
500.352	690.62
500.569	679.62
500.786	688.62
501.003	670.62
501.22	683.62
501.437	669.62
501.654	653.62
501.871	675.62
502.088	633.62
