Data from 1980.PennyLincolnUp.Lamp.En5.5.200Scan.071819.P1_HRD10591_16-38-00-957.txt Node
Date: Thu Jul 18 16:38:00 EDT 2019
User: cochatt
Spectrometer: HR+D1059
Trigger mode: 1
Integration Time (sec): 1.000000E-1
Scans to average: 1
Electric dark correction enabled: true
Nonlinearity correction enabled: false
Boxcar width: 0
XAxis mode: Wavelengths
Number of Pixels in Spectrum: 2048
>>>>>Begin Spectral Data<<<<<
223.165	-12.56
223.4	-12.56
223.635	-12.56
223.869	-11.56
224.104	-20.56
224.338	-2.56
224.573	-27.56
224.808	-9.56
225.042	-13.56
225.277	-4.56
225.511	-10.56
225.746	2.44
225.98	4.44
226.215	7.44
226.449	26.44
226.683	8.44
226.918	24.44
227.152	39.44
227.387	37.44
227.621	13.44
227.856	27.44
228.09	51.44
228.324	43.44
228.559	51.44
228.793	54.44
229.027	99.44
229.262	108.44
229.496	125.44
229.73	130.44
229.964	160.44
230.199	144.44
230.433	115.44
230.667	120.44
230.901	110.44
231.136	119.44
231.37	107.44
231.604	115.44
231.838	118.44
232.072	120.44
232.306	115.44
232.541	112.44
232.775	105.44
233.009	120.44
233.243	121.44
233.477	115.44
233.711	120.44
233.945	128.44
234.179	118.44
234.413	114.44
234.647	124.44
234.881	107.44
235.115	109.44
235.349	111.44
235.583	132.44
235.817	119.44
236.051	119.44
236.285	125.44
236.519	118.44
236.753	130.44
236.987	140.44
237.221	197.44
237.455	253.44
237.689	198.44
237.922	154.44
238.156	131.44
238.39	143.44
238.624	108.44
238.858	129.44
239.091	127.44
239.325	134.44
239.559	132.44
239.793	127.44
240.027	139.44
240.26	145.44
240.494	165.44
240.728	157.44
240.961	147.44
241.195	143.44
241.429	143.44
241.662	142.44
241.896	135.44
242.13	123.44
242.363	134.44
242.597	133.44
242.83	140.44
243.064	143.44
243.298	137.44
243.531	150.44
243.765	135.44
243.998	146.44
244.232	148.44
244.465	136.44
244.699	149.44
244.932	146.44
245.166	141.44
245.399	138.44
245.633	130.44
245.866	150.44
246.099	148.44
246.333	155.44
246.566	162.44
246.8	158.44
247.033	141.44
247.266	169.44
247.5	152.44
247.733	178.44
247.966	180.44
248.2	170.44
248.433	169.44
248.666	172.44
248.899	196.44
249.133	213.44
249.366	233.44
249.599	220.44
249.832	184.44
250.066	173.44
250.299	175.44
250.532	192.44
250.765	209.44
250.998	254.44
251.231	241.44
251.465	217.44
251.698	195.44
251.931	195.44
252.164	194.44
252.397	208.44
252.63	208.44
252.863	216.44
253.096	214.44
253.329	253.44
253.562	232.44
253.795	240.44
254.028	222.44
254.261	225.44
254.494	253.44
254.727	254.44
254.96	296.44
255.193	286.44
255.426	272.44
255.659	262.44
255.892	254.44
256.124	232.44
256.357	260.44
256.59	225.44
256.823	219.44
257.056	233.44
257.289	211.44
257.521	226.44
257.754	221.44
257.987	221.44
258.22	211.44
258.452	221.44
258.685	209.44
258.918	201.44
259.151	213.44
259.383	213.44
259.616	232.44
259.849	208.44
260.081	231.44
260.314	234.44
260.547	265.44
260.779	252.44
261.012	241.44
261.244	243.44
261.477	250.44
261.71	223.44
261.942	226.44
262.175	240.44
262.407	243.44
262.64	225.44
262.872	230.44
263.105	207.44
263.337	211.44
263.57	216.44
263.802	212.44
264.035	209.44
264.267	221.44
264.499	212.44
264.732	209.44
264.964	210.44
265.197	213.44
265.429	211.44
265.661	210.44
265.894	205.44
266.126	202.44
266.358	212.44
266.591	220.44
266.823	214.44
267.055	226.44
267.287	222.44
267.52	224.44
267.752	231.44
267.984	240.44
268.216	225.44
268.448	227.44
268.681	223.44
268.913	240.44
269.145	270.44
269.377	274.44
269.609	285.44
269.841	269.44
270.073	271.44
270.306	296.44
270.538	306.44
270.77	311.44
271.002	315.44
271.234	305.44
271.466	304.44
271.698	315.44
271.93	333.44
272.162	327.44
272.394	340.44
272.626	327.44
272.858	306.44
273.09	296.44
273.322	268.44
273.553	260.44
273.785	270.44
274.017	261.44
274.249	275.44
274.481	249.44
274.713	260.44
274.945	265.44
275.176	268.44
275.408	270.44
275.64	250.44
275.872	263.44
276.104	259.44
276.335	270.44
276.567	266.44
276.799	285.44
277.031	309.44
277.262	329.44
277.494	320.44
277.726	293.44
277.957	268.44
278.189	279.44
278.421	264.44
278.652	278.44
278.884	269.44
279.115	262.44
279.347	246.44
279.579	264.44
279.81	276.44
280.042	248.44
280.273	257.44
280.505	260.44
280.736	257.44
280.968	259.44
281.199	250.44
281.431	257.44
281.662	264.44
281.894	243.44
282.125	254.44
282.356	282.44
282.588	309.44
282.819	316.44
283.051	274.44
283.282	253.44
283.513	276.44
283.745	241.44
283.976	258.44
284.207	288.44
284.439	278.44
284.67	260.44
284.901	263.44
285.132	264.44
285.364	257.44
285.595	266.44
285.826	257.44
286.057	268.44
286.288	264.44
286.52	280.44
286.751	257.44
286.982	256.44
287.213	264.44
287.444	261.44
287.675	264.44
287.906	274.44
288.138	283.44
288.369	284.44
288.6	289.44
288.831	296.44
289.062	292.44
289.293	280.44
289.524	252.44
289.755	268.44
289.986	257.44
290.217	270.44
290.448	276.44
290.679	264.44
290.91	290.44
291.141	269.44
291.371	283.44
291.602	266.44
291.833	262.44
292.064	261.44
292.295	260.44
292.526	269.44
292.757	268.44
292.987	260.44
293.218	266.44
293.449	273.44
293.68	278.44
293.91	261.44
294.141	262.44
294.372	274.44
294.603	265.44
294.833	272.44
295.064	272.44
295.295	271.44
295.525	272.44
295.756	284.44
295.987	292.44
296.217	314.44
296.448	331.44
296.679	279.44
296.909	273.44
297.14	274.44
297.37	277.44
297.601	287.44
297.831	280.44
298.062	284.44
298.292	270.44
298.523	297.44
298.753	274.44
298.984	274.44
299.214	276.44
299.445	296.44
299.675	295.44
299.905	301.44
300.136	297.44
300.366	295.44
300.597	282.44
300.827	278.44
301.057	299.44
301.288	317.44
301.518	317.44
301.748	291.44
301.979	304.44
302.209	306.44
302.439	300.44
302.669	296.44
302.9	307.44
303.13	285.44
303.36	294.44
303.59	317.44
303.82	326.44
304.051	321.44
304.281	296.44
304.511	304.44
304.741	310.44
304.971	286.44
305.201	281.44
305.431	289.44
305.661	279.44
305.891	314.44
306.121	312.44
306.352	301.44
306.582	324.44
306.812	306.44
307.042	306.44
307.272	306.44
307.502	332.44
307.731	307.44
307.961	315.44
308.191	332.44
308.421	322.44
308.651	310.44
308.881	326.44
309.111	338.44
309.341	316.44
309.571	333.44
309.8	370.44
310.03	363.44
310.26	366.44
310.49	358.44
310.72	379.44
310.949	372.44
311.179	404.44
311.409	362.44
311.639	349.44
311.868	365.44
312.098	361.44
312.328	373.44
312.557	388.44
312.787	405.44
313.017	392.44
313.246	390.44
313.476	363.44
313.706	360.44
313.935	361.44
314.165	386.44
314.394	383.44
314.624	392.44
314.853	384.44
315.083	353.44
315.312	357.44
315.542	345.44
315.771	359.44
316.001	339.44
316.23	344.44
316.46	344.44
316.689	341.44
316.919	352.44
317.148	373.44
317.377	366.44
317.607	380.44
317.836	388.44
318.065	354.44
318.295	379.44
318.524	362.44
318.753	346.44
318.983	362.44
319.212	349.44
319.441	368.44
319.67	392.44
319.9	381.44
320.129	370.44
320.358	365.44
320.587	358.44
320.816	372.44
321.046	388.44
321.275	387.44
321.504	379.44
321.733	397.44
321.962	391.44
322.191	414.44
322.42	409.44
322.649	443.44
322.878	463.44
323.108	477.44
323.337	490.44
323.566	525.44
323.795	555.44
324.024	599.44
324.253	765.44
324.482	1113.44
324.71	1731.44
324.939	2454.44
325.168	2192.44
325.397	1128.44
325.626	742.44
325.855	600.44
326.084	532.44
326.313	510.44
326.542	529.44
326.77	572.44
326.999	700.44
327.228	948.44
327.457	1494.44
327.686	1858.44
327.914	1271.44
328.143	826.44
328.372	686.44
328.6	651.44
328.829	626.44
329.058	627.44
329.287	619.44
329.515	599.44
329.744	520.44
329.972	536.44
330.201	551.44
330.43	591.44
330.658	631.44
330.887	673.44
331.115	651.44
331.344	564.44
331.572	510.44
331.801	499.44
332.03	494.44
332.258	457.44
332.486	461.44
332.715	440.44
332.943	436.44
333.172	455.44
333.4	433.44
333.629	461.44
333.857	449.44
334.085	472.44
334.314	493.44
334.542	519.44
334.771	541.44
334.999	462.44
335.227	451.44
335.455	430.44
335.684	432.44
335.912	418.44
336.14	392.44
336.369	404.44
336.597	414.44
336.825	430.44
337.053	419.44
337.281	381.44
337.51	404.44
337.738	395.44
337.966	410.44
338.194	438.44
338.422	425.44
338.65	404.44
338.878	388.44
339.106	401.44
339.334	402.44
339.562	405.44
339.79	391.44
340.018	399.44
340.246	398.44
340.474	410.44
340.702	394.44
340.93	398.44
341.158	400.44
341.386	404.44
341.614	428.44
341.842	409.44
342.07	397.44
342.298	395.44
342.526	378.44
342.754	378.44
342.981	363.44
343.209	380.44
343.437	388.44
343.665	381.44
343.893	382.44
344.12	396.44
344.348	387.44
344.576	405.44
344.804	402.44
345.031	418.44
345.259	444.44
345.487	436.44
345.714	405.44
345.942	408.44
346.17	388.44
346.397	391.44
346.625	390.44
346.853	401.44
347.08	400.44
347.308	387.44
347.535	410.44
347.763	404.44
347.99	412.44
348.218	424.44
348.445	418.44
348.673	407.44
348.9	384.44
349.128	394.44
349.355	380.44
349.583	386.44
349.81	398.44
350.037	365.44
350.265	384.44
350.492	388.44
350.72	381.44
350.947	394.44
351.174	390.44
351.402	402.44
351.629	394.44
351.856	397.44
352.083	428.44
352.311	420.44
352.538	442.44
352.765	420.44
352.992	428.44
353.22	409.44
353.447	395.44
353.674	395.44
353.901	380.44
354.128	378.44
354.355	346.44
354.583	380.44
354.81	358.44
355.037	374.44
355.264	346.44
355.491	358.44
355.718	338.44
355.945	339.44
356.172	370.44
356.399	355.44
356.626	344.44
356.853	353.44
357.08	343.44
357.307	363.44
357.534	339.44
357.761	385.44
357.988	371.44
358.215	361.44
358.441	364.44
358.668	372.44
358.895	378.44
359.122	371.44
359.349	392.44
359.576	402.44
359.802	412.44
360.029	459.44
360.256	461.44
360.483	446.44
360.709	413.44
360.936	394.44
361.163	399.44
361.39	404.44
361.616	408.44
361.843	376.44
362.07	399.44
362.296	392.44
362.523	372.44
362.749	388.44
362.976	402.44
363.203	386.44
363.429	385.44
363.656	384.44
363.882	365.44
364.109	378.44
364.335	366.44
364.562	374.44
364.788	381.44
365.015	368.44
365.241	394.44
365.468	375.44
365.694	386.44
365.92	382.44
366.147	383.44
366.373	386.44
366.599	361.44
366.826	359.44
367.052	363.44
367.278	370.44
367.505	376.44
367.731	369.44
367.957	371.44
368.184	388.44
368.41	363.44
368.636	399.44
368.862	390.44
369.089	374.44
369.315	357.44
369.541	364.44
369.767	357.44
369.993	363.44
370.219	364.44
370.445	353.44
370.672	371.44
370.898	369.44
371.124	347.44
371.35	353.44
371.576	355.44
371.802	368.44
372.028	363.44
372.254	363.44
372.48	355.44
372.706	370.44
372.932	354.44
373.158	364.44
373.384	356.44
373.61	354.44
373.835	350.44
374.061	340.44
374.287	373.44
374.513	363.44
374.739	361.44
374.965	354.44
375.191	362.44
375.416	365.44
375.642	353.44
375.868	354.44
376.094	349.44
376.319	370.44
376.545	374.44
376.771	356.44
376.997	370.44
377.222	358.44
377.448	344.44
377.674	352.44
377.899	342.44
378.125	357.44
378.35	364.44
378.576	357.44
378.802	352.44
379.027	361.44
379.253	379.44
379.478	372.44
379.704	350.44
379.929	355.44
380.155	356.44
380.38	358.44
380.606	342.44
380.831	353.44
381.057	360.44
381.282	355.44
381.507	364.44
381.733	369.44
381.958	347.44
382.184	343.44
382.409	348.44
382.634	376.44
382.86	348.44
383.085	356.44
383.31	366.44
383.535	379.44
383.761	390.44
383.986	363.44
384.211	370.44
384.436	374.44
384.662	365.44
384.887	378.44
385.112	368.44
385.337	380.44
385.562	385.44
385.787	384.44
386.013	394.44
386.238	404.44
386.463	373.44
386.688	388.44
386.913	382.44
387.138	374.44
387.363	374.44
387.588	373.44
387.813	369.44
388.038	360.44
388.263	379.44
388.488	380.44
388.713	394.44
388.938	383.44
389.163	376.44
389.387	386.44
389.612	368.44
389.837	382.44
390.062	392.44
390.287	388.44
390.512	392.44
390.736	365.44
390.961	374.44
391.186	376.44
391.411	386.44
391.636	376.44
391.86	366.44
392.085	388.44
392.31	378.44
392.534	381.44
392.759	396.44
392.984	372.44
393.208	380.44
393.433	397.44
393.658	357.44
393.882	387.44
394.107	374.44
394.331	386.44
394.556	388.44
394.78	380.44
395.005	385.44
395.229	384.44
395.454	389.44
395.678	388.44
395.903	412.44
396.127	416.44
396.352	437.44
396.576	410.44
396.801	374.44
397.025	377.44
397.249	401.44
397.474	396.44
397.698	400.44
397.922	409.44
398.147	432.44
398.371	427.44
398.595	407.44
398.82	415.44
399.044	428.44
399.268	417.44
399.492	450.44
399.717	465.44
399.941	490.44
400.165	538.44
400.389	538.44
400.613	504.44
400.837	436.44
401.062	446.44
401.286	452.44
401.51	426.44
401.734	422.44
401.958	450.44
402.182	432.44
402.406	472.44
402.63	445.44
402.854	404.44
403.078	421.44
403.302	450.44
403.526	457.44
403.75	450.44
403.974	437.44
404.198	432.44
404.422	454.44
404.645	440.44
404.869	450.44
405.093	461.44
405.317	532.44
405.541	552.44
405.765	510.44
405.988	487.44
406.212	519.44
406.436	515.44
406.66	522.44
406.883	497.44
407.107	538.44
407.331	549.44
407.555	622.44
407.778	634.44
408.002	561.44
408.226	516.44
408.449	515.44
408.673	507.44
408.896	518.44
409.12	582.44
409.344	534.44
409.567	472.44
409.791	472.44
410.014	461.44
410.238	452.44
410.461	462.44
410.685	458.44
410.908	455.44
411.132	502.44
411.355	545.44
411.578	523.44
411.802	476.44
412.025	457.44
412.249	481.44
412.472	487.44
412.695	527.44
412.919	518.44
413.142	488.44
413.365	448.44
413.589	435.44
413.812	434.44
414.035	432.44
414.258	437.44
414.482	432.44
414.705	409.44
414.928	436.44
415.151	425.44
415.374	408.44
415.597	432.44
415.821	434.44
416.044	441.44
416.267	438.44
416.49	441.44
416.713	418.44
416.936	438.44
417.159	418.44
417.382	420.44
417.605	444.44
417.828	448.44
418.051	446.44
418.274	475.44
418.497	444.44
418.72	434.44
418.943	422.44
419.166	434.44
419.389	447.44
419.611	440.44
419.834	444.44
420.057	448.44
420.28	466.44
420.503	478.44
420.726	454.44
420.948	490.44
421.171	516.44
421.394	530.44
421.617	478.44
421.839	472.44
422.062	451.44
422.285	488.44
422.507	526.44
422.73	595.44
422.953	595.44
423.175	493.44
423.398	496.44
423.621	487.44
423.843	510.44
424.066	504.44
424.288	510.44
424.511	520.44
424.733	568.44
424.956	645.44
425.178	626.44
425.401	626.44
425.623	637.44
425.846	552.44
426.068	522.44
426.291	513.44
426.513	491.44
426.735	530.44
426.958	574.44
427.18	636.44
427.402	772.44
427.625	830.44
427.847	774.44
428.069	690.44
428.292	603.44
428.514	526.44
428.736	513.44
428.958	489.44
429.181	477.44
429.403	466.44
429.625	497.44
429.847	530.44
430.069	581.44
430.292	612.44
430.514	505.44
430.736	480.44
430.958	472.44
431.18	449.44
431.402	466.44
431.624	417.44
431.846	427.44
432.068	423.44
432.29	442.44
432.512	444.44
432.734	425.44
432.956	468.44
433.178	442.44
433.4	454.44
433.622	454.44
433.844	438.44
434.066	428.44
434.287	415.44
434.509	442.44
434.731	430.44
434.953	454.44
435.175	457.44
435.397	500.44
435.618	501.44
435.84	546.44
436.062	632.44
436.284	696.44
436.505	613.44
436.727	520.44
436.949	490.44
437.17	493.44
437.392	480.44
437.614	529.44
437.835	552.44
438.057	626.44
438.278	746.44
438.5	722.44
438.721	818.44
438.943	776.44
439.165	609.44
439.386	566.44
439.608	559.44
439.829	543.44
440.05	556.44
440.272	599.44
440.493	593.44
440.715	537.44
440.936	492.44
441.158	503.44
441.379	496.44
441.6	515.44
441.822	526.44
442.043	534.44
442.264	650.44
442.486	700.44
442.707	562.44
442.928	541.44
443.149	548.44
443.371	582.44
443.592	604.44
443.813	678.44
444.034	776.44
444.255	621.44
444.476	544.44
444.698	524.44
444.919	502.44
445.14	614.44
445.361	562.44
445.582	584.44
445.803	620.44
446.024	775.44
446.245	742.44
446.466	694.44
446.687	571.44
446.908	546.44
447.129	511.44
447.35	488.44
447.571	493.44
447.792	470.44
448.013	483.44
448.234	509.44
448.455	575.44
448.675	654.44
448.896	767.44
449.117	668.44
449.338	626.44
449.559	727.44
449.779	832.44
450	691.44
450.221	562.44
450.442	516.44
450.662	471.44
450.883	496.44
451.104	503.44
451.324	513.44
451.545	489.44
451.766	447.44
451.986	437.44
452.207	425.44
452.428	451.44
452.648	439.44
452.869	420.44
453.089	438.44
453.31	452.44
453.53	454.44
453.751	442.44
453.971	451.44
454.192	469.44
454.412	454.44
454.633	433.44
454.853	420.44
455.073	418.44
455.294	469.44
455.514	530.44
455.734	530.44
455.955	432.44
456.175	441.44
456.395	414.44
456.616	396.44
456.836	394.44
457.056	380.44
457.276	378.44
457.497	399.44
457.717	417.44
457.937	414.44
458.157	422.44
458.377	408.44
458.598	458.44
458.818	532.44
459.038	608.44
459.258	612.44
459.478	513.44
459.698	452.44
459.918	445.44
460.138	452.44
460.358	432.44
460.578	415.44
460.798	422.44
461.018	416.44
461.238	404.44
461.458	409.44
461.678	402.44
461.898	443.44
462.118	420.44
462.338	443.44
462.558	452.44
462.777	434.44
462.997	443.44
463.217	458.44
463.437	462.44
463.657	443.44
463.876	444.44
464.096	462.44
464.316	448.44
464.536	465.44
464.755	485.44
464.975	494.44
465.195	537.44
465.414	618.44
465.634	568.44
465.854	492.44
466.073	468.44
466.293	458.44
466.512	426.44
466.732	414.44
466.951	425.44
467.171	420.44
467.391	440.44
467.61	448.44
467.829	437.44
468.049	444.44
468.268	442.44
468.488	437.44
468.707	437.44
468.927	423.44
469.146	422.44
469.365	432.44
469.585	403.44
469.804	431.44
470.023	460.44
470.243	444.44
470.462	457.44
470.681	445.44
470.901	474.44
471.12	438.44
471.339	429.44
471.558	450.44
471.777	449.44
471.997	428.44
472.216	446.44
472.435	490.44
472.654	482.44
472.873	436.44
473.092	461.44
473.311	443.44
473.53	445.44
473.749	450.44
473.968	512.44
474.187	619.44
474.406	617.44
474.625	546.44
474.844	465.44
475.063	448.44
475.282	436.44
475.501	448.44
475.72	446.44
475.939	456.44
476.158	460.44
476.377	468.44
476.596	476.44
476.814	461.44
477.033	465.44
477.252	479.44
477.471	446.44
477.69	481.44
477.908	485.44
478.127	473.44
478.346	460.44
478.564	479.44
478.783	468.44
479.002	484.44
479.22	493.44
479.439	507.44
479.658	518.44
479.876	524.44
480.095	550.44
480.313	554.44
480.532	563.44
480.751	552.44
480.969	537.44
481.188	585.44
481.406	664.44
481.624	594.44
481.843	554.44
482.061	534.44
482.28	534.44
482.498	526.44
482.717	518.44
482.935	511.44
483.153	534.44
483.372	512.44
483.59	512.44
483.808	505.44
484.027	517.44
484.245	544.44
484.463	525.44
484.681	531.44
484.9	516.44
485.118	544.44
485.336	531.44
485.554	536.44
485.772	530.44
485.99	524.44
486.209	536.44
486.427	557.44
486.645	573.44
486.863	570.44
487.081	579.44
487.299	571.44
487.517	573.44
487.735	585.44
487.953	543.44
488.171	577.44
488.389	567.44
488.607	535.44
488.825	561.44
489.043	556.44
489.261	562.44
489.479	569.44
489.696	562.44
489.914	602.44
490.132	588.44
490.35	599.44
490.568	609.44
490.786	589.44
491.003	622.44
491.221	616.44
491.439	629.44
491.657	638.44
491.874	650.44
492.092	669.44
492.31	661.44
492.527	663.44
492.745	656.44
492.963	658.44
493.18	693.44
493.398	666.44
493.615	677.44
493.833	673.44
494.05	663.44
494.268	681.44
494.485	656.44
494.703	686.44
494.92	693.44
495.138	676.44
495.355	669.44
495.573	674.44
495.79	666.44
496.008	694.44
496.225	671.44
496.442	670.44
496.66	685.44
496.877	676.44
497.094	669.44
497.312	680.44
497.529	688.44
497.746	678.44
497.963	743.44
498.181	718.44
498.398	720.44
498.615	715.44
498.832	729.44
499.049	723.44
499.267	723.44
499.484	760.44
499.701	772.44
499.918	765.44
500.135	801.44
500.352	829.44
500.569	832.44
500.786	840.44
501.003	811.44
501.22	814.44
501.437	787.44
501.654	791.44
501.871	816.44
