Data from 1980.PennyLincolnUp.Lamp.En5.5.200Scan.071819.P1_HRD10591_16-37-24-957.txt Node
Date: Thu Jul 18 16:37:24 EDT 2019
User: cochatt
Spectrometer: HR+D1059
Trigger mode: 1
Integration Time (sec): 1.000000E-1
Scans to average: 1
Electric dark correction enabled: true
Nonlinearity correction enabled: false
Boxcar width: 0
XAxis mode: Wavelengths
Number of Pixels in Spectrum: 2048
>>>>>Begin Spectral Data<<<<<
223.165	-17.06
223.4	-17.06
223.635	-17.06
223.869	-12.06
224.104	-11.06
224.338	-20.06
224.573	-26.06
224.808	-7.06
225.042	-10.06
225.277	-15.06
225.511	9.94
225.746	8.94
225.98	1.94
226.215	24.94
226.449	6.94
226.683	26.94
226.918	16.94
227.152	21.94
227.387	37.94
227.621	50.94
227.856	48.94
228.09	40.94
228.324	58.94
228.559	38.94
228.793	82.94
229.027	107.94
229.262	116.94
229.496	117.94
229.73	130.94
229.964	167.94
230.199	144.94
230.433	117.94
230.667	116.94
230.901	119.94
231.136	101.94
231.37	107.94
231.604	128.94
231.838	105.94
232.072	109.94
232.306	116.94
232.541	120.94
232.775	104.94
233.009	125.94
233.243	125.94
233.477	121.94
233.711	101.94
233.945	114.94
234.179	124.94
234.413	121.94
234.647	105.94
234.881	122.94
235.115	108.94
235.349	124.94
235.583	120.94
235.817	133.94
236.051	131.94
236.285	131.94
236.519	133.94
236.753	135.94
236.987	130.94
237.221	190.94
237.455	253.94
237.689	194.94
237.922	136.94
238.156	130.94
238.39	139.94
238.624	128.94
238.858	126.94
239.091	122.94
239.325	128.94
239.559	148.94
239.793	133.94
240.027	139.94
240.26	152.94
240.494	151.94
240.728	162.94
240.961	161.94
241.195	148.94
241.429	140.94
241.662	129.94
241.896	126.94
242.13	129.94
242.363	147.94
242.597	144.94
242.83	132.94
243.064	143.94
243.298	126.94
243.531	143.94
243.765	124.94
243.998	152.94
244.232	148.94
244.465	143.94
244.699	160.94
244.932	148.94
245.166	130.94
245.399	146.94
245.633	142.94
245.866	154.94
246.099	143.94
246.333	163.94
246.566	142.94
246.8	149.94
247.033	141.94
247.266	160.94
247.5	164.94
247.733	174.94
247.966	167.94
248.2	167.94
248.433	188.94
248.666	172.94
248.899	177.94
249.133	180.94
249.366	213.94
249.599	207.94
249.832	183.94
250.066	178.94
250.299	198.94
250.532	187.94
250.765	213.94
250.998	224.94
251.231	229.94
251.465	209.94
251.698	225.94
251.931	213.94
252.164	215.94
252.397	216.94
252.63	212.94
252.863	197.94
253.096	232.94
253.329	242.94
253.562	238.94
253.795	237.94
254.028	234.94
254.261	221.94
254.494	242.94
254.727	264.94
254.96	298.94
255.193	301.94
255.426	262.94
255.659	269.94
255.892	244.94
256.124	231.94
256.357	237.94
256.59	233.94
256.823	225.94
257.056	218.94
257.289	210.94
257.521	212.94
257.754	211.94
257.987	202.94
258.22	199.94
258.452	196.94
258.685	220.94
258.918	210.94
259.151	201.94
259.383	212.94
259.616	234.94
259.849	213.94
260.081	224.94
260.314	269.94
260.547	278.94
260.779	257.94
261.012	240.94
261.244	236.94
261.477	224.94
261.71	229.94
261.942	223.94
262.175	227.94
262.407	227.94
262.64	225.94
262.872	219.94
263.105	206.94
263.337	200.94
263.57	217.94
263.802	205.94
264.035	198.94
264.267	210.94
264.499	212.94
264.732	221.94
264.964	203.94
265.197	235.94
265.429	218.94
265.661	210.94
265.894	212.94
266.126	210.94
266.358	212.94
266.591	232.94
266.823	220.94
267.055	217.94
267.287	227.94
267.52	210.94
267.752	228.94
267.984	221.94
268.216	213.94
268.448	222.94
268.681	228.94
268.913	221.94
269.145	259.94
269.377	287.94
269.609	288.94
269.841	269.94
270.073	270.94
270.306	283.94
270.538	323.94
270.77	326.94
271.002	321.94
271.234	302.94
271.466	313.94
271.698	332.94
271.93	338.94
272.162	322.94
272.394	347.94
272.626	289.94
272.858	286.94
273.09	292.94
273.322	280.94
273.553	253.94
273.785	265.94
274.017	270.94
274.249	278.94
274.481	273.94
274.713	259.94
274.945	296.94
275.176	272.94
275.408	273.94
275.64	259.94
275.872	257.94
276.104	252.94
276.335	258.94
276.567	288.94
276.799	290.94
277.031	321.94
277.262	318.94
277.494	321.94
277.726	310.94
277.957	292.94
278.189	288.94
278.421	276.94
278.652	272.94
278.884	256.94
279.115	250.94
279.347	252.94
279.579	268.94
279.81	245.94
280.042	258.94
280.273	278.94
280.505	246.94
280.736	276.94
280.968	265.94
281.199	279.94
281.431	262.94
281.662	247.94
281.894	256.94
282.125	256.94
282.356	269.94
282.588	291.94
282.819	312.94
283.051	263.94
283.282	246.94
283.513	265.94
283.745	280.94
283.976	268.94
284.207	266.94
284.439	284.94
284.67	240.94
284.901	267.94
285.132	276.94
285.364	262.94
285.595	265.94
285.826	253.94
286.057	254.94
286.288	266.94
286.52	258.94
286.751	257.94
286.982	245.94
287.213	251.94
287.444	269.94
287.675	272.94
287.906	284.94
288.138	280.94
288.369	294.94
288.6	294.94
288.831	289.94
289.062	266.94
289.293	275.94
289.524	277.94
289.755	266.94
289.986	252.94
290.217	284.94
290.448	258.94
290.679	269.94
290.91	264.94
291.141	261.94
291.371	294.94
291.602	266.94
291.833	269.94
292.064	248.94
292.295	278.94
292.526	263.94
292.757	262.94
292.987	274.94
293.218	258.94
293.449	283.94
293.68	274.94
293.91	263.94
294.141	278.94
294.372	269.94
294.603	276.94
294.833	272.94
295.064	272.94
295.295	276.94
295.525	272.94
295.756	301.94
295.987	296.94
296.217	307.94
296.448	334.94
296.679	284.94
296.909	258.94
297.14	275.94
297.37	301.94
297.601	276.94
297.831	264.94
298.062	282.94
298.292	279.94
298.523	285.94
298.753	293.94
298.984	284.94
299.214	300.94
299.445	287.94
299.675	284.94
299.905	294.94
300.136	294.94
300.366	294.94
300.597	290.94
300.827	292.94
301.057	298.94
301.288	310.94
301.518	331.94
301.748	301.94
301.979	310.94
302.209	312.94
302.439	305.94
302.669	317.94
302.9	299.94
303.13	298.94
303.36	301.94
303.59	290.94
303.82	336.94
304.051	319.94
304.281	316.94
304.511	309.94
304.741	295.94
304.971	294.94
305.201	315.94
305.431	304.94
305.661	307.94
305.891	294.94
306.121	297.94
306.352	324.94
306.582	295.94
306.812	302.94
307.042	293.94
307.272	314.94
307.502	308.94
307.731	333.94
307.961	324.94
308.191	322.94
308.421	323.94
308.651	312.94
308.881	327.94
309.111	328.94
309.341	337.94
309.571	334.94
309.8	332.94
310.03	352.94
310.26	359.94
310.49	360.94
310.72	385.94
310.949	388.94
311.179	392.94
311.409	373.94
311.639	363.94
311.868	359.94
312.098	368.94
312.328	368.94
312.557	396.94
312.787	392.94
313.017	386.94
313.246	382.94
313.476	368.94
313.706	346.94
313.935	365.94
314.165	384.94
314.394	392.94
314.624	382.94
314.853	378.94
315.083	385.94
315.312	372.94
315.542	363.94
315.771	355.94
316.001	341.94
316.23	349.94
316.46	343.94
316.689	373.94
316.919	374.94
317.148	376.94
317.377	378.94
317.607	384.94
317.836	360.94
318.065	345.94
318.295	353.94
318.524	361.94
318.753	343.94
318.983	341.94
319.212	369.94
319.441	369.94
319.67	393.94
319.9	374.94
320.129	365.94
320.358	364.94
320.587	381.94
320.816	399.94
321.046	384.94
321.275	397.94
321.504	401.94
321.733	388.94
321.962	397.94
322.191	408.94
322.42	419.94
322.649	441.94
322.878	454.94
323.108	468.94
323.337	510.94
323.566	530.94
323.795	553.94
324.024	621.94
324.253	781.94
324.482	1065.94
324.71	1690.94
324.939	2460.94
325.168	2178.94
325.397	1132.94
325.626	744.94
325.855	596.94
326.084	524.94
326.313	524.94
326.542	521.94
326.77	580.94
326.999	671.94
327.228	964.94
327.457	1497.94
327.686	1859.94
327.914	1253.94
328.143	820.94
328.372	708.94
328.6	638.94
328.829	620.94
329.058	613.94
329.287	639.94
329.515	565.94
329.744	530.94
329.972	552.94
330.201	527.94
330.43	578.94
330.658	615.94
330.887	667.94
331.115	649.94
331.344	539.94
331.572	504.94
331.801	504.94
332.03	508.94
332.258	459.94
332.486	474.94
332.715	418.94
332.943	412.94
333.172	450.94
333.4	432.94
333.629	440.94
333.857	468.94
334.085	482.94
334.314	486.94
334.542	517.94
334.771	532.94
334.999	484.94
335.227	442.94
335.455	428.94
335.684	418.94
335.912	432.94
336.14	408.94
336.369	424.94
336.597	423.94
336.825	400.94
337.053	403.94
337.281	416.94
337.51	412.94
337.738	413.94
337.966	426.94
338.194	443.94
338.422	424.94
338.65	407.94
338.878	412.94
339.106	421.94
339.334	403.94
339.562	396.94
339.79	389.94
340.018	413.94
340.246	402.94
340.474	394.94
340.702	403.94
340.93	401.94
341.158	422.94
341.386	392.94
341.614	418.94
341.842	408.94
342.07	410.94
342.298	377.94
342.526	391.94
342.754	387.94
342.981	377.94
343.209	382.94
343.437	395.94
343.665	402.94
343.893	390.94
344.12	392.94
344.348	401.94
344.576	404.94
344.804	419.94
345.031	412.94
345.259	426.94
345.487	410.94
345.714	407.94
345.942	409.94
346.17	412.94
346.397	417.94
346.625	425.94
346.853	420.94
347.08	406.94
347.308	401.94
347.535	417.94
347.763	400.94
347.99	398.94
348.218	395.94
348.445	409.94
348.673	414.94
348.9	391.94
349.128	381.94
349.355	401.94
349.583	371.94
349.81	370.94
350.037	395.94
350.265	400.94
350.492	394.94
350.72	393.94
350.947	394.94
351.174	408.94
351.402	410.94
351.629	405.94
351.856	409.94
352.083	405.94
352.311	418.94
352.538	406.94
352.765	439.94
352.992	404.94
353.22	406.94
353.447	410.94
353.674	378.94
353.901	390.94
354.128	376.94
354.355	361.94
354.583	380.94
354.81	368.94
355.037	363.94
355.264	350.94
355.491	371.94
355.718	356.94
355.945	370.94
356.172	385.94
356.399	361.94
356.626	364.94
356.853	344.94
357.08	369.94
357.307	361.94
357.534	379.94
357.761	367.94
357.988	374.94
358.215	359.94
358.441	360.94
358.668	349.94
358.895	357.94
359.122	374.94
359.349	376.94
359.576	371.94
359.802	412.94
360.029	452.94
360.256	457.94
360.483	447.94
360.709	425.94
360.936	396.94
361.163	423.94
361.39	383.94
361.616	415.94
361.843	387.94
362.07	398.94
362.296	409.94
362.523	404.94
362.749	403.94
362.976	390.94
363.203	395.94
363.429	369.94
363.656	372.94
363.882	399.94
364.109	374.94
364.335	376.94
364.562	364.94
364.788	367.94
365.015	380.94
365.241	384.94
365.468	376.94
365.694	386.94
365.92	380.94
366.147	374.94
366.373	392.94
366.599	382.94
366.826	357.94
367.052	374.94
367.278	352.94
367.505	379.94
367.731	380.94
367.957	365.94
368.184	362.94
368.41	385.94
368.636	368.94
368.862	398.94
369.089	375.94
369.315	375.94
369.541	362.94
369.767	368.94
369.993	359.94
370.219	369.94
370.445	381.94
370.672	372.94
370.898	365.94
371.124	347.94
371.35	370.94
371.576	374.94
371.802	364.94
372.028	352.94
372.254	366.94
372.48	360.94
372.706	353.94
372.932	372.94
373.158	358.94
373.384	356.94
373.61	375.94
373.835	371.94
374.061	371.94
374.287	390.94
374.513	366.94
374.739	376.94
374.965	369.94
375.191	360.94
375.416	373.94
375.642	368.94
375.868	383.94
376.094	377.94
376.319	364.94
376.545	368.94
376.771	380.94
376.997	350.94
377.222	335.94
377.448	356.94
377.674	362.94
377.899	363.94
378.125	362.94
378.35	364.94
378.576	348.94
378.802	355.94
379.027	342.94
379.253	350.94
379.478	369.94
379.704	353.94
379.929	380.94
380.155	376.94
380.38	356.94
380.606	368.94
380.831	370.94
381.057	357.94
381.282	380.94
381.507	352.94
381.733	356.94
381.958	375.94
382.184	357.94
382.409	359.94
382.634	374.94
382.86	357.94
383.085	375.94
383.31	370.94
383.535	372.94
383.761	365.94
383.986	376.94
384.211	373.94
384.436	376.94
384.662	382.94
384.887	376.94
385.112	371.94
385.337	376.94
385.562	380.94
385.787	367.94
386.013	398.94
386.238	389.94
386.463	396.94
386.688	379.94
386.913	389.94
387.138	404.94
387.363	373.94
387.588	376.94
387.813	392.94
388.038	372.94
388.263	376.94
388.488	381.94
388.713	390.94
388.938	397.94
389.163	382.94
389.387	392.94
389.612	377.94
389.837	380.94
390.062	390.94
390.287	367.94
390.512	374.94
390.736	380.94
390.961	386.94
391.186	378.94
391.411	377.94
391.636	381.94
391.86	380.94
392.085	389.94
392.31	404.94
392.534	380.94
392.759	391.94
392.984	394.94
393.208	391.94
393.433	386.94
393.658	402.94
393.882	397.94
394.107	372.94
394.331	402.94
394.556	392.94
394.78	383.94
395.005	382.94
395.229	391.94
395.454	394.94
395.678	416.94
395.903	416.94
396.127	439.94
396.352	471.94
396.576	426.94
396.801	387.94
397.025	416.94
397.249	413.94
397.474	421.94
397.698	413.94
397.922	429.94
398.147	432.94
398.371	422.94
398.595	431.94
398.82	417.94
399.044	440.94
399.268	444.94
399.492	470.94
399.717	480.94
399.941	488.94
400.165	526.94
400.389	558.94
400.613	505.94
400.837	460.94
401.062	442.94
401.286	441.94
401.51	420.94
401.734	422.94
401.958	435.94
402.182	450.94
402.406	459.94
402.63	458.94
402.854	440.94
403.078	452.94
403.302	443.94
403.526	477.94
403.75	454.94
403.974	464.94
404.198	448.94
404.422	476.94
404.645	470.94
404.869	458.94
405.093	500.94
405.317	548.94
405.541	583.94
405.765	516.94
405.988	489.94
406.212	481.94
406.436	531.94
406.66	520.94
406.883	490.94
407.107	512.94
407.331	571.94
407.555	623.94
407.778	600.94
408.002	566.94
408.226	545.94
408.449	520.94
408.673	486.94
408.896	524.94
409.12	574.94
409.344	540.94
409.567	503.94
409.791	466.94
410.014	468.94
410.238	449.94
410.461	453.94
410.685	440.94
410.908	480.94
411.132	529.94
411.355	562.94
411.578	525.94
411.802	476.94
412.025	476.94
412.249	500.94
412.472	499.94
412.695	513.94
412.919	521.94
413.142	477.94
413.365	465.94
413.589	465.94
413.812	432.94
414.035	455.94
414.258	454.94
414.482	413.94
414.705	423.94
414.928	433.94
415.151	439.94
415.374	422.94
415.597	427.94
415.821	436.94
416.044	438.94
416.267	446.94
416.49	435.94
416.713	440.94
416.936	453.94
417.159	436.94
417.382	448.94
417.605	451.94
417.828	449.94
418.051	474.94
418.274	476.94
418.497	440.94
418.72	421.94
418.943	448.94
419.166	472.94
419.389	474.94
419.611	491.94
419.834	469.94
420.057	456.94
420.28	469.94
420.503	497.94
420.726	460.94
420.948	487.94
421.171	510.94
421.394	556.94
421.617	497.94
421.839	471.94
422.062	467.94
422.285	476.94
422.507	543.94
422.73	610.94
422.953	602.94
423.175	514.94
423.398	497.94
423.621	501.94
423.843	493.94
424.066	495.94
424.288	502.94
424.511	505.94
424.733	586.94
424.956	667.94
425.178	644.94
425.401	633.94
425.623	661.94
425.846	584.94
426.068	520.94
426.291	509.94
426.513	508.94
426.735	529.94
426.958	585.94
427.18	660.94
427.402	794.94
427.625	850.94
427.847	796.94
428.069	676.94
428.292	594.94
428.514	516.94
428.736	520.94
428.958	501.94
429.181	488.94
429.403	491.94
429.625	481.94
429.847	548.94
430.069	589.94
430.292	580.94
430.514	512.94
430.736	468.94
430.958	468.94
431.18	467.94
431.402	459.94
431.624	439.94
431.846	440.94
432.068	443.94
432.29	457.94
432.512	464.94
432.734	462.94
432.956	447.94
433.178	460.94
433.4	455.94
433.622	461.94
433.844	448.94
434.066	433.94
434.287	450.94
434.509	457.94
434.731	459.94
434.953	475.94
435.175	492.94
435.397	521.94
435.618	522.94
435.84	567.94
436.062	654.94
436.284	735.94
436.505	630.94
436.727	549.94
436.949	512.94
437.17	481.94
437.392	488.94
437.614	500.94
437.835	546.94
438.057	635.94
438.278	738.94
438.5	734.94
438.721	799.94
438.943	754.94
439.165	605.94
439.386	557.94
439.608	550.94
439.829	538.94
440.05	584.94
440.272	640.94
440.493	559.94
440.715	522.94
440.936	521.94
441.158	495.94
441.379	490.94
441.6	498.94
441.822	520.94
442.043	573.94
442.264	644.94
442.486	694.94
442.707	576.94
442.928	538.94
443.149	548.94
443.371	580.94
443.592	607.94
443.813	724.94
444.034	746.94
444.255	637.94
444.476	540.94
444.698	541.94
444.919	508.94
445.14	626.94
445.361	588.94
445.582	562.94
445.803	646.94
446.024	747.94
446.245	758.94
446.466	706.94
446.687	592.94
446.908	553.94
447.129	500.94
447.35	488.94
447.571	471.94
447.792	499.94
448.013	474.94
448.234	495.94
448.455	566.94
448.675	667.94
448.896	811.94
449.117	674.94
449.338	647.94
449.559	741.94
449.779	837.94
450	686.94
450.221	585.94
450.442	528.94
450.662	491.94
450.883	502.94
451.104	516.94
451.324	493.94
451.545	472.94
451.766	456.94
451.986	461.94
452.207	436.94
452.428	434.94
452.648	447.94
452.869	440.94
453.089	453.94
453.31	464.94
453.53	459.94
453.751	436.94
453.971	457.94
454.192	468.94
454.412	447.94
454.633	467.94
454.853	446.94
455.073	442.94
455.294	481.94
455.514	552.94
455.734	529.94
455.955	444.94
456.175	412.94
456.395	401.94
456.616	398.94
456.836	405.94
457.056	398.94
457.276	408.94
457.497	387.94
457.717	405.94
457.937	402.94
458.157	410.94
458.377	424.94
458.598	450.94
458.818	519.94
459.038	573.94
459.258	618.94
459.478	502.94
459.698	478.94
459.918	455.94
460.138	459.94
460.358	448.94
460.578	456.94
460.798	422.94
461.018	450.94
461.238	436.94
461.458	431.94
461.678	424.94
461.898	427.94
462.118	424.94
462.338	467.94
462.558	438.94
462.777	449.94
462.997	466.94
463.217	473.94
463.437	462.94
463.657	441.94
463.876	456.94
464.096	457.94
464.316	461.94
464.536	465.94
464.755	462.94
464.975	458.94
465.195	530.94
465.414	629.94
465.634	553.94
465.854	472.94
466.073	473.94
466.293	453.94
466.512	458.94
466.732	427.94
466.951	432.94
467.171	420.94
467.391	447.94
467.61	442.94
467.829	462.94
468.049	450.94
468.268	454.94
468.488	440.94
468.707	440.94
468.927	437.94
469.146	433.94
469.365	421.94
469.585	429.94
469.804	417.94
470.023	428.94
470.243	436.94
470.462	456.94
470.681	463.94
470.901	471.94
471.12	444.94
471.339	438.94
471.558	443.94
471.777	448.94
471.997	431.94
472.216	428.94
472.435	475.94
472.654	464.94
472.873	443.94
473.092	454.94
473.311	441.94
473.53	449.94
473.749	445.94
473.968	485.94
474.187	598.94
474.406	634.94
474.625	502.94
474.844	473.94
475.063	457.94
475.282	454.94
475.501	433.94
475.72	450.94
475.939	429.94
476.158	462.94
476.377	467.94
476.596	461.94
476.814	454.94
477.033	484.94
477.252	456.94
477.471	470.94
477.69	479.94
477.908	470.94
478.127	479.94
478.346	484.94
478.564	499.94
478.783	490.94
479.002	487.94
479.22	496.94
479.439	496.94
479.658	537.94
479.876	546.94
480.095	549.94
480.313	589.94
480.532	562.94
480.751	529.94
480.969	554.94
481.188	625.94
481.406	680.94
481.624	570.94
481.843	568.94
482.061	541.94
482.28	551.94
482.498	536.94
482.717	519.94
482.935	498.94
483.153	536.94
483.372	528.94
483.59	536.94
483.808	518.94
484.027	545.94
484.245	537.94
484.463	536.94
484.681	544.94
484.9	517.94
485.118	524.94
485.336	545.94
485.554	548.94
485.772	540.94
485.99	544.94
486.209	526.94
486.427	563.94
486.645	571.94
486.863	585.94
487.081	594.94
487.299	584.94
487.517	582.94
487.735	572.94
487.953	584.94
488.171	558.94
488.389	580.94
488.607	588.94
488.825	588.94
489.043	569.94
489.261	574.94
489.479	572.94
489.696	555.94
489.914	588.94
490.132	616.94
490.35	592.94
490.568	595.94
490.786	621.94
491.003	620.94
491.221	630.94
491.439	638.94
491.657	648.94
491.874	677.94
492.092	652.94
492.31	645.94
492.527	674.94
492.745	664.94
492.963	674.94
493.18	673.94
493.398	678.94
493.615	691.94
493.833	666.94
494.05	652.94
494.268	672.94
494.485	655.94
494.703	677.94
494.92	691.94
495.138	700.94
495.355	682.94
495.573	708.94
495.79	681.94
496.008	673.94
496.225	677.94
496.442	695.94
496.66	675.94
496.877	678.94
497.094	684.94
497.312	713.94
497.529	721.94
497.746	701.94
497.963	702.94
498.181	722.94
498.398	708.94
498.615	723.94
498.832	723.94
499.049	736.94
499.267	747.94
499.484	746.94
499.701	764.94
499.918	778.94
500.135	804.94
500.352	849.94
500.569	830.94
500.786	854.94
501.003	814.94
501.22	811.94
501.437	845.94
501.654	839.94
501.871	818.94
