Data from 1980.PennyLincolnUp.Lamp.En5.5.200Scan.071819.P1_HRD10591_16-36-28-957.txt Node
Date: Thu Jul 18 16:36:28 EDT 2019
User: cochatt
Spectrometer: HR+D1059
Trigger mode: 1
Integration Time (sec): 1.000000E-1
Scans to average: 1
Electric dark correction enabled: true
Nonlinearity correction enabled: false
Boxcar width: 0
XAxis mode: Wavelengths
Number of Pixels in Spectrum: 2048
>>>>>Begin Spectral Data<<<<<
223.165	-16.31
223.4	-16.31
223.635	-16.31
223.869	-12.31
224.104	-21.31
224.338	-12.31
224.573	-10.31
224.808	-4.31
225.042	-9.31
225.277	-1.31
225.511	9.69
225.746	-1.31
225.98	6.69
226.215	13.69
226.449	15.69
226.683	6.69
226.918	17.69
227.152	18.69
227.387	38.69
227.621	44.69
227.856	46.69
228.09	40.69
228.324	48.69
228.559	53.69
228.793	82.69
229.027	86.69
229.262	97.69
229.496	103.69
229.73	108.69
229.964	142.69
230.199	131.69
230.433	122.69
230.667	106.69
230.901	104.69
231.136	102.69
231.37	98.69
231.604	98.69
231.838	107.69
232.072	108.69
232.306	99.69
232.541	122.69
232.775	110.69
233.009	103.69
233.243	117.69
233.477	97.69
233.711	125.69
233.945	115.69
234.179	119.69
234.413	99.69
234.647	104.69
234.881	109.69
235.115	107.69
235.349	117.69
235.583	120.69
235.817	117.69
236.051	135.69
236.285	106.69
236.519	116.69
236.753	133.69
236.987	124.69
237.221	176.69
237.455	222.69
237.689	169.69
237.922	144.69
238.156	113.69
238.39	115.69
238.624	127.69
238.858	108.69
239.091	127.69
239.325	121.69
239.559	109.69
239.793	113.69
240.027	107.69
240.26	134.69
240.494	133.69
240.728	143.69
240.961	133.69
241.195	124.69
241.429	125.69
241.662	137.69
241.896	127.69
242.13	134.69
242.363	106.69
242.597	135.69
242.83	132.69
243.064	129.69
243.298	132.69
243.531	143.69
243.765	126.69
243.998	127.69
244.232	123.69
244.465	134.69
244.699	126.69
244.932	145.69
245.166	134.69
245.399	131.69
245.633	133.69
245.866	141.69
246.099	120.69
246.333	133.69
246.566	143.69
246.8	154.69
247.033	129.69
247.266	146.69
247.5	134.69
247.733	153.69
247.966	153.69
248.2	168.69
248.433	167.69
248.666	158.69
248.899	163.69
249.133	177.69
249.366	199.69
249.599	178.69
249.832	178.69
250.066	170.69
250.299	179.69
250.532	175.69
250.765	187.69
250.998	196.69
251.231	195.69
251.465	196.69
251.698	194.69
251.931	187.69
252.164	183.69
252.397	190.69
252.63	193.69
252.863	184.69
253.096	189.69
253.329	227.69
253.562	201.69
253.795	214.69
254.028	207.69
254.261	218.69
254.494	211.69
254.727	237.69
254.96	235.69
255.193	257.69
255.426	226.69
255.659	214.69
255.892	210.69
256.124	198.69
256.357	209.69
256.59	209.69
256.823	188.69
257.056	195.69
257.289	181.69
257.521	197.69
257.754	186.69
257.987	183.69
258.22	189.69
258.452	185.69
258.685	201.69
258.918	193.69
259.151	190.69
259.383	182.69
259.616	203.69
259.849	201.69
260.081	217.69
260.314	224.69
260.547	218.69
260.779	208.69
261.012	213.69
261.244	210.69
261.477	211.69
261.71	207.69
261.942	204.69
262.175	213.69
262.407	213.69
262.64	194.69
262.872	189.69
263.105	185.69
263.337	204.69
263.57	181.69
263.802	172.69
264.035	197.69
264.267	195.69
264.499	188.69
264.732	185.69
264.964	211.69
265.197	187.69
265.429	190.69
265.661	163.69
265.894	178.69
266.126	174.69
266.358	204.69
266.591	179.69
266.823	198.69
267.055	198.69
267.287	193.69
267.52	190.69
267.752	197.69
267.984	197.69
268.216	208.69
268.448	209.69
268.681	222.69
268.913	218.69
269.145	214.69
269.377	238.69
269.609	235.69
269.841	239.69
270.073	238.69
270.306	255.69
270.538	278.69
270.77	264.69
271.002	262.69
271.234	259.69
271.466	248.69
271.698	269.69
271.93	285.69
272.162	271.69
272.394	285.69
272.626	271.69
272.858	252.69
273.09	248.69
273.322	236.69
273.553	212.69
273.785	237.69
274.017	232.69
274.249	212.69
274.481	222.69
274.713	225.69
274.945	228.69
275.176	223.69
275.408	216.69
275.64	221.69
275.872	232.69
276.104	220.69
276.335	232.69
276.567	246.69
276.799	229.69
277.031	267.69
277.262	265.69
277.494	266.69
277.726	267.69
277.957	258.69
278.189	236.69
278.421	241.69
278.652	249.69
278.884	219.69
279.115	218.69
279.347	235.69
279.579	230.69
279.81	226.69
280.042	232.69
280.273	209.69
280.505	221.69
280.736	220.69
280.968	228.69
281.199	233.69
281.431	219.69
281.662	217.69
281.894	222.69
282.125	219.69
282.356	225.69
282.588	250.69
282.819	263.69
283.051	240.69
283.282	235.69
283.513	235.69
283.745	246.69
283.976	232.69
284.207	229.69
284.439	236.69
284.67	230.69
284.901	230.69
285.132	241.69
285.364	229.69
285.595	232.69
285.826	227.69
286.057	236.69
286.288	244.69
286.52	229.69
286.751	259.69
286.982	232.69
287.213	238.69
287.444	230.69
287.675	244.69
287.906	263.69
288.138	258.69
288.369	232.69
288.6	255.69
288.831	250.69
289.062	242.69
289.293	241.69
289.524	240.69
289.755	224.69
289.986	245.69
290.217	224.69
290.448	229.69
290.679	231.69
290.91	226.69
291.141	228.69
291.371	252.69
291.602	255.69
291.833	233.69
292.064	251.69
292.295	223.69
292.526	233.69
292.757	244.69
292.987	237.69
293.218	230.69
293.449	244.69
293.68	230.69
293.91	238.69
294.141	223.69
294.372	247.69
294.603	258.69
294.833	245.69
295.064	235.69
295.295	232.69
295.525	239.69
295.756	239.69
295.987	249.69
296.217	257.69
296.448	269.69
296.679	267.69
296.909	263.69
297.14	277.69
297.37	259.69
297.601	239.69
297.831	242.69
298.062	254.69
298.292	243.69
298.523	253.69
298.753	248.69
298.984	244.69
299.214	268.69
299.445	260.69
299.675	250.69
299.905	248.69
300.136	241.69
300.366	236.69
300.597	262.69
300.827	246.69
301.057	268.69
301.288	268.69
301.518	258.69
301.748	262.69
301.979	257.69
302.209	271.69
302.439	263.69
302.669	277.69
302.9	268.69
303.13	280.69
303.36	259.69
303.59	281.69
303.82	282.69
304.051	279.69
304.281	267.69
304.511	260.69
304.741	258.69
304.971	259.69
305.201	245.69
305.431	275.69
305.661	278.69
305.891	268.69
306.121	278.69
306.352	261.69
306.582	265.69
306.812	260.69
307.042	263.69
307.272	254.69
307.502	281.69
307.731	267.69
307.961	256.69
308.191	270.69
308.421	263.69
308.651	273.69
308.881	269.69
309.111	286.69
309.341	283.69
309.571	287.69
309.8	292.69
310.03	298.69
310.26	314.69
310.49	311.69
310.72	295.69
310.949	315.69
311.179	348.69
311.409	332.69
311.639	308.69
311.868	312.69
312.098	300.69
312.328	326.69
312.557	309.69
312.787	350.69
313.017	349.69
313.246	325.69
313.476	309.69
313.706	296.69
313.935	300.69
314.165	323.69
314.394	326.69
314.624	316.69
314.853	318.69
315.083	305.69
315.312	309.69
315.542	317.69
315.771	298.69
316.001	289.69
316.23	305.69
316.46	296.69
316.689	307.69
316.919	338.69
317.148	321.69
317.377	321.69
317.607	311.69
317.836	314.69
318.065	313.69
318.295	297.69
318.524	310.69
318.753	306.69
318.983	303.69
319.212	311.69
319.441	294.69
319.67	313.69
319.9	286.69
320.129	299.69
320.358	323.69
320.587	317.69
320.816	324.69
321.046	345.69
321.275	321.69
321.504	325.69
321.733	333.69
321.962	334.69
322.191	355.69
322.42	341.69
322.649	367.69
322.878	373.69
323.108	383.69
323.337	396.69
323.566	415.69
323.795	437.69
324.024	487.69
324.253	596.69
324.482	851.69
324.71	1256.69
324.939	1837.69
325.168	1608.69
325.397	865.69
325.626	570.69
325.855	471.69
326.084	453.69
326.313	420.69
326.542	429.69
326.77	468.69
326.999	555.69
327.228	720.69
327.457	1113.69
327.686	1393.69
327.914	956.69
328.143	617.69
328.372	535.69
328.6	472.69
328.829	488.69
329.058	492.69
329.287	480.69
329.515	438.69
329.744	427.69
329.972	404.69
330.201	439.69
330.43	454.69
330.658	491.69
330.887	515.69
331.115	525.69
331.344	452.69
331.572	407.69
331.801	399.69
332.03	414.69
332.258	387.69
332.486	374.69
332.715	369.69
332.943	361.69
333.172	364.69
333.4	378.69
333.629	372.69
333.857	385.69
334.085	379.69
334.314	381.69
334.542	400.69
334.771	422.69
334.999	393.69
335.227	387.69
335.455	360.69
335.684	365.69
335.912	365.69
336.14	354.69
336.369	350.69
336.597	353.69
336.825	376.69
337.053	354.69
337.281	349.69
337.51	361.69
337.738	350.69
337.966	351.69
338.194	358.69
338.422	350.69
338.65	352.69
338.878	356.69
339.106	345.69
339.334	333.69
339.562	341.69
339.79	346.69
340.018	331.69
340.246	349.69
340.474	343.69
340.702	357.69
340.93	332.69
341.158	352.69
341.386	334.69
341.614	362.69
341.842	346.69
342.07	351.69
342.298	333.69
342.526	342.69
342.754	330.69
342.981	330.69
343.209	340.69
343.437	336.69
343.665	341.69
343.893	353.69
344.12	350.69
344.348	365.69
344.576	350.69
344.804	385.69
345.031	377.69
345.259	364.69
345.487	362.69
345.714	351.69
345.942	324.69
346.17	323.69
346.397	353.69
346.625	325.69
346.853	322.69
347.08	339.69
347.308	335.69
347.535	333.69
347.763	346.69
347.99	340.69
348.218	351.69
348.445	363.69
348.673	349.69
348.9	343.69
349.128	341.69
349.355	331.69
349.583	338.69
349.81	317.69
350.037	309.69
350.265	313.69
350.492	333.69
350.72	339.69
350.947	323.69
351.174	334.69
351.402	338.69
351.629	353.69
351.856	354.69
352.083	346.69
352.311	355.69
352.538	355.69
352.765	352.69
352.992	336.69
353.22	342.69
353.447	325.69
353.674	326.69
353.901	315.69
354.128	295.69
354.355	333.69
354.583	325.69
354.81	308.69
355.037	323.69
355.264	310.69
355.491	322.69
355.718	310.69
355.945	305.69
356.172	305.69
356.399	303.69
356.626	316.69
356.853	317.69
357.08	317.69
357.307	322.69
357.534	317.69
357.761	302.69
357.988	316.69
358.215	309.69
358.441	318.69
358.668	310.69
358.895	333.69
359.122	300.69
359.349	344.69
359.576	345.69
359.802	351.69
360.029	414.69
360.256	405.69
360.483	358.69
360.709	354.69
360.936	332.69
361.163	346.69
361.39	365.69
361.616	343.69
361.843	340.69
362.07	324.69
362.296	356.69
362.523	333.69
362.749	341.69
362.976	347.69
363.203	337.69
363.429	322.69
363.656	316.69
363.882	331.69
364.109	315.69
364.335	308.69
364.562	316.69
364.788	303.69
365.015	313.69
365.241	322.69
365.468	311.69
365.694	311.69
365.92	333.69
366.147	319.69
366.373	306.69
366.599	324.69
366.826	330.69
367.052	323.69
367.278	330.69
367.505	332.69
367.731	323.69
367.957	322.69
368.184	323.69
368.41	332.69
368.636	350.69
368.862	371.69
369.089	364.69
369.315	335.69
369.541	339.69
369.767	328.69
369.993	342.69
370.219	342.69
370.445	319.69
370.672	319.69
370.898	324.69
371.124	344.69
371.35	335.69
371.576	331.69
371.802	336.69
372.028	331.69
372.254	319.69
372.48	319.69
372.706	314.69
372.932	324.69
373.158	323.69
373.384	339.69
373.61	338.69
373.835	341.69
374.061	334.69
374.287	353.69
374.513	324.69
374.739	331.69
374.965	326.69
375.191	322.69
375.416	342.69
375.642	330.69
375.868	321.69
376.094	330.69
376.319	333.69
376.545	331.69
376.771	326.69
376.997	307.69
377.222	334.69
377.448	318.69
377.674	325.69
377.899	325.69
378.125	318.69
378.35	324.69
378.576	305.69
378.802	330.69
379.027	316.69
379.253	316.69
379.478	333.69
379.704	334.69
379.929	343.69
380.155	342.69
380.38	337.69
380.606	345.69
380.831	329.69
381.057	342.69
381.282	316.69
381.507	327.69
381.733	343.69
381.958	343.69
382.184	333.69
382.409	335.69
382.634	344.69
382.86	329.69
383.085	326.69
383.31	332.69
383.535	327.69
383.761	332.69
383.986	350.69
384.211	334.69
384.436	325.69
384.662	349.69
384.887	327.69
385.112	347.69
385.337	335.69
385.562	358.69
385.787	343.69
386.013	366.69
386.238	333.69
386.463	357.69
386.688	338.69
386.913	348.69
387.138	340.69
387.363	374.69
387.588	346.69
387.813	332.69
388.038	348.69
388.263	343.69
388.488	347.69
388.713	360.69
388.938	342.69
389.163	340.69
389.387	338.69
389.612	335.69
389.837	365.69
390.062	314.69
390.287	317.69
390.512	348.69
390.736	353.69
390.961	341.69
391.186	351.69
391.411	356.69
391.636	340.69
391.86	350.69
392.085	354.69
392.31	354.69
392.534	347.69
392.759	343.69
392.984	356.69
393.208	347.69
393.433	358.69
393.658	366.69
393.882	350.69
394.107	321.69
394.331	337.69
394.556	341.69
394.78	326.69
395.005	348.69
395.229	341.69
395.454	349.69
395.678	349.69
395.903	383.69
396.127	361.69
396.352	385.69
396.576	357.69
396.801	387.69
397.025	382.69
397.249	352.69
397.474	349.69
397.698	353.69
397.922	374.69
398.147	387.69
398.371	380.69
398.595	384.69
398.82	401.69
399.044	375.69
399.268	396.69
399.492	409.69
399.717	437.69
399.941	469.69
400.165	465.69
400.389	479.69
400.613	434.69
400.837	419.69
401.062	389.69
401.286	392.69
401.51	409.69
401.734	392.69
401.958	408.69
402.182	402.69
402.406	409.69
402.63	394.69
402.854	395.69
403.078	380.69
403.302	393.69
403.526	413.69
403.75	406.69
403.974	393.69
404.198	391.69
404.422	419.69
404.645	405.69
404.869	429.69
405.093	420.69
405.317	468.69
405.541	482.69
405.765	443.69
405.988	433.69
406.212	436.69
406.436	454.69
406.66	469.69
406.883	453.69
407.107	434.69
407.331	496.69
407.555	540.69
407.778	532.69
408.002	492.69
408.226	447.69
408.449	451.69
408.673	463.69
408.896	462.69
409.12	507.69
409.344	487.69
409.567	434.69
409.791	449.69
410.014	408.69
410.238	413.69
410.461	414.69
410.685	406.69
410.908	442.69
411.132	471.69
411.355	486.69
411.578	445.69
411.802	400.69
412.025	420.69
412.249	425.69
412.472	401.69
412.695	433.69
412.919	438.69
413.142	443.69
413.365	403.69
413.589	398.69
413.812	395.69
414.035	378.69
414.258	391.69
414.482	358.69
414.705	393.69
414.928	381.69
415.151	370.69
415.374	396.69
415.597	358.69
415.821	383.69
416.044	385.69
416.267	388.69
416.49	386.69
416.713	382.69
416.936	383.69
417.159	379.69
417.382	393.69
417.605	390.69
417.828	399.69
418.051	388.69
418.274	411.69
418.497	395.69
418.72	410.69
418.943	377.69
419.166	390.69
419.389	415.69
419.611	426.69
419.834	408.69
420.057	395.69
420.28	410.69
420.503	420.69
420.726	404.69
420.948	404.69
421.171	450.69
421.394	484.69
421.617	451.69
421.839	421.69
422.062	426.69
422.285	413.69
422.507	473.69
422.73	557.69
422.953	509.69
423.175	448.69
423.398	427.69
423.621	428.69
423.843	460.69
424.066	444.69
424.288	446.69
424.511	474.69
424.733	533.69
424.956	574.69
425.178	558.69
425.401	545.69
425.623	583.69
425.846	503.69
426.068	450.69
426.291	446.69
426.513	444.69
426.735	470.69
426.958	470.69
427.18	555.69
427.402	675.69
427.625	691.69
427.847	643.69
428.069	562.69
428.292	490.69
428.514	461.69
428.736	426.69
428.958	442.69
429.181	438.69
429.403	418.69
429.625	430.69
429.847	454.69
430.069	490.69
430.292	495.69
430.514	438.69
430.736	406.69
430.958	405.69
431.18	379.69
431.402	395.69
431.624	398.69
431.846	407.69
432.068	403.69
432.29	391.69
432.512	371.69
432.734	402.69
432.956	407.69
433.178	395.69
433.4	412.69
433.622	405.69
433.844	395.69
434.066	397.69
434.287	391.69
434.509	391.69
434.731	421.69
434.953	410.69
435.175	414.69
435.397	437.69
435.618	460.69
435.84	504.69
436.062	589.69
436.284	614.69
436.505	528.69
436.727	477.69
436.949	440.69
437.17	430.69
437.392	423.69
437.614	457.69
437.835	477.69
438.057	563.69
438.278	625.69
438.5	629.69
438.721	683.69
438.943	648.69
439.165	533.69
439.386	469.69
439.608	450.69
439.829	465.69
440.05	509.69
440.272	527.69
440.493	509.69
440.715	460.69
440.936	458.69
441.158	433.69
441.379	414.69
441.6	446.69
441.822	449.69
442.043	489.69
442.264	551.69
442.486	589.69
442.707	504.69
442.928	462.69
443.149	463.69
443.371	492.69
443.592	517.69
443.813	591.69
444.034	655.69
444.255	541.69
444.476	473.69
444.698	480.69
444.919	461.69
445.14	530.69
445.361	493.69
445.582	505.69
445.803	547.69
446.024	625.69
446.245	630.69
446.466	572.69
446.687	484.69
446.908	461.69
447.129	446.69
447.35	441.69
447.571	426.69
447.792	417.69
448.013	427.69
448.234	425.69
448.455	479.69
448.675	581.69
448.896	677.69
449.117	580.69
449.338	553.69
449.559	637.69
449.779	708.69
450	581.69
450.221	456.69
450.442	416.69
450.662	419.69
450.883	427.69
451.104	438.69
451.324	425.69
451.545	413.69
451.766	389.69
451.986	369.69
452.207	372.69
452.428	378.69
452.648	376.69
452.869	369.69
453.089	380.69
453.31	398.69
453.53	377.69
453.751	401.69
453.971	372.69
454.192	392.69
454.412	383.69
454.633	383.69
454.853	377.69
455.073	381.69
455.294	405.69
455.514	450.69
455.734	439.69
455.955	389.69
456.175	394.69
456.395	361.69
456.616	370.69
456.836	365.69
457.056	363.69
457.276	353.69
457.497	354.69
457.717	356.69
457.937	364.69
458.157	376.69
458.377	348.69
458.598	378.69
458.818	447.69
459.038	469.69
459.258	508.69
459.478	435.69
459.698	403.69
459.918	388.69
460.138	385.69
460.358	377.69
460.578	365.69
460.798	375.69
461.018	385.69
461.238	402.69
461.458	387.69
461.678	395.69
461.898	415.69
462.118	394.69
462.338	380.69
462.558	392.69
462.777	405.69
462.997	405.69
463.217	421.69
463.437	420.69
463.657	419.69
463.876	411.69
464.096	407.69
464.316	407.69
464.536	422.69
464.755	429.69
464.975	432.69
465.195	469.69
465.414	519.69
465.634	478.69
465.854	435.69
466.073	405.69
466.293	412.69
466.512	389.69
466.732	379.69
466.951	381.69
467.171	379.69
467.391	382.69
467.61	380.69
467.829	393.69
468.049	403.69
468.268	398.69
468.488	389.69
468.707	373.69
468.927	377.69
469.146	360.69
469.365	372.69
469.585	353.69
469.804	375.69
470.023	401.69
470.243	402.69
470.462	389.69
470.681	399.69
470.901	393.69
471.12	392.69
471.339	381.69
471.558	398.69
471.777	392.69
471.997	382.69
472.216	396.69
472.435	420.69
472.654	380.69
472.873	399.69
473.092	379.69
473.311	377.69
473.53	402.69
473.749	397.69
473.968	452.69
474.187	521.69
474.406	525.69
474.625	437.69
474.844	399.69
475.063	387.69
475.282	381.69
475.501	400.69
475.72	392.69
475.939	406.69
476.158	413.69
476.377	418.69
476.596	408.69
476.814	396.69
477.033	414.69
477.252	407.69
477.471	407.69
477.69	427.69
477.908	410.69
478.127	428.69
478.346	420.69
478.564	425.69
478.783	425.69
479.002	438.69
479.22	431.69
479.439	421.69
479.658	449.69
479.876	466.69
480.095	461.69
480.313	479.69
480.532	474.69
480.751	464.69
480.969	474.69
481.188	512.69
481.406	537.69
481.624	488.69
481.843	455.69
482.061	458.69
482.28	469.69
482.498	454.69
482.717	449.69
482.935	465.69
483.153	467.69
483.372	462.69
483.59	445.69
483.808	440.69
484.027	454.69
484.245	444.69
484.463	469.69
484.681	455.69
484.9	462.69
485.118	469.69
485.336	455.69
485.554	467.69
485.772	476.69
485.99	461.69
486.209	471.69
486.427	479.69
486.645	467.69
486.863	497.69
487.081	499.69
487.299	490.69
487.517	473.69
487.735	490.69
487.953	482.69
488.171	486.69
488.389	497.69
488.607	491.69
488.825	524.69
489.043	514.69
489.261	507.69
489.479	489.69
489.696	517.69
489.914	506.69
490.132	504.69
490.35	518.69
490.568	527.69
490.786	528.69
491.003	534.69
491.221	534.69
491.439	551.69
491.657	555.69
491.874	541.69
492.092	571.69
492.31	573.69
492.527	576.69
492.745	572.69
492.963	582.69
493.18	562.69
493.398	595.69
493.615	580.69
493.833	557.69
494.05	585.69
494.268	597.69
494.485	594.69
494.703	612.69
494.92	599.69
495.138	597.69
495.355	577.69
495.573	600.69
495.79	599.69
496.008	604.69
496.225	588.69
496.442	604.69
496.66	561.69
496.877	580.69
497.094	601.69
497.312	600.69
497.529	588.69
497.746	591.69
497.963	603.69
498.181	632.69
498.398	623.69
498.615	639.69
498.832	620.69
499.049	637.69
499.267	636.69
499.484	673.69
499.701	681.69
499.918	694.69
500.135	735.69
500.352	731.69
500.569	730.69
500.786	734.69
501.003	710.69
501.22	731.69
501.437	740.69
501.654	733.69
501.871	735.69
502.088	694.69
