Data from 1980.PennyLincolnUp.Lamp.En5.5.200Scan.071819.P1_HRD10591_16-37-39-958.txt Node
Date: Thu Jul 18 16:37:39 EDT 2019
User: cochatt
Spectrometer: HR+D1059
Trigger mode: 1
Integration Time (sec): 1.000000E-1
Scans to average: 1
Electric dark correction enabled: true
Nonlinearity correction enabled: false
Boxcar width: 0
XAxis mode: Wavelengths
Number of Pixels in Spectrum: 2048
>>>>>Begin Spectral Data<<<<<
223.165	-0.62
223.4	-0.62
223.635	-0.62
223.869	-23.62
224.104	-12.62
224.338	-6.62
224.573	-27.62
224.808	-13.62
225.042	-14.62
225.277	-13.62
225.511	-18.62
225.746	-8.62
225.98	10.38
226.215	24.38
226.449	23.38
226.683	12.38
226.918	33.38
227.152	36.38
227.387	43.38
227.621	36.38
227.856	36.38
228.09	32.38
228.324	42.38
228.559	56.38
228.793	67.38
229.027	102.38
229.262	108.38
229.496	124.38
229.73	152.38
229.964	172.38
230.199	139.38
230.433	115.38
230.667	112.38
230.901	114.38
231.136	121.38
231.37	109.38
231.604	99.38
231.838	113.38
232.072	119.38
232.306	111.38
232.541	120.38
232.775	117.38
233.009	123.38
233.243	119.38
233.477	102.38
233.711	121.38
233.945	127.38
234.179	105.38
234.413	115.38
234.647	106.38
234.881	120.38
235.115	106.38
235.349	123.38
235.583	108.38
235.817	133.38
236.051	123.38
236.285	135.38
236.519	140.38
236.753	116.38
236.987	148.38
237.221	191.38
237.455	243.38
237.689	218.38
237.922	153.38
238.156	128.38
238.39	125.38
238.624	133.38
238.858	117.38
239.091	142.38
239.325	123.38
239.559	134.38
239.793	141.38
240.027	124.38
240.26	153.38
240.494	165.38
240.728	149.38
240.961	142.38
241.195	150.38
241.429	144.38
241.662	132.38
241.896	130.38
242.13	126.38
242.363	138.38
242.597	129.38
242.83	132.38
243.064	135.38
243.298	134.38
243.531	135.38
243.765	154.38
243.998	144.38
244.232	141.38
244.465	141.38
244.699	147.38
244.932	147.38
245.166	155.38
245.399	153.38
245.633	136.38
245.866	151.38
246.099	155.38
246.333	139.38
246.566	137.38
246.8	143.38
247.033	153.38
247.266	155.38
247.5	164.38
247.733	183.38
247.966	174.38
248.2	156.38
248.433	181.38
248.666	172.38
248.899	182.38
249.133	213.38
249.366	216.38
249.599	196.38
249.832	194.38
250.066	194.38
250.299	170.38
250.532	203.38
250.765	205.38
250.998	236.38
251.231	250.38
251.465	224.38
251.698	212.38
251.931	218.38
252.164	216.38
252.397	204.38
252.63	201.38
252.863	200.38
253.096	223.38
253.329	233.38
253.562	237.38
253.795	235.38
254.028	232.38
254.261	237.38
254.494	226.38
254.727	278.38
254.96	300.38
255.193	292.38
255.426	275.38
255.659	246.38
255.892	252.38
256.124	235.38
256.357	251.38
256.59	247.38
256.823	220.38
257.056	230.38
257.289	200.38
257.521	213.38
257.754	217.38
257.987	232.38
258.22	208.38
258.452	187.38
258.685	211.38
258.918	227.38
259.151	228.38
259.383	229.38
259.616	218.38
259.849	242.38
260.081	238.38
260.314	262.38
260.547	285.38
260.779	245.38
261.012	260.38
261.244	227.38
261.477	232.38
261.71	225.38
261.942	246.38
262.175	247.38
262.407	240.38
262.64	223.38
262.872	221.38
263.105	234.38
263.337	206.38
263.57	199.38
263.802	208.38
264.035	218.38
264.267	217.38
264.499	215.38
264.732	235.38
264.964	219.38
265.197	225.38
265.429	213.38
265.661	213.38
265.894	222.38
266.126	201.38
266.358	207.38
266.591	213.38
266.823	216.38
267.055	214.38
267.287	231.38
267.52	227.38
267.752	223.38
267.984	227.38
268.216	241.38
268.448	226.38
268.681	232.38
268.913	237.38
269.145	237.38
269.377	282.38
269.609	288.38
269.841	261.38
270.073	284.38
270.306	305.38
270.538	315.38
270.77	313.38
271.002	308.38
271.234	310.38
271.466	311.38
271.698	316.38
271.93	317.38
272.162	328.38
272.394	327.38
272.626	316.38
272.858	305.38
273.09	282.38
273.322	278.38
273.553	269.38
273.785	259.38
274.017	269.38
274.249	254.38
274.481	262.38
274.713	257.38
274.945	279.38
275.176	267.38
275.408	261.38
275.64	251.38
275.872	252.38
276.104	261.38
276.335	276.38
276.567	288.38
276.799	285.38
277.031	315.38
277.262	319.38
277.494	333.38
277.726	313.38
277.957	284.38
278.189	274.38
278.421	275.38
278.652	275.38
278.884	282.38
279.115	268.38
279.347	247.38
279.579	245.38
279.81	273.38
280.042	257.38
280.273	266.38
280.505	260.38
280.736	259.38
280.968	271.38
281.199	244.38
281.431	239.38
281.662	253.38
281.894	256.38
282.125	267.38
282.356	273.38
282.588	298.38
282.819	304.38
283.051	276.38
283.282	267.38
283.513	248.38
283.745	274.38
283.976	243.38
284.207	265.38
284.439	265.38
284.67	264.38
284.901	264.38
285.132	250.38
285.364	256.38
285.595	260.38
285.826	235.38
286.057	273.38
286.288	272.38
286.52	268.38
286.751	269.38
286.982	284.38
287.213	273.38
287.444	261.38
287.675	267.38
287.906	273.38
288.138	277.38
288.369	286.38
288.6	299.38
288.831	275.38
289.062	273.38
289.293	285.38
289.524	274.38
289.755	278.38
289.986	271.38
290.217	274.38
290.448	286.38
290.679	282.38
290.91	257.38
291.141	260.38
291.371	281.38
291.602	266.38
291.833	254.38
292.064	266.38
292.295	271.38
292.526	279.38
292.757	268.38
292.987	283.38
293.218	283.38
293.449	267.38
293.68	275.38
293.91	263.38
294.141	270.38
294.372	257.38
294.603	255.38
294.833	279.38
295.064	262.38
295.295	261.38
295.525	277.38
295.756	280.38
295.987	303.38
296.217	299.38
296.448	327.38
296.679	287.38
296.909	279.38
297.14	263.38
297.37	280.38
297.601	283.38
297.831	277.38
298.062	281.38
298.292	276.38
298.523	268.38
298.753	281.38
298.984	273.38
299.214	285.38
299.445	288.38
299.675	300.38
299.905	282.38
300.136	271.38
300.366	298.38
300.597	269.38
300.827	297.38
301.057	286.38
301.288	324.38
301.518	321.38
301.748	297.38
301.979	305.38
302.209	300.38
302.439	282.38
302.669	303.38
302.9	320.38
303.13	308.38
303.36	301.38
303.59	307.38
303.82	318.38
304.051	316.38
304.281	297.38
304.511	291.38
304.741	291.38
304.971	307.38
305.201	286.38
305.431	301.38
305.661	304.38
305.891	284.38
306.121	318.38
306.352	308.38
306.582	298.38
306.812	310.38
307.042	297.38
307.272	298.38
307.502	316.38
307.731	322.38
307.961	306.38
308.191	291.38
308.421	309.38
308.651	321.38
308.881	315.38
309.111	320.38
309.341	332.38
309.571	336.38
309.8	338.38
310.03	345.38
310.26	375.38
310.49	349.38
310.72	368.38
310.949	373.38
311.179	398.38
311.409	359.38
311.639	361.38
311.868	370.38
312.098	352.38
312.328	369.38
312.557	383.38
312.787	403.38
313.017	402.38
313.246	371.38
313.476	352.38
313.706	356.38
313.935	368.38
314.165	395.38
314.394	383.38
314.624	383.38
314.853	387.38
315.083	373.38
315.312	371.38
315.542	371.38
315.771	356.38
316.001	360.38
316.23	365.38
316.46	337.38
316.689	337.38
316.919	360.38
317.148	363.38
317.377	380.38
317.607	377.38
317.836	359.38
318.065	366.38
318.295	351.38
318.524	367.38
318.753	347.38
318.983	341.38
319.212	363.38
319.441	390.38
319.67	363.38
319.9	379.38
320.129	383.38
320.358	359.38
320.587	369.38
320.816	384.38
321.046	379.38
321.275	396.38
321.504	382.38
321.733	381.38
321.962	389.38
322.191	415.38
322.42	436.38
322.649	438.38
322.878	438.38
323.108	453.38
323.337	485.38
323.566	516.38
323.795	581.38
324.024	630.38
324.253	759.38
324.482	1100.38
324.71	1704.38
324.939	2472.38
325.168	2158.38
325.397	1151.38
325.626	771.38
325.855	595.38
326.084	543.38
326.313	508.38
326.542	533.38
326.77	580.38
326.999	711.38
327.228	987.38
327.457	1497.38
327.686	1858.38
327.914	1250.38
328.143	836.38
328.372	698.38
328.6	632.38
328.829	610.38
329.058	625.38
329.287	644.38
329.515	583.38
329.744	516.38
329.972	537.38
330.201	551.38
330.43	583.38
330.658	620.38
330.887	675.38
331.115	651.38
331.344	545.38
331.572	499.38
331.801	504.38
332.03	488.38
332.258	486.38
332.486	426.38
332.715	449.38
332.943	453.38
333.172	457.38
333.4	424.38
333.629	462.38
333.857	465.38
334.085	477.38
334.314	482.38
334.542	508.38
334.771	510.38
334.999	483.38
335.227	443.38
335.455	429.38
335.684	415.38
335.912	417.38
336.14	401.38
336.369	413.38
336.597	424.38
336.825	422.38
337.053	421.38
337.281	401.38
337.51	398.38
337.738	416.38
337.966	405.38
338.194	388.38
338.422	424.38
338.65	385.38
338.878	400.38
339.106	403.38
339.334	391.38
339.562	396.38
339.79	404.38
340.018	394.38
340.246	383.38
340.474	410.38
340.702	396.38
340.93	390.38
341.158	394.38
341.386	405.38
341.614	411.38
341.842	394.38
342.07	408.38
342.298	373.38
342.526	391.38
342.754	393.38
342.981	389.38
343.209	386.38
343.437	379.38
343.665	381.38
343.893	358.38
344.12	385.38
344.348	394.38
344.576	385.38
344.804	431.38
345.031	419.38
345.259	439.38
345.487	424.38
345.714	419.38
345.942	406.38
346.17	405.38
346.397	383.38
346.625	368.38
346.853	384.38
347.08	394.38
347.308	403.38
347.535	413.38
347.763	427.38
347.99	401.38
348.218	410.38
348.445	417.38
348.673	407.38
348.9	411.38
349.128	378.38
349.355	371.38
349.583	360.38
349.81	380.38
350.037	394.38
350.265	369.38
350.492	375.38
350.72	370.38
350.947	373.38
351.174	404.38
351.402	403.38
351.629	376.38
351.856	395.38
352.083	415.38
352.311	423.38
352.538	443.38
352.765	416.38
352.992	413.38
353.22	408.38
353.447	409.38
353.674	408.38
353.901	389.38
354.128	367.38
354.355	368.38
354.583	360.38
354.81	355.38
355.037	354.38
355.264	358.38
355.491	342.38
355.718	345.38
355.945	354.38
356.172	381.38
356.399	342.38
356.626	353.38
356.853	353.38
357.08	363.38
357.307	357.38
357.534	344.38
357.761	344.38
357.988	349.38
358.215	332.38
358.441	364.38
358.668	347.38
358.895	364.38
359.122	367.38
359.349	366.38
359.576	379.38
359.802	423.38
360.029	454.38
360.256	469.38
360.483	455.38
360.709	397.38
360.936	381.38
361.163	391.38
361.39	410.38
361.616	435.38
361.843	393.38
362.07	404.38
362.296	396.38
362.523	385.38
362.749	371.38
362.976	389.38
363.203	388.38
363.429	370.38
363.656	402.38
363.882	398.38
364.109	367.38
364.335	353.38
364.562	361.38
364.788	365.38
365.015	368.38
365.241	387.38
365.468	378.38
365.694	375.38
365.92	401.38
366.147	381.38
366.373	358.38
366.599	372.38
366.826	377.38
367.052	364.38
367.278	361.38
367.505	358.38
367.731	374.38
367.957	368.38
368.184	356.38
368.41	371.38
368.636	385.38
368.862	394.38
369.089	377.38
369.315	375.38
369.541	341.38
369.767	362.38
369.993	371.38
370.219	356.38
370.445	351.38
370.672	348.38
370.898	359.38
371.124	344.38
371.35	348.38
371.576	360.38
371.802	354.38
372.028	340.38
372.254	342.38
372.48	363.38
372.706	359.38
372.932	336.38
373.158	334.38
373.384	353.38
373.61	354.38
373.835	356.38
374.061	356.38
374.287	360.38
374.513	353.38
374.739	363.38
374.965	353.38
375.191	365.38
375.416	357.38
375.642	336.38
375.868	363.38
376.094	350.38
376.319	362.38
376.545	349.38
376.771	383.38
376.997	363.38
377.222	339.38
377.448	347.38
377.674	357.38
377.899	345.38
378.125	340.38
378.35	363.38
378.576	358.38
378.802	343.38
379.027	344.38
379.253	364.38
379.478	356.38
379.704	363.38
379.929	349.38
380.155	364.38
380.38	347.38
380.606	362.38
380.831	354.38
381.057	354.38
381.282	361.38
381.507	370.38
381.733	379.38
381.958	355.38
382.184	362.38
382.409	360.38
382.634	356.38
382.86	354.38
383.085	377.38
383.31	377.38
383.535	368.38
383.761	356.38
383.986	365.38
384.211	370.38
384.436	351.38
384.662	376.38
384.887	375.38
385.112	365.38
385.337	383.38
385.562	377.38
385.787	386.38
386.013	386.38
386.238	385.38
386.463	363.38
386.688	375.38
386.913	370.38
387.138	371.38
387.363	368.38
387.588	385.38
387.813	376.38
388.038	372.38
388.263	378.38
388.488	344.38
388.713	364.38
388.938	385.38
389.163	387.38
389.387	379.38
389.612	393.38
389.837	361.38
390.062	380.38
390.287	375.38
390.512	360.38
390.736	353.38
390.961	359.38
391.186	378.38
391.411	377.38
391.636	385.38
391.86	376.38
392.085	377.38
392.31	371.38
392.534	374.38
392.759	366.38
392.984	380.38
393.208	379.38
393.433	389.38
393.658	390.38
393.882	372.38
394.107	377.38
394.331	395.38
394.556	367.38
394.78	364.38
395.005	371.38
395.229	391.38
395.454	369.38
395.678	393.38
395.903	407.38
396.127	406.38
396.352	429.38
396.576	387.38
396.801	392.38
397.025	398.38
397.249	395.38
397.474	415.38
397.698	373.38
397.922	399.38
398.147	404.38
398.371	409.38
398.595	430.38
398.82	409.38
399.044	427.38
399.268	434.38
399.492	443.38
399.717	476.38
399.941	505.38
400.165	503.38
400.389	533.38
400.613	471.38
400.837	455.38
401.062	437.38
401.286	448.38
401.51	430.38
401.734	433.38
401.958	428.38
402.182	419.38
402.406	453.38
402.63	439.38
402.854	438.38
403.078	422.38
403.302	427.38
403.526	444.38
403.75	458.38
403.974	440.38
404.198	432.38
404.422	432.38
404.645	432.38
404.869	458.38
405.093	483.38
405.317	502.38
405.541	542.38
405.765	492.38
405.988	456.38
406.212	489.38
406.436	500.38
406.66	519.38
406.883	513.38
407.107	517.38
407.331	549.38
407.555	595.38
407.778	609.38
408.002	569.38
408.226	505.38
408.449	489.38
408.673	487.38
408.896	513.38
409.12	576.38
409.344	545.38
409.567	479.38
409.791	463.38
410.014	467.38
410.238	462.38
410.461	468.38
410.685	463.38
410.908	474.38
411.132	530.38
411.355	533.38
411.578	523.38
411.802	469.38
412.025	451.38
412.249	438.38
412.472	474.38
412.695	513.38
412.919	524.38
413.142	459.38
413.365	433.38
413.589	437.38
413.812	424.38
414.035	434.38
414.258	411.38
414.482	417.38
414.705	433.38
414.928	417.38
415.151	416.38
415.374	431.38
415.597	426.38
415.821	411.38
416.044	418.38
416.267	421.38
416.49	439.38
416.713	448.38
416.936	427.38
417.159	417.38
417.382	433.38
417.605	427.38
417.828	441.38
418.051	457.38
418.274	441.38
418.497	432.38
418.72	424.38
418.943	415.38
419.166	436.38
419.389	481.38
419.611	457.38
419.834	461.38
420.057	480.38
420.28	453.38
420.503	458.38
420.726	449.38
420.948	475.38
421.171	499.38
421.394	550.38
421.617	467.38
421.839	469.38
422.062	464.38
422.285	489.38
422.507	526.38
422.73	615.38
422.953	587.38
423.175	531.38
423.398	467.38
423.621	474.38
423.843	511.38
424.066	511.38
424.288	508.38
424.511	508.38
424.733	587.38
424.956	635.38
425.178	633.38
425.401	618.38
425.623	645.38
425.846	558.38
426.068	515.38
426.291	509.38
426.513	503.38
426.735	500.38
426.958	566.38
427.18	647.38
427.402	765.38
427.625	822.38
427.847	777.38
428.069	666.38
428.292	595.38
428.514	507.38
428.736	509.38
428.958	476.38
429.181	454.38
429.403	444.38
429.625	483.38
429.847	513.38
430.069	589.38
430.292	570.38
430.514	483.38
430.736	477.38
430.958	458.38
431.18	433.38
431.402	431.38
431.624	416.38
431.846	415.38
432.068	413.38
432.29	431.38
432.512	439.38
432.734	449.38
432.956	447.38
433.178	440.38
433.4	473.38
433.622	413.38
433.844	436.38
434.066	415.38
434.287	426.38
434.509	432.38
434.731	431.38
434.953	455.38
435.175	484.38
435.397	513.38
435.618	486.38
435.84	553.38
436.062	635.38
436.284	685.38
436.505	572.38
436.727	530.38
436.949	488.38
437.17	458.38
437.392	475.38
437.614	499.38
437.835	553.38
438.057	634.38
438.278	742.38
438.5	721.38
438.721	773.38
438.943	763.38
439.165	624.38
439.386	556.38
439.608	535.38
439.829	521.38
440.05	597.38
440.272	605.38
440.493	581.38
440.715	531.38
440.936	488.38
441.158	485.38
441.379	500.38
441.6	506.38
441.822	534.38
442.043	547.38
442.264	630.38
442.486	663.38
442.707	563.38
442.928	537.38
443.149	535.38
443.371	564.38
443.592	599.38
443.813	695.38
444.034	732.38
444.255	620.38
444.476	533.38
444.698	519.38
444.919	500.38
445.14	629.38
445.361	595.38
445.582	546.38
445.803	623.38
446.024	747.38
446.245	735.38
446.466	676.38
446.687	587.38
446.908	540.38
447.129	503.38
447.35	499.38
447.571	481.38
447.792	460.38
448.013	476.38
448.234	507.38
448.455	564.38
448.675	662.38
448.896	753.38
449.117	652.38
449.338	625.38
449.559	719.38
449.779	775.38
450	653.38
450.221	540.38
450.442	499.38
450.662	467.38
450.883	496.38
451.104	505.38
451.324	488.38
451.545	447.38
451.766	450.38
451.986	417.38
452.207	434.38
452.428	428.38
452.648	411.38
452.869	452.38
453.089	451.38
453.31	439.38
453.53	442.38
453.751	439.38
453.971	432.38
454.192	460.38
454.412	454.38
454.633	444.38
454.853	429.38
455.073	410.38
455.294	464.38
455.514	563.38
455.734	524.38
455.955	440.38
456.175	396.38
456.395	408.38
456.616	379.38
456.836	361.38
457.056	394.38
457.276	392.38
457.497	406.38
457.717	389.38
457.937	400.38
458.157	418.38
458.377	436.38
458.598	437.38
458.818	496.38
459.038	626.38
459.258	607.38
459.478	511.38
459.698	442.38
459.918	449.38
460.138	405.38
460.358	430.38
460.578	425.38
460.798	416.38
461.018	441.38
461.238	445.38
461.458	438.38
461.678	411.38
461.898	416.38
462.118	391.38
462.338	435.38
462.558	405.38
462.777	428.38
462.997	445.38
463.217	450.38
463.437	446.38
463.657	437.38
463.876	461.38
464.096	447.38
464.316	450.38
464.536	443.38
464.755	471.38
464.975	446.38
465.195	517.38
465.414	625.38
465.634	551.38
465.854	499.38
466.073	464.38
466.293	424.38
466.512	431.38
466.732	420.38
466.951	426.38
467.171	401.38
467.391	419.38
467.61	433.38
467.829	442.38
468.049	436.38
468.268	477.38
468.488	419.38
468.707	382.38
468.927	413.38
469.146	414.38
469.365	423.38
469.585	417.38
469.804	422.38
470.023	439.38
470.243	434.38
470.462	454.38
470.681	466.38
470.901	453.38
471.12	438.38
471.339	419.38
471.558	428.38
471.777	426.38
471.997	428.38
472.216	441.38
472.435	463.38
472.654	467.38
472.873	442.38
473.092	433.38
473.311	444.38
473.53	423.38
473.749	445.38
473.968	500.38
474.187	596.38
474.406	640.38
474.625	513.38
474.844	480.38
475.063	457.38
475.282	439.38
475.501	446.38
475.72	443.38
475.939	447.38
476.158	440.38
476.377	454.38
476.596	450.38
476.814	470.38
477.033	448.38
477.252	437.38
477.471	454.38
477.69	449.38
477.908	472.38
478.127	477.38
478.346	469.38
478.564	473.38
478.783	461.38
479.002	480.38
479.22	487.38
479.439	496.38
479.658	508.38
479.876	517.38
480.095	535.38
480.313	555.38
480.532	532.38
480.751	529.38
480.969	530.38
481.188	615.38
481.406	641.38
481.624	593.38
481.843	545.38
482.061	562.38
482.28	521.38
482.498	530.38
482.717	514.38
482.935	509.38
483.153	526.38
483.372	500.38
483.59	510.38
483.808	519.38
484.027	526.38
484.245	508.38
484.463	528.38
484.681	546.38
484.9	540.38
485.118	535.38
485.336	531.38
485.554	536.38
485.772	518.38
485.99	525.38
486.209	541.38
486.427	550.38
486.645	553.38
486.863	572.38
487.081	560.38
487.299	559.38
487.517	575.38
487.735	572.38
487.953	560.38
488.171	552.38
488.389	554.38
488.607	571.38
488.825	545.38
489.043	556.38
489.261	582.38
489.479	558.38
489.696	555.38
489.914	589.38
490.132	631.38
490.35	591.38
490.568	606.38
490.786	601.38
491.003	604.38
491.221	640.38
491.439	631.38
491.657	616.38
491.874	634.38
492.092	654.38
492.31	643.38
492.527	680.38
492.745	663.38
492.963	668.38
493.18	659.38
493.398	693.38
493.615	678.38
493.833	651.38
494.05	673.38
494.268	670.38
494.485	677.38
494.703	683.38
494.92	665.38
495.138	668.38
495.355	692.38
495.573	673.38
495.79	663.38
496.008	664.38
496.225	673.38
496.442	664.38
496.66	658.38
496.877	675.38
497.094	675.38
497.312	669.38
497.529	670.38
497.746	691.38
497.963	714.38
498.181	714.38
498.398	708.38
498.615	691.38
498.832	724.38
499.049	720.38
499.267	735.38
499.484	729.38
499.701	768.38
499.918	781.38
500.135	778.38
500.352	781.38
500.569	824.38
500.786	796.38
501.003	789.38
501.22	785.38
501.437	785.38
501.654	789.38
501.871	810.38
