Data from 1980.PennyLincolnUp.Lamp.En5.5.200Scan.071819.P1_HRD10591_16-36-44-957.txt Node
Date: Thu Jul 18 16:36:44 EDT 2019
User: cochatt
Spectrometer: HR+D1059
Trigger mode: 1
Integration Time (sec): 1.000000E-1
Scans to average: 1
Electric dark correction enabled: true
Nonlinearity correction enabled: false
Boxcar width: 0
XAxis mode: Wavelengths
Number of Pixels in Spectrum: 2048
>>>>>Begin Spectral Data<<<<<
223.165	-13.38
223.4	-13.38
223.635	-13.38
223.869	-10.38
224.104	-31.38
224.338	-8.38
224.573	-7.38
224.808	-0.38
225.042	-17.38
225.277	-20.38
225.511	-3.38
225.746	-1.38
225.98	7.62
226.215	10.62
226.449	8.62
226.683	30.62
226.918	29.62
227.152	26.62
227.387	33.62
227.621	27.62
227.856	38.62
228.09	36.62
228.324	49.62
228.559	51.62
228.793	75.62
229.027	83.62
229.262	97.62
229.496	107.62
229.73	149.62
229.964	151.62
230.199	137.62
230.433	118.62
230.667	113.62
230.901	107.62
231.136	112.62
231.37	112.62
231.604	107.62
231.838	119.62
232.072	110.62
232.306	98.62
232.541	113.62
232.775	107.62
233.009	117.62
233.243	118.62
233.477	113.62
233.711	118.62
233.945	123.62
234.179	119.62
234.413	90.62
234.647	102.62
234.881	112.62
235.115	108.62
235.349	119.62
235.583	113.62
235.817	110.62
236.051	120.62
236.285	128.62
236.519	122.62
236.753	131.62
236.987	146.62
237.221	180.62
237.455	226.62
237.689	182.62
237.922	132.62
238.156	141.62
238.39	106.62
238.624	124.62
238.858	118.62
239.091	123.62
239.325	123.62
239.559	122.62
239.793	106.62
240.027	115.62
240.26	142.62
240.494	156.62
240.728	139.62
240.961	140.62
241.195	133.62
241.429	139.62
241.662	131.62
241.896	124.62
242.13	131.62
242.363	136.62
242.597	137.62
242.83	142.62
243.064	137.62
243.298	127.62
243.531	118.62
243.765	112.62
243.998	125.62
244.232	134.62
244.465	140.62
244.699	144.62
244.932	132.62
245.166	135.62
245.399	139.62
245.633	135.62
245.866	137.62
246.099	143.62
246.333	128.62
246.566	138.62
246.8	144.62
247.033	144.62
247.266	144.62
247.5	163.62
247.733	152.62
247.966	166.62
248.2	162.62
248.433	172.62
248.666	177.62
248.899	179.62
249.133	188.62
249.366	215.62
249.599	203.62
249.832	180.62
250.066	179.62
250.299	183.62
250.532	188.62
250.765	194.62
250.998	213.62
251.231	227.62
251.465	216.62
251.698	208.62
251.931	199.62
252.164	208.62
252.397	194.62
252.63	197.62
252.863	194.62
253.096	204.62
253.329	203.62
253.562	210.62
253.795	227.62
254.028	217.62
254.261	215.62
254.494	240.62
254.727	258.62
254.96	295.62
255.193	275.62
255.426	233.62
255.659	232.62
255.892	218.62
256.124	211.62
256.357	224.62
256.59	231.62
256.823	215.62
257.056	203.62
257.289	214.62
257.521	204.62
257.754	207.62
257.987	213.62
258.22	215.62
258.452	209.62
258.685	196.62
258.918	219.62
259.151	185.62
259.383	232.62
259.616	206.62
259.849	220.62
260.081	229.62
260.314	222.62
260.547	241.62
260.779	254.62
261.012	201.62
261.244	219.62
261.477	222.62
261.71	212.62
261.942	233.62
262.175	233.62
262.407	216.62
262.64	201.62
262.872	211.62
263.105	189.62
263.337	200.62
263.57	208.62
263.802	201.62
264.035	198.62
264.267	204.62
264.499	199.62
264.732	205.62
264.964	207.62
265.197	194.62
265.429	203.62
265.661	206.62
265.894	190.62
266.126	205.62
266.358	205.62
266.591	196.62
266.823	222.62
267.055	225.62
267.287	222.62
267.52	218.62
267.752	234.62
267.984	202.62
268.216	219.62
268.448	211.62
268.681	236.62
268.913	227.62
269.145	217.62
269.377	250.62
269.609	257.62
269.841	261.62
270.073	262.62
270.306	263.62
270.538	293.62
270.77	303.62
271.002	302.62
271.234	296.62
271.466	275.62
271.698	286.62
271.93	306.62
272.162	298.62
272.394	289.62
272.626	294.62
272.858	273.62
273.09	252.62
273.322	259.62
273.553	257.62
273.785	258.62
274.017	242.62
274.249	247.62
274.481	260.62
274.713	254.62
274.945	263.62
275.176	249.62
275.408	264.62
275.64	247.62
275.872	231.62
276.104	247.62
276.335	264.62
276.567	261.62
276.799	285.62
277.031	286.62
277.262	304.62
277.494	299.62
277.726	271.62
277.957	258.62
278.189	260.62
278.421	250.62
278.652	233.62
278.884	244.62
279.115	249.62
279.347	253.62
279.579	228.62
279.81	243.62
280.042	224.62
280.273	224.62
280.505	227.62
280.736	246.62
280.968	224.62
281.199	229.62
281.431	240.62
281.662	235.62
281.894	223.62
282.125	228.62
282.356	270.62
282.588	278.62
282.819	268.62
283.051	244.62
283.282	244.62
283.513	240.62
283.745	249.62
283.976	248.62
284.207	249.62
284.439	252.62
284.67	255.62
284.901	235.62
285.132	228.62
285.364	223.62
285.595	241.62
285.826	256.62
286.057	247.62
286.288	233.62
286.52	224.62
286.751	244.62
286.982	259.62
287.213	229.62
287.444	254.62
287.675	266.62
287.906	254.62
288.138	259.62
288.369	273.62
288.6	267.62
288.831	267.62
289.062	267.62
289.293	267.62
289.524	262.62
289.755	250.62
289.986	250.62
290.217	243.62
290.448	260.62
290.679	262.62
290.91	247.62
291.141	262.62
291.371	244.62
291.602	244.62
291.833	244.62
292.064	246.62
292.295	238.62
292.526	243.62
292.757	266.62
292.987	250.62
293.218	257.62
293.449	264.62
293.68	262.62
293.91	266.62
294.141	269.62
294.372	233.62
294.603	256.62
294.833	249.62
295.064	264.62
295.295	259.62
295.525	245.62
295.756	264.62
295.987	276.62
296.217	284.62
296.448	305.62
296.679	278.62
296.909	261.62
297.14	249.62
297.37	270.62
297.601	252.62
297.831	267.62
298.062	267.62
298.292	273.62
298.523	244.62
298.753	267.62
298.984	244.62
299.214	262.62
299.445	260.62
299.675	251.62
299.905	278.62
300.136	275.62
300.366	269.62
300.597	258.62
300.827	262.62
301.057	271.62
301.288	293.62
301.518	281.62
301.748	297.62
301.979	278.62
302.209	288.62
302.439	300.62
302.669	279.62
302.9	288.62
303.13	274.62
303.36	285.62
303.59	290.62
303.82	286.62
304.051	282.62
304.281	293.62
304.511	278.62
304.741	274.62
304.971	276.62
305.201	267.62
305.431	287.62
305.661	283.62
305.891	311.62
306.121	292.62
306.352	299.62
306.582	276.62
306.812	297.62
307.042	297.62
307.272	309.62
307.502	290.62
307.731	284.62
307.961	298.62
308.191	280.62
308.421	280.62
308.651	304.62
308.881	290.62
309.111	303.62
309.341	281.62
309.571	299.62
309.8	310.62
310.03	320.62
310.26	312.62
310.49	331.62
310.72	332.62
310.949	373.62
311.179	359.62
311.409	354.62
311.639	332.62
311.868	346.62
312.098	350.62
312.328	346.62
312.557	357.62
312.787	356.62
313.017	364.62
313.246	340.62
313.476	343.62
313.706	342.62
313.935	336.62
314.165	341.62
314.394	350.62
314.624	348.62
314.853	341.62
315.083	343.62
315.312	324.62
315.542	329.62
315.771	324.62
316.001	320.62
316.23	306.62
316.46	332.62
316.689	324.62
316.919	343.62
317.148	345.62
317.377	339.62
317.607	344.62
317.836	320.62
318.065	328.62
318.295	333.62
318.524	334.62
318.753	322.62
318.983	334.62
319.212	342.62
319.441	350.62
319.67	331.62
319.9	343.62
320.129	340.62
320.358	338.62
320.587	338.62
320.816	342.62
321.046	342.62
321.275	358.62
321.504	360.62
321.733	363.62
321.962	350.62
322.191	367.62
322.42	382.62
322.649	414.62
322.878	401.62
323.108	424.62
323.337	450.62
323.566	473.62
323.795	503.62
324.024	566.62
324.253	688.62
324.482	977.62
324.71	1464.62
324.939	2149.62
325.168	1875.62
325.397	1004.62
325.626	646.62
325.855	530.62
326.084	468.62
326.313	482.62
326.542	482.62
326.77	507.62
326.999	610.62
327.228	832.62
327.457	1310.62
327.686	1616.62
327.914	1095.62
328.143	700.62
328.372	638.62
328.6	574.62
328.829	555.62
329.058	556.62
329.287	580.62
329.515	507.62
329.744	477.62
329.972	478.62
330.201	484.62
330.43	539.62
330.658	567.62
330.887	585.62
331.115	569.62
331.344	467.62
331.572	462.62
331.801	464.62
332.03	441.62
332.258	427.62
332.486	408.62
332.715	407.62
332.943	388.62
333.172	392.62
333.4	408.62
333.629	391.62
333.857	419.62
334.085	401.62
334.314	426.62
334.542	450.62
334.771	475.62
334.999	445.62
335.227	404.62
335.455	380.62
335.684	384.62
335.912	375.62
336.14	372.62
336.369	360.62
336.597	416.62
336.825	404.62
337.053	372.62
337.281	402.62
337.51	379.62
337.738	366.62
337.966	382.62
338.194	381.62
338.422	386.62
338.65	388.62
338.878	382.62
339.106	366.62
339.334	367.62
339.562	355.62
339.79	369.62
340.018	369.62
340.246	365.62
340.474	374.62
340.702	373.62
340.93	379.62
341.158	364.62
341.386	372.62
341.614	366.62
341.842	358.62
342.07	373.62
342.298	372.62
342.526	364.62
342.754	370.62
342.981	356.62
343.209	377.62
343.437	375.62
343.665	350.62
343.893	364.62
344.12	372.62
344.348	346.62
344.576	364.62
344.804	372.62
345.031	388.62
345.259	395.62
345.487	397.62
345.714	400.62
345.942	374.62
346.17	379.62
346.397	352.62
346.625	357.62
346.853	370.62
347.08	368.62
347.308	367.62
347.535	384.62
347.763	388.62
347.99	372.62
348.218	394.62
348.445	396.62
348.673	392.62
348.9	368.62
349.128	372.62
349.355	348.62
349.583	360.62
349.81	346.62
350.037	357.62
350.265	372.62
350.492	344.62
350.72	359.62
350.947	373.62
351.174	374.62
351.402	371.62
351.629	372.62
351.856	379.62
352.083	389.62
352.311	390.62
352.538	395.62
352.765	390.62
352.992	373.62
353.22	394.62
353.447	377.62
353.674	358.62
353.901	348.62
354.128	361.62
354.355	344.62
354.583	343.62
354.81	346.62
355.037	324.62
355.264	349.62
355.491	332.62
355.718	318.62
355.945	329.62
356.172	332.62
356.399	336.62
356.626	338.62
356.853	340.62
357.08	345.62
357.307	339.62
357.534	338.62
357.761	325.62
357.988	337.62
358.215	339.62
358.441	355.62
358.668	353.62
358.895	357.62
359.122	340.62
359.349	356.62
359.576	361.62
359.802	382.62
360.029	418.62
360.256	436.62
360.483	417.62
360.709	366.62
360.936	366.62
361.163	371.62
361.39	363.62
361.616	375.62
361.843	380.62
362.07	362.62
362.296	382.62
362.523	353.62
362.749	368.62
362.976	363.62
363.203	359.62
363.429	372.62
363.656	361.62
363.882	334.62
364.109	364.62
364.335	352.62
364.562	337.62
364.788	366.62
365.015	343.62
365.241	331.62
365.468	358.62
365.694	363.62
365.92	361.62
366.147	358.62
366.373	352.62
366.599	321.62
366.826	330.62
367.052	331.62
367.278	350.62
367.505	367.62
367.731	343.62
367.957	368.62
368.184	340.62
368.41	363.62
368.636	369.62
368.862	370.62
369.089	340.62
369.315	360.62
369.541	338.62
369.767	340.62
369.993	349.62
370.219	345.62
370.445	337.62
370.672	364.62
370.898	329.62
371.124	356.62
371.35	348.62
371.576	345.62
371.802	350.62
372.028	338.62
372.254	343.62
372.48	351.62
372.706	347.62
372.932	337.62
373.158	335.62
373.384	343.62
373.61	337.62
373.835	344.62
374.061	336.62
374.287	351.62
374.513	339.62
374.739	350.62
374.965	319.62
375.191	344.62
375.416	326.62
375.642	337.62
375.868	334.62
376.094	345.62
376.319	338.62
376.545	346.62
376.771	340.62
376.997	334.62
377.222	344.62
377.448	356.62
377.674	324.62
377.899	326.62
378.125	342.62
378.35	330.62
378.576	329.62
378.802	338.62
379.027	339.62
379.253	334.62
379.478	334.62
379.704	338.62
379.929	353.62
380.155	358.62
380.38	349.62
380.606	347.62
380.831	335.62
381.057	343.62
381.282	340.62
381.507	340.62
381.733	335.62
381.958	337.62
382.184	336.62
382.409	368.62
382.634	345.62
382.86	362.62
383.085	354.62
383.31	330.62
383.535	343.62
383.761	358.62
383.986	369.62
384.211	328.62
384.436	384.62
384.662	351.62
384.887	359.62
385.112	361.62
385.337	346.62
385.562	371.62
385.787	370.62
386.013	374.62
386.238	375.62
386.463	351.62
386.688	359.62
386.913	358.62
387.138	372.62
387.363	360.62
387.588	334.62
387.813	347.62
388.038	364.62
388.263	368.62
388.488	354.62
388.713	368.62
388.938	362.62
389.163	349.62
389.387	370.62
389.612	345.62
389.837	376.62
390.062	362.62
390.287	368.62
390.512	366.62
390.736	361.62
390.961	360.62
391.186	359.62
391.411	352.62
391.636	367.62
391.86	363.62
392.085	370.62
392.31	368.62
392.534	385.62
392.759	380.62
392.984	348.62
393.208	363.62
393.433	371.62
393.658	369.62
393.882	352.62
394.107	343.62
394.331	369.62
394.556	344.62
394.78	367.62
395.005	369.62
395.229	382.62
395.454	368.62
395.678	372.62
395.903	390.62
396.127	412.62
396.352	399.62
396.576	383.62
396.801	362.62
397.025	364.62
397.249	387.62
397.474	396.62
397.698	388.62
397.922	403.62
398.147	394.62
398.371	400.62
398.595	416.62
398.82	387.62
399.044	408.62
399.268	400.62
399.492	434.62
399.717	425.62
399.941	459.62
400.165	507.62
400.389	530.62
400.613	492.62
400.837	443.62
401.062	448.62
401.286	416.62
401.51	415.62
401.734	410.62
401.958	420.62
402.182	427.62
402.406	444.62
402.63	423.62
402.854	400.62
403.078	415.62
403.302	422.62
403.526	432.62
403.75	448.62
403.974	399.62
404.198	424.62
404.422	415.62
404.645	440.62
404.869	460.62
405.093	454.62
405.317	493.62
405.541	535.62
405.765	478.62
405.988	477.62
406.212	471.62
406.436	488.62
406.66	483.62
406.883	466.62
407.107	473.62
407.331	531.62
407.555	574.62
407.778	555.62
408.002	531.62
408.226	479.62
408.449	458.62
408.673	489.62
408.896	499.62
409.12	512.62
409.344	518.62
409.567	442.62
409.791	439.62
410.014	417.62
410.238	427.62
410.461	434.62
410.685	432.62
410.908	464.62
411.132	480.62
411.355	521.62
411.578	479.62
411.802	455.62
412.025	436.62
412.249	444.62
412.472	463.62
412.695	502.62
412.919	481.62
413.142	438.62
413.365	430.62
413.589	424.62
413.812	414.62
414.035	419.62
414.258	405.62
414.482	420.62
414.705	390.62
414.928	407.62
415.151	401.62
415.374	373.62
415.597	398.62
415.821	408.62
416.044	417.62
416.267	412.62
416.49	396.62
416.713	397.62
416.936	400.62
417.159	400.62
417.382	401.62
417.605	407.62
417.828	433.62
418.051	415.62
418.274	428.62
418.497	434.62
418.72	418.62
418.943	406.62
419.166	422.62
419.389	438.62
419.611	410.62
419.834	443.62
420.057	446.62
420.28	433.62
420.503	438.62
420.726	436.62
420.948	453.62
421.171	501.62
421.394	527.62
421.617	467.62
421.839	445.62
422.062	434.62
422.285	438.62
422.507	496.62
422.73	590.62
422.953	555.62
423.175	475.62
423.398	469.62
423.621	465.62
423.843	477.62
424.066	488.62
424.288	473.62
424.511	471.62
424.733	549.62
424.956	631.62
425.178	610.62
425.401	592.62
425.623	587.62
425.846	512.62
426.068	498.62
426.291	474.62
426.513	479.62
426.735	482.62
426.958	522.62
427.18	597.62
427.402	727.62
427.625	798.62
427.847	715.62
428.069	623.62
428.292	533.62
428.514	500.62
428.736	463.62
428.958	438.62
429.181	452.62
429.403	446.62
429.625	456.62
429.847	486.62
430.069	558.62
430.292	527.62
430.514	497.62
430.736	435.62
430.958	449.62
431.18	427.62
431.402	426.62
431.624	424.62
431.846	423.62
432.068	399.62
432.29	423.62
432.512	427.62
432.734	425.62
432.956	437.62
433.178	439.62
433.4	427.62
433.622	418.62
433.844	407.62
434.066	421.62
434.287	403.62
434.509	404.62
434.731	416.62
434.953	422.62
435.175	443.62
435.397	478.62
435.618	478.62
435.84	509.62
436.062	607.62
436.284	704.62
436.505	571.62
436.727	490.62
436.949	463.62
437.17	446.62
437.392	486.62
437.614	462.62
437.835	490.62
438.057	608.62
438.278	693.62
438.5	688.62
438.721	726.62
438.943	720.62
439.165	576.62
439.386	538.62
439.608	513.62
439.829	512.62
440.05	518.62
440.272	574.62
440.493	522.62
440.715	503.62
440.936	466.62
441.158	483.62
441.379	469.62
441.6	466.62
441.822	477.62
442.043	522.62
442.264	607.62
442.486	671.62
442.707	553.62
442.928	516.62
443.149	507.62
443.371	523.62
443.592	569.62
443.813	647.62
444.034	690.62
444.255	565.62
444.476	497.62
444.698	488.62
444.919	482.62
445.14	560.62
445.361	530.62
445.582	543.62
445.803	572.62
446.024	681.62
446.245	680.62
446.466	636.62
446.687	562.62
446.908	500.62
447.129	455.62
447.35	442.62
447.571	444.62
447.792	450.62
448.013	495.62
448.234	486.62
448.455	518.62
448.675	651.62
448.896	734.62
449.117	613.62
449.338	572.62
449.559	662.62
449.779	743.62
450	635.62
450.221	525.62
450.442	462.62
450.662	469.62
450.883	448.62
451.104	477.62
451.324	475.62
451.545	420.62
451.766	444.62
451.986	412.62
452.207	399.62
452.428	396.62
452.648	430.62
452.869	412.62
453.089	413.62
453.31	445.62
453.53	427.62
453.751	414.62
453.971	423.62
454.192	442.62
454.412	438.62
454.633	408.62
454.853	392.62
455.073	402.62
455.294	447.62
455.514	504.62
455.734	491.62
455.955	406.62
456.175	386.62
456.395	379.62
456.616	389.62
456.836	375.62
457.056	391.62
457.276	363.62
457.497	374.62
457.717	342.62
457.937	386.62
458.157	371.62
458.377	406.62
458.598	444.62
458.818	478.62
459.038	566.62
459.258	568.62
459.478	452.62
459.698	456.62
459.918	407.62
460.138	414.62
460.358	421.62
460.578	414.62
460.798	421.62
461.018	416.62
461.238	393.62
461.458	389.62
461.678	413.62
461.898	395.62
462.118	402.62
462.338	408.62
462.558	408.62
462.777	411.62
462.997	423.62
463.217	427.62
463.437	431.62
463.657	444.62
463.876	414.62
464.096	448.62
464.316	419.62
464.536	436.62
464.755	458.62
464.975	460.62
465.195	494.62
465.414	595.62
465.634	508.62
465.854	445.62
466.073	428.62
466.293	382.62
466.512	399.62
466.732	406.62
466.951	417.62
467.171	382.62
467.391	397.62
467.61	435.62
467.829	423.62
468.049	423.62
468.268	419.62
468.488	404.62
468.707	401.62
468.927	388.62
469.146	376.62
469.365	379.62
469.585	398.62
469.804	406.62
470.023	415.62
470.243	410.62
470.462	418.62
470.681	436.62
470.901	440.62
471.12	423.62
471.339	387.62
471.558	408.62
471.777	403.62
471.997	410.62
472.216	417.62
472.435	449.62
472.654	410.62
472.873	411.62
473.092	430.62
473.311	408.62
473.53	395.62
473.749	420.62
473.968	445.62
474.187	563.62
474.406	600.62
474.625	480.62
474.844	438.62
475.063	422.62
475.282	414.62
475.501	415.62
475.72	419.62
475.939	410.62
476.158	402.62
476.377	433.62
476.596	415.62
476.814	439.62
477.033	464.62
477.252	444.62
477.471	417.62
477.69	430.62
477.908	423.62
478.127	455.62
478.346	446.62
478.564	427.62
478.783	459.62
479.002	464.62
479.22	459.62
479.439	483.62
479.658	485.62
479.876	495.62
480.095	466.62
480.313	502.62
480.532	491.62
480.751	514.62
480.969	512.62
481.188	567.62
481.406	594.62
481.624	532.62
481.843	508.62
482.061	503.62
482.28	478.62
482.498	481.62
482.717	489.62
482.935	484.62
483.153	488.62
483.372	486.62
483.59	486.62
483.808	486.62
484.027	490.62
484.245	503.62
484.463	490.62
484.681	481.62
484.9	500.62
485.118	510.62
485.336	495.62
485.554	483.62
485.772	480.62
485.99	485.62
486.209	510.62
486.427	516.62
486.645	513.62
486.863	520.62
487.081	541.62
487.299	530.62
487.517	548.62
487.735	529.62
487.953	524.62
488.171	524.62
488.389	536.62
488.607	543.62
488.825	529.62
489.043	524.62
489.261	546.62
489.479	545.62
489.696	545.62
489.914	554.62
490.132	541.62
490.35	550.62
490.568	543.62
490.786	571.62
491.003	577.62
491.221	610.62
491.439	583.62
491.657	610.62
491.874	588.62
492.092	615.62
492.31	624.62
492.527	634.62
492.745	597.62
492.963	626.62
493.18	612.62
493.398	619.62
493.615	633.62
493.833	626.62
494.05	641.62
494.268	676.62
494.485	623.62
494.703	614.62
494.92	659.62
495.138	651.62
495.355	638.62
495.573	626.62
495.79	657.62
496.008	639.62
496.225	631.62
496.442	642.62
496.66	670.62
496.877	633.62
497.094	633.62
497.312	635.62
497.529	641.62
497.746	646.62
497.963	659.62
498.181	679.62
498.398	676.62
498.615	692.62
498.832	700.62
499.049	683.62
499.267	688.62
499.484	709.62
499.701	734.62
499.918	740.62
500.135	760.62
500.352	763.62
500.569	774.62
500.786	790.62
501.003	770.62
501.22	765.62
501.437	772.62
501.654	772.62
501.871	738.62
