Data from 1980.PennyLincolnUp.Lamp.En5.5.200Scan.071819.P1_HRD10591_16-36-41-957.txt Node
Date: Thu Jul 18 16:36:41 EDT 2019
User: cochatt
Spectrometer: HR+D1059
Trigger mode: 1
Integration Time (sec): 1.000000E-1
Scans to average: 1
Electric dark correction enabled: true
Nonlinearity correction enabled: false
Boxcar width: 0
XAxis mode: Wavelengths
Number of Pixels in Spectrum: 2048
>>>>>Begin Spectral Data<<<<<
223.165	-21.38
223.4	-21.38
223.635	-21.38
223.869	-27.38
224.104	-14.38
224.338	-13.38
224.573	-8.38
224.808	-11.38
225.042	-9.38
225.277	1.62
225.511	-9.38
225.746	5.62
225.98	6.62
226.215	5.62
226.449	18.62
226.683	16.62
226.918	30.62
227.152	29.62
227.387	19.62
227.621	40.62
227.856	40.62
228.09	29.62
228.324	50.62
228.559	57.62
228.793	67.62
229.027	113.62
229.262	115.62
229.496	119.62
229.73	120.62
229.964	143.62
230.199	133.62
230.433	120.62
230.667	101.62
230.901	126.62
231.136	108.62
231.37	112.62
231.604	114.62
231.838	105.62
232.072	122.62
232.306	112.62
232.541	115.62
232.775	112.62
233.009	118.62
233.243	110.62
233.477	112.62
233.711	106.62
233.945	112.62
234.179	122.62
234.413	123.62
234.647	106.62
234.881	96.62
235.115	123.62
235.349	102.62
235.583	112.62
235.817	126.62
236.051	120.62
236.285	114.62
236.519	107.62
236.753	130.62
236.987	128.62
237.221	180.62
237.455	223.62
237.689	174.62
237.922	151.62
238.156	125.62
238.39	134.62
238.624	119.62
238.858	104.62
239.091	117.62
239.325	104.62
239.559	118.62
239.793	121.62
240.027	134.62
240.26	140.62
240.494	154.62
240.728	153.62
240.961	156.62
241.195	139.62
241.429	124.62
241.662	133.62
241.896	149.62
242.13	127.62
242.363	111.62
242.597	128.62
242.83	133.62
243.064	143.62
243.298	130.62
243.531	113.62
243.765	136.62
243.998	130.62
244.232	139.62
244.465	127.62
244.699	123.62
244.932	136.62
245.166	134.62
245.399	130.62
245.633	154.62
245.866	140.62
246.099	134.62
246.333	147.62
246.566	128.62
246.8	144.62
247.033	151.62
247.266	159.62
247.5	152.62
247.733	155.62
247.966	166.62
248.2	184.62
248.433	161.62
248.666	166.62
248.899	188.62
249.133	198.62
249.366	207.62
249.599	178.62
249.832	168.62
250.066	172.62
250.299	177.62
250.532	186.62
250.765	185.62
250.998	216.62
251.231	210.62
251.465	215.62
251.698	199.62
251.931	198.62
252.164	201.62
252.397	187.62
252.63	203.62
252.863	192.62
253.096	200.62
253.329	203.62
253.562	219.62
253.795	217.62
254.028	208.62
254.261	209.62
254.494	196.62
254.727	221.62
254.96	272.62
255.193	265.62
255.426	246.62
255.659	240.62
255.892	229.62
256.124	227.62
256.357	230.62
256.59	223.62
256.823	180.62
257.056	192.62
257.289	205.62
257.521	209.62
257.754	194.62
257.987	190.62
258.22	204.62
258.452	195.62
258.685	197.62
258.918	192.62
259.151	194.62
259.383	216.62
259.616	223.62
259.849	200.62
260.081	229.62
260.314	258.62
260.547	257.62
260.779	227.62
261.012	222.62
261.244	227.62
261.477	237.62
261.71	198.62
261.942	227.62
262.175	224.62
262.407	216.62
262.64	194.62
262.872	203.62
263.105	192.62
263.337	198.62
263.57	207.62
263.802	200.62
264.035	218.62
264.267	190.62
264.499	202.62
264.732	195.62
264.964	198.62
265.197	194.62
265.429	205.62
265.661	194.62
265.894	184.62
266.126	206.62
266.358	203.62
266.591	211.62
266.823	207.62
267.055	210.62
267.287	226.62
267.52	214.62
267.752	208.62
267.984	212.62
268.216	219.62
268.448	219.62
268.681	200.62
268.913	210.62
269.145	262.62
269.377	238.62
269.609	248.62
269.841	258.62
270.073	266.62
270.306	235.62
270.538	296.62
270.77	290.62
271.002	299.62
271.234	268.62
271.466	277.62
271.698	292.62
271.93	280.62
272.162	292.62
272.394	320.62
272.626	302.62
272.858	257.62
273.09	247.62
273.322	256.62
273.553	244.62
273.785	250.62
274.017	231.62
274.249	245.62
274.481	235.62
274.713	260.62
274.945	254.62
275.176	238.62
275.408	242.62
275.64	250.62
275.872	258.62
276.104	234.62
276.335	240.62
276.567	253.62
276.799	246.62
277.031	290.62
277.262	312.62
277.494	286.62
277.726	296.62
277.957	277.62
278.189	254.62
278.421	255.62
278.652	256.62
278.884	250.62
279.115	244.62
279.347	250.62
279.579	232.62
279.81	250.62
280.042	253.62
280.273	237.62
280.505	231.62
280.736	242.62
280.968	230.62
281.199	232.62
281.431	230.62
281.662	255.62
281.894	262.62
282.125	233.62
282.356	264.62
282.588	286.62
282.819	268.62
283.051	260.62
283.282	246.62
283.513	263.62
283.745	251.62
283.976	232.62
284.207	243.62
284.439	252.62
284.67	254.62
284.901	255.62
285.132	240.62
285.364	253.62
285.595	234.62
285.826	227.62
286.057	245.62
286.288	265.62
286.52	235.62
286.751	246.62
286.982	235.62
287.213	238.62
287.444	238.62
287.675	267.62
287.906	245.62
288.138	233.62
288.369	270.62
288.6	276.62
288.831	274.62
289.062	276.62
289.293	255.62
289.524	249.62
289.755	235.62
289.986	238.62
290.217	258.62
290.448	248.62
290.679	249.62
290.91	262.62
291.141	260.62
291.371	240.62
291.602	241.62
291.833	274.62
292.064	250.62
292.295	240.62
292.526	257.62
292.757	285.62
292.987	233.62
293.218	258.62
293.449	241.62
293.68	265.62
293.91	264.62
294.141	254.62
294.372	255.62
294.603	259.62
294.833	258.62
295.064	258.62
295.295	255.62
295.525	244.62
295.756	264.62
295.987	278.62
296.217	291.62
296.448	308.62
296.679	266.62
296.909	260.62
297.14	268.62
297.37	275.62
297.601	254.62
297.831	267.62
298.062	272.62
298.292	263.62
298.523	276.62
298.753	271.62
298.984	256.62
299.214	267.62
299.445	268.62
299.675	275.62
299.905	275.62
300.136	266.62
300.366	275.62
300.597	264.62
300.827	280.62
301.057	272.62
301.288	274.62
301.518	276.62
301.748	292.62
301.979	282.62
302.209	283.62
302.439	272.62
302.669	284.62
302.9	277.62
303.13	278.62
303.36	276.62
303.59	306.62
303.82	303.62
304.051	298.62
304.281	299.62
304.511	290.62
304.741	284.62
304.971	277.62
305.201	293.62
305.431	291.62
305.661	266.62
305.891	273.62
306.121	286.62
306.352	295.62
306.582	286.62
306.812	279.62
307.042	304.62
307.272	295.62
307.502	310.62
307.731	295.62
307.961	309.62
308.191	304.62
308.421	309.62
308.651	308.62
308.881	284.62
309.111	303.62
309.341	312.62
309.571	323.62
309.8	324.62
310.03	310.62
310.26	338.62
310.49	328.62
310.72	361.62
310.949	348.62
311.179	359.62
311.409	325.62
311.639	323.62
311.868	335.62
312.098	336.62
312.328	352.62
312.557	354.62
312.787	363.62
313.017	363.62
313.246	344.62
313.476	352.62
313.706	307.62
313.935	339.62
314.165	342.62
314.394	353.62
314.624	331.62
314.853	331.62
315.083	334.62
315.312	348.62
315.542	329.62
315.771	329.62
316.001	357.62
316.23	346.62
316.46	327.62
316.689	334.62
316.919	316.62
317.148	332.62
317.377	353.62
317.607	331.62
317.836	338.62
318.065	344.62
318.295	334.62
318.524	348.62
318.753	328.62
318.983	331.62
319.212	337.62
319.441	323.62
319.67	336.62
319.9	347.62
320.129	350.62
320.358	342.62
320.587	319.62
320.816	339.62
321.046	351.62
321.275	343.62
321.504	360.62
321.733	361.62
321.962	360.62
322.191	363.62
322.42	393.62
322.649	402.62
322.878	414.62
323.108	430.62
323.337	436.62
323.566	468.62
323.795	487.62
324.024	531.62
324.253	658.62
324.482	932.62
324.71	1411.62
324.939	2068.62
325.168	1795.62
325.397	958.62
325.626	642.62
325.855	533.62
326.084	478.62
326.313	459.62
326.542	474.62
326.77	515.62
326.999	622.62
327.228	827.62
327.457	1293.62
327.686	1570.62
327.914	1075.62
328.143	706.62
328.372	577.62
328.6	560.62
328.829	530.62
329.058	550.62
329.287	543.62
329.515	489.62
329.744	485.62
329.972	451.62
330.201	502.62
330.43	524.62
330.658	529.62
330.887	593.62
331.115	564.62
331.344	467.62
331.572	425.62
331.801	447.62
332.03	434.62
332.258	425.62
332.486	402.62
332.715	409.62
332.943	393.62
333.172	397.62
333.4	407.62
333.629	395.62
333.857	435.62
334.085	428.62
334.314	457.62
334.542	459.62
334.771	474.62
334.999	422.62
335.227	411.62
335.455	407.62
335.684	395.62
335.912	383.62
336.14	415.62
336.369	376.62
336.597	411.62
336.825	411.62
337.053	403.62
337.281	376.62
337.51	359.62
337.738	382.62
337.966	374.62
338.194	395.62
338.422	392.62
338.65	373.62
338.878	372.62
339.106	362.62
339.334	374.62
339.562	351.62
339.79	366.62
340.018	367.62
340.246	375.62
340.474	382.62
340.702	372.62
340.93	378.62
341.158	382.62
341.386	385.62
341.614	367.62
341.842	376.62
342.07	372.62
342.298	371.62
342.526	355.62
342.754	366.62
342.981	342.62
343.209	351.62
343.437	351.62
343.665	367.62
343.893	366.62
344.12	358.62
344.348	374.62
344.576	373.62
344.804	377.62
345.031	417.62
345.259	419.62
345.487	388.62
345.714	392.62
345.942	377.62
346.17	369.62
346.397	371.62
346.625	374.62
346.853	364.62
347.08	382.62
347.308	375.62
347.535	379.62
347.763	384.62
347.99	374.62
348.218	386.62
348.445	387.62
348.673	377.62
348.9	370.62
349.128	375.62
349.355	356.62
349.583	366.62
349.81	363.62
350.037	341.62
350.265	368.62
350.492	365.62
350.72	347.62
350.947	350.62
351.174	382.62
351.402	381.62
351.629	382.62
351.856	386.62
352.083	375.62
352.311	388.62
352.538	378.62
352.765	378.62
352.992	371.62
353.22	381.62
353.447	368.62
353.674	378.62
353.901	359.62
354.128	340.62
354.355	331.62
354.583	337.62
354.81	325.62
355.037	333.62
355.264	338.62
355.491	351.62
355.718	331.62
355.945	326.62
356.172	339.62
356.399	333.62
356.626	329.62
356.853	337.62
357.08	319.62
357.307	331.62
357.534	312.62
357.761	347.62
357.988	351.62
358.215	342.62
358.441	349.62
358.668	320.62
358.895	331.62
359.122	358.62
359.349	355.62
359.576	354.62
359.802	378.62
360.029	432.62
360.256	422.62
360.483	411.62
360.709	399.62
360.936	375.62
361.163	393.62
361.39	381.62
361.616	356.62
361.843	356.62
362.07	360.62
362.296	352.62
362.523	365.62
362.749	368.62
362.976	356.62
363.203	369.62
363.429	345.62
363.656	366.62
363.882	352.62
364.109	329.62
364.335	335.62
364.562	346.62
364.788	347.62
365.015	356.62
365.241	343.62
365.468	364.62
365.694	363.62
365.92	358.62
366.147	346.62
366.373	346.62
366.599	343.62
366.826	344.62
367.052	346.62
367.278	347.62
367.505	343.62
367.731	358.62
367.957	355.62
368.184	363.62
368.41	341.62
368.636	372.62
368.862	339.62
369.089	364.62
369.315	349.62
369.541	353.62
369.767	358.62
369.993	365.62
370.219	330.62
370.445	338.62
370.672	346.62
370.898	342.62
371.124	345.62
371.35	342.62
371.576	357.62
371.802	369.62
372.028	342.62
372.254	322.62
372.48	327.62
372.706	332.62
372.932	326.62
373.158	344.62
373.384	333.62
373.61	335.62
373.835	345.62
374.061	346.62
374.287	354.62
374.513	341.62
374.739	364.62
374.965	334.62
375.191	354.62
375.416	336.62
375.642	340.62
375.868	343.62
376.094	342.62
376.319	363.62
376.545	318.62
376.771	351.62
376.997	353.62
377.222	343.62
377.448	332.62
377.674	329.62
377.899	339.62
378.125	344.62
378.35	330.62
378.576	346.62
378.802	353.62
379.027	353.62
379.253	352.62
379.478	338.62
379.704	358.62
379.929	345.62
380.155	329.62
380.38	352.62
380.606	346.62
380.831	344.62
381.057	355.62
381.282	336.62
381.507	361.62
381.733	339.62
381.958	340.62
382.184	336.62
382.409	352.62
382.634	359.62
382.86	354.62
383.085	349.62
383.31	352.62
383.535	357.62
383.761	349.62
383.986	346.62
384.211	381.62
384.436	358.62
384.662	335.62
384.887	348.62
385.112	343.62
385.337	366.62
385.562	358.62
385.787	361.62
386.013	372.62
386.238	377.62
386.463	376.62
386.688	364.62
386.913	345.62
387.138	373.62
387.363	359.62
387.588	383.62
387.813	380.62
388.038	376.62
388.263	366.62
388.488	386.62
388.713	370.62
388.938	376.62
389.163	371.62
389.387	382.62
389.612	384.62
389.837	374.62
390.062	372.62
390.287	371.62
390.512	366.62
390.736	355.62
390.961	373.62
391.186	363.62
391.411	353.62
391.636	374.62
391.86	360.62
392.085	359.62
392.31	361.62
392.534	376.62
392.759	341.62
392.984	354.62
393.208	384.62
393.433	372.62
393.658	357.62
393.882	384.62
394.107	367.62
394.331	368.62
394.556	362.62
394.78	370.62
395.005	380.62
395.229	373.62
395.454	370.62
395.678	383.62
395.903	371.62
396.127	403.62
396.352	434.62
396.576	388.62
396.801	377.62
397.025	373.62
397.249	392.62
397.474	396.62
397.698	388.62
397.922	379.62
398.147	416.62
398.371	433.62
398.595	426.62
398.82	414.62
399.044	417.62
399.268	413.62
399.492	453.62
399.717	451.62
399.941	477.62
400.165	496.62
400.389	535.62
400.613	488.62
400.837	443.62
401.062	433.62
401.286	430.62
401.51	405.62
401.734	400.62
401.958	407.62
402.182	422.62
402.406	426.62
402.63	437.62
402.854	431.62
403.078	438.62
403.302	429.62
403.526	419.62
403.75	436.62
403.974	418.62
404.198	416.62
404.422	438.62
404.645	434.62
404.869	444.62
405.093	444.62
405.317	490.62
405.541	530.62
405.765	498.62
405.988	462.62
406.212	470.62
406.436	503.62
406.66	506.62
406.883	471.62
407.107	478.62
407.331	508.62
407.555	597.62
407.778	586.62
408.002	547.62
408.226	489.62
408.449	492.62
408.673	491.62
408.896	505.62
409.12	540.62
409.344	510.62
409.567	487.62
409.791	438.62
410.014	412.62
410.238	435.62
410.461	447.62
410.685	460.62
410.908	467.62
411.132	492.62
411.355	523.62
411.578	513.62
411.802	467.62
412.025	446.62
412.249	441.62
412.472	435.62
412.695	502.62
412.919	483.62
413.142	463.62
413.365	435.62
413.589	431.62
413.812	417.62
414.035	414.62
414.258	410.62
414.482	438.62
414.705	420.62
414.928	418.62
415.151	407.62
415.374	397.62
415.597	392.62
415.821	400.62
416.044	416.62
416.267	413.62
416.49	410.62
416.713	409.62
416.936	407.62
417.159	419.62
417.382	418.62
417.605	409.62
417.828	426.62
418.051	448.62
418.274	438.62
418.497	409.62
418.72	432.62
418.943	407.62
419.166	437.62
419.389	427.62
419.611	434.62
419.834	454.62
420.057	450.62
420.28	437.62
420.503	421.62
420.726	437.62
420.948	470.62
421.171	503.62
421.394	530.62
421.617	458.62
421.839	427.62
422.062	460.62
422.285	447.62
422.507	522.62
422.73	563.62
422.953	576.62
423.175	495.62
423.398	451.62
423.621	465.62
423.843	470.62
424.066	459.62
424.288	476.62
424.511	486.62
424.733	536.62
424.956	622.62
425.178	591.62
425.401	582.62
425.623	617.62
425.846	515.62
426.068	499.62
426.291	459.62
426.513	464.62
426.735	499.62
426.958	526.62
427.18	620.62
427.402	724.62
427.625	816.62
427.847	690.62
428.069	596.62
428.292	532.62
428.514	503.62
428.736	461.62
428.958	456.62
429.181	441.62
429.403	430.62
429.625	459.62
429.847	485.62
430.069	555.62
430.292	558.62
430.514	449.62
430.736	453.62
430.958	442.62
431.18	429.62
431.402	418.62
431.624	408.62
431.846	418.62
432.068	404.62
432.29	410.62
432.512	417.62
432.734	437.62
432.956	404.62
433.178	422.62
433.4	430.62
433.622	442.62
433.844	444.62
434.066	403.62
434.287	416.62
434.509	409.62
434.731	430.62
434.953	410.62
435.175	434.62
435.397	475.62
435.618	476.62
435.84	512.62
436.062	594.62
436.284	683.62
436.505	558.62
436.727	509.62
436.949	459.62
437.17	461.62
437.392	462.62
437.614	437.62
437.835	510.62
438.057	619.62
438.278	684.62
438.5	679.62
438.721	725.62
438.943	705.62
439.165	582.62
439.386	511.62
439.608	490.62
439.829	526.62
440.05	537.62
440.272	582.62
440.493	528.62
440.715	498.62
440.936	481.62
441.158	465.62
441.379	448.62
441.6	465.62
441.822	479.62
442.043	489.62
442.264	604.62
442.486	657.62
442.707	564.62
442.928	512.62
443.149	508.62
443.371	517.62
443.592	591.62
443.813	657.62
444.034	682.62
444.255	608.62
444.476	506.62
444.698	506.62
444.919	491.62
445.14	570.62
445.361	544.62
445.582	516.62
445.803	565.62
446.024	679.62
446.245	681.62
446.466	638.62
446.687	542.62
446.908	495.62
447.129	499.62
447.35	472.62
447.571	463.62
447.792	433.62
448.013	458.62
448.234	453.62
448.455	514.62
448.675	628.62
448.896	704.62
449.117	631.62
449.338	572.62
449.559	675.62
449.779	776.62
450	621.62
450.221	511.62
450.442	458.62
450.662	462.62
450.883	464.62
451.104	482.62
451.324	458.62
451.545	442.62
451.766	409.62
451.986	410.62
452.207	411.62
452.428	412.62
452.648	397.62
452.869	427.62
453.089	433.62
453.31	424.62
453.53	424.62
453.751	404.62
453.971	402.62
454.192	444.62
454.412	414.62
454.633	416.62
454.853	404.62
455.073	414.62
455.294	446.62
455.514	512.62
455.734	467.62
455.955	402.62
456.175	389.62
456.395	400.62
456.616	369.62
456.836	390.62
457.056	372.62
457.276	382.62
457.497	384.62
457.717	381.62
457.937	382.62
458.157	375.62
458.377	401.62
458.598	397.62
458.818	474.62
459.038	568.62
459.258	575.62
459.478	479.62
459.698	434.62
459.918	396.62
460.138	423.62
460.358	422.62
460.578	395.62
460.798	417.62
461.018	411.62
461.238	409.62
461.458	405.62
461.678	397.62
461.898	417.62
462.118	411.62
462.338	425.62
462.558	412.62
462.777	428.62
462.997	411.62
463.217	431.62
463.437	431.62
463.657	441.62
463.876	438.62
464.096	422.62
464.316	429.62
464.536	451.62
464.755	450.62
464.975	455.62
465.195	506.62
465.414	577.62
465.634	510.62
465.854	422.62
466.073	427.62
466.293	413.62
466.512	393.62
466.732	410.62
466.951	397.62
467.171	402.62
467.391	404.62
467.61	437.62
467.829	430.62
468.049	411.62
468.268	426.62
468.488	394.62
468.707	383.62
468.927	411.62
469.146	394.62
469.365	387.62
469.585	399.62
469.804	406.62
470.023	412.62
470.243	406.62
470.462	414.62
470.681	441.62
470.901	451.62
471.12	425.62
471.339	424.62
471.558	418.62
471.777	425.62
471.997	422.62
472.216	410.62
472.435	466.62
472.654	433.62
472.873	400.62
473.092	406.62
473.311	402.62
473.53	419.62
473.749	407.62
473.968	448.62
474.187	561.62
474.406	580.62
474.625	479.62
474.844	456.62
475.063	420.62
475.282	409.62
475.501	425.62
475.72	425.62
475.939	417.62
476.158	430.62
476.377	435.62
476.596	404.62
476.814	448.62
477.033	456.62
477.252	448.62
477.471	454.62
477.69	442.62
477.908	438.62
478.127	449.62
478.346	444.62
478.564	418.62
478.783	444.62
479.002	442.62
479.22	464.62
479.439	462.62
479.658	484.62
479.876	504.62
480.095	516.62
480.313	512.62
480.532	545.62
480.751	498.62
480.969	524.62
481.188	553.62
481.406	608.62
481.624	524.62
481.843	500.62
482.061	492.62
482.28	506.62
482.498	495.62
482.717	468.62
482.935	488.62
483.153	507.62
483.372	488.62
483.59	483.62
483.808	489.62
484.027	482.62
484.245	484.62
484.463	506.62
484.681	503.62
484.9	514.62
485.118	494.62
485.336	480.62
485.554	495.62
485.772	498.62
485.99	488.62
486.209	494.62
486.427	498.62
486.645	531.62
486.863	548.62
487.081	538.62
487.299	530.62
487.517	499.62
487.735	528.62
487.953	535.62
488.171	533.62
488.389	548.62
488.607	526.62
488.825	550.62
489.043	513.62
489.261	540.62
489.479	540.62
489.696	519.62
489.914	535.62
490.132	535.62
490.35	535.62
490.568	566.62
490.786	562.62
491.003	565.62
491.221	578.62
491.439	604.62
491.657	596.62
491.874	605.62
492.092	626.62
492.31	590.62
492.527	618.62
492.745	622.62
492.963	618.62
493.18	630.62
493.398	622.62
493.615	634.62
493.833	639.62
494.05	602.62
494.268	603.62
494.485	614.62
494.703	628.62
494.92	655.62
495.138	618.62
495.355	631.62
495.573	635.62
495.79	635.62
496.008	642.62
496.225	618.62
496.442	649.62
496.66	648.62
496.877	652.62
497.094	628.62
497.312	662.62
497.529	656.62
497.746	671.62
497.963	661.62
498.181	634.62
498.398	676.62
498.615	678.62
498.832	678.62
499.049	688.62
499.267	679.62
499.484	696.62
499.701	715.62
499.918	742.62
500.135	770.62
500.352	772.62
500.569	802.62
500.786	787.62
501.003	754.62
501.22	778.62
501.437	769.62
501.654	776.62
501.871	770.62
