Data from 1980.PennyLincolnUp.Lamp.En5.5.200Scan.071819.P1_HRD10591_16-37-26-957.txt Node
Date: Thu Jul 18 16:37:26 EDT 2019
User: cochatt
Spectrometer: HR+D1059
Trigger mode: 1
Integration Time (sec): 1.000000E-1
Scans to average: 1
Electric dark correction enabled: true
Nonlinearity correction enabled: false
Boxcar width: 0
XAxis mode: Wavelengths
Number of Pixels in Spectrum: 2048
>>>>>Begin Spectral Data<<<<<
223.165	-6.5
223.4	-6.5
223.635	-6.5
223.869	-6.5
224.104	-12.5
224.338	-17.5
224.573	-12.5
224.808	-19.5
225.042	-10.5
225.277	-0.5
225.511	-0.5
225.746	-6.5
225.98	-2.5
226.215	-2.5
226.449	21.5
226.683	27.5
226.918	13.5
227.152	35.5
227.387	35.5
227.621	33.5
227.856	35.5
228.09	50.5
228.324	41.5
228.559	58.5
228.793	83.5
229.027	103.5
229.262	113.5
229.496	125.5
229.73	147.5
229.964	156.5
230.199	130.5
230.433	125.5
230.667	115.5
230.901	107.5
231.136	106.5
231.37	107.5
231.604	122.5
231.838	127.5
232.072	117.5
232.306	105.5
232.541	111.5
232.775	110.5
233.009	125.5
233.243	110.5
233.477	113.5
233.711	107.5
233.945	106.5
234.179	99.5
234.413	127.5
234.647	123.5
234.881	117.5
235.115	101.5
235.349	120.5
235.583	131.5
235.817	127.5
236.051	119.5
236.285	135.5
236.519	111.5
236.753	144.5
236.987	152.5
237.221	194.5
237.455	236.5
237.689	191.5
237.922	151.5
238.156	140.5
238.39	153.5
238.624	124.5
238.858	125.5
239.091	120.5
239.325	125.5
239.559	124.5
239.793	125.5
240.027	131.5
240.26	127.5
240.494	155.5
240.728	155.5
240.961	164.5
241.195	155.5
241.429	139.5
241.662	132.5
241.896	131.5
242.13	135.5
242.363	127.5
242.597	143.5
242.83	141.5
243.064	140.5
243.298	133.5
243.531	122.5
243.765	139.5
243.998	162.5
244.232	127.5
244.465	143.5
244.699	158.5
244.932	156.5
245.166	150.5
245.399	162.5
245.633	134.5
245.866	142.5
246.099	153.5
246.333	141.5
246.566	147.5
246.8	155.5
247.033	141.5
247.266	153.5
247.5	173.5
247.733	172.5
247.966	178.5
248.2	157.5
248.433	169.5
248.666	175.5
248.899	186.5
249.133	197.5
249.366	222.5
249.599	216.5
249.832	200.5
250.066	196.5
250.299	195.5
250.532	187.5
250.765	205.5
250.998	227.5
251.231	243.5
251.465	213.5
251.698	203.5
251.931	208.5
252.164	199.5
252.397	191.5
252.63	211.5
252.863	207.5
253.096	219.5
253.329	224.5
253.562	238.5
253.795	232.5
254.028	230.5
254.261	240.5
254.494	249.5
254.727	290.5
254.96	300.5
255.193	296.5
255.426	267.5
255.659	250.5
255.892	251.5
256.124	241.5
256.357	250.5
256.59	230.5
256.823	238.5
257.056	219.5
257.289	217.5
257.521	211.5
257.754	218.5
257.987	207.5
258.22	206.5
258.452	195.5
258.685	211.5
258.918	211.5
259.151	204.5
259.383	236.5
259.616	229.5
259.849	215.5
260.081	230.5
260.314	261.5
260.547	266.5
260.779	265.5
261.012	254.5
261.244	227.5
261.477	240.5
261.71	236.5
261.942	245.5
262.175	261.5
262.407	228.5
262.64	238.5
262.872	212.5
263.105	207.5
263.337	223.5
263.57	215.5
263.802	213.5
264.035	223.5
264.267	212.5
264.499	213.5
264.732	213.5
264.964	207.5
265.197	213.5
265.429	223.5
265.661	208.5
265.894	211.5
266.126	227.5
266.358	205.5
266.591	223.5
266.823	217.5
267.055	216.5
267.287	231.5
267.52	221.5
267.752	226.5
267.984	203.5
268.216	222.5
268.448	225.5
268.681	214.5
268.913	249.5
269.145	266.5
269.377	278.5
269.609	286.5
269.841	255.5
270.073	278.5
270.306	305.5
270.538	328.5
270.77	329.5
271.002	302.5
271.234	301.5
271.466	293.5
271.698	317.5
271.93	335.5
272.162	334.5
272.394	311.5
272.626	315.5
272.858	307.5
273.09	291.5
273.322	291.5
273.553	273.5
273.785	263.5
274.017	270.5
274.249	277.5
274.481	271.5
274.713	259.5
274.945	277.5
275.176	272.5
275.408	254.5
275.64	254.5
275.872	254.5
276.104	266.5
276.335	236.5
276.567	292.5
276.799	284.5
277.031	306.5
277.262	316.5
277.494	326.5
277.726	311.5
277.957	289.5
278.189	273.5
278.421	267.5
278.652	272.5
278.884	279.5
279.115	252.5
279.347	259.5
279.579	257.5
279.81	244.5
280.042	267.5
280.273	258.5
280.505	263.5
280.736	268.5
280.968	251.5
281.199	254.5
281.431	270.5
281.662	246.5
281.894	263.5
282.125	275.5
282.356	279.5
282.588	307.5
282.819	299.5
283.051	248.5
283.282	266.5
283.513	270.5
283.745	266.5
283.976	266.5
284.207	252.5
284.439	265.5
284.67	260.5
284.901	269.5
285.132	253.5
285.364	248.5
285.595	263.5
285.826	241.5
286.057	274.5
286.288	269.5
286.52	253.5
286.751	257.5
286.982	260.5
287.213	254.5
287.444	259.5
287.675	269.5
287.906	254.5
288.138	298.5
288.369	286.5
288.6	273.5
288.831	273.5
289.062	278.5
289.293	289.5
289.524	260.5
289.755	283.5
289.986	279.5
290.217	292.5
290.448	277.5
290.679	293.5
290.91	263.5
291.141	266.5
291.371	266.5
291.602	291.5
291.833	263.5
292.064	286.5
292.295	269.5
292.526	283.5
292.757	264.5
292.987	277.5
293.218	261.5
293.449	272.5
293.68	247.5
293.91	269.5
294.141	266.5
294.372	282.5
294.603	286.5
294.833	287.5
295.064	260.5
295.295	285.5
295.525	266.5
295.756	289.5
295.987	297.5
296.217	315.5
296.448	318.5
296.679	279.5
296.909	266.5
297.14	277.5
297.37	278.5
297.601	281.5
297.831	283.5
298.062	282.5
298.292	266.5
298.523	285.5
298.753	287.5
298.984	284.5
299.214	288.5
299.445	282.5
299.675	283.5
299.905	314.5
300.136	314.5
300.366	287.5
300.597	275.5
300.827	279.5
301.057	296.5
301.288	299.5
301.518	307.5
301.748	294.5
301.979	298.5
302.209	302.5
302.439	294.5
302.669	309.5
302.9	300.5
303.13	292.5
303.36	310.5
303.59	305.5
303.82	343.5
304.051	322.5
304.281	300.5
304.511	299.5
304.741	310.5
304.971	289.5
305.201	294.5
305.431	283.5
305.661	293.5
305.891	284.5
306.121	297.5
306.352	319.5
306.582	333.5
306.812	298.5
307.042	300.5
307.272	314.5
307.502	323.5
307.731	313.5
307.961	319.5
308.191	319.5
308.421	331.5
308.651	329.5
308.881	317.5
309.111	316.5
309.341	325.5
309.571	327.5
309.8	356.5
310.03	347.5
310.26	369.5
310.49	369.5
310.72	378.5
310.949	374.5
311.179	383.5
311.409	357.5
311.639	367.5
311.868	359.5
312.098	371.5
312.328	382.5
312.557	399.5
312.787	394.5
313.017	416.5
313.246	389.5
313.476	354.5
313.706	357.5
313.935	373.5
314.165	397.5
314.394	380.5
314.624	391.5
314.853	377.5
315.083	364.5
315.312	372.5
315.542	336.5
315.771	348.5
316.001	342.5
316.23	357.5
316.46	351.5
316.689	362.5
316.919	358.5
317.148	376.5
317.377	369.5
317.607	380.5
317.836	355.5
318.065	373.5
318.295	353.5
318.524	357.5
318.753	371.5
318.983	359.5
319.212	355.5
319.441	369.5
319.67	409.5
319.9	381.5
320.129	371.5
320.358	377.5
320.587	379.5
320.816	399.5
321.046	413.5
321.275	380.5
321.504	377.5
321.733	378.5
321.962	404.5
322.191	399.5
322.42	424.5
322.649	442.5
322.878	452.5
323.108	467.5
323.337	492.5
323.566	513.5
323.795	565.5
324.024	611.5
324.253	756.5
324.482	1077.5
324.71	1673.5
324.939	2433.5
325.168	2122.5
325.397	1132.5
325.626	716.5
325.855	590.5
326.084	533.5
326.313	535.5
326.542	520.5
326.77	585.5
326.999	702.5
327.228	956.5
327.457	1479.5
327.686	1841.5
327.914	1229.5
328.143	787.5
328.372	711.5
328.6	651.5
328.829	616.5
329.058	622.5
329.287	641.5
329.515	603.5
329.744	521.5
329.972	534.5
330.201	554.5
330.43	573.5
330.658	625.5
330.887	648.5
331.115	631.5
331.344	542.5
331.572	502.5
331.801	475.5
332.03	482.5
332.258	467.5
332.486	436.5
332.715	424.5
332.943	422.5
333.172	415.5
333.4	425.5
333.629	439.5
333.857	470.5
334.085	476.5
334.314	494.5
334.542	525.5
334.771	519.5
334.999	484.5
335.227	433.5
335.455	445.5
335.684	412.5
335.912	395.5
336.14	410.5
336.369	420.5
336.597	431.5
336.825	442.5
337.053	419.5
337.281	413.5
337.51	400.5
337.738	402.5
337.966	410.5
338.194	402.5
338.422	421.5
338.65	392.5
338.878	397.5
339.106	415.5
339.334	418.5
339.562	401.5
339.79	388.5
340.018	395.5
340.246	416.5
340.474	420.5
340.702	375.5
340.93	390.5
341.158	406.5
341.386	404.5
341.614	394.5
341.842	413.5
342.07	399.5
342.298	397.5
342.526	398.5
342.754	383.5
342.981	379.5
343.209	399.5
343.437	396.5
343.665	394.5
343.893	392.5
344.12	413.5
344.348	399.5
344.576	407.5
344.804	398.5
345.031	404.5
345.259	445.5
345.487	424.5
345.714	422.5
345.942	407.5
346.17	411.5
346.397	386.5
346.625	385.5
346.853	401.5
347.08	384.5
347.308	396.5
347.535	423.5
347.763	419.5
347.99	409.5
348.218	412.5
348.445	409.5
348.673	425.5
348.9	394.5
349.128	394.5
349.355	379.5
349.583	383.5
349.81	392.5
350.037	399.5
350.265	379.5
350.492	397.5
350.72	397.5
350.947	380.5
351.174	398.5
351.402	398.5
351.629	410.5
351.856	426.5
352.083	405.5
352.311	407.5
352.538	434.5
352.765	413.5
352.992	416.5
353.22	397.5
353.447	412.5
353.674	385.5
353.901	381.5
354.128	385.5
354.355	374.5
354.583	362.5
354.81	375.5
355.037	369.5
355.264	363.5
355.491	348.5
355.718	363.5
355.945	348.5
356.172	362.5
356.399	346.5
356.626	343.5
356.853	363.5
357.08	350.5
357.307	350.5
357.534	350.5
357.761	377.5
357.988	361.5
358.215	365.5
358.441	372.5
358.668	367.5
358.895	342.5
359.122	370.5
359.349	378.5
359.576	404.5
359.802	414.5
360.029	463.5
360.256	471.5
360.483	444.5
360.709	411.5
360.936	417.5
361.163	389.5
361.39	403.5
361.616	394.5
361.843	393.5
362.07	403.5
362.296	423.5
362.523	388.5
362.749	390.5
362.976	392.5
363.203	375.5
363.429	381.5
363.656	381.5
363.882	382.5
364.109	371.5
364.335	378.5
364.562	374.5
364.788	388.5
365.015	385.5
365.241	375.5
365.468	382.5
365.694	400.5
365.92	381.5
366.147	417.5
366.373	371.5
366.599	370.5
366.826	356.5
367.052	367.5
367.278	369.5
367.505	371.5
367.731	370.5
367.957	366.5
368.184	373.5
368.41	378.5
368.636	395.5
368.862	404.5
369.089	384.5
369.315	370.5
369.541	373.5
369.767	385.5
369.993	394.5
370.219	377.5
370.445	384.5
370.672	363.5
370.898	343.5
371.124	368.5
371.35	333.5
371.576	362.5
371.802	385.5
372.028	373.5
372.254	361.5
372.48	373.5
372.706	371.5
372.932	370.5
373.158	357.5
373.384	360.5
373.61	342.5
373.835	371.5
374.061	367.5
374.287	380.5
374.513	364.5
374.739	364.5
374.965	367.5
375.191	376.5
375.416	365.5
375.642	362.5
375.868	379.5
376.094	347.5
376.319	381.5
376.545	364.5
376.771	351.5
376.997	344.5
377.222	365.5
377.448	354.5
377.674	354.5
377.899	376.5
378.125	364.5
378.35	359.5
378.576	365.5
378.802	345.5
379.027	365.5
379.253	346.5
379.478	365.5
379.704	371.5
379.929	369.5
380.155	365.5
380.38	373.5
380.606	373.5
380.831	366.5
381.057	365.5
381.282	357.5
381.507	357.5
381.733	359.5
381.958	365.5
382.184	349.5
382.409	366.5
382.634	371.5
382.86	375.5
383.085	374.5
383.31	358.5
383.535	385.5
383.761	371.5
383.986	372.5
384.211	383.5
384.436	381.5
384.662	378.5
384.887	345.5
385.112	359.5
385.337	375.5
385.562	399.5
385.787	392.5
386.013	391.5
386.238	406.5
386.463	405.5
386.688	382.5
386.913	384.5
387.138	367.5
387.363	364.5
387.588	386.5
387.813	385.5
388.038	385.5
388.263	367.5
388.488	379.5
388.713	405.5
388.938	396.5
389.163	376.5
389.387	395.5
389.612	384.5
389.837	384.5
390.062	385.5
390.287	381.5
390.512	394.5
390.736	381.5
390.961	381.5
391.186	392.5
391.411	383.5
391.636	381.5
391.86	396.5
392.085	391.5
392.31	404.5
392.534	405.5
392.759	380.5
392.984	361.5
393.208	387.5
393.433	381.5
393.658	408.5
393.882	394.5
394.107	405.5
394.331	408.5
394.556	399.5
394.78	401.5
395.005	381.5
395.229	385.5
395.454	366.5
395.678	407.5
395.903	406.5
396.127	421.5
396.352	430.5
396.576	403.5
396.801	409.5
397.025	395.5
397.249	407.5
397.474	406.5
397.698	413.5
397.922	429.5
398.147	430.5
398.371	453.5
398.595	427.5
398.82	428.5
399.044	431.5
399.268	443.5
399.492	454.5
399.717	494.5
399.941	492.5
400.165	524.5
400.389	534.5
400.613	509.5
400.837	467.5
401.062	448.5
401.286	433.5
401.51	430.5
401.734	443.5
401.958	437.5
402.182	455.5
402.406	446.5
402.63	444.5
402.854	455.5
403.078	440.5
403.302	451.5
403.526	458.5
403.75	458.5
403.974	439.5
404.198	426.5
404.422	462.5
404.645	469.5
404.869	474.5
405.093	488.5
405.317	532.5
405.541	565.5
405.765	553.5
405.988	498.5
406.212	499.5
406.436	523.5
406.66	531.5
406.883	531.5
407.107	533.5
407.331	556.5
407.555	629.5
407.778	616.5
408.002	567.5
408.226	520.5
408.449	527.5
408.673	499.5
408.896	534.5
409.12	606.5
409.344	571.5
409.567	490.5
409.791	469.5
410.014	457.5
410.238	464.5
410.461	439.5
410.685	470.5
410.908	487.5
411.132	516.5
411.355	572.5
411.578	537.5
411.802	479.5
412.025	460.5
412.249	482.5
412.472	495.5
412.695	533.5
412.919	529.5
413.142	481.5
413.365	473.5
413.589	461.5
413.812	430.5
414.035	449.5
414.258	468.5
414.482	456.5
414.705	441.5
414.928	412.5
415.151	421.5
415.374	432.5
415.597	430.5
415.821	433.5
416.044	417.5
416.267	443.5
416.49	425.5
416.713	431.5
416.936	422.5
417.159	421.5
417.382	423.5
417.605	436.5
417.828	472.5
418.051	473.5
418.274	467.5
418.497	465.5
418.72	450.5
418.943	444.5
419.166	456.5
419.389	484.5
419.611	461.5
419.834	458.5
420.057	481.5
420.28	474.5
420.503	461.5
420.726	476.5
420.948	481.5
421.171	527.5
421.394	561.5
421.617	498.5
421.839	472.5
422.062	472.5
422.285	462.5
422.507	526.5
422.73	612.5
422.953	590.5
423.175	520.5
423.398	503.5
423.621	498.5
423.843	513.5
424.066	516.5
424.288	504.5
424.511	523.5
424.733	571.5
424.956	644.5
425.178	662.5
425.401	647.5
425.623	651.5
425.846	564.5
426.068	543.5
426.291	513.5
426.513	515.5
426.735	509.5
426.958	556.5
427.18	645.5
427.402	764.5
427.625	870.5
427.847	795.5
428.069	678.5
428.292	603.5
428.514	533.5
428.736	513.5
428.958	493.5
429.181	505.5
429.403	486.5
429.625	502.5
429.847	519.5
430.069	586.5
430.292	573.5
430.514	503.5
430.736	479.5
430.958	495.5
431.18	446.5
431.402	454.5
431.624	450.5
431.846	449.5
432.068	442.5
432.29	441.5
432.512	467.5
432.734	465.5
432.956	454.5
433.178	469.5
433.4	485.5
433.622	443.5
433.844	446.5
434.066	429.5
434.287	433.5
434.509	441.5
434.731	469.5
434.953	477.5
435.175	477.5
435.397	494.5
435.618	519.5
435.84	568.5
436.062	659.5
436.284	706.5
436.505	605.5
436.727	565.5
436.949	501.5
437.17	478.5
437.392	501.5
437.614	513.5
437.835	535.5
438.057	651.5
438.278	757.5
438.5	733.5
438.721	778.5
438.943	719.5
439.165	586.5
439.386	547.5
439.608	546.5
439.829	542.5
440.05	585.5
440.272	595.5
440.493	587.5
440.715	537.5
440.936	492.5
441.158	493.5
441.379	488.5
441.6	503.5
441.822	545.5
442.043	567.5
442.264	654.5
442.486	688.5
442.707	605.5
442.928	544.5
443.149	533.5
443.371	596.5
443.592	615.5
443.813	690.5
444.034	730.5
444.255	605.5
444.476	545.5
444.698	531.5
444.919	519.5
445.14	649.5
445.361	580.5
445.582	567.5
445.803	650.5
446.024	743.5
446.245	746.5
446.466	699.5
446.687	572.5
446.908	531.5
447.129	492.5
447.35	488.5
447.571	476.5
447.792	491.5
448.013	491.5
448.234	504.5
448.455	567.5
448.675	679.5
448.896	785.5
449.117	667.5
449.338	638.5
449.559	705.5
449.779	801.5
450	664.5
450.221	574.5
450.442	513.5
450.662	479.5
450.883	475.5
451.104	515.5
451.324	518.5
451.545	475.5
451.766	455.5
451.986	433.5
452.207	435.5
452.428	444.5
452.648	439.5
452.869	419.5
453.089	425.5
453.31	444.5
453.53	463.5
453.751	450.5
453.971	429.5
454.192	466.5
454.412	471.5
454.633	438.5
454.853	428.5
455.073	442.5
455.294	456.5
455.514	527.5
455.734	520.5
455.955	425.5
456.175	415.5
456.395	409.5
456.616	407.5
456.836	412.5
457.056	399.5
457.276	416.5
457.497	406.5
457.717	387.5
457.937	418.5
458.157	439.5
458.377	438.5
458.598	439.5
458.818	515.5
459.038	604.5
459.258	618.5
459.478	513.5
459.698	469.5
459.918	461.5
460.138	443.5
460.358	433.5
460.578	429.5
460.798	460.5
461.018	460.5
461.238	451.5
461.458	409.5
461.678	430.5
461.898	420.5
462.118	426.5
462.338	411.5
462.558	444.5
462.777	459.5
462.997	458.5
463.217	463.5
463.437	466.5
463.657	449.5
463.876	455.5
464.096	446.5
464.316	452.5
464.536	457.5
464.755	454.5
464.975	474.5
465.195	537.5
465.414	629.5
465.634	551.5
465.854	491.5
466.073	498.5
466.293	462.5
466.512	441.5
466.732	423.5
466.951	433.5
467.171	425.5
467.391	416.5
467.61	447.5
467.829	463.5
468.049	466.5
468.268	439.5
468.488	439.5
468.707	447.5
468.927	425.5
469.146	415.5
469.365	426.5
469.585	437.5
469.804	437.5
470.023	444.5
470.243	455.5
470.462	443.5
470.681	467.5
470.901	462.5
471.12	445.5
471.339	451.5
471.558	433.5
471.777	441.5
471.997	437.5
472.216	451.5
472.435	477.5
472.654	471.5
472.873	454.5
473.092	419.5
473.311	436.5
473.53	433.5
473.749	455.5
473.968	499.5
474.187	597.5
474.406	646.5
474.625	518.5
474.844	470.5
475.063	454.5
475.282	454.5
475.501	443.5
475.72	464.5
475.939	463.5
476.158	457.5
476.377	453.5
476.596	435.5
476.814	477.5
477.033	460.5
477.252	470.5
477.471	474.5
477.69	467.5
477.908	477.5
478.127	467.5
478.346	470.5
478.564	463.5
478.783	472.5
479.002	495.5
479.22	494.5
479.439	510.5
479.658	537.5
479.876	535.5
480.095	518.5
480.313	566.5
480.532	555.5
480.751	539.5
480.969	575.5
481.188	636.5
481.406	671.5
481.624	598.5
481.843	541.5
482.061	533.5
482.28	526.5
482.498	517.5
482.717	517.5
482.935	528.5
483.153	522.5
483.372	535.5
483.59	530.5
483.808	519.5
484.027	535.5
484.245	536.5
484.463	529.5
484.681	542.5
484.9	531.5
485.118	548.5
485.336	517.5
485.554	513.5
485.772	546.5
485.99	549.5
486.209	551.5
486.427	542.5
486.645	552.5
486.863	570.5
487.081	581.5
487.299	565.5
487.517	590.5
487.735	585.5
487.953	572.5
488.171	573.5
488.389	586.5
488.607	589.5
488.825	574.5
489.043	579.5
489.261	580.5
489.479	581.5
489.696	570.5
489.914	597.5
490.132	594.5
490.35	600.5
490.568	584.5
490.786	603.5
491.003	632.5
491.221	643.5
491.439	653.5
491.657	635.5
491.874	643.5
492.092	666.5
492.31	673.5
492.527	697.5
492.745	651.5
492.963	667.5
493.18	674.5
493.398	680.5
493.615	673.5
493.833	674.5
494.05	671.5
494.268	685.5
494.485	677.5
494.703	665.5
494.92	693.5
495.138	688.5
495.355	668.5
495.573	663.5
495.79	696.5
496.008	687.5
496.225	709.5
496.442	684.5
496.66	683.5
496.877	703.5
497.094	667.5
497.312	681.5
497.529	705.5
497.746	722.5
497.963	693.5
498.181	714.5
498.398	710.5
498.615	709.5
498.832	743.5
499.049	728.5
499.267	731.5
499.484	763.5
499.701	797.5
499.918	798.5
500.135	814.5
500.352	834.5
500.569	833.5
500.786	850.5
501.003	837.5
501.22	845.5
501.437	807.5
501.654	795.5
501.871	810.5
502.088	792.5
502.305	769.5
502.522	751.5
502.739	737.5
502.956	721.5
503.172	723.5
503.389	700.5
503.606	715.5
503.823	710.5
504.04	701.5
504.256	676.5
504.473	678.5
504.69	659.5
504.907	677.5
505.123	669.5
505.34	677.5
505.557	674.5
505.773	657.5
505.99	637.5
506.207	662.5
506.423	673.5
506.64	653.5
506.856	635.5
507.073	637.5
507.289	624.5
507.506	646.5
507.722	673.5
507.939	679.5
508.155	646.5
508.372	649.5
508.588	621.5
508.805	639.5
509.021	626.5
509.238	653.5
509.454	661.5
509.67	659.5
509.887	639.5
510.103	649.5
510.319	657.5
510.536	778.5
510.752	1322.5
510.968	1087.5
511.184	682.5
511.401	643.5
511.617	625.5
511.833	601.5
512.049	629.5
512.265	609.5
512.481	602.5
512.698	604.5
512.914	617.5
513.13	619.5
513.346	610.5
513.562	627.5
513.778	611.5
513.994	611.5
514.21	642.5
514.426	689.5
514.642	728.5
514.858	740.5
515.074	777.5
515.29	978.5
515.506	1521.5
515.721	1205.5
515.937	765.5
516.153	695.5
516.369	656.5
516.585	642.5
516.801	621.5
517.016	616.5
517.232	597.5
517.448	624.5
517.664	605.5
517.879	619.5
518.095	598.5
518.311	603.5
518.527	614.5
518.742	597.5
518.958	602.5
519.173	604.5
519.389	581.5
519.605	608.5
519.82	612.5
