Data from 1980.PennyLincolnUp.Lamp.En5.5.200Scan.071819.P1_HRD10591_16-38-56-958.txt Node
Date: Thu Jul 18 16:38:56 EDT 2019
User: cochatt
Spectrometer: HR+D1059
Trigger mode: 1
Integration Time (sec): 1.000000E-1
Scans to average: 1
Electric dark correction enabled: true
Nonlinearity correction enabled: false
Boxcar width: 0
XAxis mode: Wavelengths
Number of Pixels in Spectrum: 2048
>>>>>Begin Spectral Data<<<<<
223.165	-20.44
223.4	-20.44
223.635	-20.44
223.869	-18.44
224.104	-22.44
224.338	-21.44
224.573	-15.44
224.808	-13.44
225.042	-6.44
225.277	2.56
225.511	-0.44
225.746	7.56
225.98	5.56
226.215	16.56
226.449	17.56
226.683	27.56
226.918	12.56
227.152	28.56
227.387	47.56
227.621	37.56
227.856	52.56
228.09	53.56
228.324	50.56
228.559	62.56
228.793	72.56
229.027	101.56
229.262	105.56
229.496	127.56
229.73	151.56
229.964	172.56
230.199	131.56
230.433	131.56
230.667	124.56
230.901	111.56
231.136	107.56
231.37	102.56
231.604	106.56
231.838	120.56
232.072	111.56
232.306	126.56
232.541	112.56
232.775	103.56
233.009	125.56
233.243	106.56
233.477	122.56
233.711	100.56
233.945	118.56
234.179	135.56
234.413	124.56
234.647	109.56
234.881	120.56
235.115	119.56
235.349	120.56
235.583	123.56
235.817	126.56
236.051	129.56
236.285	149.56
236.519	127.56
236.753	144.56
236.987	145.56
237.221	195.56
237.455	258.56
237.689	194.56
237.922	156.56
238.156	154.56
238.39	136.56
238.624	140.56
238.858	120.56
239.091	132.56
239.325	127.56
239.559	135.56
239.793	135.56
240.027	135.56
240.26	142.56
240.494	181.56
240.728	147.56
240.961	160.56
241.195	162.56
241.429	138.56
241.662	135.56
241.896	133.56
242.13	129.56
242.363	132.56
242.597	141.56
242.83	139.56
243.064	143.56
243.298	136.56
243.531	127.56
243.765	129.56
243.998	139.56
244.232	135.56
244.465	145.56
244.699	141.56
244.932	140.56
245.166	129.56
245.399	164.56
245.633	162.56
245.866	154.56
246.099	149.56
246.333	165.56
246.566	166.56
246.8	153.56
247.033	163.56
247.266	167.56
247.5	158.56
247.733	183.56
247.966	177.56
248.2	179.56
248.433	186.56
248.666	188.56
248.899	195.56
249.133	228.56
249.366	221.56
249.599	197.56
249.832	199.56
250.066	191.56
250.299	187.56
250.532	204.56
250.765	225.56
250.998	226.56
251.231	225.56
251.465	252.56
251.698	215.56
251.931	209.56
252.164	208.56
252.397	199.56
252.63	213.56
252.863	215.56
253.096	240.56
253.329	241.56
253.562	248.56
253.795	245.56
254.028	239.56
254.261	221.56
254.494	234.56
254.727	290.56
254.96	308.56
255.193	311.56
255.426	289.56
255.659	252.56
255.892	276.56
256.124	249.56
256.357	249.56
256.59	242.56
256.823	235.56
257.056	229.56
257.289	219.56
257.521	213.56
257.754	220.56
257.987	205.56
258.22	225.56
258.452	218.56
258.685	218.56
258.918	211.56
259.151	216.56
259.383	233.56
259.616	230.56
259.849	236.56
260.081	252.56
260.314	264.56
260.547	275.56
260.779	261.56
261.012	248.56
261.244	251.56
261.477	241.56
261.71	233.56
261.942	252.56
262.175	273.56
262.407	243.56
262.64	224.56
262.872	233.56
263.105	208.56
263.337	215.56
263.57	224.56
263.802	220.56
264.035	211.56
264.267	205.56
264.499	214.56
264.732	204.56
264.964	223.56
265.197	213.56
265.429	242.56
265.661	217.56
265.894	229.56
266.126	209.56
266.358	220.56
266.591	226.56
266.823	245.56
267.055	228.56
267.287	239.56
267.52	235.56
267.752	232.56
267.984	239.56
268.216	226.56
268.448	229.56
268.681	254.56
268.913	245.56
269.145	273.56
269.377	288.56
269.609	288.56
269.841	273.56
270.073	290.56
270.306	315.56
270.538	343.56
270.77	343.56
271.002	333.56
271.234	280.56
271.466	334.56
271.698	329.56
271.93	365.56
272.162	347.56
272.394	344.56
272.626	330.56
272.858	321.56
273.09	300.56
273.322	299.56
273.553	289.56
273.785	268.56
274.017	280.56
274.249	292.56
274.481	262.56
274.713	284.56
274.945	273.56
275.176	273.56
275.408	280.56
275.64	279.56
275.872	262.56
276.104	269.56
276.335	273.56
276.567	279.56
276.799	309.56
277.031	329.56
277.262	359.56
277.494	339.56
277.726	334.56
277.957	300.56
278.189	289.56
278.421	308.56
278.652	305.56
278.884	276.56
279.115	266.56
279.347	263.56
279.579	287.56
279.81	272.56
280.042	278.56
280.273	267.56
280.505	266.56
280.736	277.56
280.968	284.56
281.199	265.56
281.431	254.56
281.662	259.56
281.894	257.56
282.125	283.56
282.356	296.56
282.588	310.56
282.819	303.56
283.051	276.56
283.282	265.56
283.513	273.56
283.745	275.56
283.976	281.56
284.207	285.56
284.439	277.56
284.67	273.56
284.901	278.56
285.132	277.56
285.364	297.56
285.595	260.56
285.826	274.56
286.057	277.56
286.288	272.56
286.52	274.56
286.751	271.56
286.982	276.56
287.213	283.56
287.444	284.56
287.675	289.56
287.906	298.56
288.138	300.56
288.369	316.56
288.6	279.56
288.831	294.56
289.062	301.56
289.293	291.56
289.524	281.56
289.755	280.56
289.986	279.56
290.217	275.56
290.448	294.56
290.679	270.56
290.91	275.56
291.141	276.56
291.371	284.56
291.602	282.56
291.833	272.56
292.064	268.56
292.295	289.56
292.526	291.56
292.757	272.56
292.987	288.56
293.218	305.56
293.449	281.56
293.68	271.56
293.91	280.56
294.141	280.56
294.372	269.56
294.603	268.56
294.833	269.56
295.064	301.56
295.295	280.56
295.525	283.56
295.756	289.56
295.987	306.56
296.217	323.56
296.448	352.56
296.679	294.56
296.909	282.56
297.14	295.56
297.37	304.56
297.601	297.56
297.831	281.56
298.062	283.56
298.292	283.56
298.523	305.56
298.753	283.56
298.984	320.56
299.214	315.56
299.445	308.56
299.675	298.56
299.905	304.56
300.136	313.56
300.366	305.56
300.597	309.56
300.827	298.56
301.057	330.56
301.288	304.56
301.518	307.56
301.748	319.56
301.979	316.56
302.209	328.56
302.439	314.56
302.669	315.56
302.9	313.56
303.13	323.56
303.36	328.56
303.59	307.56
303.82	351.56
304.051	328.56
304.281	317.56
304.511	320.56
304.741	299.56
304.971	311.56
305.201	316.56
305.431	295.56
305.661	317.56
305.891	322.56
306.121	334.56
306.352	321.56
306.582	347.56
306.812	311.56
307.042	318.56
307.272	297.56
307.502	321.56
307.731	339.56
307.961	328.56
308.191	322.56
308.421	326.56
308.651	316.56
308.881	330.56
309.111	345.56
309.341	350.56
309.571	350.56
309.8	365.56
310.03	401.56
310.26	395.56
310.49	379.56
310.72	404.56
310.949	410.56
311.179	416.56
311.409	395.56
311.639	381.56
311.868	368.56
312.098	380.56
312.328	396.56
312.557	421.56
312.787	403.56
313.017	418.56
313.246	384.56
313.476	359.56
313.706	373.56
313.935	383.56
314.165	396.56
314.394	413.56
314.624	416.56
314.853	385.56
315.083	395.56
315.312	380.56
315.542	369.56
315.771	375.56
316.001	364.56
316.23	385.56
316.46	377.56
316.689	360.56
316.919	380.56
317.148	407.56
317.377	406.56
317.607	401.56
317.836	377.56
318.065	388.56
318.295	359.56
318.524	381.56
318.753	375.56
318.983	396.56
319.212	387.56
319.441	393.56
319.67	401.56
319.9	394.56
320.129	375.56
320.358	387.56
320.587	404.56
320.816	403.56
321.046	412.56
321.275	417.56
321.504	394.56
321.733	407.56
321.962	416.56
322.191	428.56
322.42	433.56
322.649	481.56
322.878	476.56
323.108	472.56
323.337	530.56
323.566	563.56
323.795	610.56
324.024	663.56
324.253	832.56
324.482	1178.56
324.71	1815.56
324.939	2631.56
325.168	2289.56
325.397	1215.56
325.626	800.56
325.855	632.56
326.084	578.56
326.313	583.56
326.542	587.56
326.77	624.56
326.999	737.56
327.228	1011.56
327.457	1633.56
327.686	1999.56
327.914	1378.56
328.143	853.56
328.372	724.56
328.6	682.56
328.829	667.56
329.058	663.56
329.287	669.56
329.515	616.56
329.744	568.56
329.972	572.56
330.201	603.56
330.43	645.56
330.658	691.56
330.887	696.56
331.115	679.56
331.344	562.56
331.572	527.56
331.801	529.56
332.03	530.56
332.258	488.56
332.486	465.56
332.715	454.56
332.943	462.56
333.172	461.56
333.4	465.56
333.629	450.56
333.857	470.56
334.085	519.56
334.314	521.56
334.542	560.56
334.771	575.56
334.999	488.56
335.227	474.56
335.455	473.56
335.684	446.56
335.912	459.56
336.14	448.56
336.369	430.56
336.597	443.56
336.825	450.56
337.053	443.56
337.281	419.56
337.51	441.56
337.738	439.56
337.966	432.56
338.194	448.56
338.422	458.56
338.65	423.56
338.878	419.56
339.106	440.56
339.334	423.56
339.562	411.56
339.79	419.56
340.018	432.56
340.246	424.56
340.474	434.56
340.702	434.56
340.93	427.56
341.158	418.56
341.386	403.56
341.614	421.56
341.842	404.56
342.07	417.56
342.298	416.56
342.526	404.56
342.754	395.56
342.981	382.56
343.209	395.56
343.437	419.56
343.665	384.56
343.893	413.56
344.12	409.56
344.348	397.56
344.576	414.56
344.804	423.56
345.031	437.56
345.259	439.56
345.487	433.56
345.714	417.56
345.942	419.56
346.17	397.56
346.397	426.56
346.625	403.56
346.853	415.56
347.08	389.56
347.308	428.56
347.535	424.56
347.763	444.56
347.99	427.56
348.218	431.56
348.445	416.56
348.673	427.56
348.9	438.56
349.128	407.56
349.355	394.56
349.583	390.56
349.81	379.56
350.037	384.56
350.265	394.56
350.492	403.56
350.72	406.56
350.947	410.56
351.174	410.56
351.402	416.56
351.629	424.56
351.856	421.56
352.083	451.56
352.311	443.56
352.538	444.56
352.765	465.56
352.992	425.56
353.22	424.56
353.447	403.56
353.674	410.56
353.901	398.56
354.128	374.56
354.355	375.56
354.583	386.56
354.81	365.56
355.037	379.56
355.264	385.56
355.491	357.56
355.718	385.56
355.945	371.56
356.172	357.56
356.399	368.56
356.626	379.56
356.853	373.56
357.08	355.56
357.307	362.56
357.534	374.56
357.761	375.56
357.988	383.56
358.215	369.56
358.441	373.56
358.668	376.56
358.895	396.56
359.122	383.56
359.349	401.56
359.576	433.56
359.802	452.56
360.029	476.56
360.256	499.56
360.483	461.56
360.709	420.56
360.936	435.56
361.163	405.56
361.39	432.56
361.616	451.56
361.843	410.56
362.07	411.56
362.296	421.56
362.523	412.56
362.749	420.56
362.976	415.56
363.203	402.56
363.429	394.56
363.656	415.56
363.882	405.56
364.109	383.56
364.335	400.56
364.562	376.56
364.788	411.56
365.015	398.56
365.241	405.56
365.468	412.56
365.694	405.56
365.92	386.56
366.147	393.56
366.373	371.56
366.599	391.56
366.826	380.56
367.052	376.56
367.278	382.56
367.505	381.56
367.731	373.56
367.957	383.56
368.184	370.56
368.41	395.56
368.636	405.56
368.862	411.56
369.089	405.56
369.315	412.56
369.541	382.56
369.767	372.56
369.993	372.56
370.219	374.56
370.445	380.56
370.672	364.56
370.898	367.56
371.124	378.56
371.35	386.56
371.576	369.56
371.802	363.56
372.028	359.56
372.254	378.56
372.48	375.56
372.706	373.56
372.932	382.56
373.158	363.56
373.384	367.56
373.61	374.56
373.835	364.56
374.061	389.56
374.287	385.56
374.513	380.56
374.739	377.56
374.965	379.56
375.191	381.56
375.416	381.56
375.642	369.56
375.868	377.56
376.094	385.56
376.319	364.56
376.545	345.56
376.771	369.56
376.997	381.56
377.222	377.56
377.448	356.56
377.674	369.56
377.899	361.56
378.125	358.56
378.35	369.56
378.576	371.56
378.802	363.56
379.027	368.56
379.253	375.56
379.478	346.56
379.704	379.56
379.929	363.56
380.155	360.56
380.38	393.56
380.606	361.56
380.831	362.56
381.057	360.56
381.282	383.56
381.507	383.56
381.733	384.56
381.958	378.56
382.184	381.56
382.409	378.56
382.634	379.56
382.86	388.56
383.085	377.56
383.31	375.56
383.535	370.56
383.761	372.56
383.986	385.56
384.211	392.56
384.436	403.56
384.662	385.56
384.887	384.56
385.112	374.56
385.337	391.56
385.562	381.56
385.787	401.56
386.013	410.56
386.238	415.56
386.463	400.56
386.688	390.56
386.913	409.56
387.138	389.56
387.363	389.56
387.588	396.56
387.813	390.56
388.038	377.56
388.263	380.56
388.488	389.56
388.713	406.56
388.938	407.56
389.163	401.56
389.387	412.56
389.612	394.56
389.837	398.56
390.062	379.56
390.287	397.56
390.512	385.56
390.736	376.56
390.961	386.56
391.186	385.56
391.411	414.56
391.636	395.56
391.86	414.56
392.085	400.56
392.31	388.56
392.534	397.56
392.759	408.56
392.984	378.56
393.208	406.56
393.433	400.56
393.658	391.56
393.882	391.56
394.107	406.56
394.331	400.56
394.556	392.56
394.78	396.56
395.005	388.56
395.229	409.56
395.454	404.56
395.678	402.56
395.903	421.56
396.127	433.56
396.352	442.56
396.576	443.56
396.801	414.56
397.025	415.56
397.249	417.56
397.474	399.56
397.698	396.56
397.922	423.56
398.147	444.56
398.371	447.56
398.595	428.56
398.82	428.56
399.044	456.56
399.268	451.56
399.492	474.56
399.717	495.56
399.941	519.56
400.165	530.56
400.389	556.56
400.613	496.56
400.837	509.56
401.062	471.56
401.286	444.56
401.51	461.56
401.734	457.56
401.958	450.56
402.182	464.56
402.406	464.56
402.63	484.56
402.854	458.56
403.078	460.56
403.302	477.56
403.526	465.56
403.75	457.56
403.974	482.56
404.198	483.56
404.422	461.56
404.645	475.56
404.869	461.56
405.093	497.56
405.317	566.56
405.541	585.56
405.765	523.56
405.988	504.56
406.212	507.56
406.436	528.56
406.66	557.56
406.883	524.56
407.107	552.56
407.331	581.56
407.555	619.56
407.778	645.56
408.002	600.56
408.226	531.56
408.449	546.56
408.673	537.56
408.896	535.56
409.12	568.56
409.344	543.56
409.567	476.56
409.791	483.56
410.014	466.56
410.238	482.56
410.461	485.56
410.685	477.56
410.908	495.56
411.132	507.56
411.355	566.56
411.578	545.56
411.802	488.56
412.025	496.56
412.249	461.56
412.472	512.56
412.695	539.56
412.919	538.56
413.142	496.56
413.365	463.56
413.589	485.56
413.812	461.56
414.035	450.56
414.258	440.56
414.482	450.56
414.705	448.56
414.928	432.56
415.151	437.56
415.374	444.56
415.597	450.56
415.821	444.56
416.044	450.56
416.267	454.56
416.49	426.56
416.713	433.56
416.936	438.56
417.159	450.56
417.382	440.56
417.605	465.56
417.828	476.56
418.051	503.56
418.274	476.56
418.497	440.56
418.72	457.56
418.943	450.56
419.166	454.56
419.389	492.56
419.611	479.56
419.834	485.56
420.057	475.56
420.28	476.56
420.503	484.56
420.726	475.56
420.948	499.56
421.171	520.56
421.394	587.56
421.617	524.56
421.839	490.56
422.062	502.56
422.285	529.56
422.507	580.56
422.73	649.56
422.953	625.56
423.175	544.56
423.398	527.56
423.621	499.56
423.843	516.56
424.066	543.56
424.288	541.56
424.511	553.56
424.733	615.56
424.956	705.56
425.178	655.56
425.401	659.56
425.623	676.56
425.846	599.56
426.068	535.56
426.291	503.56
426.513	543.56
426.735	559.56
426.958	584.56
427.18	686.56
427.402	801.56
427.625	884.56
427.847	813.56
428.069	705.56
428.292	610.56
428.514	553.56
428.736	520.56
428.958	481.56
429.181	494.56
429.403	493.56
429.625	493.56
429.847	531.56
430.069	614.56
430.292	630.56
430.514	514.56
430.736	488.56
430.958	501.56
431.18	461.56
431.402	460.56
431.624	459.56
431.846	442.56
432.068	443.56
432.29	455.56
432.512	461.56
432.734	495.56
432.956	473.56
433.178	485.56
433.4	504.56
433.622	469.56
433.844	456.56
434.066	453.56
434.287	461.56
434.509	455.56
434.731	470.56
434.953	484.56
435.175	480.56
435.397	531.56
435.618	543.56
435.84	585.56
436.062	693.56
436.284	732.56
436.505	629.56
436.727	584.56
436.949	519.56
437.17	519.56
437.392	509.56
437.614	530.56
437.835	561.56
438.057	660.56
438.278	769.56
438.5	765.56
438.721	819.56
438.943	795.56
439.165	613.56
439.386	563.56
439.608	584.56
439.829	581.56
440.05	595.56
440.272	635.56
440.493	615.56
440.715	544.56
440.936	514.56
441.158	508.56
441.379	529.56
441.6	520.56
441.822	534.56
442.043	597.56
442.264	662.56
442.486	722.56
442.707	620.56
442.928	568.56
443.149	570.56
443.371	600.56
443.592	617.56
443.813	738.56
444.034	807.56
444.255	650.56
444.476	572.56
444.698	539.56
444.919	529.56
445.14	614.56
445.361	597.56
445.582	595.56
445.803	661.56
446.024	772.56
446.245	771.56
446.466	711.56
446.687	602.56
446.908	557.56
447.129	517.56
447.35	512.56
447.571	517.56
447.792	503.56
448.013	502.56
448.234	546.56
448.455	592.56
448.675	676.56
448.896	839.56
449.117	697.56
449.338	670.56
449.559	740.56
449.779	867.56
450	692.56
450.221	561.56
450.442	516.56
450.662	491.56
450.883	523.56
451.104	522.56
451.324	530.56
451.545	493.56
451.766	481.56
451.986	483.56
452.207	434.56
452.428	439.56
452.648	448.56
452.869	443.56
453.089	459.56
453.31	476.56
453.53	457.56
453.751	457.56
453.971	456.56
454.192	487.56
454.412	474.56
454.633	446.56
454.853	455.56
455.073	471.56
455.294	495.56
455.514	546.56
455.734	538.56
455.955	455.56
456.175	445.56
456.395	429.56
456.616	430.56
456.836	401.56
457.056	408.56
457.276	410.56
457.497	418.56
457.717	442.56
457.937	435.56
458.157	439.56
458.377	460.56
458.598	460.56
458.818	554.56
459.038	627.56
459.258	645.56
459.478	541.56
459.698	459.56
459.918	448.56
460.138	461.56
460.358	450.56
460.578	448.56
460.798	465.56
461.018	452.56
461.238	451.56
461.458	439.56
461.678	448.56
461.898	441.56
462.118	432.56
462.338	462.56
462.558	464.56
462.777	474.56
462.997	461.56
463.217	463.56
463.437	454.56
463.657	469.56
463.876	477.56
464.096	483.56
464.316	458.56
464.536	477.56
464.755	515.56
464.975	495.56
465.195	556.56
465.414	649.56
465.634	584.56
465.854	520.56
466.073	472.56
466.293	448.56
466.512	442.56
466.732	457.56
466.951	457.56
467.171	449.56
467.391	468.56
467.61	470.56
467.829	480.56
468.049	467.56
468.268	459.56
468.488	446.56
468.707	441.56
468.927	422.56
469.146	430.56
469.365	415.56
469.585	426.56
469.804	452.56
470.023	471.56
470.243	491.56
470.462	462.56
470.681	483.56
470.901	480.56
471.12	461.56
471.339	472.56
471.558	454.56
471.777	463.56
471.997	443.56
472.216	481.56
472.435	509.56
472.654	489.56
472.873	458.56
473.092	427.56
473.311	452.56
473.53	437.56
473.749	475.56
473.968	529.56
474.187	649.56
474.406	650.56
474.625	562.56
474.844	499.56
475.063	465.56
475.282	468.56
475.501	462.56
475.72	478.56
475.939	485.56
476.158	461.56
476.377	468.56
476.596	486.56
476.814	479.56
477.033	484.56
477.252	482.56
477.471	491.56
477.69	479.56
477.908	495.56
478.127	501.56
478.346	486.56
478.564	507.56
478.783	494.56
479.002	502.56
479.22	516.56
479.439	523.56
479.658	529.56
479.876	546.56
480.095	585.56
480.313	577.56
480.532	575.56
480.751	578.56
480.969	579.56
481.188	653.56
481.406	727.56
481.624	618.56
481.843	602.56
482.061	554.56
482.28	535.56
482.498	551.56
482.717	547.56
482.935	560.56
483.153	537.56
483.372	548.56
483.59	531.56
483.808	541.56
484.027	553.56
484.245	541.56
484.463	553.56
484.681	565.56
484.9	579.56
485.118	566.56
485.336	561.56
485.554	564.56
485.772	540.56
485.99	564.56
486.209	561.56
486.427	584.56
486.645	578.56
486.863	602.56
487.081	588.56
487.299	581.56
487.517	571.56
487.735	570.56
487.953	572.56
488.171	593.56
488.389	587.56
488.607	618.56
488.825	600.56
489.043	572.56
489.261	565.56
489.479	608.56
489.696	603.56
489.914	605.56
490.132	615.56
490.35	639.56
490.568	626.56
490.786	617.56
491.003	639.56
491.221	671.56
491.439	666.56
491.657	673.56
491.874	708.56
492.092	701.56
492.31	697.56
492.527	691.56
492.745	687.56
492.963	704.56
493.18	709.56
493.398	729.56
493.615	707.56
493.833	714.56
494.05	706.56
494.268	691.56
494.485	718.56
494.703	741.56
494.92	716.56
495.138	729.56
495.355	728.56
495.573	702.56
495.79	725.56
496.008	714.56
496.225	728.56
496.442	707.56
496.66	705.56
496.877	691.56
497.094	698.56
497.312	704.56
497.529	729.56
497.746	717.56
497.963	755.56
498.181	761.56
498.398	752.56
498.615	752.56
498.832	747.56
499.049	757.56
499.267	769.56
499.484	762.56
499.701	785.56
499.918	802.56
500.135	819.56
500.352	816.56
500.569	860.56
500.786	859.56
501.003	840.56
501.22	850.56
501.437	828.56
501.654	819.56
501.871	842.56
