Data from 1980.PennyLincolnUp.Lamp.En5.5.200Scan.071819.P1_HRD10591_16-37-47-957.txt Node
Date: Thu Jul 18 16:37:47 EDT 2019
User: cochatt
Spectrometer: HR+D1059
Trigger mode: 1
Integration Time (sec): 1.000000E-1
Scans to average: 1
Electric dark correction enabled: true
Nonlinearity correction enabled: false
Boxcar width: 0
XAxis mode: Wavelengths
Number of Pixels in Spectrum: 2048
>>>>>Begin Spectral Data<<<<<
223.165	-3.88
223.4	-3.88
223.635	-3.88
223.869	-29.88
224.104	-29.88
224.338	-10.88
224.573	-17.88
224.808	-13.88
225.042	2.12
225.277	7.12
225.511	-1.88
225.746	-2.88
225.98	16.12
226.215	14.12
226.449	20.12
226.683	9.12
226.918	14.12
227.152	28.12
227.387	38.12
227.621	32.12
227.856	36.12
228.09	38.12
228.324	48.12
228.559	50.12
228.793	78.12
229.027	88.12
229.262	94.12
229.496	125.12
229.73	135.12
229.964	169.12
230.199	132.12
230.433	105.12
230.667	100.12
230.901	111.12
231.136	107.12
231.37	98.12
231.604	118.12
231.838	122.12
232.072	120.12
232.306	111.12
232.541	99.12
232.775	111.12
233.009	124.12
233.243	111.12
233.477	124.12
233.711	133.12
233.945	110.12
234.179	116.12
234.413	117.12
234.647	115.12
234.881	121.12
235.115	121.12
235.349	113.12
235.583	111.12
235.817	117.12
236.051	145.12
236.285	113.12
236.519	126.12
236.753	146.12
236.987	144.12
237.221	197.12
237.455	236.12
237.689	189.12
237.922	151.12
238.156	141.12
238.39	142.12
238.624	137.12
238.858	143.12
239.091	126.12
239.325	132.12
239.559	130.12
239.793	132.12
240.027	129.12
240.26	141.12
240.494	161.12
240.728	149.12
240.961	156.12
241.195	168.12
241.429	147.12
241.662	128.12
241.896	139.12
242.13	143.12
242.363	142.12
242.597	126.12
242.83	135.12
243.064	159.12
243.298	139.12
243.531	145.12
243.765	146.12
243.998	151.12
244.232	130.12
244.465	148.12
244.699	144.12
244.932	150.12
245.166	152.12
245.399	156.12
245.633	153.12
245.866	156.12
246.099	146.12
246.333	150.12
246.566	145.12
246.8	156.12
247.033	164.12
247.266	179.12
247.5	165.12
247.733	160.12
247.966	182.12
248.2	160.12
248.433	177.12
248.666	182.12
248.899	183.12
249.133	213.12
249.366	229.12
249.599	213.12
249.832	178.12
250.066	195.12
250.299	169.12
250.532	202.12
250.765	227.12
250.998	223.12
251.231	236.12
251.465	225.12
251.698	208.12
251.931	218.12
252.164	185.12
252.397	189.12
252.63	220.12
252.863	209.12
253.096	226.12
253.329	245.12
253.562	224.12
253.795	217.12
254.028	242.12
254.261	221.12
254.494	234.12
254.727	285.12
254.96	292.12
255.193	284.12
255.426	254.12
255.659	250.12
255.892	261.12
256.124	245.12
256.357	257.12
256.59	234.12
256.823	221.12
257.056	214.12
257.289	228.12
257.521	216.12
257.754	207.12
257.987	229.12
258.22	212.12
258.452	213.12
258.685	207.12
258.918	213.12
259.151	219.12
259.383	234.12
259.616	200.12
259.849	245.12
260.081	242.12
260.314	257.12
260.547	275.12
260.779	242.12
261.012	240.12
261.244	253.12
261.477	224.12
261.71	232.12
261.942	241.12
262.175	259.12
262.407	252.12
262.64	228.12
262.872	210.12
263.105	216.12
263.337	210.12
263.57	219.12
263.802	214.12
264.035	212.12
264.267	217.12
264.499	211.12
264.732	219.12
264.964	202.12
265.197	213.12
265.429	199.12
265.661	225.12
265.894	218.12
266.126	221.12
266.358	221.12
266.591	214.12
266.823	220.12
267.055	217.12
267.287	226.12
267.52	229.12
267.752	227.12
267.984	244.12
268.216	230.12
268.448	238.12
268.681	234.12
268.913	261.12
269.145	275.12
269.377	285.12
269.609	291.12
269.841	282.12
270.073	271.12
270.306	299.12
270.538	323.12
270.77	329.12
271.002	330.12
271.234	308.12
271.466	327.12
271.698	328.12
271.93	337.12
272.162	309.12
272.394	341.12
272.626	317.12
272.858	308.12
273.09	290.12
273.322	275.12
273.553	274.12
273.785	288.12
274.017	268.12
274.249	253.12
274.481	266.12
274.713	272.12
274.945	280.12
275.176	268.12
275.408	272.12
275.64	265.12
275.872	273.12
276.104	260.12
276.335	267.12
276.567	288.12
276.799	300.12
277.031	329.12
277.262	333.12
277.494	341.12
277.726	305.12
277.957	306.12
278.189	293.12
278.421	277.12
278.652	274.12
278.884	257.12
279.115	263.12
279.347	254.12
279.579	243.12
279.81	260.12
280.042	269.12
280.273	261.12
280.505	261.12
280.736	276.12
280.968	261.12
281.199	247.12
281.431	246.12
281.662	262.12
281.894	250.12
282.125	264.12
282.356	293.12
282.588	300.12
282.819	312.12
283.051	285.12
283.282	262.12
283.513	261.12
283.745	267.12
283.976	278.12
284.207	272.12
284.439	274.12
284.67	270.12
284.901	267.12
285.132	291.12
285.364	269.12
285.595	282.12
285.826	267.12
286.057	274.12
286.288	270.12
286.52	284.12
286.751	282.12
286.982	269.12
287.213	275.12
287.444	280.12
287.675	275.12
287.906	267.12
288.138	307.12
288.369	297.12
288.6	306.12
288.831	280.12
289.062	281.12
289.293	279.12
289.524	278.12
289.755	288.12
289.986	261.12
290.217	283.12
290.448	280.12
290.679	265.12
290.91	260.12
291.141	282.12
291.371	276.12
291.602	267.12
291.833	279.12
292.064	292.12
292.295	267.12
292.526	281.12
292.757	285.12
292.987	269.12
293.218	276.12
293.449	262.12
293.68	257.12
293.91	280.12
294.141	260.12
294.372	283.12
294.603	270.12
294.833	262.12
295.064	263.12
295.295	286.12
295.525	260.12
295.756	288.12
295.987	300.12
296.217	321.12
296.448	320.12
296.679	288.12
296.909	266.12
297.14	266.12
297.37	279.12
297.601	282.12
297.831	281.12
298.062	274.12
298.292	293.12
298.523	285.12
298.753	291.12
298.984	291.12
299.214	285.12
299.445	308.12
299.675	283.12
299.905	300.12
300.136	294.12
300.366	296.12
300.597	300.12
300.827	288.12
301.057	309.12
301.288	317.12
301.518	300.12
301.748	308.12
301.979	308.12
302.209	324.12
302.439	306.12
302.669	296.12
302.9	289.12
303.13	318.12
303.36	309.12
303.59	312.12
303.82	324.12
304.051	305.12
304.281	292.12
304.511	300.12
304.741	292.12
304.971	310.12
305.201	307.12
305.431	316.12
305.661	305.12
305.891	306.12
306.121	281.12
306.352	323.12
306.582	312.12
306.812	319.12
307.042	311.12
307.272	329.12
307.502	311.12
307.731	307.12
307.961	317.12
308.191	319.12
308.421	304.12
308.651	316.12
308.881	329.12
309.111	312.12
309.341	332.12
309.571	354.12
309.8	324.12
310.03	354.12
310.26	360.12
310.49	370.12
310.72	364.12
310.949	379.12
311.179	400.12
311.409	368.12
311.639	339.12
311.868	368.12
312.098	372.12
312.328	379.12
312.557	421.12
312.787	403.12
313.017	400.12
313.246	390.12
313.476	374.12
313.706	363.12
313.935	372.12
314.165	384.12
314.394	404.12
314.624	393.12
314.853	388.12
315.083	378.12
315.312	361.12
315.542	349.12
315.771	347.12
316.001	365.12
316.23	380.12
316.46	361.12
316.689	371.12
316.919	377.12
317.148	390.12
317.377	381.12
317.607	356.12
317.836	384.12
318.065	356.12
318.295	370.12
318.524	362.12
318.753	368.12
318.983	381.12
319.212	372.12
319.441	378.12
319.67	379.12
319.9	371.12
320.129	375.12
320.358	352.12
320.587	369.12
320.816	368.12
321.046	384.12
321.275	387.12
321.504	382.12
321.733	389.12
321.962	436.12
322.191	411.12
322.42	446.12
322.649	432.12
322.878	460.12
323.108	471.12
323.337	512.12
323.566	514.12
323.795	567.12
324.024	630.12
324.253	783.12
324.482	1100.12
324.71	1654.12
324.939	2412.12
325.168	2125.12
325.397	1116.12
325.626	755.12
325.855	584.12
326.084	552.12
326.313	505.12
326.542	541.12
326.77	581.12
326.999	704.12
327.228	939.12
327.457	1471.12
327.686	1842.12
327.914	1240.12
328.143	837.12
328.372	680.12
328.6	644.12
328.829	617.12
329.058	604.12
329.287	617.12
329.515	588.12
329.744	537.12
329.972	525.12
330.201	550.12
330.43	579.12
330.658	621.12
330.887	629.12
331.115	626.12
331.344	554.12
331.572	512.12
331.801	489.12
332.03	479.12
332.258	457.12
332.486	462.12
332.715	431.12
332.943	429.12
333.172	425.12
333.4	425.12
333.629	439.12
333.857	466.12
334.085	484.12
334.314	500.12
334.542	515.12
334.771	567.12
334.999	484.12
335.227	449.12
335.455	425.12
335.684	421.12
335.912	406.12
336.14	397.12
336.369	427.12
336.597	440.12
336.825	425.12
337.053	422.12
337.281	414.12
337.51	412.12
337.738	425.12
337.966	422.12
338.194	408.12
338.422	429.12
338.65	427.12
338.878	398.12
339.106	413.12
339.334	414.12
339.562	408.12
339.79	405.12
340.018	399.12
340.246	418.12
340.474	419.12
340.702	397.12
340.93	407.12
341.158	404.12
341.386	395.12
341.614	424.12
341.842	409.12
342.07	400.12
342.298	400.12
342.526	385.12
342.754	386.12
342.981	365.12
343.209	398.12
343.437	377.12
343.665	392.12
343.893	399.12
344.12	404.12
344.348	397.12
344.576	391.12
344.804	409.12
345.031	452.12
345.259	438.12
345.487	426.12
345.714	411.12
345.942	390.12
346.17	414.12
346.397	386.12
346.625	378.12
346.853	407.12
347.08	399.12
347.308	414.12
347.535	424.12
347.763	408.12
347.99	388.12
348.218	412.12
348.445	411.12
348.673	434.12
348.9	395.12
349.128	401.12
349.355	380.12
349.583	378.12
349.81	382.12
350.037	403.12
350.265	388.12
350.492	382.12
350.72	379.12
350.947	394.12
351.174	411.12
351.402	410.12
351.629	410.12
351.856	412.12
352.083	433.12
352.311	403.12
352.538	417.12
352.765	441.12
352.992	401.12
353.22	391.12
353.447	409.12
353.674	388.12
353.901	397.12
354.128	375.12
354.355	384.12
354.583	384.12
354.81	384.12
355.037	371.12
355.264	378.12
355.491	374.12
355.718	352.12
355.945	350.12
356.172	363.12
356.399	362.12
356.626	349.12
356.853	373.12
357.08	362.12
357.307	360.12
357.534	350.12
357.761	356.12
357.988	388.12
358.215	365.12
358.441	371.12
358.668	363.12
358.895	368.12
359.122	376.12
359.349	377.12
359.576	397.12
359.802	445.12
360.029	475.12
360.256	462.12
360.483	441.12
360.709	414.12
360.936	405.12
361.163	401.12
361.39	407.12
361.616	409.12
361.843	392.12
362.07	406.12
362.296	423.12
362.523	391.12
362.749	392.12
362.976	360.12
363.203	380.12
363.429	370.12
363.656	374.12
363.882	374.12
364.109	381.12
364.335	400.12
364.562	375.12
364.788	388.12
365.015	385.12
365.241	374.12
365.468	354.12
365.694	390.12
365.92	401.12
366.147	378.12
366.373	392.12
366.599	401.12
366.826	369.12
367.052	369.12
367.278	361.12
367.505	380.12
367.731	363.12
367.957	376.12
368.184	380.12
368.41	376.12
368.636	396.12
368.862	386.12
369.089	374.12
369.315	368.12
369.541	365.12
369.767	376.12
369.993	351.12
370.219	369.12
370.445	378.12
370.672	371.12
370.898	374.12
371.124	397.12
371.35	376.12
371.576	354.12
371.802	374.12
372.028	368.12
372.254	355.12
372.48	377.12
372.706	384.12
372.932	359.12
373.158	368.12
373.384	362.12
373.61	384.12
373.835	373.12
374.061	352.12
374.287	378.12
374.513	373.12
374.739	361.12
374.965	363.12
375.191	372.12
375.416	386.12
375.642	356.12
375.868	353.12
376.094	356.12
376.319	368.12
376.545	375.12
376.771	368.12
376.997	353.12
377.222	368.12
377.448	355.12
377.674	380.12
377.899	346.12
378.125	350.12
378.35	362.12
378.576	354.12
378.802	341.12
379.027	349.12
379.253	361.12
379.478	361.12
379.704	365.12
379.929	359.12
380.155	350.12
380.38	352.12
380.606	395.12
380.831	370.12
381.057	372.12
381.282	372.12
381.507	372.12
381.733	374.12
381.958	382.12
382.184	369.12
382.409	374.12
382.634	365.12
382.86	375.12
383.085	390.12
383.31	382.12
383.535	385.12
383.761	374.12
383.986	377.12
384.211	368.12
384.436	386.12
384.662	377.12
384.887	389.12
385.112	378.12
385.337	378.12
385.562	385.12
385.787	389.12
386.013	398.12
386.238	393.12
386.463	392.12
386.688	392.12
386.913	397.12
387.138	377.12
387.363	384.12
387.588	382.12
387.813	394.12
388.038	391.12
388.263	385.12
388.488	374.12
388.713	378.12
388.938	394.12
389.163	393.12
389.387	419.12
389.612	400.12
389.837	383.12
390.062	386.12
390.287	393.12
390.512	406.12
390.736	380.12
390.961	383.12
391.186	379.12
391.411	392.12
391.636	382.12
391.86	401.12
392.085	376.12
392.31	390.12
392.534	418.12
392.759	394.12
392.984	390.12
393.208	389.12
393.433	394.12
393.658	380.12
393.882	390.12
394.107	381.12
394.331	412.12
394.556	387.12
394.78	391.12
395.005	393.12
395.229	399.12
395.454	387.12
395.678	411.12
395.903	426.12
396.127	438.12
396.352	453.12
396.576	404.12
396.801	409.12
397.025	397.12
397.249	420.12
397.474	411.12
397.698	408.12
397.922	393.12
398.147	434.12
398.371	443.12
398.595	420.12
398.82	424.12
399.044	435.12
399.268	444.12
399.492	460.12
399.717	472.12
399.941	484.12
400.165	527.12
400.389	514.12
400.613	510.12
400.837	475.12
401.062	469.12
401.286	459.12
401.51	433.12
401.734	429.12
401.958	447.12
402.182	450.12
402.406	469.12
402.63	469.12
402.854	450.12
403.078	432.12
403.302	435.12
403.526	464.12
403.75	486.12
403.974	448.12
404.198	430.12
404.422	456.12
404.645	466.12
404.869	482.12
405.093	493.12
405.317	553.12
405.541	563.12
405.765	534.12
405.988	496.12
406.212	502.12
406.436	520.12
406.66	544.12
406.883	483.12
407.107	519.12
407.331	552.12
407.555	637.12
407.778	617.12
408.002	590.12
408.226	525.12
408.449	535.12
408.673	516.12
408.896	553.12
409.12	584.12
409.344	548.12
409.567	498.12
409.791	455.12
410.014	450.12
410.238	449.12
410.461	465.12
410.685	494.12
410.908	473.12
411.132	508.12
411.355	568.12
411.578	522.12
411.802	512.12
412.025	462.12
412.249	468.12
412.472	496.12
412.695	532.12
412.919	517.12
413.142	474.12
413.365	465.12
413.589	434.12
413.812	443.12
414.035	441.12
414.258	437.12
414.482	444.12
414.705	428.12
414.928	431.12
415.151	432.12
415.374	442.12
415.597	432.12
415.821	421.12
416.044	438.12
416.267	450.12
416.49	435.12
416.713	432.12
416.936	444.12
417.159	419.12
417.382	452.12
417.605	460.12
417.828	456.12
418.051	475.12
418.274	473.12
418.497	435.12
418.72	428.12
418.943	429.12
419.166	452.12
419.389	473.12
419.611	451.12
419.834	468.12
420.057	456.12
420.28	477.12
420.503	454.12
420.726	461.12
420.948	474.12
421.171	508.12
421.394	563.12
421.617	493.12
421.839	459.12
422.062	460.12
422.285	493.12
422.507	554.12
422.73	614.12
422.953	595.12
423.175	539.12
423.398	494.12
423.621	508.12
423.843	514.12
424.066	523.12
424.288	532.12
424.511	538.12
424.733	582.12
424.956	661.12
425.178	651.12
425.401	648.12
425.623	653.12
425.846	554.12
426.068	538.12
426.291	545.12
426.513	526.12
426.735	522.12
426.958	599.12
427.18	688.12
427.402	741.12
427.625	860.12
427.847	798.12
428.069	696.12
428.292	592.12
428.514	547.12
428.736	518.12
428.958	500.12
429.181	488.12
429.403	494.12
429.625	485.12
429.847	517.12
430.069	608.12
430.292	590.12
430.514	516.12
430.736	474.12
430.958	489.12
431.18	474.12
431.402	477.12
431.624	452.12
431.846	449.12
432.068	453.12
432.29	444.12
432.512	445.12
432.734	461.12
432.956	437.12
433.178	476.12
433.4	461.12
433.622	473.12
433.844	439.12
434.066	462.12
434.287	460.12
434.509	455.12
434.731	462.12
434.953	463.12
435.175	473.12
435.397	492.12
435.618	549.12
435.84	568.12
436.062	672.12
436.284	704.12
436.505	590.12
436.727	560.12
436.949	511.12
437.17	494.12
437.392	493.12
437.614	477.12
437.835	535.12
438.057	655.12
438.278	764.12
438.5	723.12
438.721	778.12
438.943	790.12
439.165	622.12
439.386	575.12
439.608	520.12
439.829	558.12
440.05	561.12
440.272	604.12
440.493	590.12
440.715	530.12
440.936	492.12
441.158	474.12
441.379	488.12
441.6	516.12
441.822	501.12
442.043	584.12
442.264	653.12
442.486	664.12
442.707	588.12
442.928	531.12
443.149	564.12
443.371	562.12
443.592	633.12
443.813	688.12
444.034	768.12
444.255	609.12
444.476	534.12
444.698	540.12
444.919	532.12
445.14	590.12
445.361	572.12
445.582	571.12
445.803	645.12
446.024	727.12
446.245	746.12
446.466	700.12
446.687	581.12
446.908	529.12
447.129	496.12
447.35	493.12
447.571	522.12
447.792	478.12
448.013	491.12
448.234	519.12
448.455	577.12
448.675	644.12
448.896	801.12
449.117	672.12
449.338	622.12
449.559	714.12
449.779	802.12
450	679.12
450.221	534.12
450.442	528.12
450.662	488.12
450.883	492.12
451.104	531.12
451.324	485.12
451.545	476.12
451.766	446.12
451.986	454.12
452.207	440.12
452.428	424.12
452.648	440.12
452.869	439.12
453.089	449.12
453.31	466.12
453.53	457.12
453.751	452.12
453.971	437.12
454.192	477.12
454.412	460.12
454.633	447.12
454.853	450.12
455.073	451.12
455.294	459.12
455.514	536.12
455.734	539.12
455.955	470.12
456.175	412.12
456.395	417.12
456.616	429.12
456.836	400.12
457.056	401.12
457.276	404.12
457.497	396.12
457.717	400.12
457.937	397.12
458.157	423.12
458.377	412.12
458.598	440.12
458.818	516.12
459.038	620.12
459.258	640.12
459.478	524.12
459.698	460.12
459.918	457.12
460.138	470.12
460.358	441.12
460.578	426.12
460.798	453.12
461.018	467.12
461.238	423.12
461.458	425.12
461.678	412.12
461.898	416.12
462.118	454.12
462.338	462.12
462.558	456.12
462.777	458.12
462.997	465.12
463.217	470.12
463.437	441.12
463.657	452.12
463.876	460.12
464.096	459.12
464.316	440.12
464.536	467.12
464.755	468.12
464.975	496.12
465.195	540.12
465.414	650.12
465.634	565.12
465.854	498.12
466.073	468.12
466.293	472.12
466.512	439.12
466.732	421.12
466.951	421.12
467.171	453.12
467.391	422.12
467.61	451.12
467.829	466.12
468.049	461.12
468.268	445.12
468.488	402.12
468.707	423.12
468.927	440.12
469.146	432.12
469.365	428.12
469.585	432.12
469.804	437.12
470.023	441.12
470.243	471.12
470.462	466.12
470.681	471.12
470.901	475.12
471.12	451.12
471.339	466.12
471.558	458.12
471.777	437.12
471.997	437.12
472.216	457.12
472.435	484.12
472.654	477.12
472.873	454.12
473.092	444.12
473.311	476.12
473.53	460.12
473.749	452.12
473.968	492.12
474.187	611.12
474.406	626.12
474.625	512.12
474.844	482.12
475.063	456.12
475.282	456.12
475.501	442.12
475.72	448.12
475.939	459.12
476.158	451.12
476.377	459.12
476.596	448.12
476.814	479.12
477.033	508.12
477.252	457.12
477.471	465.12
477.69	457.12
477.908	492.12
478.127	477.12
478.346	461.12
478.564	457.12
478.783	499.12
479.002	489.12
479.22	500.12
479.439	517.12
479.658	531.12
479.876	565.12
480.095	549.12
480.313	570.12
480.532	556.12
480.751	551.12
480.969	564.12
481.188	618.12
481.406	680.12
481.624	599.12
481.843	546.12
482.061	538.12
482.28	553.12
482.498	533.12
482.717	536.12
482.935	520.12
483.153	522.12
483.372	525.12
483.59	521.12
483.808	507.12
484.027	534.12
484.245	521.12
484.463	540.12
484.681	533.12
484.9	541.12
485.118	544.12
485.336	537.12
485.554	553.12
485.772	551.12
485.99	553.12
486.209	555.12
486.427	554.12
486.645	560.12
486.863	606.12
487.081	585.12
487.299	581.12
487.517	569.12
487.735	584.12
487.953	582.12
488.171	571.12
488.389	568.12
488.607	552.12
488.825	584.12
489.043	589.12
489.261	576.12
489.479	581.12
489.696	595.12
489.914	569.12
490.132	586.12
490.35	590.12
490.568	596.12
490.786	620.12
491.003	609.12
491.221	625.12
491.439	651.12
491.657	656.12
491.874	657.12
492.092	658.12
492.31	672.12
492.527	666.12
492.745	661.12
492.963	669.12
493.18	680.12
493.398	684.12
493.615	682.12
493.833	704.12
494.05	692.12
494.268	686.12
494.485	678.12
494.703	700.12
494.92	692.12
495.138	666.12
495.355	692.12
495.573	687.12
495.79	678.12
496.008	680.12
496.225	685.12
496.442	695.12
496.66	692.12
496.877	680.12
497.094	693.12
497.312	667.12
497.529	705.12
497.746	713.12
497.963	729.12
498.181	717.12
498.398	732.12
498.615	719.12
498.832	770.12
499.049	740.12
499.267	746.12
499.484	797.12
499.701	786.12
499.918	795.12
500.135	786.12
500.352	836.12
500.569	842.12
500.786	833.12
501.003	856.12
501.22	804.12
501.437	818.12
501.654	837.12
501.871	830.12
502.088	773.12
