Data from 1980.PennyLincolnUp.Lamp.En5.5.200Scan.071819.P1_HRD10591_16-38-42-958.txt Node
Date: Thu Jul 18 16:38:42 EDT 2019
User: cochatt
Spectrometer: HR+D1059
Trigger mode: 1
Integration Time (sec): 1.000000E-1
Scans to average: 1
Electric dark correction enabled: true
Nonlinearity correction enabled: false
Boxcar width: 0
XAxis mode: Wavelengths
Number of Pixels in Spectrum: 2048
>>>>>Begin Spectral Data<<<<<
223.165	-9.88
223.4	-9.88
223.635	-9.88
223.869	-12.88
224.104	-32.88
224.338	-0.88
224.573	-4.88
224.808	-11.88
225.042	-11.88
225.277	2.12
225.511	3.12
225.746	-11.88
225.98	10.12
226.215	20.12
226.449	4.12
226.683	23.12
226.918	18.12
227.152	16.12
227.387	32.12
227.621	24.12
227.856	49.12
228.09	42.12
228.324	53.12
228.559	55.12
228.793	74.12
229.027	99.12
229.262	106.12
229.496	132.12
229.73	135.12
229.964	171.12
230.199	155.12
230.433	113.12
230.667	117.12
230.901	118.12
231.136	109.12
231.37	116.12
231.604	116.12
231.838	115.12
232.072	97.12
232.306	114.12
232.541	110.12
232.775	108.12
233.009	101.12
233.243	112.12
233.477	109.12
233.711	119.12
233.945	116.12
234.179	116.12
234.413	113.12
234.647	112.12
234.881	126.12
235.115	122.12
235.349	127.12
235.583	131.12
235.817	119.12
236.051	132.12
236.285	122.12
236.519	133.12
236.753	134.12
236.987	139.12
237.221	175.12
237.455	246.12
237.689	196.12
237.922	148.12
238.156	152.12
238.39	123.12
238.624	135.12
238.858	127.12
239.091	131.12
239.325	138.12
239.559	129.12
239.793	124.12
240.027	144.12
240.26	132.12
240.494	164.12
240.728	142.12
240.961	152.12
241.195	151.12
241.429	132.12
241.662	145.12
241.896	138.12
242.13	142.12
242.363	140.12
242.597	140.12
242.83	159.12
243.064	139.12
243.298	136.12
243.531	131.12
243.765	134.12
243.998	136.12
244.232	148.12
244.465	148.12
244.699	154.12
244.932	138.12
245.166	137.12
245.399	129.12
245.633	135.12
245.866	147.12
246.099	155.12
246.333	141.12
246.566	156.12
246.8	143.12
247.033	150.12
247.266	169.12
247.5	169.12
247.733	176.12
247.966	165.12
248.2	161.12
248.433	153.12
248.666	183.12
248.899	181.12
249.133	206.12
249.366	217.12
249.599	205.12
249.832	201.12
250.066	184.12
250.299	177.12
250.532	194.12
250.765	208.12
250.998	216.12
251.231	231.12
251.465	232.12
251.698	239.12
251.931	193.12
252.164	195.12
252.397	201.12
252.63	187.12
252.863	204.12
253.096	229.12
253.329	239.12
253.562	231.12
253.795	226.12
254.028	219.12
254.261	227.12
254.494	243.12
254.727	261.12
254.96	297.12
255.193	269.12
255.426	269.12
255.659	252.12
255.892	244.12
256.124	244.12
256.357	264.12
256.59	230.12
256.823	242.12
257.056	226.12
257.289	223.12
257.521	202.12
257.754	206.12
257.987	229.12
258.22	219.12
258.452	207.12
258.685	216.12
258.918	196.12
259.151	226.12
259.383	209.12
259.616	213.12
259.849	226.12
260.081	231.12
260.314	263.12
260.547	262.12
260.779	270.12
261.012	243.12
261.244	240.12
261.477	244.12
261.71	220.12
261.942	259.12
262.175	256.12
262.407	265.12
262.64	232.12
262.872	209.12
263.105	226.12
263.337	227.12
263.57	200.12
263.802	213.12
264.035	211.12
264.267	214.12
264.499	209.12
264.732	216.12
264.964	233.12
265.197	203.12
265.429	209.12
265.661	216.12
265.894	204.12
266.126	224.12
266.358	203.12
266.591	204.12
266.823	207.12
267.055	216.12
267.287	217.12
267.52	230.12
267.752	218.12
267.984	218.12
268.216	222.12
268.448	236.12
268.681	222.12
268.913	247.12
269.145	257.12
269.377	287.12
269.609	276.12
269.841	279.12
270.073	303.12
270.306	320.12
270.538	307.12
270.77	343.12
271.002	304.12
271.234	319.12
271.466	303.12
271.698	319.12
271.93	337.12
272.162	331.12
272.394	326.12
272.626	322.12
272.858	287.12
273.09	287.12
273.322	293.12
273.553	284.12
273.785	278.12
274.017	281.12
274.249	267.12
274.481	274.12
274.713	275.12
274.945	268.12
275.176	270.12
275.408	279.12
275.64	268.12
275.872	234.12
276.104	254.12
276.335	253.12
276.567	281.12
276.799	289.12
277.031	319.12
277.262	324.12
277.494	315.12
277.726	324.12
277.957	295.12
278.189	288.12
278.421	271.12
278.652	266.12
278.884	279.12
279.115	259.12
279.347	276.12
279.579	249.12
279.81	255.12
280.042	246.12
280.273	254.12
280.505	252.12
280.736	267.12
280.968	248.12
281.199	259.12
281.431	261.12
281.662	264.12
281.894	251.12
282.125	271.12
282.356	294.12
282.588	303.12
282.819	323.12
283.051	263.12
283.282	251.12
283.513	261.12
283.745	259.12
283.976	277.12
284.207	273.12
284.439	269.12
284.67	281.12
284.901	279.12
285.132	273.12
285.364	280.12
285.595	263.12
285.826	256.12
286.057	285.12
286.288	277.12
286.52	265.12
286.751	253.12
286.982	267.12
287.213	264.12
287.444	263.12
287.675	260.12
287.906	285.12
288.138	287.12
288.369	303.12
288.6	308.12
288.831	284.12
289.062	277.12
289.293	274.12
289.524	251.12
289.755	268.12
289.986	264.12
290.217	265.12
290.448	263.12
290.679	275.12
290.91	279.12
291.141	278.12
291.371	276.12
291.602	268.12
291.833	255.12
292.064	267.12
292.295	263.12
292.526	274.12
292.757	275.12
292.987	262.12
293.218	260.12
293.449	265.12
293.68	277.12
293.91	265.12
294.141	272.12
294.372	266.12
294.603	281.12
294.833	284.12
295.064	284.12
295.295	278.12
295.525	272.12
295.756	281.12
295.987	309.12
296.217	305.12
296.448	320.12
296.679	303.12
296.909	275.12
297.14	267.12
297.37	268.12
297.601	283.12
297.831	282.12
298.062	281.12
298.292	280.12
298.523	283.12
298.753	290.12
298.984	283.12
299.214	287.12
299.445	306.12
299.675	287.12
299.905	287.12
300.136	277.12
300.366	300.12
300.597	301.12
300.827	287.12
301.057	297.12
301.288	307.12
301.518	319.12
301.748	314.12
301.979	299.12
302.209	303.12
302.439	321.12
302.669	304.12
302.9	307.12
303.13	297.12
303.36	320.12
303.59	300.12
303.82	312.12
304.051	303.12
304.281	318.12
304.511	284.12
304.741	286.12
304.971	301.12
305.201	296.12
305.431	290.12
305.661	293.12
305.891	300.12
306.121	299.12
306.352	311.12
306.582	323.12
306.812	320.12
307.042	308.12
307.272	315.12
307.502	317.12
307.731	325.12
307.961	300.12
308.191	320.12
308.421	316.12
308.651	319.12
308.881	319.12
309.111	332.12
309.341	316.12
309.571	332.12
309.8	346.12
310.03	363.12
310.26	359.12
310.49	342.12
310.72	375.12
310.949	411.12
311.179	399.12
311.409	380.12
311.639	373.12
311.868	359.12
312.098	373.12
312.328	389.12
312.557	402.12
312.787	420.12
313.017	418.12
313.246	380.12
313.476	363.12
313.706	373.12
313.935	373.12
314.165	383.12
314.394	396.12
314.624	383.12
314.853	377.12
315.083	371.12
315.312	371.12
315.542	345.12
315.771	348.12
316.001	361.12
316.23	347.12
316.46	369.12
316.689	349.12
316.919	362.12
317.148	364.12
317.377	380.12
317.607	383.12
317.836	369.12
318.065	359.12
318.295	331.12
318.524	354.12
318.753	369.12
318.983	370.12
319.212	360.12
319.441	373.12
319.67	373.12
319.9	355.12
320.129	357.12
320.358	372.12
320.587	365.12
320.816	381.12
321.046	399.12
321.275	382.12
321.504	405.12
321.733	405.12
321.962	414.12
322.191	417.12
322.42	437.12
322.649	439.12
322.878	448.12
323.108	477.12
323.337	502.12
323.566	546.12
323.795	570.12
324.024	615.12
324.253	795.12
324.482	1127.12
324.71	1728.12
324.939	2496.12
325.168	2219.12
325.397	1177.12
325.626	740.12
325.855	596.12
326.084	546.12
326.313	546.12
326.542	525.12
326.77	598.12
326.999	720.12
327.228	968.12
327.457	1531.12
327.686	1878.12
327.914	1287.12
328.143	821.12
328.372	705.12
328.6	664.12
328.829	603.12
329.058	651.12
329.287	635.12
329.515	603.12
329.744	532.12
329.972	530.12
330.201	555.12
330.43	597.12
330.658	644.12
330.887	695.12
331.115	645.12
331.344	556.12
331.572	515.12
331.801	489.12
332.03	518.12
332.258	480.12
332.486	465.12
332.715	457.12
332.943	440.12
333.172	446.12
333.4	445.12
333.629	461.12
333.857	466.12
334.085	472.12
334.314	467.12
334.542	529.12
334.771	563.12
334.999	489.12
335.227	454.12
335.455	436.12
335.684	424.12
335.912	437.12
336.14	415.12
336.369	411.12
336.597	426.12
336.825	418.12
337.053	427.12
337.281	390.12
337.51	415.12
337.738	402.12
337.966	418.12
338.194	426.12
338.422	428.12
338.65	412.12
338.878	401.12
339.106	409.12
339.334	395.12
339.562	398.12
339.79	401.12
340.018	419.12
340.246	399.12
340.474	416.12
340.702	397.12
340.93	404.12
341.158	383.12
341.386	400.12
341.614	437.12
341.842	387.12
342.07	411.12
342.298	384.12
342.526	387.12
342.754	375.12
342.981	369.12
343.209	375.12
343.437	386.12
343.665	368.12
343.893	400.12
344.12	397.12
344.348	407.12
344.576	420.12
344.804	403.12
345.031	439.12
345.259	444.12
345.487	426.12
345.714	390.12
345.942	416.12
346.17	397.12
346.397	405.12
346.625	383.12
346.853	405.12
347.08	386.12
347.308	402.12
347.535	415.12
347.763	415.12
347.99	422.12
348.218	410.12
348.445	409.12
348.673	414.12
348.9	400.12
349.128	409.12
349.355	394.12
349.583	376.12
349.81	369.12
350.037	370.12
350.265	394.12
350.492	376.12
350.72	373.12
350.947	391.12
351.174	403.12
351.402	407.12
351.629	419.12
351.856	409.12
352.083	417.12
352.311	438.12
352.538	449.12
352.765	435.12
352.992	418.12
353.22	423.12
353.447	410.12
353.674	402.12
353.901	383.12
354.128	362.12
354.355	367.12
354.583	357.12
354.81	351.12
355.037	364.12
355.264	354.12
355.491	347.12
355.718	377.12
355.945	351.12
356.172	349.12
356.399	372.12
356.626	369.12
356.853	347.12
357.08	345.12
357.307	357.12
357.534	366.12
357.761	329.12
357.988	356.12
358.215	376.12
358.441	365.12
358.668	375.12
358.895	366.12
359.122	382.12
359.349	390.12
359.576	409.12
359.802	423.12
360.029	459.12
360.256	474.12
360.483	457.12
360.709	413.12
360.936	411.12
361.163	379.12
361.39	402.12
361.616	396.12
361.843	411.12
362.07	381.12
362.296	412.12
362.523	403.12
362.749	392.12
362.976	383.12
363.203	385.12
363.429	376.12
363.656	370.12
363.882	381.12
364.109	384.12
364.335	376.12
364.562	401.12
364.788	367.12
365.015	394.12
365.241	372.12
365.468	391.12
365.694	387.12
365.92	378.12
366.147	380.12
366.373	376.12
366.599	365.12
366.826	365.12
367.052	375.12
367.278	385.12
367.505	360.12
367.731	373.12
367.957	375.12
368.184	376.12
368.41	383.12
368.636	383.12
368.862	406.12
369.089	375.12
369.315	381.12
369.541	357.12
369.767	364.12
369.993	373.12
370.219	379.12
370.445	359.12
370.672	345.12
370.898	344.12
371.124	364.12
371.35	365.12
371.576	358.12
371.802	371.12
372.028	393.12
372.254	354.12
372.48	349.12
372.706	361.12
372.932	349.12
373.158	356.12
373.384	381.12
373.61	355.12
373.835	374.12
374.061	367.12
374.287	373.12
374.513	353.12
374.739	370.12
374.965	377.12
375.191	352.12
375.416	349.12
375.642	344.12
375.868	359.12
376.094	367.12
376.319	363.12
376.545	359.12
376.771	369.12
376.997	358.12
377.222	358.12
377.448	338.12
377.674	371.12
377.899	374.12
378.125	333.12
378.35	337.12
378.576	352.12
378.802	355.12
379.027	363.12
379.253	355.12
379.478	353.12
379.704	360.12
379.929	368.12
380.155	347.12
380.38	358.12
380.606	355.12
380.831	365.12
381.057	408.12
381.282	370.12
381.507	362.12
381.733	355.12
381.958	359.12
382.184	347.12
382.409	370.12
382.634	353.12
382.86	353.12
383.085	351.12
383.31	364.12
383.535	373.12
383.761	368.12
383.986	372.12
384.211	343.12
384.436	387.12
384.662	355.12
384.887	369.12
385.112	373.12
385.337	368.12
385.562	370.12
385.787	382.12
386.013	391.12
386.238	418.12
386.463	392.12
386.688	388.12
386.913	387.12
387.138	384.12
387.363	379.12
387.588	382.12
387.813	391.12
388.038	353.12
388.263	371.12
388.488	392.12
388.713	367.12
388.938	362.12
389.163	381.12
389.387	397.12
389.612	376.12
389.837	386.12
390.062	388.12
390.287	369.12
390.512	377.12
390.736	370.12
390.961	391.12
391.186	385.12
391.411	386.12
391.636	391.12
391.86	391.12
392.085	382.12
392.31	410.12
392.534	386.12
392.759	395.12
392.984	379.12
393.208	379.12
393.433	403.12
393.658	358.12
393.882	386.12
394.107	377.12
394.331	371.12
394.556	396.12
394.78	378.12
395.005	380.12
395.229	370.12
395.454	383.12
395.678	384.12
395.903	405.12
396.127	411.12
396.352	434.12
396.576	396.12
396.801	375.12
397.025	388.12
397.249	405.12
397.474	400.12
397.698	392.12
397.922	411.12
398.147	409.12
398.371	424.12
398.595	415.12
398.82	420.12
399.044	416.12
399.268	428.12
399.492	450.12
399.717	478.12
399.941	501.12
400.165	515.12
400.389	540.12
400.613	467.12
400.837	433.12
401.062	451.12
401.286	450.12
401.51	445.12
401.734	440.12
401.958	437.12
402.182	441.12
402.406	456.12
402.63	449.12
402.854	419.12
403.078	447.12
403.302	443.12
403.526	460.12
403.75	463.12
403.974	439.12
404.198	432.12
404.422	447.12
404.645	456.12
404.869	473.12
405.093	492.12
405.317	542.12
405.541	571.12
405.765	511.12
405.988	497.12
406.212	473.12
406.436	522.12
406.66	513.12
406.883	506.12
407.107	515.12
407.331	561.12
407.555	597.12
407.778	609.12
408.002	567.12
408.226	511.12
408.449	489.12
408.673	515.12
408.896	524.12
409.12	555.12
409.344	554.12
409.567	453.12
409.791	473.12
410.014	452.12
410.238	435.12
410.461	457.12
410.685	450.12
410.908	470.12
411.132	502.12
411.355	544.12
411.578	514.12
411.802	440.12
412.025	450.12
412.249	470.12
412.472	507.12
412.695	538.12
412.919	521.12
413.142	479.12
413.365	428.12
413.589	455.12
413.812	441.12
414.035	440.12
414.258	415.12
414.482	416.12
414.705	437.12
414.928	414.12
415.151	421.12
415.374	407.12
415.597	427.12
415.821	402.12
416.044	423.12
416.267	426.12
416.49	424.12
416.713	426.12
416.936	426.12
417.159	412.12
417.382	444.12
417.605	448.12
417.828	460.12
418.051	455.12
418.274	475.12
418.497	431.12
418.72	428.12
418.943	436.12
419.166	447.12
419.389	456.12
419.611	452.12
419.834	467.12
420.057	443.12
420.28	476.12
420.503	470.12
420.726	465.12
420.948	452.12
421.171	539.12
421.394	555.12
421.617	505.12
421.839	487.12
422.062	469.12
422.285	491.12
422.507	571.12
422.73	632.12
422.953	605.12
423.175	500.12
423.398	496.12
423.621	490.12
423.843	501.12
424.066	513.12
424.288	514.12
424.511	528.12
424.733	574.12
424.956	653.12
425.178	647.12
425.401	629.12
425.623	657.12
425.846	572.12
426.068	491.12
426.291	524.12
426.513	490.12
426.735	531.12
426.958	556.12
427.18	664.12
427.402	762.12
427.625	872.12
427.847	775.12
428.069	677.12
428.292	589.12
428.514	541.12
428.736	501.12
428.958	490.12
429.181	493.12
429.403	464.12
429.625	489.12
429.847	532.12
430.069	594.12
430.292	593.12
430.514	506.12
430.736	495.12
430.958	458.12
431.18	458.12
431.402	445.12
431.624	427.12
431.846	458.12
432.068	427.12
432.29	457.12
432.512	453.12
432.734	462.12
432.956	457.12
433.178	460.12
433.4	462.12
433.622	457.12
433.844	450.12
434.066	440.12
434.287	442.12
434.509	433.12
434.731	458.12
434.953	458.12
435.175	482.12
435.397	503.12
435.618	525.12
435.84	570.12
436.062	655.12
436.284	723.12
436.505	600.12
436.727	533.12
436.949	498.12
437.17	497.12
437.392	490.12
437.614	486.12
437.835	524.12
438.057	652.12
438.278	739.12
438.5	713.12
438.721	823.12
438.943	736.12
439.165	615.12
439.386	552.12
439.608	549.12
439.829	529.12
440.05	592.12
440.272	612.12
440.493	571.12
440.715	522.12
440.936	513.12
441.158	481.12
441.379	475.12
441.6	497.12
441.822	532.12
442.043	587.12
442.264	651.12
442.486	694.12
442.707	575.12
442.928	572.12
443.149	557.12
443.371	554.12
443.592	612.12
443.813	703.12
444.034	737.12
444.255	600.12
444.476	551.12
444.698	524.12
444.919	525.12
445.14	587.12
445.361	587.12
445.582	572.12
445.803	628.12
446.024	718.12
446.245	753.12
446.466	671.12
446.687	577.12
446.908	535.12
447.129	466.12
447.35	485.12
447.571	466.12
447.792	472.12
448.013	490.12
448.234	525.12
448.455	550.12
448.675	664.12
448.896	748.12
449.117	649.12
449.338	598.12
449.559	695.12
449.779	807.12
450	673.12
450.221	553.12
450.442	499.12
450.662	479.12
450.883	474.12
451.104	496.12
451.324	478.12
451.545	472.12
451.766	442.12
451.986	452.12
452.207	432.12
452.428	433.12
452.648	428.12
452.869	444.12
453.089	439.12
453.31	456.12
453.53	440.12
453.751	445.12
453.971	451.12
454.192	483.12
454.412	456.12
454.633	449.12
454.853	451.12
455.073	434.12
455.294	461.12
455.514	535.12
455.734	519.12
455.955	453.12
456.175	399.12
456.395	419.12
456.616	406.12
456.836	406.12
457.056	383.12
457.276	380.12
457.497	392.12
457.717	406.12
457.937	392.12
458.157	417.12
458.377	418.12
458.598	452.12
458.818	519.12
459.038	628.12
459.258	635.12
459.478	525.12
459.698	447.12
459.918	427.12
460.138	437.12
460.358	429.12
460.578	418.12
460.798	441.12
461.018	448.12
461.238	443.12
461.458	433.12
461.678	432.12
461.898	442.12
462.118	413.12
462.338	425.12
462.558	440.12
462.777	451.12
462.997	439.12
463.217	446.12
463.437	435.12
463.657	423.12
463.876	435.12
464.096	437.12
464.316	452.12
464.536	454.12
464.755	468.12
464.975	460.12
465.195	521.12
465.414	643.12
465.634	565.12
465.854	515.12
466.073	453.12
466.293	442.12
466.512	452.12
466.732	437.12
466.951	439.12
467.171	420.12
467.391	431.12
467.61	439.12
467.829	455.12
468.049	434.12
468.268	445.12
468.488	441.12
468.707	430.12
468.927	424.12
469.146	415.12
469.365	444.12
469.585	401.12
469.804	420.12
470.023	455.12
470.243	449.12
470.462	459.12
470.681	472.12
470.901	470.12
471.12	456.12
471.339	432.12
471.558	451.12
471.777	443.12
471.997	453.12
472.216	450.12
472.435	500.12
472.654	473.12
472.873	441.12
473.092	437.12
473.311	436.12
473.53	447.12
473.749	459.12
473.968	491.12
474.187	609.12
474.406	633.12
474.625	512.12
474.844	483.12
475.063	424.12
475.282	458.12
475.501	444.12
475.72	445.12
475.939	449.12
476.158	427.12
476.377	439.12
476.596	471.12
476.814	477.12
477.033	452.12
477.252	468.12
477.471	475.12
477.69	450.12
477.908	468.12
478.127	493.12
478.346	469.12
478.564	479.12
478.783	451.12
479.002	480.12
479.22	501.12
479.439	491.12
479.658	523.12
479.876	529.12
480.095	525.12
480.313	539.12
480.532	564.12
480.751	551.12
480.969	582.12
481.188	628.12
481.406	677.12
481.624	598.12
481.843	540.12
482.061	544.12
482.28	538.12
482.498	533.12
482.717	511.12
482.935	515.12
483.153	503.12
483.372	502.12
483.59	512.12
483.808	523.12
484.027	529.12
484.245	519.12
484.463	503.12
484.681	516.12
484.9	512.12
485.118	532.12
485.336	534.12
485.554	531.12
485.772	529.12
485.99	535.12
486.209	540.12
486.427	537.12
486.645	581.12
486.863	589.12
487.081	597.12
487.299	587.12
487.517	571.12
487.735	538.12
487.953	564.12
488.171	548.12
488.389	566.12
488.607	571.12
488.825	546.12
489.043	555.12
489.261	578.12
489.479	566.12
489.696	583.12
489.914	586.12
490.132	589.12
490.35	592.12
490.568	587.12
490.786	623.12
491.003	611.12
491.221	639.12
491.439	638.12
491.657	626.12
491.874	645.12
492.092	655.12
492.31	669.12
492.527	669.12
492.745	657.12
492.963	647.12
493.18	659.12
493.398	652.12
493.615	682.12
493.833	695.12
494.05	667.12
494.268	680.12
494.485	700.12
494.703	672.12
494.92	699.12
495.138	677.12
495.355	703.12
495.573	665.12
495.79	680.12
496.008	693.12
496.225	683.12
496.442	682.12
496.66	675.12
496.877	637.12
497.094	657.12
497.312	695.12
497.529	699.12
497.746	699.12
497.963	698.12
498.181	736.12
498.398	722.12
498.615	721.12
498.832	699.12
499.049	736.12
499.267	732.12
499.484	738.12
499.701	755.12
499.918	781.12
500.135	792.12
500.352	781.12
500.569	793.12
500.786	825.12
501.003	829.12
501.22	819.12
501.437	776.12
501.654	787.12
501.871	802.12
