Data from 1980.PennyLincolnUp.Lamp.En5.5.200Scan.071819.P1_HRD10591_16-36-36-957.txt Node
Date: Thu Jul 18 16:36:36 EDT 2019
User: cochatt
Spectrometer: HR+D1059
Trigger mode: 1
Integration Time (sec): 1.000000E-1
Scans to average: 1
Electric dark correction enabled: true
Nonlinearity correction enabled: false
Boxcar width: 0
XAxis mode: Wavelengths
Number of Pixels in Spectrum: 2048
>>>>>Begin Spectral Data<<<<<
223.165	3.44
223.4	3.44
223.635	3.44
223.869	-18.56
224.104	-19.56
224.338	-14.56
224.573	-9.56
224.808	-26.56
225.042	-13.56
225.277	-2.56
225.511	-8.56
225.746	-1.56
225.98	11.44
226.215	2.44
226.449	13.44
226.683	32.44
226.918	30.44
227.152	21.44
227.387	31.44
227.621	35.44
227.856	49.44
228.09	54.44
228.324	45.44
228.559	40.44
228.793	70.44
229.027	94.44
229.262	113.44
229.496	115.44
229.73	117.44
229.964	155.44
230.199	122.44
230.433	110.44
230.667	110.44
230.901	105.44
231.136	100.44
231.37	115.44
231.604	112.44
231.838	109.44
232.072	107.44
232.306	93.44
232.541	121.44
232.775	116.44
233.009	120.44
233.243	129.44
233.477	117.44
233.711	120.44
233.945	103.44
234.179	105.44
234.413	116.44
234.647	107.44
234.881	122.44
235.115	113.44
235.349	114.44
235.583	121.44
235.817	121.44
236.051	104.44
236.285	114.44
236.519	104.44
236.753	124.44
236.987	146.44
237.221	188.44
237.455	201.44
237.689	177.44
237.922	140.44
238.156	133.44
238.39	126.44
238.624	117.44
238.858	120.44
239.091	108.44
239.325	114.44
239.559	104.44
239.793	119.44
240.027	128.44
240.26	119.44
240.494	146.44
240.728	143.44
240.961	140.44
241.195	137.44
241.429	126.44
241.662	119.44
241.896	138.44
242.13	129.44
242.363	138.44
242.597	127.44
242.83	119.44
243.064	130.44
243.298	125.44
243.531	135.44
243.765	133.44
243.998	125.44
244.232	140.44
244.465	128.44
244.699	143.44
244.932	136.44
245.166	139.44
245.399	127.44
245.633	119.44
245.866	142.44
246.099	137.44
246.333	147.44
246.566	133.44
246.8	141.44
247.033	157.44
247.266	148.44
247.5	144.44
247.733	167.44
247.966	173.44
248.2	164.44
248.433	184.44
248.666	170.44
248.899	158.44
249.133	198.44
249.366	211.44
249.599	187.44
249.832	179.44
250.066	176.44
250.299	171.44
250.532	178.44
250.765	204.44
250.998	212.44
251.231	209.44
251.465	211.44
251.698	188.44
251.931	186.44
252.164	194.44
252.397	192.44
252.63	182.44
252.863	196.44
253.096	185.44
253.329	215.44
253.562	221.44
253.795	206.44
254.028	213.44
254.261	219.44
254.494	221.44
254.727	255.44
254.96	240.44
255.193	251.44
255.426	245.44
255.659	222.44
255.892	236.44
256.124	206.44
256.357	213.44
256.59	221.44
256.823	210.44
257.056	199.44
257.289	201.44
257.521	189.44
257.754	201.44
257.987	186.44
258.22	206.44
258.452	193.44
258.685	202.44
258.918	196.44
259.151	185.44
259.383	194.44
259.616	206.44
259.849	220.44
260.081	215.44
260.314	228.44
260.547	250.44
260.779	231.44
261.012	218.44
261.244	228.44
261.477	219.44
261.71	203.44
261.942	208.44
262.175	227.44
262.407	214.44
262.64	211.44
262.872	189.44
263.105	218.44
263.337	189.44
263.57	194.44
263.802	190.44
264.035	203.44
264.267	191.44
264.499	201.44
264.732	196.44
264.964	190.44
265.197	195.44
265.429	182.44
265.661	194.44
265.894	176.44
266.126	192.44
266.358	196.44
266.591	212.44
266.823	196.44
267.055	194.44
267.287	223.44
267.52	199.44
267.752	192.44
267.984	217.44
268.216	193.44
268.448	198.44
268.681	221.44
268.913	219.44
269.145	227.44
269.377	248.44
269.609	231.44
269.841	242.44
270.073	265.44
270.306	277.44
270.538	284.44
270.77	290.44
271.002	288.44
271.234	265.44
271.466	269.44
271.698	285.44
271.93	297.44
272.162	298.44
272.394	287.44
272.626	287.44
272.858	273.44
273.09	245.44
273.322	253.44
273.553	254.44
273.785	244.44
274.017	230.44
274.249	230.44
274.481	234.44
274.713	253.44
274.945	261.44
275.176	243.44
275.408	249.44
275.64	245.44
275.872	226.44
276.104	247.44
276.335	243.44
276.567	258.44
276.799	258.44
277.031	281.44
277.262	304.44
277.494	299.44
277.726	264.44
277.957	258.44
278.189	253.44
278.421	259.44
278.652	236.44
278.884	230.44
279.115	233.44
279.347	243.44
279.579	235.44
279.81	232.44
280.042	227.44
280.273	221.44
280.505	228.44
280.736	234.44
280.968	238.44
281.199	242.44
281.431	226.44
281.662	240.44
281.894	238.44
282.125	252.44
282.356	245.44
282.588	257.44
282.819	256.44
283.051	240.44
283.282	235.44
283.513	234.44
283.745	244.44
283.976	232.44
284.207	254.44
284.439	251.44
284.67	233.44
284.901	235.44
285.132	248.44
285.364	243.44
285.595	233.44
285.826	222.44
286.057	228.44
286.288	249.44
286.52	240.44
286.751	245.44
286.982	236.44
287.213	218.44
287.444	244.44
287.675	237.44
287.906	238.44
288.138	253.44
288.369	261.44
288.6	249.44
288.831	258.44
289.062	248.44
289.293	252.44
289.524	249.44
289.755	252.44
289.986	244.44
290.217	264.44
290.448	256.44
290.679	241.44
290.91	229.44
291.141	240.44
291.371	240.44
291.602	240.44
291.833	236.44
292.064	237.44
292.295	235.44
292.526	257.44
292.757	245.44
292.987	243.44
293.218	233.44
293.449	245.44
293.68	248.44
293.91	254.44
294.141	250.44
294.372	234.44
294.603	250.44
294.833	252.44
295.064	258.44
295.295	265.44
295.525	245.44
295.756	263.44
295.987	262.44
296.217	254.44
296.448	292.44
296.679	268.44
296.909	258.44
297.14	256.44
297.37	266.44
297.601	256.44
297.831	254.44
298.062	259.44
298.292	266.44
298.523	260.44
298.753	265.44
298.984	270.44
299.214	254.44
299.445	256.44
299.675	263.44
299.905	262.44
300.136	260.44
300.366	252.44
300.597	267.44
300.827	259.44
301.057	263.44
301.288	252.44
301.518	281.44
301.748	270.44
301.979	284.44
302.209	266.44
302.439	272.44
302.669	273.44
302.9	282.44
303.13	264.44
303.36	268.44
303.59	278.44
303.82	306.44
304.051	280.44
304.281	271.44
304.511	259.44
304.741	252.44
304.971	255.44
305.201	254.44
305.431	256.44
305.661	250.44
305.891	285.44
306.121	274.44
306.352	281.44
306.582	286.44
306.812	299.44
307.042	271.44
307.272	282.44
307.502	279.44
307.731	300.44
307.961	274.44
308.191	283.44
308.421	279.44
308.651	267.44
308.881	291.44
309.111	299.44
309.341	304.44
309.571	297.44
309.8	311.44
310.03	332.44
310.26	312.44
310.49	326.44
310.72	334.44
310.949	329.44
311.179	341.44
311.409	335.44
311.639	334.44
311.868	325.44
312.098	333.44
312.328	338.44
312.557	348.44
312.787	332.44
313.017	348.44
313.246	353.44
313.476	318.44
313.706	324.44
313.935	309.44
314.165	340.44
314.394	343.44
314.624	338.44
314.853	320.44
315.083	314.44
315.312	318.44
315.542	308.44
315.771	313.44
316.001	312.44
316.23	292.44
316.46	316.44
316.689	316.44
316.919	326.44
317.148	317.44
317.377	327.44
317.607	307.44
317.836	324.44
318.065	319.44
318.295	321.44
318.524	309.44
318.753	332.44
318.983	322.44
319.212	331.44
319.441	338.44
319.67	338.44
319.9	330.44
320.129	314.44
320.358	327.44
320.587	324.44
320.816	343.44
321.046	348.44
321.275	337.44
321.504	345.44
321.733	349.44
321.962	358.44
322.191	355.44
322.42	356.44
322.649	394.44
322.878	411.44
323.108	419.44
323.337	437.44
323.566	453.44
323.795	461.44
324.024	499.44
324.253	640.44
324.482	930.44
324.71	1432.44
324.939	1969.44
325.168	1753.44
325.397	916.44
325.626	613.44
325.855	502.44
326.084	460.44
326.313	452.44
326.542	440.44
326.77	489.44
326.999	589.44
327.228	792.44
327.457	1214.44
327.686	1507.44
327.914	1045.44
328.143	662.44
328.372	556.44
328.6	541.44
328.829	507.44
329.058	525.44
329.287	521.44
329.515	500.44
329.744	444.44
329.972	461.44
330.201	458.44
330.43	469.44
330.658	532.44
330.887	560.44
331.115	548.44
331.344	461.44
331.572	436.44
331.801	434.44
332.03	428.44
332.258	393.44
332.486	375.44
332.715	366.44
332.943	356.44
333.172	354.44
333.4	376.44
333.629	381.44
333.857	408.44
334.085	416.44
334.314	406.44
334.542	458.44
334.771	445.44
334.999	393.44
335.227	371.44
335.455	378.44
335.684	393.44
335.912	377.44
336.14	379.44
336.369	359.44
336.597	378.44
336.825	379.44
337.053	377.44
337.281	375.44
337.51	356.44
337.738	352.44
337.966	363.44
338.194	355.44
338.422	364.44
338.65	362.44
338.878	356.44
339.106	361.44
339.334	360.44
339.562	336.44
339.79	349.44
340.018	359.44
340.246	364.44
340.474	370.44
340.702	377.44
340.93	351.44
341.158	360.44
341.386	358.44
341.614	377.44
341.842	378.44
342.07	356.44
342.298	349.44
342.526	369.44
342.754	344.44
342.981	339.44
343.209	341.44
343.437	341.44
343.665	332.44
343.893	354.44
344.12	371.44
344.348	352.44
344.576	354.44
344.804	365.44
345.031	368.44
345.259	376.44
345.487	377.44
345.714	376.44
345.942	336.44
346.17	345.44
346.397	362.44
346.625	346.44
346.853	356.44
347.08	346.44
347.308	341.44
347.535	360.44
347.763	365.44
347.99	385.44
348.218	372.44
348.445	356.44
348.673	381.44
348.9	362.44
349.128	359.44
349.355	316.44
349.583	348.44
349.81	334.44
350.037	341.44
350.265	340.44
350.492	341.44
350.72	328.44
350.947	354.44
351.174	374.44
351.402	365.44
351.629	358.44
351.856	372.44
352.083	377.44
352.311	347.44
352.538	374.44
352.765	372.44
352.992	362.44
353.22	350.44
353.447	346.44
353.674	355.44
353.901	328.44
354.128	345.44
354.355	324.44
354.583	333.44
354.81	338.44
355.037	322.44
355.264	321.44
355.491	308.44
355.718	324.44
355.945	337.44
356.172	339.44
356.399	309.44
356.626	323.44
356.853	322.44
357.08	321.44
357.307	319.44
357.534	323.44
357.761	336.44
357.988	316.44
358.215	321.44
358.441	322.44
358.668	323.44
358.895	335.44
359.122	325.44
359.349	337.44
359.576	345.44
359.802	362.44
360.029	411.44
360.256	426.44
360.483	397.44
360.709	357.44
360.936	352.44
361.163	347.44
361.39	372.44
361.616	370.44
361.843	354.44
362.07	349.44
362.296	368.44
362.523	364.44
362.749	357.44
362.976	354.44
363.203	337.44
363.429	322.44
363.656	326.44
363.882	336.44
364.109	329.44
364.335	325.44
364.562	340.44
364.788	334.44
365.015	340.44
365.241	341.44
365.468	350.44
365.694	339.44
365.92	329.44
366.147	341.44
366.373	315.44
366.599	334.44
366.826	333.44
367.052	331.44
367.278	327.44
367.505	334.44
367.731	330.44
367.957	328.44
368.184	334.44
368.41	332.44
368.636	343.44
368.862	337.44
369.089	332.44
369.315	329.44
369.541	338.44
369.767	323.44
369.993	348.44
370.219	345.44
370.445	344.44
370.672	317.44
370.898	324.44
371.124	338.44
371.35	324.44
371.576	333.44
371.802	325.44
372.028	328.44
372.254	324.44
372.48	334.44
372.706	343.44
372.932	328.44
373.158	311.44
373.384	345.44
373.61	355.44
373.835	349.44
374.061	344.44
374.287	337.44
374.513	339.44
374.739	329.44
374.965	320.44
375.191	336.44
375.416	326.44
375.642	316.44
375.868	343.44
376.094	350.44
376.319	313.44
376.545	321.44
376.771	337.44
376.997	310.44
377.222	332.44
377.448	308.44
377.674	320.44
377.899	330.44
378.125	331.44
378.35	341.44
378.576	327.44
378.802	328.44
379.027	336.44
379.253	314.44
379.478	337.44
379.704	324.44
379.929	331.44
380.155	332.44
380.38	322.44
380.606	341.44
380.831	329.44
381.057	343.44
381.282	347.44
381.507	341.44
381.733	309.44
381.958	333.44
382.184	340.44
382.409	357.44
382.634	350.44
382.86	324.44
383.085	348.44
383.31	352.44
383.535	352.44
383.761	339.44
383.986	344.44
384.211	331.44
384.436	331.44
384.662	353.44
384.887	354.44
385.112	361.44
385.337	343.44
385.562	337.44
385.787	361.44
386.013	364.44
386.238	369.44
386.463	370.44
386.688	366.44
386.913	350.44
387.138	365.44
387.363	347.44
387.588	356.44
387.813	347.44
388.038	348.44
388.263	352.44
388.488	369.44
388.713	359.44
388.938	350.44
389.163	343.44
389.387	357.44
389.612	338.44
389.837	350.44
390.062	338.44
390.287	349.44
390.512	342.44
390.736	348.44
390.961	360.44
391.186	366.44
391.411	357.44
391.636	348.44
391.86	355.44
392.085	340.44
392.31	356.44
392.534	352.44
392.759	365.44
392.984	342.44
393.208	356.44
393.433	346.44
393.658	363.44
393.882	346.44
394.107	363.44
394.331	351.44
394.556	335.44
394.78	362.44
395.005	372.44
395.229	344.44
395.454	354.44
395.678	353.44
395.903	364.44
396.127	389.44
396.352	402.44
396.576	355.44
396.801	364.44
397.025	359.44
397.249	370.44
397.474	358.44
397.698	365.44
397.922	390.44
398.147	393.44
398.371	394.44
398.595	374.44
398.82	381.44
399.044	376.44
399.268	392.44
399.492	410.44
399.717	447.44
399.941	446.44
400.165	476.44
400.389	485.44
400.613	437.44
400.837	405.44
401.062	408.44
401.286	413.44
401.51	386.44
401.734	392.44
401.958	397.44
402.182	391.44
402.406	401.44
402.63	404.44
402.854	417.44
403.078	406.44
403.302	410.44
403.526	405.44
403.75	408.44
403.974	402.44
404.198	411.44
404.422	398.44
404.645	425.44
404.869	407.44
405.093	440.44
405.317	480.44
405.541	485.44
405.765	452.44
405.988	422.44
406.212	430.44
406.436	461.44
406.66	478.44
406.883	453.44
407.107	468.44
407.331	498.44
407.555	568.44
407.778	573.44
408.002	491.44
408.226	466.44
408.449	464.44
408.673	473.44
408.896	466.44
409.12	538.44
409.344	495.44
409.567	435.44
409.791	444.44
410.014	412.44
410.238	401.44
410.461	410.44
410.685	393.44
410.908	429.44
411.132	460.44
411.355	492.44
411.578	476.44
411.802	434.44
412.025	406.44
412.249	415.44
412.472	448.44
412.695	454.44
412.919	470.44
413.142	423.44
413.365	413.44
413.589	392.44
413.812	402.44
414.035	401.44
414.258	420.44
414.482	391.44
414.705	392.44
414.928	378.44
415.151	408.44
415.374	398.44
415.597	370.44
415.821	361.44
416.044	376.44
416.267	409.44
416.49	385.44
416.713	396.44
416.936	397.44
417.159	402.44
417.382	400.44
417.605	401.44
417.828	415.44
418.051	427.44
418.274	432.44
418.497	402.44
418.72	405.44
418.943	384.44
419.166	432.44
419.389	440.44
419.611	430.44
419.834	426.44
420.057	423.44
420.28	397.44
420.503	396.44
420.726	438.44
420.948	434.44
421.171	468.44
421.394	500.44
421.617	454.44
421.839	421.44
422.062	416.44
422.285	430.44
422.507	480.44
422.73	579.44
422.953	536.44
423.175	462.44
423.398	440.44
423.621	436.44
423.843	446.44
424.066	466.44
424.288	446.44
424.511	478.44
424.733	533.44
424.956	578.44
425.178	553.44
425.401	586.44
425.623	584.44
425.846	501.44
426.068	475.44
426.291	458.44
426.513	482.44
426.735	472.44
426.958	519.44
427.18	587.44
427.402	679.44
427.625	776.44
427.847	678.44
428.069	566.44
428.292	514.44
428.514	468.44
428.736	460.44
428.958	449.44
429.181	424.44
429.403	434.44
429.625	446.44
429.847	481.44
430.069	540.44
430.292	526.44
430.514	459.44
430.736	432.44
430.958	433.44
431.18	393.44
431.402	419.44
431.624	376.44
431.846	385.44
432.068	384.44
432.29	408.44
432.512	385.44
432.734	422.44
432.956	432.44
433.178	413.44
433.4	416.44
433.622	408.44
433.844	407.44
434.066	385.44
434.287	413.44
434.509	402.44
434.731	407.44
434.953	425.44
435.175	420.44
435.397	449.44
435.618	476.44
435.84	502.44
436.062	575.44
436.284	650.44
436.505	534.44
436.727	481.44
436.949	434.44
437.17	461.44
437.392	440.44
437.614	452.44
437.835	499.44
438.057	576.44
438.278	674.44
438.5	659.44
438.721	694.44
438.943	670.44
439.165	577.44
439.386	517.44
439.608	498.44
439.829	476.44
440.05	492.44
440.272	523.44
440.493	530.44
440.715	458.44
440.936	448.44
441.158	453.44
441.379	442.44
441.6	454.44
441.822	470.44
442.043	514.44
442.264	565.44
442.486	625.44
442.707	530.44
442.928	490.44
443.149	505.44
443.371	511.44
443.592	560.44
443.813	625.44
444.034	677.44
444.255	551.44
444.476	493.44
444.698	478.44
444.919	449.44
445.14	532.44
445.361	509.44
445.582	536.44
445.803	563.44
446.024	676.44
446.245	680.44
446.466	617.44
446.687	528.44
446.908	475.44
447.129	439.44
447.35	449.44
447.571	454.44
447.792	433.44
448.013	431.44
448.234	447.44
448.455	494.44
448.675	626.44
448.896	678.44
449.117	607.44
449.338	580.44
449.559	630.44
449.779	731.44
450	585.44
450.221	522.44
450.442	432.44
450.662	438.44
450.883	435.44
451.104	476.44
451.324	466.44
451.545	421.44
451.766	419.44
451.986	393.44
452.207	382.44
452.428	406.44
452.648	395.44
452.869	400.44
453.089	390.44
453.31	417.44
453.53	394.44
453.751	386.44
453.971	387.44
454.192	389.44
454.412	397.44
454.633	392.44
454.853	387.44
455.073	407.44
455.294	415.44
455.514	468.44
455.734	462.44
455.955	405.44
456.175	385.44
456.395	389.44
456.616	363.44
456.836	360.44
457.056	331.44
457.276	357.44
457.497	368.44
457.717	352.44
457.937	356.44
458.157	393.44
458.377	384.44
458.598	388.44
458.818	457.44
459.038	515.44
459.258	550.44
459.478	467.44
459.698	405.44
459.918	426.44
460.138	409.44
460.358	396.44
460.578	402.44
460.798	409.44
461.018	386.44
461.238	404.44
461.458	406.44
461.678	368.44
461.898	376.44
462.118	394.44
462.338	386.44
462.558	393.44
462.777	401.44
462.997	412.44
463.217	424.44
463.437	405.44
463.657	424.44
463.876	422.44
464.096	407.44
464.316	419.44
464.536	417.44
464.755	409.44
464.975	444.44
465.195	466.44
465.414	579.44
465.634	518.44
465.854	454.44
466.073	420.44
466.293	404.44
466.512	388.44
466.732	379.44
466.951	396.44
467.171	391.44
467.391	389.44
467.61	392.44
467.829	408.44
468.049	408.44
468.268	400.44
468.488	379.44
468.707	366.44
468.927	372.44
469.146	373.44
469.365	393.44
469.585	363.44
469.804	388.44
470.023	398.44
470.243	401.44
470.462	409.44
470.681	405.44
470.901	406.44
471.12	396.44
471.339	406.44
471.558	393.44
471.777	379.44
471.997	392.44
472.216	389.44
472.435	407.44
472.654	410.44
472.873	405.44
473.092	390.44
473.311	394.44
473.53	405.44
473.749	424.44
473.968	441.44
474.187	544.44
474.406	579.44
474.625	456.44
474.844	408.44
475.063	396.44
475.282	398.44
475.501	395.44
475.72	410.44
475.939	398.44
476.158	418.44
476.377	412.44
476.596	416.44
476.814	409.44
477.033	422.44
477.252	421.44
477.471	418.44
477.69	417.44
477.908	408.44
478.127	418.44
478.346	427.44
478.564	407.44
478.783	446.44
479.002	451.44
479.22	434.44
479.439	452.44
479.658	471.44
479.876	475.44
480.095	487.44
480.313	500.44
480.532	479.44
480.751	481.44
480.969	505.44
481.188	530.44
481.406	562.44
481.624	499.44
481.843	499.44
482.061	470.44
482.28	477.44
482.498	462.44
482.717	460.44
482.935	477.44
483.153	447.44
483.372	488.44
483.59	476.44
483.808	470.44
484.027	472.44
484.245	477.44
484.463	461.44
484.681	461.44
484.9	481.44
485.118	491.44
485.336	484.44
485.554	494.44
485.772	489.44
485.99	480.44
486.209	476.44
486.427	476.44
486.645	480.44
486.863	522.44
487.081	525.44
487.299	504.44
487.517	488.44
487.735	524.44
487.953	531.44
488.171	505.44
488.389	520.44
488.607	515.44
488.825	524.44
489.043	516.44
489.261	522.44
489.479	530.44
489.696	525.44
489.914	540.44
490.132	547.44
490.35	520.44
490.568	538.44
490.786	535.44
491.003	563.44
491.221	581.44
491.439	583.44
491.657	572.44
491.874	573.44
492.092	579.44
492.31	572.44
492.527	594.44
492.745	593.44
492.963	590.44
493.18	603.44
493.398	627.44
493.615	606.44
493.833	597.44
494.05	593.44
494.268	631.44
494.485	592.44
494.703	604.44
494.92	616.44
495.138	611.44
495.355	612.44
495.573	604.44
495.79	609.44
496.008	608.44
496.225	625.44
496.442	614.44
496.66	609.44
496.877	590.44
497.094	613.44
497.312	601.44
497.529	628.44
497.746	632.44
497.963	647.44
498.181	645.44
498.398	638.44
498.615	657.44
498.832	666.44
499.049	634.44
499.267	676.44
499.484	682.44
499.701	691.44
499.918	694.44
500.135	737.44
500.352	744.44
500.569	740.44
500.786	746.44
501.003	759.44
501.22	726.44
501.437	752.44
501.654	727.44
501.871	710.44
502.088	740.44
