Data from 1980.PennyLincolnUp.Lamp.En5.5.200Scan.071819.P1_HRD10591_16-38-35-957.txt Node
Date: Thu Jul 18 16:38:35 EDT 2019
User: cochatt
Spectrometer: HR+D1059
Trigger mode: 1
Integration Time (sec): 1.000000E-1
Scans to average: 1
Electric dark correction enabled: true
Nonlinearity correction enabled: false
Boxcar width: 0
XAxis mode: Wavelengths
Number of Pixels in Spectrum: 2048
>>>>>Begin Spectral Data<<<<<
223.165	-6.38
223.4	-6.38
223.635	-6.38
223.869	-22.38
224.104	-8.38
224.338	-11.38
224.573	-28.38
224.808	-19.38
225.042	2.62
225.277	-4.38
225.511	-8.38
225.746	3.62
225.98	13.62
226.215	13.62
226.449	8.62
226.683	24.62
226.918	14.62
227.152	27.62
227.387	45.62
227.621	38.62
227.856	37.62
228.09	41.62
228.324	49.62
228.559	37.62
228.793	63.62
229.027	93.62
229.262	107.62
229.496	117.62
229.73	134.62
229.964	163.62
230.199	142.62
230.433	115.62
230.667	111.62
230.901	115.62
231.136	133.62
231.37	123.62
231.604	127.62
231.838	109.62
232.072	119.62
232.306	116.62
232.541	113.62
232.775	116.62
233.009	117.62
233.243	114.62
233.477	111.62
233.711	115.62
233.945	109.62
234.179	125.62
234.413	108.62
234.647	129.62
234.881	115.62
235.115	102.62
235.349	131.62
235.583	129.62
235.817	130.62
236.051	134.62
236.285	134.62
236.519	123.62
236.753	135.62
236.987	146.62
237.221	193.62
237.455	251.62
237.689	202.62
237.922	155.62
238.156	148.62
238.39	135.62
238.624	124.62
238.858	125.62
239.091	131.62
239.325	125.62
239.559	138.62
239.793	147.62
240.027	139.62
240.26	135.62
240.494	159.62
240.728	150.62
240.961	149.62
241.195	153.62
241.429	157.62
241.662	138.62
241.896	140.62
242.13	130.62
242.363	135.62
242.597	139.62
242.83	135.62
243.064	150.62
243.298	138.62
243.531	139.62
243.765	150.62
243.998	144.62
244.232	138.62
244.465	150.62
244.699	162.62
244.932	149.62
245.166	159.62
245.399	153.62
245.633	137.62
245.866	151.62
246.099	137.62
246.333	153.62
246.566	156.62
246.8	142.62
247.033	168.62
247.266	161.62
247.5	156.62
247.733	187.62
247.966	185.62
248.2	167.62
248.433	182.62
248.666	189.62
248.899	192.62
249.133	189.62
249.366	230.62
249.599	201.62
249.832	191.62
250.066	185.62
250.299	183.62
250.532	215.62
250.765	209.62
250.998	236.62
251.231	252.62
251.465	217.62
251.698	217.62
251.931	210.62
252.164	221.62
252.397	209.62
252.63	209.62
252.863	219.62
253.096	226.62
253.329	232.62
253.562	242.62
253.795	233.62
254.028	235.62
254.261	219.62
254.494	250.62
254.727	264.62
254.96	315.62
255.193	282.62
255.426	290.62
255.659	258.62
255.892	248.62
256.124	261.62
256.357	250.62
256.59	241.62
256.823	218.62
257.056	214.62
257.289	233.62
257.521	231.62
257.754	226.62
257.987	217.62
258.22	212.62
258.452	211.62
258.685	214.62
258.918	229.62
259.151	213.62
259.383	220.62
259.616	236.62
259.849	238.62
260.081	259.62
260.314	256.62
260.547	282.62
260.779	254.62
261.012	234.62
261.244	244.62
261.477	226.62
261.71	227.62
261.942	241.62
262.175	245.62
262.407	234.62
262.64	231.62
262.872	227.62
263.105	204.62
263.337	213.62
263.57	218.62
263.802	222.62
264.035	222.62
264.267	210.62
264.499	206.62
264.732	218.62
264.964	225.62
265.197	223.62
265.429	209.62
265.661	197.62
265.894	215.62
266.126	209.62
266.358	211.62
266.591	216.62
266.823	231.62
267.055	237.62
267.287	231.62
267.52	205.62
267.752	229.62
267.984	229.62
268.216	237.62
268.448	226.62
268.681	237.62
268.913	237.62
269.145	261.62
269.377	292.62
269.609	282.62
269.841	280.62
270.073	261.62
270.306	316.62
270.538	315.62
270.77	315.62
271.002	317.62
271.234	309.62
271.466	312.62
271.698	331.62
271.93	348.62
272.162	332.62
272.394	333.62
272.626	305.62
272.858	293.62
273.09	287.62
273.322	294.62
273.553	243.62
273.785	270.62
274.017	265.62
274.249	260.62
274.481	288.62
274.713	278.62
274.945	278.62
275.176	288.62
275.408	283.62
275.64	258.62
275.872	247.62
276.104	265.62
276.335	265.62
276.567	280.62
276.799	286.62
277.031	305.62
277.262	305.62
277.494	333.62
277.726	321.62
277.957	298.62
278.189	291.62
278.421	281.62
278.652	271.62
278.884	287.62
279.115	253.62
279.347	274.62
279.579	248.62
279.81	256.62
280.042	274.62
280.273	262.62
280.505	272.62
280.736	253.62
280.968	271.62
281.199	272.62
281.431	265.62
281.662	263.62
281.894	262.62
282.125	258.62
282.356	285.62
282.588	313.62
282.819	317.62
283.051	274.62
283.282	243.62
283.513	258.62
283.745	264.62
283.976	281.62
284.207	259.62
284.439	268.62
284.67	290.62
284.901	262.62
285.132	258.62
285.364	277.62
285.595	269.62
285.826	250.62
286.057	271.62
286.288	279.62
286.52	270.62
286.751	260.62
286.982	288.62
287.213	273.62
287.444	269.62
287.675	267.62
287.906	292.62
288.138	297.62
288.369	284.62
288.6	291.62
288.831	286.62
289.062	305.62
289.293	290.62
289.524	275.62
289.755	276.62
289.986	269.62
290.217	285.62
290.448	277.62
290.679	273.62
290.91	277.62
291.141	269.62
291.371	275.62
291.602	267.62
291.833	261.62
292.064	269.62
292.295	273.62
292.526	271.62
292.757	261.62
292.987	278.62
293.218	265.62
293.449	283.62
293.68	277.62
293.91	269.62
294.141	286.62
294.372	268.62
294.603	281.62
294.833	278.62
295.064	281.62
295.295	286.62
295.525	287.62
295.756	298.62
295.987	294.62
296.217	318.62
296.448	340.62
296.679	301.62
296.909	300.62
297.14	277.62
297.37	297.62
297.601	285.62
297.831	295.62
298.062	283.62
298.292	267.62
298.523	291.62
298.753	314.62
298.984	285.62
299.214	295.62
299.445	287.62
299.675	292.62
299.905	294.62
300.136	309.62
300.366	297.62
300.597	292.62
300.827	298.62
301.057	290.62
301.288	320.62
301.518	322.62
301.748	316.62
301.979	287.62
302.209	307.62
302.439	321.62
302.669	308.62
302.9	299.62
303.13	317.62
303.36	305.62
303.59	313.62
303.82	329.62
304.051	320.62
304.281	299.62
304.511	302.62
304.741	297.62
304.971	298.62
305.201	303.62
305.431	310.62
305.661	293.62
305.891	312.62
306.121	323.62
306.352	334.62
306.582	343.62
306.812	319.62
307.042	309.62
307.272	311.62
307.502	313.62
307.731	308.62
307.961	332.62
308.191	330.62
308.421	318.62
308.651	323.62
308.881	326.62
309.111	348.62
309.341	340.62
309.571	349.62
309.8	332.62
310.03	366.62
310.26	364.62
310.49	375.62
310.72	380.62
310.949	412.62
311.179	409.62
311.409	366.62
311.639	362.62
311.868	359.62
312.098	376.62
312.328	399.62
312.557	392.62
312.787	404.62
313.017	406.62
313.246	391.62
313.476	380.62
313.706	355.62
313.935	381.62
314.165	395.62
314.394	419.62
314.624	387.62
314.853	396.62
315.083	378.62
315.312	344.62
315.542	365.62
315.771	353.62
316.001	353.62
316.23	348.62
316.46	364.62
316.689	368.62
316.919	366.62
317.148	365.62
317.377	398.62
317.607	373.62
317.836	385.62
318.065	362.62
318.295	381.62
318.524	372.62
318.753	373.62
318.983	372.62
319.212	386.62
319.441	365.62
319.67	383.62
319.9	379.62
320.129	369.62
320.358	369.62
320.587	381.62
320.816	383.62
321.046	385.62
321.275	397.62
321.504	415.62
321.733	380.62
321.962	414.62
322.191	425.62
322.42	451.62
322.649	447.62
322.878	454.62
323.108	484.62
323.337	506.62
323.566	549.62
323.795	586.62
324.024	636.62
324.253	789.62
324.482	1120.62
324.71	1756.62
324.939	2526.62
325.168	2251.62
325.397	1171.62
325.626	767.62
325.855	605.62
326.084	575.62
326.313	558.62
326.542	563.62
326.77	608.62
326.999	742.62
327.228	1017.62
327.457	1535.62
327.686	1893.62
327.914	1320.62
328.143	825.62
328.372	729.62
328.6	680.62
328.829	613.62
329.058	622.62
329.287	674.62
329.515	595.62
329.744	553.62
329.972	551.62
330.201	557.62
330.43	613.62
330.658	635.62
330.887	663.62
331.115	665.62
331.344	565.62
331.572	518.62
331.801	534.62
332.03	506.62
332.258	473.62
332.486	468.62
332.715	437.62
332.943	443.62
333.172	462.62
333.4	453.62
333.629	457.62
333.857	481.62
334.085	484.62
334.314	512.62
334.542	551.62
334.771	565.62
334.999	501.62
335.227	477.62
335.455	448.62
335.684	435.62
335.912	425.62
336.14	415.62
336.369	427.62
336.597	437.62
336.825	430.62
337.053	435.62
337.281	415.62
337.51	409.62
337.738	425.62
337.966	430.62
338.194	442.62
338.422	434.62
338.65	434.62
338.878	416.62
339.106	403.62
339.334	414.62
339.562	403.62
339.79	414.62
340.018	417.62
340.246	400.62
340.474	431.62
340.702	418.62
340.93	415.62
341.158	404.62
341.386	421.62
341.614	422.62
341.842	413.62
342.07	411.62
342.298	419.62
342.526	399.62
342.754	383.62
342.981	398.62
343.209	390.62
343.437	385.62
343.665	397.62
343.893	405.62
344.12	398.62
344.348	421.62
344.576	398.62
344.804	435.62
345.031	417.62
345.259	405.62
345.487	436.62
345.714	428.62
345.942	417.62
346.17	401.62
346.397	397.62
346.625	400.62
346.853	408.62
347.08	406.62
347.308	407.62
347.535	418.62
347.763	420.62
347.99	416.62
348.218	423.62
348.445	437.62
348.673	419.62
348.9	424.62
349.128	401.62
349.355	400.62
349.583	403.62
349.81	379.62
350.037	390.62
350.265	396.62
350.492	387.62
350.72	412.62
350.947	420.62
351.174	415.62
351.402	421.62
351.629	403.62
351.856	404.62
352.083	435.62
352.311	435.62
352.538	429.62
352.765	426.62
352.992	423.62
353.22	395.62
353.447	410.62
353.674	398.62
353.901	378.62
354.128	381.62
354.355	343.62
354.583	379.62
354.81	389.62
355.037	367.62
355.264	369.62
355.491	364.62
355.718	360.62
355.945	357.62
356.172	369.62
356.399	362.62
356.626	370.62
356.853	369.62
357.08	359.62
357.307	385.62
357.534	356.62
357.761	347.62
357.988	369.62
358.215	365.62
358.441	367.62
358.668	373.62
358.895	377.62
359.122	366.62
359.349	381.62
359.576	405.62
359.802	440.62
360.029	481.62
360.256	484.62
360.483	468.62
360.709	421.62
360.936	424.62
361.163	388.62
361.39	395.62
361.616	426.62
361.843	407.62
362.07	385.62
362.296	400.62
362.523	386.62
362.749	414.62
362.976	411.62
363.203	392.62
363.429	382.62
363.656	398.62
363.882	402.62
364.109	382.62
364.335	391.62
364.562	383.62
364.788	382.62
365.015	375.62
365.241	400.62
365.468	378.62
365.694	379.62
365.92	377.62
366.147	391.62
366.373	373.62
366.599	381.62
366.826	378.62
367.052	374.62
367.278	377.62
367.505	382.62
367.731	376.62
367.957	374.62
368.184	378.62
368.41	398.62
368.636	392.62
368.862	381.62
369.089	391.62
369.315	390.62
369.541	391.62
369.767	370.62
369.993	381.62
370.219	380.62
370.445	364.62
370.672	381.62
370.898	372.62
371.124	362.62
371.35	367.62
371.576	367.62
371.802	357.62
372.028	367.62
372.254	377.62
372.48	361.62
372.706	379.62
372.932	370.62
373.158	359.62
373.384	362.62
373.61	375.62
373.835	381.62
374.061	363.62
374.287	385.62
374.513	358.62
374.739	385.62
374.965	377.62
375.191	369.62
375.416	371.62
375.642	375.62
375.868	387.62
376.094	378.62
376.319	351.62
376.545	354.62
376.771	355.62
376.997	357.62
377.222	364.62
377.448	375.62
377.674	347.62
377.899	365.62
378.125	362.62
378.35	375.62
378.576	381.62
378.802	368.62
379.027	378.62
379.253	357.62
379.478	338.62
379.704	384.62
379.929	369.62
380.155	365.62
380.38	381.62
380.606	370.62
380.831	360.62
381.057	385.62
381.282	352.62
381.507	372.62
381.733	365.62
381.958	374.62
382.184	375.62
382.409	379.62
382.634	365.62
382.86	375.62
383.085	357.62
383.31	366.62
383.535	371.62
383.761	375.62
383.986	381.62
384.211	368.62
384.436	399.62
384.662	379.62
384.887	375.62
385.112	374.62
385.337	379.62
385.562	389.62
385.787	385.62
386.013	409.62
386.238	403.62
386.463	405.62
386.688	390.62
386.913	363.62
387.138	369.62
387.363	389.62
387.588	384.62
387.813	382.62
388.038	379.62
388.263	382.62
388.488	383.62
388.713	382.62
388.938	374.62
389.163	392.62
389.387	412.62
389.612	382.62
389.837	401.62
390.062	362.62
390.287	381.62
390.512	373.62
390.736	399.62
390.961	371.62
391.186	392.62
391.411	380.62
391.636	404.62
391.86	364.62
392.085	395.62
392.31	393.62
392.534	402.62
392.759	381.62
392.984	383.62
393.208	382.62
393.433	390.62
393.658	400.62
393.882	381.62
394.107	386.62
394.331	395.62
394.556	377.62
394.78	384.62
395.005	391.62
395.229	391.62
395.454	391.62
395.678	409.62
395.903	430.62
396.127	409.62
396.352	431.62
396.576	406.62
396.801	397.62
397.025	400.62
397.249	411.62
397.474	409.62
397.698	418.62
397.922	436.62
398.147	446.62
398.371	452.62
398.595	434.62
398.82	447.62
399.044	449.62
399.268	432.62
399.492	460.62
399.717	465.62
399.941	489.62
400.165	546.62
400.389	560.62
400.613	510.62
400.837	467.62
401.062	470.62
401.286	444.62
401.51	434.62
401.734	452.62
401.958	444.62
402.182	445.62
402.406	461.62
402.63	457.62
402.854	461.62
403.078	440.62
403.302	457.62
403.526	465.62
403.75	469.62
403.974	459.62
404.198	446.62
404.422	476.62
404.645	457.62
404.869	484.62
405.093	511.62
405.317	545.62
405.541	572.62
405.765	532.62
405.988	493.62
406.212	513.62
406.436	543.62
406.66	528.62
406.883	495.62
407.107	519.62
407.331	569.62
407.555	611.62
407.778	635.62
408.002	576.62
408.226	521.62
408.449	523.62
408.673	527.62
408.896	526.62
409.12	581.62
409.344	551.62
409.567	490.62
409.791	466.62
410.014	462.62
410.238	460.62
410.461	460.62
410.685	481.62
410.908	462.62
411.132	506.62
411.355	554.62
411.578	536.62
411.802	484.62
412.025	475.62
412.249	456.62
412.472	500.62
412.695	533.62
412.919	531.62
413.142	469.62
413.365	477.62
413.589	450.62
413.812	441.62
414.035	458.62
414.258	431.62
414.482	413.62
414.705	438.62
414.928	435.62
415.151	427.62
415.374	441.62
415.597	446.62
415.821	438.62
416.044	446.62
416.267	435.62
416.49	434.62
416.713	438.62
416.936	422.62
417.159	439.62
417.382	452.62
417.605	454.62
417.828	467.62
418.051	477.62
418.274	475.62
418.497	440.62
418.72	440.62
418.943	461.62
419.166	456.62
419.389	476.62
419.611	469.62
419.834	442.62
420.057	481.62
420.28	483.62
420.503	473.62
420.726	465.62
420.948	478.62
421.171	526.62
421.394	563.62
421.617	503.62
421.839	467.62
422.062	479.62
422.285	469.62
422.507	566.62
422.73	622.62
422.953	590.62
423.175	528.62
423.398	494.62
423.621	490.62
423.843	536.62
424.066	536.62
424.288	536.62
424.511	530.62
424.733	598.62
424.956	664.62
425.178	671.62
425.401	644.62
425.623	664.62
425.846	591.62
426.068	523.62
426.291	543.62
426.513	531.62
426.735	523.62
426.958	589.62
427.18	646.62
427.402	812.62
427.625	877.62
427.847	763.62
428.069	701.62
428.292	591.62
428.514	557.62
428.736	526.62
428.958	488.62
429.181	488.62
429.403	487.62
429.625	500.62
429.847	550.62
430.069	604.62
430.292	611.62
430.514	520.62
430.736	469.62
430.958	473.62
431.18	460.62
431.402	457.62
431.624	438.62
431.846	437.62
432.068	441.62
432.29	447.62
432.512	449.62
432.734	460.62
432.956	450.62
433.178	460.62
433.4	453.62
433.622	468.62
433.844	449.62
434.066	459.62
434.287	425.62
434.509	433.62
434.731	444.62
434.953	463.62
435.175	476.62
435.397	517.62
435.618	513.62
435.84	562.62
436.062	689.62
436.284	731.62
436.505	603.62
436.727	542.62
436.949	519.62
437.17	502.62
437.392	493.62
437.614	513.62
437.835	558.62
438.057	651.62
438.278	750.62
438.5	754.62
438.721	809.62
438.943	767.62
439.165	620.62
439.386	561.62
439.608	558.62
439.829	547.62
440.05	605.62
440.272	633.62
440.493	586.62
440.715	531.62
440.936	504.62
441.158	497.62
441.379	506.62
441.6	505.62
441.822	515.62
442.043	589.62
442.264	681.62
442.486	689.62
442.707	601.62
442.928	569.62
443.149	552.62
443.371	574.62
443.592	602.62
443.813	692.62
444.034	787.62
444.255	627.62
444.476	558.62
444.698	526.62
444.919	528.62
445.14	592.62
445.361	542.62
445.582	572.62
445.803	648.62
446.024	769.62
446.245	775.62
446.466	682.62
446.687	588.62
446.908	546.62
447.129	518.62
447.35	488.62
447.571	475.62
447.792	486.62
448.013	498.62
448.234	521.62
448.455	587.62
448.675	699.62
448.896	790.62
449.117	687.62
449.338	619.62
449.559	727.62
449.779	840.62
450	647.62
450.221	570.62
450.442	518.62
450.662	473.62
450.883	499.62
451.104	511.62
451.324	509.62
451.545	507.62
451.766	475.62
451.986	435.62
452.207	452.62
452.428	451.62
452.648	429.62
452.869	434.62
453.089	442.62
453.31	450.62
453.53	455.62
453.751	443.62
453.971	447.62
454.192	452.62
454.412	446.62
454.633	453.62
454.853	439.62
455.073	441.62
455.294	468.62
455.514	548.62
455.734	545.62
455.955	462.62
456.175	437.62
456.395	416.62
456.616	403.62
456.836	408.62
457.056	406.62
457.276	402.62
457.497	394.62
457.717	426.62
457.937	420.62
458.157	420.62
458.377	425.62
458.598	455.62
458.818	533.62
459.038	597.62
459.258	620.62
459.478	515.62
459.698	463.62
459.918	455.62
460.138	458.62
460.358	442.62
460.578	450.62
460.798	423.62
461.018	442.62
461.238	433.62
461.458	440.62
461.678	449.62
461.898	429.62
462.118	443.62
462.338	446.62
462.558	450.62
462.777	443.62
462.997	440.62
463.217	466.62
463.437	454.62
463.657	440.62
463.876	445.62
464.096	429.62
464.316	433.62
464.536	457.62
464.755	469.62
464.975	485.62
465.195	526.62
465.414	641.62
465.634	560.62
465.854	510.62
466.073	513.62
466.293	450.62
466.512	457.62
466.732	454.62
466.951	444.62
467.171	430.62
467.391	446.62
467.61	433.62
467.829	452.62
468.049	464.62
468.268	436.62
468.488	430.62
468.707	456.62
468.927	431.62
469.146	420.62
469.365	407.62
469.585	399.62
469.804	431.62
470.023	451.62
470.243	457.62
470.462	472.62
470.681	473.62
470.901	471.62
471.12	460.62
471.339	456.62
471.558	447.62
471.777	449.62
471.997	453.62
472.216	466.62
472.435	494.62
472.654	485.62
472.873	452.62
473.092	459.62
473.311	442.62
473.53	435.62
473.749	477.62
473.968	509.62
474.187	614.62
474.406	635.62
474.625	518.62
474.844	483.62
475.063	468.62
475.282	463.62
475.501	459.62
475.72	438.62
475.939	436.62
476.158	469.62
476.377	469.62
476.596	447.62
476.814	486.62
477.033	474.62
477.252	461.62
477.471	463.62
477.69	469.62
477.908	491.62
478.127	490.62
478.346	493.62
478.564	487.62
478.783	461.62
479.002	511.62
479.22	515.62
479.439	511.62
479.658	544.62
479.876	546.62
480.095	529.62
480.313	576.62
480.532	569.62
480.751	553.62
480.969	546.62
481.188	633.62
481.406	673.62
481.624	602.62
481.843	573.62
482.061	564.62
482.28	572.62
482.498	543.62
482.717	546.62
482.935	533.62
483.153	543.62
483.372	527.62
483.59	536.62
483.808	524.62
484.027	533.62
484.245	531.62
484.463	529.62
484.681	538.62
484.9	534.62
485.118	534.62
485.336	550.62
485.554	532.62
485.772	548.62
485.99	567.62
486.209	558.62
486.427	574.62
486.645	581.62
486.863	597.62
487.081	570.62
487.299	586.62
487.517	591.62
487.735	567.62
487.953	570.62
488.171	582.62
488.389	588.62
488.607	568.62
488.825	577.62
489.043	588.62
489.261	573.62
489.479	591.62
489.696	587.62
489.914	621.62
490.132	589.62
490.35	584.62
490.568	620.62
490.786	631.62
491.003	625.62
491.221	628.62
491.439	638.62
491.657	662.62
491.874	631.62
492.092	652.62
492.31	661.62
492.527	676.62
492.745	692.62
492.963	715.62
493.18	679.62
493.398	665.62
493.615	703.62
493.833	695.62
494.05	692.62
494.268	707.62
494.485	675.62
494.703	692.62
494.92	696.62
495.138	693.62
495.355	724.62
495.573	714.62
495.79	689.62
496.008	695.62
496.225	682.62
496.442	686.62
496.66	691.62
496.877	695.62
497.094	694.62
497.312	702.62
497.529	698.62
497.746	700.62
497.963	696.62
498.181	754.62
498.398	731.62
498.615	728.62
498.832	753.62
499.049	735.62
499.267	746.62
499.484	759.62
499.701	785.62
499.918	791.62
500.135	801.62
500.352	823.62
500.569	830.62
500.786	835.62
501.003	841.62
501.22	835.62
501.437	815.62
501.654	806.62
501.871	830.62
