Data from 1980.PennyLincolnUp.Lamp.En5.5.200Scan.071819.P1_HRD10591_16-38-47-958.txt Node
Date: Thu Jul 18 16:38:47 EDT 2019
User: cochatt
Spectrometer: HR+D1059
Trigger mode: 1
Integration Time (sec): 1.000000E-1
Scans to average: 1
Electric dark correction enabled: true
Nonlinearity correction enabled: false
Boxcar width: 0
XAxis mode: Wavelengths
Number of Pixels in Spectrum: 2048
>>>>>Begin Spectral Data<<<<<
223.165	-20.75
223.4	-20.75
223.635	-20.75
223.869	-6.75
224.104	-24.75
224.338	-0.75
224.573	-5.75
224.808	-14.75
225.042	3.25
225.277	-6.75
225.511	-5.75
225.746	-1.75
225.98	-4.75
226.215	0.25
226.449	15.25
226.683	19.25
226.918	22.25
227.152	32.25
227.387	10.25
227.621	36.25
227.856	57.25
228.09	56.25
228.324	55.25
228.559	30.25
228.793	67.25
229.027	99.25
229.262	103.25
229.496	121.25
229.73	143.25
229.964	165.25
230.199	127.25
230.433	119.25
230.667	123.25
230.901	118.25
231.136	127.25
231.37	124.25
231.604	117.25
231.838	112.25
232.072	115.25
232.306	105.25
232.541	112.25
232.775	112.25
233.009	93.25
233.243	109.25
233.477	114.25
233.711	127.25
233.945	128.25
234.179	106.25
234.413	106.25
234.647	126.25
234.881	117.25
235.115	107.25
235.349	113.25
235.583	117.25
235.817	129.25
236.051	133.25
236.285	140.25
236.519	129.25
236.753	137.25
236.987	139.25
237.221	180.25
237.455	237.25
237.689	209.25
237.922	151.25
238.156	145.25
238.39	132.25
238.624	141.25
238.858	117.25
239.091	107.25
239.325	122.25
239.559	125.25
239.793	136.25
240.027	148.25
240.26	157.25
240.494	175.25
240.728	154.25
240.961	149.25
241.195	148.25
241.429	134.25
241.662	143.25
241.896	127.25
242.13	131.25
242.363	129.25
242.597	149.25
242.83	141.25
243.064	136.25
243.298	130.25
243.531	153.25
243.765	131.25
243.998	157.25
244.232	131.25
244.465	139.25
244.699	152.25
244.932	141.25
245.166	144.25
245.399	157.25
245.633	143.25
245.866	149.25
246.099	148.25
246.333	156.25
246.566	150.25
246.8	151.25
247.033	170.25
247.266	157.25
247.5	164.25
247.733	179.25
247.966	163.25
248.2	179.25
248.433	194.25
248.666	164.25
248.899	205.25
249.133	216.25
249.366	227.25
249.599	204.25
249.832	182.25
250.066	190.25
250.299	197.25
250.532	197.25
250.765	192.25
250.998	227.25
251.231	228.25
251.465	218.25
251.698	217.25
251.931	212.25
252.164	208.25
252.397	204.25
252.63	218.25
252.863	210.25
253.096	223.25
253.329	223.25
253.562	232.25
253.795	232.25
254.028	235.25
254.261	242.25
254.494	239.25
254.727	260.25
254.96	288.25
255.193	289.25
255.426	251.25
255.659	259.25
255.892	267.25
256.124	245.25
256.357	258.25
256.59	237.25
256.823	211.25
257.056	236.25
257.289	210.25
257.521	194.25
257.754	209.25
257.987	207.25
258.22	204.25
258.452	191.25
258.685	200.25
258.918	208.25
259.151	214.25
259.383	227.25
259.616	232.25
259.849	232.25
260.081	250.25
260.314	263.25
260.547	258.25
260.779	250.25
261.012	235.25
261.244	236.25
261.477	223.25
261.71	213.25
261.942	240.25
262.175	230.25
262.407	227.25
262.64	213.25
262.872	204.25
263.105	204.25
263.337	211.25
263.57	212.25
263.802	188.25
264.035	209.25
264.267	208.25
264.499	217.25
264.732	204.25
264.964	209.25
265.197	193.25
265.429	207.25
265.661	207.25
265.894	218.25
266.126	222.25
266.358	228.25
266.591	224.25
266.823	209.25
267.055	225.25
267.287	227.25
267.52	210.25
267.752	235.25
267.984	219.25
268.216	217.25
268.448	233.25
268.681	235.25
268.913	260.25
269.145	268.25
269.377	281.25
269.609	282.25
269.841	261.25
270.073	269.25
270.306	301.25
270.538	315.25
270.77	340.25
271.002	321.25
271.234	313.25
271.466	315.25
271.698	326.25
271.93	335.25
272.162	351.25
272.394	318.25
272.626	324.25
272.858	320.25
273.09	268.25
273.322	277.25
273.553	264.25
273.785	271.25
274.017	270.25
274.249	258.25
274.481	257.25
274.713	272.25
274.945	279.25
275.176	279.25
275.408	282.25
275.64	272.25
275.872	282.25
276.104	260.25
276.335	269.25
276.567	271.25
276.799	300.25
277.031	309.25
277.262	322.25
277.494	326.25
277.726	332.25
277.957	300.25
278.189	294.25
278.421	273.25
278.652	278.25
278.884	277.25
279.115	272.25
279.347	270.25
279.579	275.25
279.81	247.25
280.042	253.25
280.273	267.25
280.505	269.25
280.736	255.25
280.968	257.25
281.199	256.25
281.431	266.25
281.662	271.25
281.894	270.25
282.125	262.25
282.356	290.25
282.588	326.25
282.819	311.25
283.051	267.25
283.282	262.25
283.513	274.25
283.745	258.25
283.976	267.25
284.207	291.25
284.439	288.25
284.67	269.25
284.901	270.25
285.132	267.25
285.364	259.25
285.595	275.25
285.826	268.25
286.057	249.25
286.288	267.25
286.52	267.25
286.751	253.25
286.982	277.25
287.213	272.25
287.444	281.25
287.675	274.25
287.906	292.25
288.138	261.25
288.369	262.25
288.6	271.25
288.831	279.25
289.062	296.25
289.293	281.25
289.524	288.25
289.755	263.25
289.986	264.25
290.217	266.25
290.448	276.25
290.679	263.25
290.91	264.25
291.141	282.25
291.371	270.25
291.602	279.25
291.833	262.25
292.064	263.25
292.295	287.25
292.526	279.25
292.757	255.25
292.987	259.25
293.218	272.25
293.449	261.25
293.68	264.25
293.91	284.25
294.141	281.25
294.372	275.25
294.603	272.25
294.833	266.25
295.064	271.25
295.295	260.25
295.525	274.25
295.756	285.25
295.987	299.25
296.217	317.25
296.448	323.25
296.679	279.25
296.909	279.25
297.14	268.25
297.37	272.25
297.601	283.25
297.831	283.25
298.062	284.25
298.292	275.25
298.523	283.25
298.753	291.25
298.984	273.25
299.214	280.25
299.445	286.25
299.675	274.25
299.905	287.25
300.136	288.25
300.366	285.25
300.597	293.25
300.827	293.25
301.057	301.25
301.288	320.25
301.518	309.25
301.748	294.25
301.979	303.25
302.209	303.25
302.439	321.25
302.669	303.25
302.9	306.25
303.13	309.25
303.36	315.25
303.59	315.25
303.82	307.25
304.051	324.25
304.281	304.25
304.511	297.25
304.741	294.25
304.971	295.25
305.201	305.25
305.431	295.25
305.661	304.25
305.891	291.25
306.121	307.25
306.352	321.25
306.582	317.25
306.812	343.25
307.042	295.25
307.272	310.25
307.502	324.25
307.731	311.25
307.961	319.25
308.191	321.25
308.421	327.25
308.651	318.25
308.881	312.25
309.111	305.25
309.341	344.25
309.571	336.25
309.8	351.25
310.03	361.25
310.26	361.25
310.49	368.25
310.72	367.25
310.949	380.25
311.179	406.25
311.409	385.25
311.639	344.25
311.868	365.25
312.098	372.25
312.328	366.25
312.557	377.25
312.787	412.25
313.017	405.25
313.246	397.25
313.476	383.25
313.706	359.25
313.935	385.25
314.165	406.25
314.394	412.25
314.624	388.25
314.853	367.25
315.083	367.25
315.312	367.25
315.542	361.25
315.771	357.25
316.001	367.25
316.23	348.25
316.46	345.25
316.689	347.25
316.919	384.25
317.148	375.25
317.377	385.25
317.607	395.25
317.836	373.25
318.065	361.25
318.295	353.25
318.524	345.25
318.753	357.25
318.983	368.25
319.212	359.25
319.441	359.25
319.67	381.25
319.9	383.25
320.129	370.25
320.358	369.25
320.587	355.25
320.816	394.25
321.046	391.25
321.275	404.25
321.504	389.25
321.733	384.25
321.962	398.25
322.191	420.25
322.42	434.25
322.649	450.25
322.878	460.25
323.108	483.25
323.337	497.25
323.566	529.25
323.795	566.25
324.024	633.25
324.253	773.25
324.482	1112.25
324.71	1736.25
324.939	2518.25
325.168	2197.25
325.397	1136.25
325.626	764.25
325.855	628.25
326.084	554.25
326.313	531.25
326.542	547.25
326.77	584.25
326.999	697.25
327.228	977.25
327.457	1499.25
327.686	1911.25
327.914	1312.25
328.143	845.25
328.372	708.25
328.6	654.25
328.829	629.25
329.058	638.25
329.287	647.25
329.515	586.25
329.744	585.25
329.972	539.25
330.201	572.25
330.43	613.25
330.658	642.25
330.887	667.25
331.115	637.25
331.344	548.25
331.572	501.25
331.801	490.25
332.03	481.25
332.258	479.25
332.486	448.25
332.715	437.25
332.943	435.25
333.172	448.25
333.4	447.25
333.629	460.25
333.857	452.25
334.085	480.25
334.314	496.25
334.542	515.25
334.771	562.25
334.999	496.25
335.227	459.25
335.455	445.25
335.684	417.25
335.912	418.25
336.14	425.25
336.369	423.25
336.597	443.25
336.825	436.25
337.053	406.25
337.281	421.25
337.51	404.25
337.738	410.25
337.966	415.25
338.194	409.25
338.422	430.25
338.65	421.25
338.878	389.25
339.106	399.25
339.334	398.25
339.562	389.25
339.79	413.25
340.018	381.25
340.246	385.25
340.474	413.25
340.702	396.25
340.93	408.25
341.158	381.25
341.386	364.25
341.614	401.25
341.842	417.25
342.07	396.25
342.298	381.25
342.526	393.25
342.754	381.25
342.981	381.25
343.209	364.25
343.437	390.25
343.665	380.25
343.893	376.25
344.12	408.25
344.348	407.25
344.576	400.25
344.804	406.25
345.031	413.25
345.259	437.25
345.487	419.25
345.714	421.25
345.942	398.25
346.17	426.25
346.397	412.25
346.625	391.25
346.853	423.25
347.08	397.25
347.308	413.25
347.535	396.25
347.763	417.25
347.99	435.25
348.218	419.25
348.445	419.25
348.673	420.25
348.9	397.25
349.128	386.25
349.355	379.25
349.583	395.25
349.81	369.25
350.037	397.25
350.265	405.25
350.492	376.25
350.72	365.25
350.947	369.25
351.174	405.25
351.402	415.25
351.629	409.25
351.856	409.25
352.083	408.25
352.311	417.25
352.538	417.25
352.765	428.25
352.992	418.25
353.22	402.25
353.447	412.25
353.674	404.25
353.901	396.25
354.128	388.25
354.355	368.25
354.583	370.25
354.81	353.25
355.037	349.25
355.264	359.25
355.491	362.25
355.718	371.25
355.945	363.25
356.172	359.25
356.399	354.25
356.626	343.25
356.853	356.25
357.08	360.25
357.307	342.25
357.534	359.25
357.761	366.25
357.988	368.25
358.215	385.25
358.441	354.25
358.668	357.25
358.895	378.25
359.122	383.25
359.349	387.25
359.576	397.25
359.802	403.25
360.029	467.25
360.256	467.25
360.483	435.25
360.709	404.25
360.936	389.25
361.163	402.25
361.39	404.25
361.616	425.25
361.843	413.25
362.07	399.25
362.296	401.25
362.523	396.25
362.749	397.25
362.976	392.25
363.203	389.25
363.429	387.25
363.656	388.25
363.882	383.25
364.109	384.25
364.335	369.25
364.562	384.25
364.788	376.25
365.015	377.25
365.241	380.25
365.468	362.25
365.694	379.25
365.92	387.25
366.147	399.25
366.373	377.25
366.599	365.25
366.826	361.25
367.052	352.25
367.278	361.25
367.505	357.25
367.731	377.25
367.957	379.25
368.184	390.25
368.41	372.25
368.636	396.25
368.862	405.25
369.089	390.25
369.315	379.25
369.541	385.25
369.767	371.25
369.993	389.25
370.219	360.25
370.445	369.25
370.672	373.25
370.898	364.25
371.124	354.25
371.35	371.25
371.576	361.25
371.802	350.25
372.028	353.25
372.254	352.25
372.48	359.25
372.706	358.25
372.932	355.25
373.158	352.25
373.384	371.25
373.61	361.25
373.835	363.25
374.061	362.25
374.287	369.25
374.513	379.25
374.739	387.25
374.965	372.25
375.191	367.25
375.416	365.25
375.642	363.25
375.868	354.25
376.094	358.25
376.319	379.25
376.545	383.25
376.771	352.25
376.997	350.25
377.222	351.25
377.448	382.25
377.674	356.25
377.899	363.25
378.125	353.25
378.35	367.25
378.576	351.25
378.802	345.25
379.027	353.25
379.253	360.25
379.478	343.25
379.704	362.25
379.929	353.25
380.155	360.25
380.38	342.25
380.606	350.25
380.831	357.25
381.057	378.25
381.282	369.25
381.507	368.25
381.733	379.25
381.958	375.25
382.184	367.25
382.409	361.25
382.634	369.25
382.86	355.25
383.085	386.25
383.31	367.25
383.535	372.25
383.761	367.25
383.986	367.25
384.211	360.25
384.436	366.25
384.662	363.25
384.887	391.25
385.112	385.25
385.337	392.25
385.562	381.25
385.787	393.25
386.013	402.25
386.238	383.25
386.463	387.25
386.688	389.25
386.913	383.25
387.138	381.25
387.363	375.25
387.588	380.25
387.813	395.25
388.038	385.25
388.263	380.25
388.488	379.25
388.713	394.25
388.938	384.25
389.163	386.25
389.387	401.25
389.612	392.25
389.837	396.25
390.062	390.25
390.287	377.25
390.512	361.25
390.736	366.25
390.961	387.25
391.186	365.25
391.411	386.25
391.636	379.25
391.86	394.25
392.085	378.25
392.31	379.25
392.534	389.25
392.759	377.25
392.984	396.25
393.208	384.25
393.433	397.25
393.658	379.25
393.882	381.25
394.107	383.25
394.331	378.25
394.556	379.25
394.78	380.25
395.005	376.25
395.229	387.25
395.454	396.25
395.678	394.25
395.903	401.25
396.127	440.25
396.352	434.25
396.576	405.25
396.801	410.25
397.025	413.25
397.249	410.25
397.474	420.25
397.698	399.25
397.922	423.25
398.147	437.25
398.371	425.25
398.595	420.25
398.82	401.25
399.044	422.25
399.268	437.25
399.492	432.25
399.717	487.25
399.941	501.25
400.165	523.25
400.389	526.25
400.613	503.25
400.837	474.25
401.062	448.25
401.286	423.25
401.51	437.25
401.734	452.25
401.958	433.25
402.182	451.25
402.406	449.25
402.63	466.25
402.854	447.25
403.078	443.25
403.302	463.25
403.526	447.25
403.75	463.25
403.974	460.25
404.198	454.25
404.422	453.25
404.645	467.25
404.869	449.25
405.093	470.25
405.317	519.25
405.541	559.25
405.765	551.25
405.988	475.25
406.212	491.25
406.436	523.25
406.66	551.25
406.883	499.25
407.107	512.25
407.331	547.25
407.555	621.25
407.778	609.25
408.002	552.25
408.226	526.25
408.449	514.25
408.673	500.25
408.896	539.25
409.12	572.25
409.344	566.25
409.567	487.25
409.791	471.25
410.014	455.25
410.238	463.25
410.461	461.25
410.685	476.25
410.908	492.25
411.132	519.25
411.355	519.25
411.578	531.25
411.802	495.25
412.025	472.25
412.249	480.25
412.472	496.25
412.695	535.25
412.919	521.25
413.142	454.25
413.365	452.25
413.589	454.25
413.812	433.25
414.035	422.25
414.258	440.25
414.482	417.25
414.705	415.25
414.928	430.25
415.151	429.25
415.374	432.25
415.597	431.25
415.821	431.25
416.044	436.25
416.267	436.25
416.49	428.25
416.713	450.25
416.936	441.25
417.159	421.25
417.382	442.25
417.605	434.25
417.828	458.25
418.051	486.25
418.274	474.25
418.497	435.25
418.72	450.25
418.943	427.25
419.166	463.25
419.389	475.25
419.611	463.25
419.834	449.25
420.057	460.25
420.28	469.25
420.503	462.25
420.726	454.25
420.948	468.25
421.171	542.25
421.394	540.25
421.617	481.25
421.839	474.25
422.062	452.25
422.285	489.25
422.507	553.25
422.73	611.25
422.953	612.25
423.175	528.25
423.398	471.25
423.621	505.25
423.843	521.25
424.066	517.25
424.288	498.25
424.511	535.25
424.733	591.25
424.956	675.25
425.178	633.25
425.401	620.25
425.623	667.25
425.846	558.25
426.068	504.25
426.291	531.25
426.513	536.25
426.735	538.25
426.958	576.25
427.18	649.25
427.402	770.25
427.625	859.25
427.847	778.25
428.069	656.25
428.292	594.25
428.514	548.25
428.736	487.25
428.958	487.25
429.181	480.25
429.403	477.25
429.625	475.25
429.847	531.25
430.069	593.25
430.292	605.25
430.514	506.25
430.736	478.25
430.958	468.25
431.18	457.25
431.402	468.25
431.624	442.25
431.846	436.25
432.068	415.25
432.29	446.25
432.512	466.25
432.734	452.25
432.956	447.25
433.178	465.25
433.4	474.25
433.622	444.25
433.844	459.25
434.066	447.25
434.287	438.25
434.509	442.25
434.731	428.25
434.953	461.25
435.175	473.25
435.397	504.25
435.618	515.25
435.84	569.25
436.062	638.25
436.284	729.25
436.505	584.25
436.727	533.25
436.949	492.25
437.17	496.25
437.392	479.25
437.614	503.25
437.835	545.25
438.057	654.25
438.278	729.25
438.5	739.25
438.721	799.25
438.943	755.25
439.165	603.25
439.386	574.25
439.608	528.25
439.829	553.25
440.05	563.25
440.272	607.25
440.493	589.25
440.715	515.25
440.936	499.25
441.158	477.25
441.379	514.25
441.6	517.25
441.822	516.25
442.043	550.25
442.264	632.25
442.486	685.25
442.707	592.25
442.928	577.25
443.149	551.25
443.371	576.25
443.592	607.25
443.813	708.25
444.034	769.25
444.255	617.25
444.476	556.25
444.698	511.25
444.919	497.25
445.14	590.25
445.361	574.25
445.582	581.25
445.803	626.25
446.024	748.25
446.245	736.25
446.466	673.25
446.687	575.25
446.908	540.25
447.129	519.25
447.35	488.25
447.571	498.25
447.792	503.25
448.013	520.25
448.234	491.25
448.455	561.25
448.675	671.25
448.896	779.25
449.117	665.25
449.338	641.25
449.559	744.25
449.779	821.25
450	667.25
450.221	567.25
450.442	513.25
450.662	489.25
450.883	498.25
451.104	519.25
451.324	505.25
451.545	489.25
451.766	460.25
451.986	435.25
452.207	446.25
452.428	428.25
452.648	428.25
452.869	448.25
453.089	435.25
453.31	443.25
453.53	439.25
453.751	427.25
453.971	461.25
454.192	466.25
454.412	439.25
454.633	449.25
454.853	414.25
455.073	427.25
455.294	479.25
455.514	548.25
455.734	532.25
455.955	459.25
456.175	417.25
456.395	390.25
456.616	415.25
456.836	389.25
457.056	401.25
457.276	404.25
457.497	415.25
457.717	424.25
457.937	392.25
458.157	422.25
458.377	421.25
458.598	434.25
458.818	541.25
459.038	614.25
459.258	629.25
459.478	511.25
459.698	452.25
459.918	423.25
460.138	436.25
460.358	429.25
460.578	440.25
460.798	451.25
461.018	450.25
461.238	442.25
461.458	412.25
461.678	451.25
461.898	424.25
462.118	443.25
462.338	435.25
462.558	445.25
462.777	432.25
462.997	443.25
463.217	445.25
463.437	442.25
463.657	453.25
463.876	481.25
464.096	461.25
464.316	455.25
464.536	455.25
464.755	475.25
464.975	501.25
465.195	543.25
465.414	613.25
465.634	550.25
465.854	491.25
466.073	459.25
466.293	450.25
466.512	440.25
466.732	441.25
466.951	444.25
467.171	420.25
467.391	431.25
467.61	448.25
467.829	475.25
468.049	453.25
468.268	458.25
468.488	446.25
468.707	435.25
468.927	425.25
469.146	429.25
469.365	422.25
469.585	405.25
469.804	425.25
470.023	434.25
470.243	441.25
470.462	451.25
470.681	476.25
470.901	464.25
471.12	457.25
471.339	454.25
471.558	423.25
471.777	442.25
471.997	444.25
472.216	452.25
472.435	496.25
472.654	470.25
472.873	463.25
473.092	463.25
473.311	429.25
473.53	423.25
473.749	464.25
473.968	509.25
474.187	586.25
474.406	631.25
474.625	519.25
474.844	455.25
475.063	467.25
475.282	450.25
475.501	442.25
475.72	459.25
475.939	467.25
476.158	445.25
476.377	452.25
476.596	465.25
476.814	473.25
477.033	468.25
477.252	472.25
477.471	467.25
477.69	484.25
477.908	451.25
478.127	478.25
478.346	484.25
478.564	472.25
478.783	468.25
479.002	493.25
479.22	485.25
479.439	541.25
479.658	518.25
479.876	530.25
480.095	539.25
480.313	550.25
480.532	565.25
480.751	543.25
480.969	553.25
481.188	638.25
481.406	689.25
481.624	580.25
481.843	546.25
482.061	537.25
482.28	526.25
482.498	534.25
482.717	534.25
482.935	513.25
483.153	531.25
483.372	531.25
483.59	506.25
483.808	541.25
484.027	531.25
484.245	529.25
484.463	533.25
484.681	550.25
484.9	565.25
485.118	535.25
485.336	535.25
485.554	534.25
485.772	540.25
485.99	547.25
486.209	544.25
486.427	534.25
486.645	559.25
486.863	549.25
487.081	579.25
487.299	578.25
487.517	565.25
487.735	562.25
487.953	556.25
488.171	557.25
488.389	584.25
488.607	577.25
488.825	575.25
489.043	574.25
489.261	579.25
489.479	601.25
489.696	575.25
489.914	580.25
490.132	593.25
490.35	594.25
490.568	595.25
490.786	595.25
491.003	600.25
491.221	633.25
491.439	612.25
491.657	637.25
491.874	639.25
492.092	645.25
492.31	687.25
492.527	661.25
492.745	655.25
492.963	660.25
493.18	669.25
493.398	665.25
493.615	656.25
493.833	684.25
494.05	688.25
494.268	674.25
494.485	666.25
494.703	677.25
494.92	684.25
495.138	665.25
495.355	693.25
495.573	687.25
495.79	682.25
496.008	681.25
496.225	692.25
496.442	695.25
496.66	693.25
496.877	695.25
497.094	704.25
497.312	671.25
497.529	674.25
497.746	665.25
497.963	717.25
498.181	751.25
498.398	722.25
498.615	708.25
498.832	722.25
499.049	718.25
499.267	738.25
499.484	754.25
499.701	762.25
499.918	769.25
500.135	806.25
500.352	802.25
500.569	839.25
500.786	819.25
501.003	819.25
501.22	833.25
501.437	818.25
501.654	824.25
501.871	831.25
