Data from 1980.PennyLincolnUp.Lamp.En5.5.200Scan.071819.P1_HRD10591_16-36-30-957.txt Node
Date: Thu Jul 18 16:36:30 EDT 2019
User: cochatt
Spectrometer: HR+D1059
Trigger mode: 1
Integration Time (sec): 1.000000E-1
Scans to average: 1
Electric dark correction enabled: true
Nonlinearity correction enabled: false
Boxcar width: 0
XAxis mode: Wavelengths
Number of Pixels in Spectrum: 2048
>>>>>Begin Spectral Data<<<<<
223.165	-10.19
223.4	-10.19
223.635	-10.19
223.869	-24.19
224.104	-14.19
224.338	-9.19
224.573	-2.19
224.808	-18.19
225.042	-12.19
225.277	-1.19
225.511	-5.19
225.746	4.81
225.98	9.81
226.215	3.81
226.449	22.81
226.683	10.81
226.918	15.81
227.152	28.81
227.387	35.81
227.621	32.81
227.856	33.81
228.09	39.81
228.324	57.81
228.559	67.81
228.793	68.81
229.027	97.81
229.262	97.81
229.496	112.81
229.73	150.81
229.964	155.81
230.199	125.81
230.433	121.81
230.667	98.81
230.901	101.81
231.136	113.81
231.37	111.81
231.604	117.81
231.838	120.81
232.072	101.81
232.306	103.81
232.541	103.81
232.775	107.81
233.009	100.81
233.243	106.81
233.477	108.81
233.711	99.81
233.945	113.81
234.179	121.81
234.413	116.81
234.647	90.81
234.881	101.81
235.115	107.81
235.349	121.81
235.583	113.81
235.817	108.81
236.051	140.81
236.285	126.81
236.519	126.81
236.753	113.81
236.987	137.81
237.221	168.81
237.455	211.81
237.689	161.81
237.922	138.81
238.156	110.81
238.39	133.81
238.624	138.81
238.858	121.81
239.091	128.81
239.325	130.81
239.559	114.81
239.793	119.81
240.027	139.81
240.26	138.81
240.494	135.81
240.728	123.81
240.961	157.81
241.195	132.81
241.429	134.81
241.662	126.81
241.896	121.81
242.13	133.81
242.363	128.81
242.597	140.81
242.83	139.81
243.064	127.81
243.298	121.81
243.531	132.81
243.765	121.81
243.998	127.81
244.232	121.81
244.465	126.81
244.699	124.81
244.932	148.81
245.166	133.81
245.399	147.81
245.633	142.81
245.866	140.81
246.099	143.81
246.333	136.81
246.566	141.81
246.8	131.81
247.033	137.81
247.266	152.81
247.5	152.81
247.733	166.81
247.966	156.81
248.2	166.81
248.433	169.81
248.666	165.81
248.899	180.81
249.133	176.81
249.366	191.81
249.599	182.81
249.832	173.81
250.066	182.81
250.299	169.81
250.532	181.81
250.765	176.81
250.998	201.81
251.231	205.81
251.465	191.81
251.698	201.81
251.931	211.81
252.164	177.81
252.397	192.81
252.63	181.81
252.863	197.81
253.096	190.81
253.329	195.81
253.562	195.81
253.795	208.81
254.028	194.81
254.261	195.81
254.494	210.81
254.727	215.81
254.96	257.81
255.193	232.81
255.426	222.81
255.659	213.81
255.892	206.81
256.124	213.81
256.357	238.81
256.59	220.81
256.823	196.81
257.056	208.81
257.289	194.81
257.521	191.81
257.754	187.81
257.987	196.81
258.22	198.81
258.452	186.81
258.685	190.81
258.918	189.81
259.151	210.81
259.383	204.81
259.616	196.81
259.849	206.81
260.081	216.81
260.314	207.81
260.547	236.81
260.779	211.81
261.012	211.81
261.244	215.81
261.477	214.81
261.71	185.81
261.942	214.81
262.175	205.81
262.407	202.81
262.64	214.81
262.872	191.81
263.105	181.81
263.337	184.81
263.57	186.81
263.802	198.81
264.035	187.81
264.267	181.81
264.499	184.81
264.732	190.81
264.964	194.81
265.197	187.81
265.429	183.81
265.661	173.81
265.894	188.81
266.126	179.81
266.358	192.81
266.591	201.81
266.823	186.81
267.055	189.81
267.287	197.81
267.52	193.81
267.752	203.81
267.984	199.81
268.216	213.81
268.448	211.81
268.681	213.81
268.913	198.81
269.145	214.81
269.377	232.81
269.609	242.81
269.841	241.81
270.073	242.81
270.306	266.81
270.538	274.81
270.77	261.81
271.002	288.81
271.234	280.81
271.466	254.81
271.698	276.81
271.93	290.81
272.162	281.81
272.394	263.81
272.626	258.81
272.858	246.81
273.09	265.81
273.322	230.81
273.553	226.81
273.785	224.81
274.017	217.81
274.249	233.81
274.481	225.81
274.713	233.81
274.945	228.81
275.176	231.81
275.408	231.81
275.64	226.81
275.872	221.81
276.104	219.81
276.335	233.81
276.567	243.81
276.799	247.81
277.031	254.81
277.262	252.81
277.494	251.81
277.726	267.81
277.957	236.81
278.189	226.81
278.421	248.81
278.652	233.81
278.884	231.81
279.115	232.81
279.347	232.81
279.579	230.81
279.81	216.81
280.042	220.81
280.273	226.81
280.505	228.81
280.736	241.81
280.968	225.81
281.199	211.81
281.431	207.81
281.662	206.81
281.894	228.81
282.125	232.81
282.356	249.81
282.588	274.81
282.819	280.81
283.051	236.81
283.282	207.81
283.513	234.81
283.745	227.81
283.976	228.81
284.207	215.81
284.439	235.81
284.67	245.81
284.901	225.81
285.132	218.81
285.364	223.81
285.595	227.81
285.826	230.81
286.057	249.81
286.288	227.81
286.52	228.81
286.751	231.81
286.982	233.81
287.213	238.81
287.444	235.81
287.675	235.81
287.906	233.81
288.138	266.81
288.369	244.81
288.6	269.81
288.831	246.81
289.062	247.81
289.293	244.81
289.524	236.81
289.755	243.81
289.986	236.81
290.217	229.81
290.448	228.81
290.679	236.81
290.91	253.81
291.141	229.81
291.371	230.81
291.602	235.81
291.833	239.81
292.064	241.81
292.295	250.81
292.526	229.81
292.757	241.81
292.987	245.81
293.218	230.81
293.449	247.81
293.68	230.81
293.91	230.81
294.141	223.81
294.372	247.81
294.603	240.81
294.833	222.81
295.064	250.81
295.295	231.81
295.525	224.81
295.756	234.81
295.987	244.81
296.217	241.81
296.448	283.81
296.679	257.81
296.909	246.81
297.14	217.81
297.37	250.81
297.601	238.81
297.831	245.81
298.062	248.81
298.292	230.81
298.523	239.81
298.753	228.81
298.984	233.81
299.214	222.81
299.445	256.81
299.675	241.81
299.905	249.81
300.136	251.81
300.366	250.81
300.597	243.81
300.827	256.81
301.057	250.81
301.288	250.81
301.518	285.81
301.748	268.81
301.979	255.81
302.209	257.81
302.439	276.81
302.669	268.81
302.9	283.81
303.13	259.81
303.36	273.81
303.59	291.81
303.82	294.81
304.051	274.81
304.281	245.81
304.511	247.81
304.741	241.81
304.971	252.81
305.201	255.81
305.431	262.81
305.661	274.81
305.891	257.81
306.121	255.81
306.352	265.81
306.582	258.81
306.812	262.81
307.042	257.81
307.272	263.81
307.502	262.81
307.731	255.81
307.961	264.81
308.191	285.81
308.421	259.81
308.651	277.81
308.881	264.81
309.111	277.81
309.341	264.81
309.571	285.81
309.8	292.81
310.03	286.81
310.26	300.81
310.49	301.81
310.72	334.81
310.949	339.81
311.179	324.81
311.409	316.81
311.639	309.81
311.868	302.81
312.098	307.81
312.328	316.81
312.557	312.81
312.787	345.81
313.017	346.81
313.246	326.81
313.476	300.81
313.706	299.81
313.935	317.81
314.165	337.81
314.394	322.81
314.624	309.81
314.853	310.81
315.083	294.81
315.312	301.81
315.542	302.81
315.771	281.81
316.001	292.81
316.23	301.81
316.46	293.81
316.689	300.81
316.919	297.81
317.148	314.81
317.377	317.81
317.607	331.81
317.836	312.81
318.065	327.81
318.295	302.81
318.524	311.81
318.753	270.81
318.983	301.81
319.212	291.81
319.441	322.81
319.67	308.81
319.9	309.81
320.129	317.81
320.358	327.81
320.587	319.81
320.816	328.81
321.046	314.81
321.275	325.81
321.504	313.81
321.733	326.81
321.962	353.81
322.191	339.81
322.42	365.81
322.649	350.81
322.878	384.81
323.108	387.81
323.337	403.81
323.566	406.81
323.795	432.81
324.024	491.81
324.253	569.81
324.482	843.81
324.71	1240.81
324.939	1801.81
325.168	1595.81
325.397	855.81
325.626	576.81
325.855	489.81
326.084	451.81
326.313	419.81
326.542	418.81
326.77	456.81
326.999	533.81
327.228	736.81
327.457	1105.81
327.686	1395.81
327.914	966.81
328.143	633.81
328.372	551.81
328.6	504.81
328.829	467.81
329.058	469.81
329.287	489.81
329.515	457.81
329.744	427.81
329.972	431.81
330.201	423.81
330.43	445.81
330.658	499.81
330.887	506.81
331.115	511.81
331.344	417.81
331.572	388.81
331.801	390.81
332.03	399.81
332.258	388.81
332.486	376.81
332.715	365.81
332.943	345.81
333.172	367.81
333.4	369.81
333.629	365.81
333.857	371.81
334.085	381.81
334.314	377.81
334.542	424.81
334.771	435.81
334.999	389.81
335.227	383.81
335.455	357.81
335.684	367.81
335.912	357.81
336.14	347.81
336.369	352.81
336.597	360.81
336.825	359.81
337.053	348.81
337.281	354.81
337.51	328.81
337.738	339.81
337.966	341.81
338.194	356.81
338.422	343.81
338.65	336.81
338.878	331.81
339.106	332.81
339.334	347.81
339.562	326.81
339.79	322.81
340.018	340.81
340.246	329.81
340.474	345.81
340.702	349.81
340.93	343.81
341.158	327.81
341.386	334.81
341.614	337.81
341.842	331.81
342.07	334.81
342.298	348.81
342.526	316.81
342.754	329.81
342.981	316.81
343.209	310.81
343.437	323.81
343.665	342.81
343.893	310.81
344.12	334.81
344.348	338.81
344.576	346.81
344.804	352.81
345.031	321.81
345.259	363.81
345.487	360.81
345.714	349.81
345.942	347.81
346.17	355.81
346.397	333.81
346.625	342.81
346.853	332.81
347.08	333.81
347.308	347.81
347.535	347.81
347.763	341.81
347.99	347.81
348.218	338.81
348.445	342.81
348.673	346.81
348.9	335.81
349.128	325.81
349.355	347.81
349.583	334.81
349.81	341.81
350.037	317.81
350.265	309.81
350.492	344.81
350.72	334.81
350.947	345.81
351.174	327.81
351.402	361.81
351.629	343.81
351.856	348.81
352.083	347.81
352.311	348.81
352.538	357.81
352.765	338.81
352.992	336.81
353.22	333.81
353.447	330.81
353.674	326.81
353.901	317.81
354.128	326.81
354.355	287.81
354.583	329.81
354.81	310.81
355.037	319.81
355.264	306.81
355.491	303.81
355.718	306.81
355.945	307.81
356.172	305.81
356.399	302.81
356.626	313.81
356.853	301.81
357.08	313.81
357.307	286.81
357.534	311.81
357.761	317.81
357.988	300.81
358.215	311.81
358.441	313.81
358.668	309.81
358.895	312.81
359.122	311.81
359.349	327.81
359.576	334.81
359.802	359.81
360.029	381.81
360.256	397.81
360.483	350.81
360.709	329.81
360.936	336.81
361.163	334.81
361.39	337.81
361.616	355.81
361.843	333.81
362.07	349.81
362.296	338.81
362.523	340.81
362.749	322.81
362.976	328.81
363.203	322.81
363.429	321.81
363.656	321.81
363.882	321.81
364.109	306.81
364.335	329.81
364.562	332.81
364.788	324.81
365.015	326.81
365.241	325.81
365.468	322.81
365.694	324.81
365.92	332.81
366.147	308.81
366.373	309.81
366.599	310.81
366.826	315.81
367.052	310.81
367.278	330.81
367.505	318.81
367.731	328.81
367.957	330.81
368.184	331.81
368.41	319.81
368.636	326.81
368.862	327.81
369.089	323.81
369.315	323.81
369.541	310.81
369.767	341.81
369.993	309.81
370.219	307.81
370.445	317.81
370.672	318.81
370.898	324.81
371.124	319.81
371.35	306.81
371.576	301.81
371.802	315.81
372.028	291.81
372.254	308.81
372.48	338.81
372.706	313.81
372.932	314.81
373.158	316.81
373.384	328.81
373.61	323.81
373.835	293.81
374.061	329.81
374.287	319.81
374.513	326.81
374.739	316.81
374.965	320.81
375.191	302.81
375.416	323.81
375.642	335.81
375.868	327.81
376.094	327.81
376.319	305.81
376.545	331.81
376.771	319.81
376.997	313.81
377.222	316.81
377.448	327.81
377.674	325.81
377.899	330.81
378.125	307.81
378.35	319.81
378.576	307.81
378.802	317.81
379.027	310.81
379.253	305.81
379.478	305.81
379.704	312.81
379.929	326.81
380.155	314.81
380.38	337.81
380.606	323.81
380.831	332.81
381.057	333.81
381.282	342.81
381.507	332.81
381.733	315.81
381.958	322.81
382.184	332.81
382.409	320.81
382.634	318.81
382.86	314.81
383.085	315.81
383.31	327.81
383.535	331.81
383.761	314.81
383.986	319.81
384.211	340.81
384.436	319.81
384.662	353.81
384.887	323.81
385.112	331.81
385.337	332.81
385.562	346.81
385.787	333.81
386.013	335.81
386.238	349.81
386.463	356.81
386.688	341.81
386.913	335.81
387.138	317.81
387.363	332.81
387.588	313.81
387.813	352.81
388.038	332.81
388.263	330.81
388.488	345.81
388.713	334.81
388.938	326.81
389.163	335.81
389.387	331.81
389.612	331.81
389.837	343.81
390.062	322.81
390.287	336.81
390.512	337.81
390.736	348.81
390.961	342.81
391.186	333.81
391.411	337.81
391.636	358.81
391.86	348.81
392.085	335.81
392.31	348.81
392.534	359.81
392.759	348.81
392.984	332.81
393.208	341.81
393.433	358.81
393.658	371.81
393.882	329.81
394.107	349.81
394.331	333.81
394.556	333.81
394.78	323.81
395.005	364.81
395.229	341.81
395.454	366.81
395.678	353.81
395.903	331.81
396.127	380.81
396.352	374.81
396.576	363.81
396.801	354.81
397.025	352.81
397.249	368.81
397.474	350.81
397.698	368.81
397.922	351.81
398.147	376.81
398.371	387.81
398.595	362.81
398.82	381.81
399.044	375.81
399.268	382.81
399.492	395.81
399.717	394.81
399.941	447.81
400.165	456.81
400.389	464.81
400.613	427.81
400.837	405.81
401.062	400.81
401.286	394.81
401.51	386.81
401.734	390.81
401.958	379.81
402.182	390.81
402.406	395.81
402.63	416.81
402.854	420.81
403.078	379.81
403.302	405.81
403.526	397.81
403.75	384.81
403.974	387.81
404.198	383.81
404.422	385.81
404.645	398.81
404.869	412.81
405.093	419.81
405.317	463.81
405.541	501.81
405.765	443.81
405.988	417.81
406.212	430.81
406.436	455.81
406.66	445.81
406.883	418.81
407.107	424.81
407.331	475.81
407.555	533.81
407.778	523.81
408.002	489.81
408.226	459.81
408.449	440.81
408.673	438.81
408.896	455.81
409.12	516.81
409.344	474.81
409.567	423.81
409.791	409.81
410.014	399.81
410.238	394.81
410.461	382.81
410.685	410.81
410.908	415.81
411.132	466.81
411.355	461.81
411.578	443.81
411.802	401.81
412.025	389.81
412.249	385.81
412.472	412.81
412.695	455.81
412.919	423.81
413.142	415.81
413.365	385.81
413.589	393.81
413.812	366.81
414.035	389.81
414.258	374.81
414.482	353.81
414.705	383.81
414.928	362.81
415.151	363.81
415.374	395.81
415.597	390.81
415.821	387.81
416.044	392.81
416.267	379.81
416.49	364.81
416.713	353.81
416.936	383.81
417.159	374.81
417.382	383.81
417.605	394.81
417.828	387.81
418.051	411.81
418.274	391.81
418.497	396.81
418.72	383.81
418.943	393.81
419.166	403.81
419.389	388.81
419.611	400.81
419.834	400.81
420.057	405.81
420.28	398.81
420.503	391.81
420.726	384.81
420.948	389.81
421.171	433.81
421.394	469.81
421.617	431.81
421.839	400.81
422.062	401.81
422.285	411.81
422.507	490.81
422.73	511.81
422.953	525.81
423.175	445.81
423.398	411.81
423.621	417.81
423.843	433.81
424.066	441.81
424.288	442.81
424.511	438.81
424.733	495.81
424.956	575.81
425.178	524.81
425.401	547.81
425.623	569.81
425.846	502.81
426.068	455.81
426.291	447.81
426.513	456.81
426.735	461.81
426.958	491.81
427.18	556.81
427.402	661.81
427.625	712.81
427.847	650.81
428.069	537.81
428.292	504.81
428.514	439.81
428.736	424.81
428.958	426.81
429.181	420.81
429.403	414.81
429.625	405.81
429.847	450.81
430.069	495.81
430.292	509.81
430.514	433.81
430.736	406.81
430.958	416.81
431.18	412.81
431.402	396.81
431.624	358.81
431.846	361.81
432.068	381.81
432.29	383.81
432.512	391.81
432.734	388.81
432.956	395.81
433.178	425.81
433.4	405.81
433.622	383.81
433.844	376.81
434.066	363.81
434.287	390.81
434.509	393.81
434.731	396.81
434.953	406.81
435.175	417.81
435.397	426.81
435.618	427.81
435.84	483.81
436.062	548.81
436.284	617.81
436.505	538.81
436.727	455.81
436.949	437.81
437.17	425.81
437.392	414.81
437.614	411.81
437.835	463.81
438.057	545.81
438.278	629.81
438.5	621.81
438.721	649.81
438.943	668.81
439.165	514.81
439.386	466.81
439.608	467.81
439.829	455.81
440.05	486.81
440.272	502.81
440.493	480.81
440.715	445.81
440.936	405.81
441.158	406.81
441.379	409.81
441.6	422.81
441.822	454.81
442.043	479.81
442.264	549.81
442.486	599.81
442.707	513.81
442.928	474.81
443.149	465.81
443.371	482.81
443.592	518.81
443.813	585.81
444.034	650.81
444.255	542.81
444.476	446.81
444.698	451.81
444.919	441.81
445.14	509.81
445.361	504.81
445.582	477.81
445.803	537.81
446.024	632.81
446.245	612.81
446.466	573.81
446.687	488.81
446.908	463.81
447.129	438.81
447.35	424.81
447.571	408.81
447.792	421.81
448.013	440.81
448.234	443.81
448.455	482.81
448.675	594.81
448.896	659.81
449.117	563.81
449.338	531.81
449.559	609.81
449.779	691.81
450	553.81
450.221	465.81
450.442	403.81
450.662	405.81
450.883	430.81
451.104	418.81
451.324	420.81
451.545	420.81
451.766	393.81
451.986	371.81
452.207	379.81
452.428	376.81
452.648	383.81
452.869	365.81
453.089	377.81
453.31	388.81
453.53	391.81
453.751	378.81
453.971	363.81
454.192	394.81
454.412	381.81
454.633	377.81
454.853	363.81
455.073	375.81
455.294	411.81
455.514	454.81
455.734	444.81
455.955	366.81
456.175	369.81
456.395	355.81
456.616	340.81
456.836	339.81
457.056	370.81
457.276	340.81
457.497	333.81
457.717	355.81
457.937	341.81
458.157	366.81
458.377	334.81
458.598	375.81
458.818	456.81
459.038	496.81
459.258	507.81
459.478	454.81
459.698	394.81
459.918	387.81
460.138	375.81
460.358	375.81
460.578	370.81
460.798	378.81
461.018	386.81
461.238	395.81
461.458	375.81
461.678	382.81
461.898	381.81
462.118	397.81
462.338	392.81
462.558	387.81
462.777	388.81
462.997	375.81
463.217	388.81
463.437	403.81
463.657	404.81
463.876	391.81
464.096	405.81
464.316	400.81
464.536	425.81
464.755	419.81
464.975	415.81
465.195	453.81
465.414	511.81
465.634	468.81
465.854	430.81
466.073	411.81
466.293	377.81
466.512	379.81
466.732	374.81
466.951	366.81
467.171	378.81
467.391	369.81
467.61	389.81
467.829	385.81
468.049	394.81
468.268	369.81
468.488	375.81
468.707	352.81
468.927	375.81
469.146	370.81
469.365	383.81
469.585	353.81
469.804	379.81
470.023	386.81
470.243	375.81
470.462	387.81
470.681	411.81
470.901	397.81
471.12	384.81
471.339	385.81
471.558	364.81
471.777	395.81
471.997	377.81
472.216	389.81
472.435	400.81
472.654	409.81
472.873	403.81
473.092	387.81
473.311	400.81
473.53	364.81
473.749	366.81
473.968	413.81
474.187	507.81
474.406	532.81
474.625	435.81
474.844	413.81
475.063	395.81
475.282	364.81
475.501	405.81
475.72	385.81
475.939	403.81
476.158	394.81
476.377	382.81
476.596	398.81
476.814	391.81
477.033	415.81
477.252	414.81
477.471	419.81
477.69	404.81
477.908	404.81
478.127	420.81
478.346	423.81
478.564	424.81
478.783	419.81
479.002	402.81
479.22	415.81
479.439	458.81
479.658	447.81
479.876	467.81
480.095	460.81
480.313	484.81
480.532	455.81
480.751	434.81
480.969	470.81
481.188	522.81
481.406	552.81
481.624	487.81
481.843	458.81
482.061	475.81
482.28	433.81
482.498	437.81
482.717	430.81
482.935	447.81
483.153	439.81
483.372	471.81
483.59	447.81
483.808	435.81
484.027	451.81
484.245	451.81
484.463	455.81
484.681	474.81
484.9	463.81
485.118	469.81
485.336	476.81
485.554	461.81
485.772	477.81
485.99	455.81
486.209	481.81
486.427	482.81
486.645	455.81
486.863	501.81
487.081	483.81
487.299	482.81
487.517	501.81
487.735	492.81
487.953	465.81
488.171	494.81
488.389	478.81
488.607	489.81
488.825	489.81
489.043	454.81
489.261	515.81
489.479	501.81
489.696	507.81
489.914	482.81
490.132	509.81
490.35	497.81
490.568	531.81
490.786	494.81
491.003	522.81
491.221	543.81
491.439	549.81
491.657	533.81
491.874	560.81
492.092	555.81
492.31	561.81
492.527	580.81
492.745	568.81
492.963	581.81
493.18	564.81
493.398	572.81
493.615	572.81
493.833	589.81
494.05	587.81
494.268	585.81
494.485	582.81
494.703	564.81
494.92	581.81
495.138	582.81
495.355	556.81
495.573	575.81
495.79	577.81
496.008	595.81
496.225	590.81
496.442	586.81
496.66	584.81
496.877	599.81
497.094	579.81
497.312	574.81
497.529	597.81
497.746	617.81
497.963	601.81
498.181	614.81
498.398	629.81
498.615	647.81
498.832	645.81
499.049	622.81
499.267	641.81
499.484	671.81
499.701	672.81
499.918	683.81
500.135	709.81
500.352	692.81
500.569	725.81
500.786	711.81
501.003	695.81
501.22	695.81
501.437	699.81
501.654	694.81
501.871	702.81
502.088	677.81
