Data from 1980.PennyLincolnUp.Lamp.En5.5.200Scan.071819.P1_HRD10591_16-38-29-958.txt Node
Date: Thu Jul 18 16:38:29 EDT 2019
User: cochatt
Spectrometer: HR+D1059
Trigger mode: 1
Integration Time (sec): 1.000000E-1
Scans to average: 1
Electric dark correction enabled: true
Nonlinearity correction enabled: false
Boxcar width: 0
XAxis mode: Wavelengths
Number of Pixels in Spectrum: 2048
>>>>>Begin Spectral Data<<<<<
223.165	-16.25
223.4	-16.25
223.635	-16.25
223.869	-21.25
224.104	-7.25
224.338	-16.25
224.573	-15.25
224.808	-12.25
225.042	-2.25
225.277	-10.25
225.511	3.75
225.746	-3.25
225.98	18.75
226.215	9.75
226.449	17.75
226.683	16.75
226.918	7.75
227.152	29.75
227.387	45.75
227.621	52.75
227.856	38.75
228.09	51.75
228.324	58.75
228.559	64.75
228.793	71.75
229.027	105.75
229.262	117.75
229.496	107.75
229.73	137.75
229.964	173.75
230.199	142.75
230.433	120.75
230.667	122.75
230.901	120.75
231.136	126.75
231.37	119.75
231.604	105.75
231.838	116.75
232.072	117.75
232.306	120.75
232.541	124.75
232.775	119.75
233.009	108.75
233.243	117.75
233.477	116.75
233.711	127.75
233.945	114.75
234.179	120.75
234.413	106.75
234.647	112.75
234.881	125.75
235.115	112.75
235.349	116.75
235.583	125.75
235.817	123.75
236.051	139.75
236.285	123.75
236.519	140.75
236.753	147.75
236.987	141.75
237.221	183.75
237.455	259.75
237.689	200.75
237.922	155.75
238.156	135.75
238.39	122.75
238.624	131.75
238.858	133.75
239.091	135.75
239.325	145.75
239.559	117.75
239.793	135.75
240.027	137.75
240.26	139.75
240.494	170.75
240.728	154.75
240.961	146.75
241.195	143.75
241.429	136.75
241.662	136.75
241.896	140.75
242.13	139.75
242.363	140.75
242.597	127.75
242.83	141.75
243.064	138.75
243.298	140.75
243.531	144.75
243.765	157.75
243.998	142.75
244.232	152.75
244.465	142.75
244.699	155.75
244.932	140.75
245.166	139.75
245.399	152.75
245.633	153.75
245.866	134.75
246.099	144.75
246.333	146.75
246.566	172.75
246.8	165.75
247.033	180.75
247.266	168.75
247.5	175.75
247.733	181.75
247.966	182.75
248.2	174.75
248.433	172.75
248.666	182.75
248.899	203.75
249.133	224.75
249.366	230.75
249.599	230.75
249.832	186.75
250.066	214.75
250.299	196.75
250.532	214.75
250.765	209.75
250.998	248.75
251.231	250.75
251.465	244.75
251.698	214.75
251.931	218.75
252.164	204.75
252.397	195.75
252.63	206.75
252.863	215.75
253.096	227.75
253.329	247.75
253.562	255.75
253.795	231.75
254.028	234.75
254.261	223.75
254.494	243.75
254.727	269.75
254.96	297.75
255.193	304.75
255.426	257.75
255.659	251.75
255.892	240.75
256.124	244.75
256.357	244.75
256.59	243.75
256.823	224.75
257.056	234.75
257.289	235.75
257.521	235.75
257.754	207.75
257.987	222.75
258.22	229.75
258.452	228.75
258.685	208.75
258.918	216.75
259.151	202.75
259.383	224.75
259.616	238.75
259.849	231.75
260.081	247.75
260.314	253.75
260.547	269.75
260.779	268.75
261.012	245.75
261.244	257.75
261.477	241.75
261.71	223.75
261.942	228.75
262.175	255.75
262.407	241.75
262.64	232.75
262.872	230.75
263.105	221.75
263.337	229.75
263.57	221.75
263.802	216.75
264.035	212.75
264.267	224.75
264.499	222.75
264.732	223.75
264.964	209.75
265.197	208.75
265.429	197.75
265.661	203.75
265.894	212.75
266.126	217.75
266.358	209.75
266.591	206.75
266.823	224.75
267.055	226.75
267.287	224.75
267.52	236.75
267.752	228.75
267.984	248.75
268.216	221.75
268.448	235.75
268.681	251.75
268.913	247.75
269.145	261.75
269.377	287.75
269.609	292.75
269.841	276.75
270.073	274.75
270.306	294.75
270.538	327.75
270.77	336.75
271.002	323.75
271.234	320.75
271.466	313.75
271.698	330.75
271.93	334.75
272.162	338.75
272.394	315.75
272.626	321.75
272.858	317.75
273.09	301.75
273.322	283.75
273.553	278.75
273.785	269.75
274.017	281.75
274.249	275.75
274.481	276.75
274.713	271.75
274.945	281.75
275.176	273.75
275.408	271.75
275.64	279.75
275.872	256.75
276.104	259.75
276.335	276.75
276.567	275.75
276.799	294.75
277.031	302.75
277.262	334.75
277.494	320.75
277.726	311.75
277.957	279.75
278.189	277.75
278.421	281.75
278.652	289.75
278.884	279.75
279.115	258.75
279.347	274.75
279.579	254.75
279.81	262.75
280.042	274.75
280.273	280.75
280.505	264.75
280.736	239.75
280.968	258.75
281.199	266.75
281.431	269.75
281.662	260.75
281.894	280.75
282.125	282.75
282.356	279.75
282.588	299.75
282.819	325.75
283.051	290.75
283.282	268.75
283.513	273.75
283.745	264.75
283.976	248.75
284.207	287.75
284.439	263.75
284.67	266.75
284.901	270.75
285.132	268.75
285.364	272.75
285.595	271.75
285.826	267.75
286.057	275.75
286.288	254.75
286.52	272.75
286.751	257.75
286.982	268.75
287.213	251.75
287.444	276.75
287.675	287.75
287.906	279.75
288.138	273.75
288.369	291.75
288.6	290.75
288.831	289.75
289.062	274.75
289.293	281.75
289.524	281.75
289.755	283.75
289.986	242.75
290.217	276.75
290.448	267.75
290.679	263.75
290.91	279.75
291.141	274.75
291.371	277.75
291.602	280.75
291.833	264.75
292.064	281.75
292.295	270.75
292.526	264.75
292.757	267.75
292.987	271.75
293.218	280.75
293.449	275.75
293.68	284.75
293.91	275.75
294.141	271.75
294.372	277.75
294.603	275.75
294.833	288.75
295.064	276.75
295.295	278.75
295.525	292.75
295.756	281.75
295.987	294.75
296.217	310.75
296.448	328.75
296.679	299.75
296.909	295.75
297.14	289.75
297.37	274.75
297.601	276.75
297.831	273.75
298.062	293.75
298.292	288.75
298.523	288.75
298.753	284.75
298.984	293.75
299.214	292.75
299.445	288.75
299.675	274.75
299.905	298.75
300.136	308.75
300.366	296.75
300.597	291.75
300.827	312.75
301.057	305.75
301.288	312.75
301.518	311.75
301.748	313.75
301.979	315.75
302.209	307.75
302.439	316.75
302.669	293.75
302.9	298.75
303.13	296.75
303.36	292.75
303.59	304.75
303.82	338.75
304.051	303.75
304.281	318.75
304.511	302.75
304.741	317.75
304.971	331.75
305.201	315.75
305.431	311.75
305.661	295.75
305.891	307.75
306.121	321.75
306.352	327.75
306.582	324.75
306.812	325.75
307.042	312.75
307.272	309.75
307.502	319.75
307.731	322.75
307.961	328.75
308.191	313.75
308.421	328.75
308.651	318.75
308.881	334.75
309.111	356.75
309.341	335.75
309.571	330.75
309.8	340.75
310.03	359.75
310.26	386.75
310.49	375.75
310.72	388.75
310.949	396.75
311.179	395.75
311.409	374.75
311.639	369.75
311.868	398.75
312.098	356.75
312.328	379.75
312.557	404.75
312.787	419.75
313.017	415.75
313.246	369.75
313.476	360.75
313.706	359.75
313.935	412.75
314.165	381.75
314.394	401.75
314.624	385.75
314.853	393.75
315.083	370.75
315.312	357.75
315.542	368.75
315.771	363.75
316.001	347.75
316.23	371.75
316.46	368.75
316.689	351.75
316.919	357.75
317.148	364.75
317.377	380.75
317.607	375.75
317.836	378.75
318.065	380.75
318.295	382.75
318.524	352.75
318.753	347.75
318.983	357.75
319.212	371.75
319.441	383.75
319.67	395.75
319.9	362.75
320.129	378.75
320.358	381.75
320.587	378.75
320.816	388.75
321.046	395.75
321.275	405.75
321.504	394.75
321.733	397.75
321.962	385.75
322.191	419.75
322.42	440.75
322.649	448.75
322.878	463.75
323.108	478.75
323.337	510.75
323.566	544.75
323.795	587.75
324.024	641.75
324.253	796.75
324.482	1138.75
324.71	1727.75
324.939	2531.75
325.168	2240.75
325.397	1185.75
325.626	793.75
325.855	623.75
326.084	548.75
326.313	551.75
326.542	533.75
326.77	610.75
326.999	725.75
327.228	971.75
327.457	1503.75
327.686	1870.75
327.914	1295.75
328.143	825.75
328.372	723.75
328.6	662.75
328.829	612.75
329.058	632.75
329.287	644.75
329.515	589.75
329.744	547.75
329.972	519.75
330.201	577.75
330.43	608.75
330.658	641.75
330.887	680.75
331.115	685.75
331.344	566.75
331.572	517.75
331.801	523.75
332.03	523.75
332.258	474.75
332.486	443.75
332.715	440.75
332.943	446.75
333.172	457.75
333.4	467.75
333.629	443.75
333.857	468.75
334.085	501.75
334.314	525.75
334.542	528.75
334.771	548.75
334.999	509.75
335.227	475.75
335.455	451.75
335.684	430.75
335.912	426.75
336.14	401.75
336.369	426.75
336.597	434.75
336.825	449.75
337.053	444.75
337.281	412.75
337.51	405.75
337.738	395.75
337.966	401.75
338.194	423.75
338.422	435.75
338.65	410.75
338.878	413.75
339.106	398.75
339.334	409.75
339.562	401.75
339.79	416.75
340.018	410.75
340.246	379.75
340.474	426.75
340.702	407.75
340.93	416.75
341.158	416.75
341.386	419.75
341.614	406.75
341.842	408.75
342.07	395.75
342.298	412.75
342.526	409.75
342.754	393.75
342.981	382.75
343.209	383.75
343.437	383.75
343.665	410.75
343.893	401.75
344.12	396.75
344.348	399.75
344.576	395.75
344.804	412.75
345.031	431.75
345.259	429.75
345.487	427.75
345.714	405.75
345.942	420.75
346.17	425.75
346.397	422.75
346.625	393.75
346.853	413.75
347.08	382.75
347.308	407.75
347.535	432.75
347.763	398.75
347.99	421.75
348.218	428.75
348.445	422.75
348.673	413.75
348.9	396.75
349.128	391.75
349.355	391.75
349.583	384.75
349.81	391.75
350.037	388.75
350.265	391.75
350.492	404.75
350.72	397.75
350.947	412.75
351.174	418.75
351.402	417.75
351.629	419.75
351.856	437.75
352.083	423.75
352.311	425.75
352.538	420.75
352.765	435.75
352.992	422.75
353.22	382.75
353.447	401.75
353.674	409.75
353.901	377.75
354.128	392.75
354.355	371.75
354.583	384.75
354.81	367.75
355.037	363.75
355.264	352.75
355.491	364.75
355.718	351.75
355.945	355.75
356.172	364.75
356.399	359.75
356.626	359.75
356.853	362.75
357.08	353.75
357.307	352.75
357.534	368.75
357.761	364.75
357.988	366.75
358.215	383.75
358.441	359.75
358.668	370.75
358.895	359.75
359.122	361.75
359.349	392.75
359.576	409.75
359.802	437.75
360.029	483.75
360.256	477.75
360.483	446.75
360.709	392.75
360.936	408.75
361.163	415.75
361.39	411.75
361.616	416.75
361.843	401.75
362.07	420.75
362.296	411.75
362.523	395.75
362.749	389.75
362.976	396.75
363.203	386.75
363.429	376.75
363.656	401.75
363.882	389.75
364.109	391.75
364.335	387.75
364.562	377.75
364.788	398.75
365.015	385.75
365.241	374.75
365.468	389.75
365.694	395.75
365.92	372.75
366.147	358.75
366.373	391.75
366.599	378.75
366.826	381.75
367.052	375.75
367.278	354.75
367.505	377.75
367.731	367.75
367.957	358.75
368.184	352.75
368.41	364.75
368.636	408.75
368.862	379.75
369.089	396.75
369.315	386.75
369.541	375.75
369.767	372.75
369.993	369.75
370.219	367.75
370.445	365.75
370.672	361.75
370.898	351.75
371.124	360.75
371.35	356.75
371.576	373.75
371.802	343.75
372.028	362.75
372.254	351.75
372.48	350.75
372.706	360.75
372.932	358.75
373.158	368.75
373.384	374.75
373.61	383.75
373.835	369.75
374.061	371.75
374.287	376.75
374.513	373.75
374.739	364.75
374.965	363.75
375.191	351.75
375.416	379.75
375.642	368.75
375.868	373.75
376.094	361.75
376.319	363.75
376.545	362.75
376.771	365.75
376.997	355.75
377.222	357.75
377.448	381.75
377.674	375.75
377.899	372.75
378.125	355.75
378.35	359.75
378.576	358.75
378.802	348.75
379.027	366.75
379.253	351.75
379.478	339.75
379.704	363.75
379.929	369.75
380.155	357.75
380.38	356.75
380.606	364.75
380.831	361.75
381.057	371.75
381.282	363.75
381.507	363.75
381.733	354.75
381.958	344.75
382.184	361.75
382.409	371.75
382.634	362.75
382.86	377.75
383.085	373.75
383.31	375.75
383.535	364.75
383.761	381.75
383.986	385.75
384.211	378.75
384.436	370.75
384.662	389.75
384.887	383.75
385.112	377.75
385.337	375.75
385.562	360.75
385.787	385.75
386.013	396.75
386.238	380.75
386.463	379.75
386.688	383.75
386.913	391.75
387.138	362.75
387.363	387.75
387.588	371.75
387.813	375.75
388.038	376.75
388.263	382.75
388.488	374.75
388.713	377.75
388.938	381.75
389.163	381.75
389.387	387.75
389.612	394.75
389.837	376.75
390.062	376.75
390.287	398.75
390.512	381.75
390.736	371.75
390.961	377.75
391.186	366.75
391.411	378.75
391.636	366.75
391.86	389.75
392.085	397.75
392.31	392.75
392.534	385.75
392.759	392.75
392.984	373.75
393.208	385.75
393.433	376.75
393.658	389.75
393.882	379.75
394.107	369.75
394.331	374.75
394.556	377.75
394.78	374.75
395.005	364.75
395.229	368.75
395.454	379.75
395.678	395.75
395.903	404.75
396.127	429.75
396.352	432.75
396.576	381.75
396.801	386.75
397.025	419.75
397.249	416.75
397.474	399.75
397.698	421.75
397.922	413.75
398.147	433.75
398.371	453.75
398.595	407.75
398.82	424.75
399.044	440.75
399.268	427.75
399.492	439.75
399.717	473.75
399.941	492.75
400.165	514.75
400.389	525.75
400.613	485.75
400.837	455.75
401.062	436.75
401.286	428.75
401.51	439.75
401.734	447.75
401.958	420.75
402.182	433.75
402.406	446.75
402.63	459.75
402.854	451.75
403.078	439.75
403.302	429.75
403.526	478.75
403.75	435.75
403.974	469.75
404.198	445.75
404.422	445.75
404.645	468.75
404.869	464.75
405.093	490.75
405.317	571.75
405.541	572.75
405.765	510.75
405.988	496.75
406.212	486.75
406.436	551.75
406.66	529.75
406.883	502.75
407.107	537.75
407.331	566.75
407.555	620.75
407.778	601.75
408.002	564.75
408.226	521.75
408.449	509.75
408.673	521.75
408.896	525.75
409.12	581.75
409.344	535.75
409.567	484.75
409.791	469.75
410.014	476.75
410.238	457.75
410.461	451.75
410.685	460.75
410.908	452.75
411.132	485.75
411.355	552.75
411.578	537.75
411.802	474.75
412.025	472.75
412.249	481.75
412.472	507.75
412.695	537.75
412.919	522.75
413.142	479.75
413.365	472.75
413.589	465.75
413.812	425.75
414.035	452.75
414.258	425.75
414.482	430.75
414.705	432.75
414.928	448.75
415.151	426.75
415.374	408.75
415.597	432.75
415.821	407.75
416.044	433.75
416.267	439.75
416.49	426.75
416.713	421.75
416.936	424.75
417.159	439.75
417.382	443.75
417.605	446.75
417.828	448.75
418.051	483.75
418.274	442.75
418.497	467.75
418.72	439.75
418.943	446.75
419.166	439.75
419.389	475.75
419.611	449.75
419.834	430.75
420.057	478.75
420.28	461.75
420.503	457.75
420.726	449.75
420.948	486.75
421.171	519.75
421.394	548.75
421.617	458.75
421.839	468.75
422.062	459.75
422.285	471.75
422.507	552.75
422.73	637.75
422.953	603.75
423.175	520.75
423.398	489.75
423.621	476.75
423.843	517.75
424.066	515.75
424.288	503.75
424.511	526.75
424.733	595.75
424.956	661.75
425.178	637.75
425.401	649.75
425.623	647.75
425.846	559.75
426.068	518.75
426.291	524.75
426.513	513.75
426.735	523.75
426.958	540.75
427.18	649.75
427.402	769.75
427.625	847.75
427.847	764.75
428.069	661.75
428.292	610.75
428.514	519.75
428.736	489.75
428.958	497.75
429.181	481.75
429.403	477.75
429.625	496.75
429.847	519.75
430.069	607.75
430.292	609.75
430.514	503.75
430.736	480.75
430.958	487.75
431.18	453.75
431.402	452.75
431.624	443.75
431.846	448.75
432.068	440.75
432.29	447.75
432.512	449.75
432.734	457.75
432.956	443.75
433.178	464.75
433.4	471.75
433.622	471.75
433.844	432.75
434.066	422.75
434.287	435.75
434.509	441.75
434.731	459.75
434.953	448.75
435.175	484.75
435.397	494.75
435.618	529.75
435.84	535.75
436.062	656.75
436.284	745.75
436.505	605.75
436.727	531.75
436.949	517.75
437.17	499.75
437.392	507.75
437.614	500.75
437.835	552.75
438.057	659.75
438.278	768.75
438.5	719.75
438.721	780.75
438.943	747.75
439.165	599.75
439.386	544.75
439.608	568.75
439.829	563.75
440.05	594.75
440.272	637.75
440.493	567.75
440.715	521.75
440.936	484.75
441.158	496.75
441.379	486.75
441.6	483.75
441.822	547.75
442.043	561.75
442.264	630.75
442.486	652.75
442.707	577.75
442.928	521.75
443.149	557.75
443.371	574.75
443.592	607.75
443.813	700.75
444.034	739.75
444.255	627.75
444.476	551.75
444.698	533.75
444.919	517.75
445.14	607.75
445.361	590.75
445.582	577.75
445.803	633.75
446.024	755.75
446.245	772.75
446.466	693.75
446.687	597.75
446.908	534.75
447.129	519.75
447.35	487.75
447.571	509.75
447.792	462.75
448.013	483.75
448.234	519.75
448.455	564.75
448.675	669.75
448.896	779.75
449.117	655.75
449.338	646.75
449.559	739.75
449.779	823.75
450	649.75
450.221	591.75
450.442	540.75
450.662	489.75
450.883	497.75
451.104	520.75
451.324	515.75
451.545	493.75
451.766	471.75
451.986	452.75
452.207	407.75
452.428	421.75
452.648	456.75
452.869	445.75
453.089	446.75
453.31	456.75
453.53	453.75
453.751	438.75
453.971	432.75
454.192	445.75
454.412	456.75
454.633	455.75
454.853	433.75
455.073	426.75
455.294	461.75
455.514	533.75
455.734	529.75
455.955	440.75
456.175	426.75
456.395	395.75
456.616	423.75
456.836	384.75
457.056	406.75
457.276	394.75
457.497	409.75
457.717	399.75
457.937	395.75
458.157	436.75
458.377	405.75
458.598	476.75
458.818	503.75
459.038	616.75
459.258	619.75
459.478	535.75
459.698	461.75
459.918	447.75
460.138	428.75
460.358	445.75
460.578	450.75
460.798	453.75
461.018	430.75
461.238	432.75
461.458	420.75
461.678	430.75
461.898	431.75
462.118	405.75
462.338	440.75
462.558	436.75
462.777	433.75
462.997	443.75
463.217	444.75
463.437	464.75
463.657	431.75
463.876	455.75
464.096	459.75
464.316	432.75
464.536	468.75
464.755	461.75
464.975	476.75
465.195	526.75
465.414	635.75
465.634	547.75
465.854	500.75
466.073	456.75
466.293	460.75
466.512	449.75
466.732	426.75
466.951	442.75
467.171	431.75
467.391	444.75
467.61	457.75
467.829	445.75
468.049	457.75
468.268	465.75
468.488	443.75
468.707	422.75
468.927	441.75
469.146	429.75
469.365	408.75
469.585	431.75
469.804	430.75
470.023	453.75
470.243	445.75
470.462	456.75
470.681	470.75
470.901	464.75
471.12	453.75
471.339	459.75
471.558	450.75
471.777	444.75
471.997	436.75
472.216	455.75
472.435	493.75
472.654	501.75
472.873	439.75
473.092	431.75
473.311	431.75
473.53	461.75
473.749	461.75
473.968	513.75
474.187	613.75
474.406	645.75
474.625	517.75
474.844	482.75
475.063	469.75
475.282	440.75
475.501	454.75
475.72	463.75
475.939	467.75
476.158	479.75
476.377	441.75
476.596	462.75
476.814	452.75
477.033	456.75
477.252	461.75
477.471	482.75
477.69	460.75
477.908	480.75
478.127	484.75
478.346	493.75
478.564	480.75
478.783	489.75
479.002	503.75
479.22	468.75
479.439	506.75
479.658	529.75
479.876	540.75
480.095	544.75
480.313	553.75
480.532	558.75
480.751	551.75
480.969	556.75
481.188	629.75
481.406	675.75
481.624	606.75
481.843	554.75
482.061	539.75
482.28	541.75
482.498	505.75
482.717	530.75
482.935	539.75
483.153	526.75
483.372	522.75
483.59	542.75
483.808	493.75
484.027	511.75
484.245	528.75
484.463	537.75
484.681	541.75
484.9	522.75
485.118	530.75
485.336	515.75
485.554	554.75
485.772	552.75
485.99	565.75
486.209	555.75
486.427	557.75
486.645	569.75
486.863	595.75
487.081	563.75
487.299	577.75
487.517	536.75
487.735	573.75
487.953	575.75
488.171	568.75
488.389	579.75
488.607	579.75
488.825	584.75
489.043	578.75
489.261	580.75
489.479	570.75
489.696	575.75
489.914	584.75
490.132	599.75
490.35	598.75
490.568	591.75
490.786	603.75
491.003	619.75
491.221	640.75
491.439	647.75
491.657	644.75
491.874	668.75
492.092	676.75
492.31	663.75
492.527	677.75
492.745	670.75
492.963	673.75
493.18	682.75
493.398	675.75
493.615	646.75
493.833	677.75
494.05	696.75
494.268	677.75
494.485	672.75
494.703	687.75
494.92	682.75
495.138	662.75
495.355	680.75
495.573	678.75
495.79	689.75
496.008	700.75
496.225	688.75
496.442	679.75
496.66	668.75
496.877	699.75
497.094	684.75
497.312	669.75
497.529	688.75
497.746	703.75
497.963	695.75
498.181	715.75
498.398	704.75
498.615	714.75
498.832	730.75
499.049	734.75
499.267	767.75
499.484	731.75
499.701	750.75
499.918	772.75
500.135	794.75
500.352	791.75
500.569	834.75
500.786	820.75
501.003	828.75
501.22	822.75
501.437	801.75
501.654	789.75
501.871	820.75
