Data from 1980.PennyLincolnUp.Lamp.En5.5.200Scan.071819.P1_HRD10591_16-36-50-957.txt Node
Date: Thu Jul 18 16:36:50 EDT 2019
User: cochatt
Spectrometer: HR+D1059
Trigger mode: 1
Integration Time (sec): 1.000000E-1
Scans to average: 1
Electric dark correction enabled: true
Nonlinearity correction enabled: false
Boxcar width: 0
XAxis mode: Wavelengths
Number of Pixels in Spectrum: 2048
>>>>>Begin Spectral Data<<<<<
223.165	-11.56
223.4	-11.56
223.635	-11.56
223.869	-21.56
224.104	-26.56
224.338	-24.56
224.573	-2.56
224.808	-10.56
225.042	-8.56
225.277	-0.56
225.511	-9.56
225.746	-8.56
225.98	4.44
226.215	12.44
226.449	23.44
226.683	16.44
226.918	29.44
227.152	38.44
227.387	28.44
227.621	22.44
227.856	54.44
228.09	56.44
228.324	61.44
228.559	43.44
228.793	82.44
229.027	90.44
229.262	102.44
229.496	124.44
229.73	141.44
229.964	158.44
230.199	126.44
230.433	100.44
230.667	119.44
230.901	118.44
231.136	106.44
231.37	110.44
231.604	113.44
231.838	114.44
232.072	105.44
232.306	125.44
232.541	120.44
232.775	100.44
233.009	122.44
233.243	106.44
233.477	104.44
233.711	102.44
233.945	99.44
234.179	104.44
234.413	105.44
234.647	118.44
234.881	123.44
235.115	128.44
235.349	123.44
235.583	114.44
235.817	116.44
236.051	125.44
236.285	138.44
236.519	126.44
236.753	129.44
236.987	151.44
237.221	182.44
237.455	229.44
237.689	196.44
237.922	132.44
238.156	131.44
238.39	128.44
238.624	127.44
238.858	129.44
239.091	120.44
239.325	140.44
239.559	137.44
239.793	128.44
240.027	139.44
240.26	132.44
240.494	154.44
240.728	165.44
240.961	149.44
241.195	151.44
241.429	142.44
241.662	138.44
241.896	124.44
242.13	127.44
242.363	131.44
242.597	132.44
242.83	129.44
243.064	135.44
243.298	134.44
243.531	128.44
243.765	138.44
243.998	152.44
244.232	142.44
244.465	145.44
244.699	146.44
244.932	135.44
245.166	133.44
245.399	136.44
245.633	145.44
245.866	141.44
246.099	143.44
246.333	148.44
246.566	146.44
246.8	148.44
247.033	129.44
247.266	142.44
247.5	151.44
247.733	165.44
247.966	178.44
248.2	173.44
248.433	185.44
248.666	164.44
248.899	180.44
249.133	198.44
249.366	217.44
249.599	207.44
249.832	178.44
250.066	176.44
250.299	162.44
250.532	188.44
250.765	194.44
250.998	183.44
251.231	214.44
251.465	214.44
251.698	211.44
251.931	205.44
252.164	201.44
252.397	178.44
252.63	190.44
252.863	186.44
253.096	199.44
253.329	228.44
253.562	202.44
253.795	236.44
254.028	212.44
254.261	233.44
254.494	228.44
254.727	234.44
254.96	273.44
255.193	267.44
255.426	259.44
255.659	214.44
255.892	224.44
256.124	222.44
256.357	218.44
256.59	223.44
256.823	206.44
257.056	202.44
257.289	198.44
257.521	211.44
257.754	191.44
257.987	196.44
258.22	196.44
258.452	185.44
258.685	216.44
258.918	201.44
259.151	202.44
259.383	221.44
259.616	221.44
259.849	229.44
260.081	234.44
260.314	254.44
260.547	246.44
260.779	237.44
261.012	233.44
261.244	218.44
261.477	225.44
261.71	214.44
261.942	230.44
262.175	223.44
262.407	232.44
262.64	214.44
262.872	204.44
263.105	200.44
263.337	195.44
263.57	206.44
263.802	208.44
264.035	184.44
264.267	187.44
264.499	212.44
264.732	219.44
264.964	193.44
265.197	206.44
265.429	201.44
265.661	196.44
265.894	204.44
266.126	191.44
266.358	199.44
266.591	212.44
266.823	204.44
267.055	210.44
267.287	211.44
267.52	214.44
267.752	205.44
267.984	205.44
268.216	222.44
268.448	218.44
268.681	214.44
268.913	220.44
269.145	247.44
269.377	266.44
269.609	262.44
269.841	244.44
270.073	287.44
270.306	284.44
270.538	289.44
270.77	281.44
271.002	294.44
271.234	261.44
271.466	272.44
271.698	287.44
271.93	320.44
272.162	292.44
272.394	292.44
272.626	299.44
272.858	263.44
273.09	276.44
273.322	256.44
273.553	262.44
273.785	232.44
274.017	266.44
274.249	248.44
274.481	242.44
274.713	256.44
274.945	254.44
275.176	255.44
275.408	235.44
275.64	260.44
275.872	239.44
276.104	230.44
276.335	246.44
276.567	258.44
276.799	269.44
277.031	294.44
277.262	290.44
277.494	310.44
277.726	273.44
277.957	272.44
278.189	261.44
278.421	251.44
278.652	239.44
278.884	255.44
279.115	264.44
279.347	242.44
279.579	244.44
279.81	262.44
280.042	251.44
280.273	242.44
280.505	246.44
280.736	244.44
280.968	246.44
281.199	260.44
281.431	235.44
281.662	241.44
281.894	253.44
282.125	258.44
282.356	277.44
282.588	285.44
282.819	279.44
283.051	258.44
283.282	232.44
283.513	249.44
283.745	246.44
283.976	240.44
284.207	245.44
284.439	264.44
284.67	262.44
284.901	259.44
285.132	245.44
285.364	236.44
285.595	246.44
285.826	258.44
286.057	262.44
286.288	250.44
286.52	266.44
286.751	259.44
286.982	256.44
287.213	251.44
287.444	260.44
287.675	270.44
287.906	286.44
288.138	278.44
288.369	278.44
288.6	281.44
288.831	271.44
289.062	258.44
289.293	257.44
289.524	255.44
289.755	233.44
289.986	268.44
290.217	270.44
290.448	242.44
290.679	272.44
290.91	249.44
291.141	267.44
291.371	258.44
291.602	247.44
291.833	257.44
292.064	256.44
292.295	262.44
292.526	264.44
292.757	260.44
292.987	262.44
293.218	251.44
293.449	251.44
293.68	261.44
293.91	261.44
294.141	255.44
294.372	262.44
294.603	262.44
294.833	261.44
295.064	260.44
295.295	270.44
295.525	270.44
295.756	275.44
295.987	266.44
296.217	284.44
296.448	285.44
296.679	269.44
296.909	261.44
297.14	269.44
297.37	263.44
297.601	249.44
297.831	270.44
298.062	268.44
298.292	252.44
298.523	281.44
298.753	277.44
298.984	271.44
299.214	288.44
299.445	260.44
299.675	276.44
299.905	278.44
300.136	272.44
300.366	270.44
300.597	261.44
300.827	277.44
301.057	283.44
301.288	282.44
301.518	290.44
301.748	284.44
301.979	278.44
302.209	288.44
302.439	294.44
302.669	301.44
302.9	287.44
303.13	290.44
303.36	301.44
303.59	279.44
303.82	299.44
304.051	286.44
304.281	287.44
304.511	288.44
304.741	285.44
304.971	288.44
305.201	287.44
305.431	296.44
305.661	289.44
305.891	291.44
306.121	299.44
306.352	312.44
306.582	312.44
306.812	318.44
307.042	294.44
307.272	280.44
307.502	298.44
307.731	308.44
307.961	281.44
308.191	323.44
308.421	278.44
308.651	280.44
308.881	310.44
309.111	303.44
309.341	317.44
309.571	334.44
309.8	310.44
310.03	333.44
310.26	346.44
310.49	329.44
310.72	351.44
310.949	343.44
311.179	374.44
311.409	350.44
311.639	344.44
311.868	333.44
312.098	327.44
312.328	364.44
312.557	355.44
312.787	369.44
313.017	376.44
313.246	353.44
313.476	356.44
313.706	343.44
313.935	347.44
314.165	359.44
314.394	358.44
314.624	382.44
314.853	361.44
315.083	340.44
315.312	350.44
315.542	344.44
315.771	338.44
316.001	318.44
316.23	326.44
316.46	327.44
316.689	318.44
316.919	340.44
317.148	339.44
317.377	344.44
317.607	350.44
317.836	353.44
318.065	342.44
318.295	331.44
318.524	324.44
318.753	335.44
318.983	325.44
319.212	330.44
319.441	351.44
319.67	354.44
319.9	340.44
320.129	354.44
320.358	349.44
320.587	357.44
320.816	348.44
321.046	358.44
321.275	367.44
321.504	376.44
321.733	358.44
321.962	361.44
322.191	399.44
322.42	381.44
322.649	408.44
322.878	414.44
323.108	426.44
323.337	455.44
323.566	484.44
323.795	491.44
324.024	539.44
324.253	698.44
324.482	926.44
324.71	1464.44
324.939	2135.44
325.168	1901.44
325.397	1005.44
325.626	650.44
325.855	528.44
326.084	493.44
326.313	479.44
326.542	485.44
326.77	522.44
326.999	632.44
327.228	826.44
327.457	1294.44
327.686	1600.44
327.914	1083.44
328.143	715.44
328.372	615.44
328.6	593.44
328.829	554.44
329.058	553.44
329.287	580.44
329.515	518.44
329.744	485.44
329.972	453.44
330.201	491.44
330.43	542.44
330.658	554.44
330.887	591.44
331.115	589.44
331.344	506.44
331.572	479.44
331.801	459.44
332.03	435.44
332.258	431.44
332.486	414.44
332.715	406.44
332.943	404.44
333.172	404.44
333.4	419.44
333.629	420.44
333.857	445.44
334.085	434.44
334.314	450.44
334.542	452.44
334.771	458.44
334.999	447.44
335.227	402.44
335.455	388.44
335.684	379.44
335.912	408.44
336.14	415.44
336.369	395.44
336.597	390.44
336.825	394.44
337.053	367.44
337.281	386.44
337.51	392.44
337.738	398.44
337.966	383.44
338.194	402.44
338.422	392.44
338.65	410.44
338.878	413.44
339.106	380.44
339.334	377.44
339.562	395.44
339.79	380.44
340.018	403.44
340.246	405.44
340.474	387.44
340.702	383.44
340.93	362.44
341.158	364.44
341.386	387.44
341.614	404.44
341.842	388.44
342.07	375.44
342.298	386.44
342.526	376.44
342.754	384.44
342.981	367.44
343.209	372.44
343.437	377.44
343.665	363.44
343.893	364.44
344.12	377.44
344.348	380.44
344.576	375.44
344.804	389.44
345.031	404.44
345.259	388.44
345.487	390.44
345.714	396.44
345.942	368.44
346.17	374.44
346.397	358.44
346.625	366.44
346.853	386.44
347.08	382.44
347.308	378.44
347.535	394.44
347.763	396.44
347.99	370.44
348.218	379.44
348.445	392.44
348.673	395.44
348.9	371.44
349.128	379.44
349.355	355.44
349.583	363.44
349.81	367.44
350.037	352.44
350.265	355.44
350.492	351.44
350.72	361.44
350.947	353.44
351.174	404.44
351.402	391.44
351.629	373.44
351.856	371.44
352.083	380.44
352.311	401.44
352.538	376.44
352.765	377.44
352.992	384.44
353.22	399.44
353.447	385.44
353.674	366.44
353.901	358.44
354.128	365.44
354.355	327.44
354.583	356.44
354.81	377.44
355.037	353.44
355.264	338.44
355.491	339.44
355.718	334.44
355.945	346.44
356.172	341.44
356.399	332.44
356.626	341.44
356.853	347.44
357.08	355.44
357.307	342.44
357.534	341.44
357.761	342.44
357.988	352.44
358.215	351.44
358.441	357.44
358.668	359.44
358.895	349.44
359.122	354.44
359.349	359.44
359.576	367.44
359.802	395.44
360.029	419.44
360.256	450.44
360.483	408.44
360.709	369.44
360.936	395.44
361.163	380.44
361.39	379.44
361.616	382.44
361.843	347.44
362.07	390.44
362.296	369.44
362.523	383.44
362.749	376.44
362.976	378.44
363.203	362.44
363.429	342.44
363.656	352.44
363.882	343.44
364.109	354.44
364.335	326.44
364.562	350.44
364.788	350.44
365.015	351.44
365.241	356.44
365.468	358.44
365.694	366.44
365.92	364.44
366.147	346.44
366.373	326.44
366.599	361.44
366.826	360.44
367.052	354.44
367.278	347.44
367.505	350.44
367.731	347.44
367.957	355.44
368.184	353.44
368.41	350.44
368.636	377.44
368.862	363.44
369.089	357.44
369.315	368.44
369.541	377.44
369.767	351.44
369.993	358.44
370.219	360.44
370.445	371.44
370.672	358.44
370.898	348.44
371.124	343.44
371.35	337.44
371.576	371.44
371.802	328.44
372.028	336.44
372.254	344.44
372.48	326.44
372.706	356.44
372.932	357.44
373.158	336.44
373.384	342.44
373.61	344.44
373.835	340.44
374.061	349.44
374.287	347.44
374.513	359.44
374.739	385.44
374.965	354.44
375.191	334.44
375.416	361.44
375.642	353.44
375.868	346.44
376.094	337.44
376.319	330.44
376.545	340.44
376.771	352.44
376.997	355.44
377.222	346.44
377.448	328.44
377.674	337.44
377.899	334.44
378.125	334.44
378.35	346.44
378.576	329.44
378.802	335.44
379.027	343.44
379.253	351.44
379.478	346.44
379.704	356.44
379.929	366.44
380.155	354.44
380.38	361.44
380.606	354.44
380.831	339.44
381.057	358.44
381.282	358.44
381.507	337.44
381.733	352.44
381.958	363.44
382.184	359.44
382.409	363.44
382.634	359.44
382.86	372.44
383.085	372.44
383.31	349.44
383.535	353.44
383.761	349.44
383.986	364.44
384.211	358.44
384.436	338.44
384.662	350.44
384.887	337.44
385.112	372.44
385.337	389.44
385.562	377.44
385.787	357.44
386.013	382.44
386.238	367.44
386.463	404.44
386.688	370.44
386.913	373.44
387.138	367.44
387.363	380.44
387.588	356.44
387.813	366.44
388.038	372.44
388.263	370.44
388.488	359.44
388.713	376.44
388.938	379.44
389.163	384.44
389.387	389.44
389.612	364.44
389.837	367.44
390.062	371.44
390.287	365.44
390.512	378.44
390.736	377.44
390.961	359.44
391.186	375.44
391.411	388.44
391.636	396.44
391.86	373.44
392.085	373.44
392.31	394.44
392.534	390.44
392.759	390.44
392.984	378.44
393.208	360.44
393.433	379.44
393.658	382.44
393.882	374.44
394.107	360.44
394.331	375.44
394.556	402.44
394.78	369.44
395.005	370.44
395.229	382.44
395.454	388.44
395.678	389.44
395.903	404.44
396.127	405.44
396.352	422.44
396.576	371.44
396.801	388.44
397.025	359.44
397.249	394.44
397.474	378.44
397.698	399.44
397.922	415.44
398.147	399.44
398.371	443.44
398.595	415.44
398.82	397.44
399.044	410.44
399.268	436.44
399.492	454.44
399.717	445.44
399.941	492.44
400.165	536.44
400.389	527.44
400.613	486.44
400.837	453.44
401.062	444.44
401.286	427.44
401.51	422.44
401.734	429.44
401.958	430.44
402.182	425.44
402.406	434.44
402.63	414.44
402.854	429.44
403.078	432.44
403.302	428.44
403.526	439.44
403.75	450.44
403.974	449.44
404.198	419.44
404.422	429.44
404.645	441.44
404.869	445.44
405.093	493.44
405.317	510.44
405.541	558.44
405.765	467.44
405.988	451.44
406.212	432.44
406.436	518.44
406.66	494.44
406.883	486.44
407.107	492.44
407.331	532.44
407.555	594.44
407.778	589.44
408.002	540.44
408.226	496.44
408.449	498.44
408.673	484.44
408.896	532.44
409.12	548.44
409.344	525.44
409.567	459.44
409.791	436.44
410.014	457.44
410.238	445.44
410.461	455.44
410.685	451.44
410.908	459.44
411.132	510.44
411.355	525.44
411.578	503.44
411.802	491.44
412.025	434.44
412.249	450.44
412.472	458.44
412.695	505.44
412.919	458.44
413.142	463.44
413.365	413.44
413.589	435.44
413.812	423.44
414.035	407.44
414.258	437.44
414.482	406.44
414.705	423.44
414.928	422.44
415.151	396.44
415.374	413.44
415.597	410.44
415.821	414.44
416.044	413.44
416.267	417.44
416.49	434.44
416.713	414.44
416.936	411.44
417.159	413.44
417.382	429.44
417.605	444.44
417.828	432.44
418.051	434.44
418.274	420.44
418.497	423.44
418.72	438.44
418.943	424.44
419.166	451.44
419.389	461.44
419.611	454.44
419.834	427.44
420.057	438.44
420.28	434.44
420.503	462.44
420.726	464.44
420.948	476.44
421.171	474.44
421.394	510.44
421.617	468.44
421.839	444.44
422.062	427.44
422.285	453.44
422.507	512.44
422.73	568.44
422.953	562.44
423.175	498.44
423.398	468.44
423.621	471.44
423.843	482.44
424.066	489.44
424.288	469.44
424.511	503.44
424.733	539.44
424.956	626.44
425.178	612.44
425.401	584.44
425.623	606.44
425.846	536.44
426.068	495.44
426.291	498.44
426.513	468.44
426.735	481.44
426.958	532.44
427.18	632.44
427.402	724.44
427.625	780.44
427.847	730.44
428.069	628.44
428.292	547.44
428.514	506.44
428.736	473.44
428.958	468.44
429.181	442.44
429.403	437.44
429.625	469.44
429.847	501.44
430.069	559.44
430.292	568.44
430.514	486.44
430.736	446.44
430.958	454.44
431.18	431.44
431.402	429.44
431.624	416.44
431.846	422.44
432.068	426.44
432.29	427.44
432.512	438.44
432.734	432.44
432.956	444.44
433.178	454.44
433.4	454.44
433.622	438.44
433.844	436.44
434.066	421.44
434.287	434.44
434.509	436.44
434.731	430.44
434.953	445.44
435.175	455.44
435.397	470.44
435.618	492.44
435.84	501.44
436.062	612.44
436.284	660.44
436.505	587.44
436.727	540.44
436.949	470.44
437.17	444.44
437.392	471.44
437.614	461.44
437.835	512.44
438.057	624.44
438.278	697.44
438.5	684.44
438.721	752.44
438.943	714.44
439.165	596.44
439.386	528.44
439.608	512.44
439.829	500.44
440.05	529.44
440.272	579.44
440.493	564.44
440.715	496.44
440.936	471.44
441.158	465.44
441.379	455.44
441.6	476.44
441.822	495.44
442.043	544.44
442.264	604.44
442.486	652.44
442.707	555.44
442.928	520.44
443.149	519.44
443.371	535.44
443.592	579.44
443.813	650.44
444.034	706.44
444.255	593.44
444.476	513.44
444.698	510.44
444.919	492.44
445.14	562.44
445.361	533.44
445.582	534.44
445.803	614.44
446.024	663.44
446.245	710.44
446.466	640.44
446.687	527.44
446.908	494.44
447.129	461.44
447.35	456.44
447.571	464.44
447.792	445.44
448.013	443.44
448.234	473.44
448.455	523.44
448.675	654.44
448.896	724.44
449.117	631.44
449.338	611.44
449.559	682.44
449.779	774.44
450	632.44
450.221	532.44
450.442	476.44
450.662	462.44
450.883	460.44
451.104	464.44
451.324	471.44
451.545	436.44
451.766	419.44
451.986	424.44
452.207	419.44
452.428	397.44
452.648	403.44
452.869	401.44
453.089	437.44
453.31	440.44
453.53	418.44
453.751	408.44
453.971	449.44
454.192	419.44
454.412	400.44
454.633	428.44
454.853	393.44
455.073	412.44
455.294	427.44
455.514	486.44
455.734	493.44
455.955	436.44
456.175	385.44
456.395	406.44
456.616	380.44
456.836	381.44
457.056	360.44
457.276	374.44
457.497	374.44
457.717	402.44
457.937	388.44
458.157	414.44
458.377	425.44
458.598	422.44
458.818	467.44
459.038	564.44
459.258	557.44
459.478	486.44
459.698	426.44
459.918	451.44
460.138	432.44
460.358	420.44
460.578	414.44
460.798	424.44
461.018	421.44
461.238	411.44
461.458	412.44
461.678	421.44
461.898	400.44
462.118	416.44
462.338	439.44
462.558	436.44
462.777	432.44
462.997	445.44
463.217	446.44
463.437	453.44
463.657	432.44
463.876	458.44
464.096	462.44
464.316	444.44
464.536	447.44
464.755	440.44
464.975	463.44
465.195	489.44
465.414	595.44
465.634	520.44
465.854	491.44
466.073	444.44
466.293	434.44
466.512	406.44
466.732	420.44
466.951	417.44
467.171	400.44
467.391	412.44
467.61	453.44
467.829	436.44
468.049	440.44
468.268	419.44
468.488	405.44
468.707	410.44
468.927	397.44
469.146	397.44
469.365	403.44
469.585	390.44
469.804	418.44
470.023	434.44
470.243	423.44
470.462	420.44
470.681	466.44
470.901	437.44
471.12	418.44
471.339	411.44
471.558	416.44
471.777	395.44
471.997	424.44
472.216	426.44
472.435	450.44
472.654	441.44
472.873	409.44
473.092	396.44
473.311	412.44
473.53	420.44
473.749	437.44
473.968	485.44
474.187	575.44
474.406	572.44
474.625	490.44
474.844	444.44
475.063	414.44
475.282	429.44
475.501	430.44
475.72	439.44
475.939	427.44
476.158	449.44
476.377	418.44
476.596	425.44
476.814	449.44
477.033	432.44
477.252	436.44
477.471	473.44
477.69	458.44
477.908	456.44
478.127	467.44
478.346	454.44
478.564	452.44
478.783	456.44
479.002	489.44
479.22	475.44
479.439	493.44
479.658	504.44
479.876	514.44
480.095	513.44
480.313	542.44
480.532	541.44
480.751	506.44
480.969	518.44
481.188	569.44
481.406	596.44
481.624	550.44
481.843	544.44
482.061	510.44
482.28	513.44
482.498	504.44
482.717	501.44
482.935	477.44
483.153	506.44
483.372	516.44
483.59	492.44
483.808	488.44
484.027	497.44
484.245	492.44
484.463	490.44
484.681	507.44
484.9	498.44
485.118	514.44
485.336	508.44
485.554	528.44
485.772	533.44
485.99	511.44
486.209	519.44
486.427	517.44
486.645	519.44
486.863	539.44
487.081	528.44
487.299	539.44
487.517	530.44
487.735	533.44
487.953	553.44
488.171	540.44
488.389	533.44
488.607	550.44
488.825	543.44
489.043	543.44
489.261	527.44
489.479	527.44
489.696	549.44
489.914	530.44
490.132	582.44
490.35	572.44
490.568	571.44
490.786	571.44
491.003	593.44
491.221	584.44
491.439	605.44
491.657	623.44
491.874	612.44
492.092	626.44
492.31	610.44
492.527	630.44
492.745	648.44
492.963	640.44
493.18	631.44
493.398	615.44
493.615	631.44
493.833	648.44
494.05	658.44
494.268	640.44
494.485	630.44
494.703	652.44
494.92	639.44
495.138	648.44
495.355	647.44
495.573	660.44
495.79	651.44
496.008	655.44
496.225	637.44
496.442	626.44
496.66	646.44
496.877	639.44
497.094	634.44
497.312	652.44
497.529	664.44
497.746	656.44
497.963	657.44
498.181	668.44
498.398	694.44
498.615	700.44
498.832	717.44
499.049	696.44
499.267	714.44
499.484	719.44
499.701	751.44
499.918	764.44
500.135	786.44
500.352	815.44
500.569	794.44
500.786	791.44
501.003	785.44
501.22	806.44
501.437	764.44
501.654	779.44
501.871	771.44
