Data from 1980.PennyLincolnUp.Lamp.En5.5.200Scan.071819.P1_HRD10591_16-38-10-957.txt Node
Date: Thu Jul 18 16:38:10 EDT 2019
User: cochatt
Spectrometer: HR+D1059
Trigger mode: 1
Integration Time (sec): 1.000000E-1
Scans to average: 1
Electric dark correction enabled: true
Nonlinearity correction enabled: false
Boxcar width: 0
XAxis mode: Wavelengths
Number of Pixels in Spectrum: 2048
>>>>>Begin Spectral Data<<<<<
223.165	-25.06
223.4	-25.06
223.635	-25.06
223.869	-32.06
224.104	-14.06
224.338	-14.06
224.573	-8.06
224.808	-8.06
225.042	-9.06
225.277	-11.06
225.511	-12.06
225.746	14.94
225.98	5.94
226.215	7.94
226.449	15.94
226.683	19.94
226.918	31.94
227.152	36.94
227.387	23.94
227.621	28.94
227.856	37.94
228.09	31.94
228.324	52.94
228.559	52.94
228.793	68.94
229.027	96.94
229.262	114.94
229.496	115.94
229.73	140.94
229.964	164.94
230.199	149.94
230.433	131.94
230.667	130.94
230.901	112.94
231.136	116.94
231.37	104.94
231.604	106.94
231.838	111.94
232.072	120.94
232.306	109.94
232.541	123.94
232.775	124.94
233.009	107.94
233.243	111.94
233.477	108.94
233.711	119.94
233.945	106.94
234.179	125.94
234.413	123.94
234.647	105.94
234.881	116.94
235.115	113.94
235.349	129.94
235.583	129.94
235.817	121.94
236.051	134.94
236.285	131.94
236.519	143.94
236.753	148.94
236.987	147.94
237.221	214.94
237.455	249.94
237.689	207.94
237.922	161.94
238.156	143.94
238.39	125.94
238.624	106.94
238.858	125.94
239.091	125.94
239.325	126.94
239.559	131.94
239.793	122.94
240.027	143.94
240.26	156.94
240.494	166.94
240.728	158.94
240.961	149.94
241.195	149.94
241.429	136.94
241.662	133.94
241.896	131.94
242.13	142.94
242.363	137.94
242.597	135.94
242.83	149.94
243.064	133.94
243.298	136.94
243.531	143.94
243.765	133.94
243.998	142.94
244.232	135.94
244.465	143.94
244.699	157.94
244.932	142.94
245.166	163.94
245.399	147.94
245.633	159.94
245.866	156.94
246.099	141.94
246.333	145.94
246.566	153.94
246.8	143.94
247.033	167.94
247.266	189.94
247.5	165.94
247.733	177.94
247.966	181.94
248.2	198.94
248.433	165.94
248.666	174.94
248.899	192.94
249.133	227.94
249.366	207.94
249.599	209.94
249.832	185.94
250.066	201.94
250.299	191.94
250.532	192.94
250.765	214.94
250.998	228.94
251.231	234.94
251.465	234.94
251.698	223.94
251.931	217.94
252.164	206.94
252.397	201.94
252.63	202.94
252.863	216.94
253.096	229.94
253.329	236.94
253.562	247.94
253.795	252.94
254.028	234.94
254.261	242.94
254.494	238.94
254.727	271.94
254.96	299.94
255.193	292.94
255.426	271.94
255.659	255.94
255.892	252.94
256.124	251.94
256.357	246.94
256.59	252.94
256.823	228.94
257.056	228.94
257.289	223.94
257.521	233.94
257.754	242.94
257.987	236.94
258.22	221.94
258.452	233.94
258.685	212.94
258.918	212.94
259.151	222.94
259.383	226.94
259.616	222.94
259.849	233.94
260.081	260.94
260.314	273.94
260.547	270.94
260.779	286.94
261.012	247.94
261.244	241.94
261.477	236.94
261.71	241.94
261.942	233.94
262.175	262.94
262.407	254.94
262.64	213.94
262.872	226.94
263.105	206.94
263.337	211.94
263.57	230.94
263.802	213.94
264.035	213.94
264.267	228.94
264.499	217.94
264.732	230.94
264.964	234.94
265.197	207.94
265.429	218.94
265.661	222.94
265.894	214.94
266.126	203.94
266.358	217.94
266.591	242.94
266.823	226.94
267.055	233.94
267.287	234.94
267.52	211.94
267.752	223.94
267.984	232.94
268.216	230.94
268.448	232.94
268.681	226.94
268.913	270.94
269.145	279.94
269.377	302.94
269.609	297.94
269.841	291.94
270.073	268.94
270.306	316.94
270.538	311.94
270.77	336.94
271.002	314.94
271.234	310.94
271.466	317.94
271.698	330.94
271.93	347.94
272.162	330.94
272.394	337.94
272.626	326.94
272.858	312.94
273.09	295.94
273.322	280.94
273.553	271.94
273.785	273.94
274.017	243.94
274.249	263.94
274.481	290.94
274.713	279.94
274.945	291.94
275.176	271.94
275.408	267.94
275.64	274.94
275.872	258.94
276.104	267.94
276.335	263.94
276.567	276.94
276.799	309.94
277.031	331.94
277.262	336.94
277.494	337.94
277.726	323.94
277.957	278.94
278.189	294.94
278.421	275.94
278.652	268.94
278.884	263.94
279.115	271.94
279.347	280.94
279.579	277.94
279.81	261.94
280.042	259.94
280.273	272.94
280.505	261.94
280.736	270.94
280.968	254.94
281.199	277.94
281.431	237.94
281.662	269.94
281.894	250.94
282.125	275.94
282.356	281.94
282.588	325.94
282.819	313.94
283.051	289.94
283.282	279.94
283.513	270.94
283.745	271.94
283.976	262.94
284.207	263.94
284.439	270.94
284.67	261.94
284.901	271.94
285.132	288.94
285.364	273.94
285.595	265.94
285.826	277.94
286.057	273.94
286.288	262.94
286.52	261.94
286.751	293.94
286.982	275.94
287.213	262.94
287.444	284.94
287.675	283.94
287.906	298.94
288.138	290.94
288.369	284.94
288.6	300.94
288.831	286.94
289.062	287.94
289.293	296.94
289.524	285.94
289.755	293.94
289.986	282.94
290.217	285.94
290.448	269.94
290.679	279.94
290.91	289.94
291.141	286.94
291.371	267.94
291.602	258.94
291.833	302.94
292.064	281.94
292.295	293.94
292.526	276.94
292.757	284.94
292.987	277.94
293.218	294.94
293.449	284.94
293.68	280.94
293.91	252.94
294.141	278.94
294.372	283.94
294.603	275.94
294.833	277.94
295.064	284.94
295.295	286.94
295.525	281.94
295.756	303.94
295.987	309.94
296.217	316.94
296.448	344.94
296.679	330.94
296.909	287.94
297.14	291.94
297.37	277.94
297.601	293.94
297.831	266.94
298.062	285.94
298.292	287.94
298.523	297.94
298.753	290.94
298.984	297.94
299.214	293.94
299.445	290.94
299.675	302.94
299.905	324.94
300.136	298.94
300.366	307.94
300.597	313.94
300.827	317.94
301.057	313.94
301.288	321.94
301.518	316.94
301.748	320.94
301.979	319.94
302.209	317.94
302.439	321.94
302.669	326.94
302.9	306.94
303.13	302.94
303.36	314.94
303.59	326.94
303.82	335.94
304.051	323.94
304.281	306.94
304.511	312.94
304.741	322.94
304.971	316.94
305.201	313.94
305.431	310.94
305.661	307.94
305.891	309.94
306.121	301.94
306.352	330.94
306.582	337.94
306.812	315.94
307.042	307.94
307.272	321.94
307.502	306.94
307.731	312.94
307.961	318.94
308.191	339.94
308.421	331.94
308.651	317.94
308.881	348.94
309.111	347.94
309.341	338.94
309.571	348.94
309.8	345.94
310.03	366.94
310.26	364.94
310.49	393.94
310.72	385.94
310.949	401.94
311.179	396.94
311.409	383.94
311.639	393.94
311.868	389.94
312.098	379.94
312.328	379.94
312.557	411.94
312.787	437.94
313.017	406.94
313.246	413.94
313.476	370.94
313.706	390.94
313.935	366.94
314.165	401.94
314.394	387.94
314.624	405.94
314.853	381.94
315.083	374.94
315.312	376.94
315.542	369.94
315.771	377.94
316.001	360.94
316.23	353.94
316.46	369.94
316.689	384.94
316.919	388.94
317.148	402.94
317.377	385.94
317.607	382.94
317.836	381.94
318.065	396.94
318.295	370.94
318.524	346.94
318.753	369.94
318.983	375.94
319.212	356.94
319.441	373.94
319.67	401.94
319.9	375.94
320.129	379.94
320.358	374.94
320.587	382.94
320.816	385.94
321.046	410.94
321.275	407.94
321.504	397.94
321.733	412.94
321.962	414.94
322.191	443.94
322.42	411.94
322.649	446.94
322.878	463.94
323.108	473.94
323.337	509.94
323.566	531.94
323.795	571.94
324.024	642.94
324.253	783.94
324.482	1131.94
324.71	1746.94
324.939	2529.94
325.168	2229.94
325.397	1139.94
325.626	740.94
325.855	597.94
326.084	566.94
326.313	557.94
326.542	549.94
326.77	630.94
326.999	732.94
327.228	1011.94
327.457	1545.94
327.686	1897.94
327.914	1309.94
328.143	830.94
328.372	740.94
328.6	668.94
328.829	606.94
329.058	645.94
329.287	657.94
329.515	604.94
329.744	540.94
329.972	543.94
330.201	561.94
330.43	630.94
330.658	675.94
330.887	669.94
331.115	655.94
331.344	579.94
331.572	502.94
331.801	507.94
332.03	505.94
332.258	491.94
332.486	455.94
332.715	451.94
332.943	421.94
333.172	452.94
333.4	451.94
333.629	437.94
333.857	471.94
334.085	483.94
334.314	499.94
334.542	546.94
334.771	551.94
334.999	489.94
335.227	470.94
335.455	449.94
335.684	459.94
335.912	442.94
336.14	418.94
336.369	414.94
336.597	458.94
336.825	439.94
337.053	441.94
337.281	428.94
337.51	402.94
337.738	423.94
337.966	432.94
338.194	428.94
338.422	443.94
338.65	438.94
338.878	415.94
339.106	413.94
339.334	417.94
339.562	397.94
339.79	410.94
340.018	418.94
340.246	413.94
340.474	403.94
340.702	400.94
340.93	417.94
341.158	419.94
341.386	418.94
341.614	415.94
341.842	412.94
342.07	418.94
342.298	427.94
342.526	396.94
342.754	381.94
342.981	392.94
343.209	392.94
343.437	374.94
343.665	411.94
343.893	418.94
344.12	408.94
344.348	419.94
344.576	428.94
344.804	429.94
345.031	420.94
345.259	440.94
345.487	434.94
345.714	446.94
345.942	414.94
346.17	409.94
346.397	412.94
346.625	428.94
346.853	395.94
347.08	399.94
347.308	399.94
347.535	415.94
347.763	428.94
347.99	424.94
348.218	438.94
348.445	435.94
348.673	425.94
348.9	398.94
349.128	397.94
349.355	388.94
349.583	384.94
349.81	385.94
350.037	391.94
350.265	398.94
350.492	390.94
350.72	401.94
350.947	397.94
351.174	397.94
351.402	415.94
351.629	424.94
351.856	415.94
352.083	396.94
352.311	415.94
352.538	438.94
352.765	443.94
352.992	411.94
353.22	415.94
353.447	401.94
353.674	413.94
353.901	383.94
354.128	369.94
354.355	359.94
354.583	366.94
354.81	372.94
355.037	374.94
355.264	361.94
355.491	365.94
355.718	360.94
355.945	370.94
356.172	367.94
356.399	353.94
356.626	359.94
356.853	380.94
357.08	369.94
357.307	354.94
357.534	365.94
357.761	371.94
357.988	358.94
358.215	388.94
358.441	359.94
358.668	373.94
358.895	387.94
359.122	382.94
359.349	403.94
359.576	414.94
359.802	442.94
360.029	474.94
360.256	491.94
360.483	471.94
360.709	429.94
360.936	418.94
361.163	407.94
361.39	411.94
361.616	412.94
361.843	399.94
362.07	403.94
362.296	413.94
362.523	392.94
362.749	397.94
362.976	381.94
363.203	386.94
363.429	409.94
363.656	391.94
363.882	395.94
364.109	398.94
364.335	382.94
364.562	386.94
364.788	388.94
365.015	378.94
365.241	389.94
365.468	374.94
365.694	383.94
365.92	394.94
366.147	379.94
366.373	394.94
366.599	387.94
366.826	358.94
367.052	375.94
367.278	379.94
367.505	373.94
367.731	377.94
367.957	371.94
368.184	377.94
368.41	375.94
368.636	385.94
368.862	401.94
369.089	379.94
369.315	378.94
369.541	347.94
369.767	361.94
369.993	370.94
370.219	365.94
370.445	381.94
370.672	388.94
370.898	373.94
371.124	366.94
371.35	352.94
371.576	374.94
371.802	358.94
372.028	354.94
372.254	381.94
372.48	369.94
372.706	356.94
372.932	379.94
373.158	365.94
373.384	371.94
373.61	373.94
373.835	378.94
374.061	371.94
374.287	371.94
374.513	367.94
374.739	355.94
374.965	360.94
375.191	359.94
375.416	373.94
375.642	375.94
375.868	369.94
376.094	378.94
376.319	360.94
376.545	372.94
376.771	373.94
376.997	382.94
377.222	378.94
377.448	377.94
377.674	380.94
377.899	352.94
378.125	355.94
378.35	361.94
378.576	355.94
378.802	350.94
379.027	373.94
379.253	357.94
379.478	366.94
379.704	362.94
379.929	383.94
380.155	389.94
380.38	390.94
380.606	386.94
380.831	378.94
381.057	392.94
381.282	384.94
381.507	387.94
381.733	383.94
381.958	390.94
382.184	389.94
382.409	383.94
382.634	378.94
382.86	383.94
383.085	377.94
383.31	380.94
383.535	386.94
383.761	379.94
383.986	368.94
384.211	377.94
384.436	386.94
384.662	393.94
384.887	379.94
385.112	377.94
385.337	371.94
385.562	385.94
385.787	393.94
386.013	422.94
386.238	396.94
386.463	390.94
386.688	396.94
386.913	395.94
387.138	416.94
387.363	376.94
387.588	396.94
387.813	412.94
388.038	386.94
388.263	391.94
388.488	386.94
388.713	408.94
388.938	394.94
389.163	405.94
389.387	397.94
389.612	379.94
389.837	410.94
390.062	384.94
390.287	397.94
390.512	395.94
390.736	367.94
390.961	399.94
391.186	394.94
391.411	397.94
391.636	393.94
391.86	401.94
392.085	396.94
392.31	405.94
392.534	395.94
392.759	388.94
392.984	382.94
393.208	376.94
393.433	386.94
393.658	390.94
393.882	403.94
394.107	380.94
394.331	398.94
394.556	398.94
394.78	399.94
395.005	399.94
395.229	387.94
395.454	417.94
395.678	428.94
395.903	419.94
396.127	445.94
396.352	446.94
396.576	415.94
396.801	421.94
397.025	409.94
397.249	398.94
397.474	434.94
397.698	420.94
397.922	444.94
398.147	449.94
398.371	452.94
398.595	448.94
398.82	428.94
399.044	439.94
399.268	452.94
399.492	470.94
399.717	513.94
399.941	511.94
400.165	556.94
400.389	555.94
400.613	538.94
400.837	477.94
401.062	462.94
401.286	464.94
401.51	449.94
401.734	425.94
401.958	443.94
402.182	436.94
402.406	454.94
402.63	466.94
402.854	475.94
403.078	474.94
403.302	488.94
403.526	468.94
403.75	460.94
403.974	460.94
404.198	454.94
404.422	461.94
404.645	463.94
404.869	485.94
405.093	501.94
405.317	551.94
405.541	566.94
405.765	541.94
405.988	498.94
406.212	525.94
406.436	535.94
406.66	537.94
406.883	514.94
407.107	522.94
407.331	573.94
407.555	656.94
407.778	635.94
408.002	566.94
408.226	531.94
408.449	510.94
408.673	529.94
408.896	522.94
409.12	596.94
409.344	570.94
409.567	516.94
409.791	500.94
410.014	478.94
410.238	476.94
410.461	472.94
410.685	461.94
410.908	483.94
411.132	510.94
411.355	569.94
411.578	548.94
411.802	511.94
412.025	478.94
412.249	485.94
412.472	511.94
412.695	533.94
412.919	529.94
413.142	492.94
413.365	466.94
413.589	467.94
413.812	464.94
414.035	440.94
414.258	442.94
414.482	423.94
414.705	436.94
414.928	437.94
415.151	435.94
415.374	441.94
415.597	438.94
415.821	431.94
416.044	422.94
416.267	441.94
416.49	435.94
416.713	427.94
416.936	427.94
417.159	436.94
417.382	447.94
417.605	452.94
417.828	469.94
418.051	499.94
418.274	474.94
418.497	468.94
418.72	470.94
418.943	455.94
419.166	445.94
419.389	485.94
419.611	500.94
419.834	479.94
420.057	499.94
420.28	518.94
420.503	486.94
420.726	476.94
420.948	494.94
421.171	533.94
421.394	577.94
421.617	489.94
421.839	494.94
422.062	475.94
422.285	497.94
422.507	555.94
422.73	668.94
422.953	622.94
423.175	551.94
423.398	518.94
423.621	501.94
423.843	519.94
424.066	515.94
424.288	504.94
424.511	537.94
424.733	588.94
424.956	705.94
425.178	659.94
425.401	623.94
425.623	659.94
425.846	593.94
426.068	540.94
426.291	545.94
426.513	536.94
426.735	577.94
426.958	596.94
427.18	662.94
427.402	817.94
427.625	897.94
427.847	781.94
428.069	656.94
428.292	617.94
428.514	541.94
428.736	539.94
428.958	513.94
429.181	497.94
429.403	493.94
429.625	504.94
429.847	521.94
430.069	593.94
430.292	612.94
430.514	511.94
430.736	505.94
430.958	467.94
431.18	473.94
431.402	466.94
431.624	457.94
431.846	441.94
432.068	450.94
432.29	463.94
432.512	472.94
432.734	455.94
432.956	477.94
433.178	463.94
433.4	465.94
433.622	471.94
433.844	455.94
434.066	445.94
434.287	458.94
434.509	454.94
434.731	467.94
434.953	450.94
435.175	477.94
435.397	501.94
435.618	536.94
435.84	582.94
436.062	685.94
436.284	721.94
436.505	601.94
436.727	565.94
436.949	532.94
437.17	503.94
437.392	525.94
437.614	519.94
437.835	588.94
438.057	687.94
438.278	764.94
438.5	759.94
438.721	829.94
438.943	786.94
439.165	627.94
439.386	573.94
439.608	555.94
439.829	576.94
440.05	601.94
440.272	628.94
440.493	616.94
440.715	549.94
440.936	525.94
441.158	516.94
441.379	490.94
441.6	513.94
441.822	531.94
442.043	578.94
442.264	689.94
442.486	711.94
442.707	604.94
442.928	562.94
443.149	563.94
443.371	553.94
443.592	647.94
443.813	690.94
444.034	758.94
444.255	644.94
444.476	582.94
444.698	525.94
444.919	537.94
445.14	635.94
445.361	602.94
445.582	589.94
445.803	667.94
446.024	775.94
446.245	748.94
446.466	709.94
446.687	581.94
446.908	551.94
447.129	507.94
447.35	493.94
447.571	503.94
447.792	493.94
448.013	488.94
448.234	516.94
448.455	556.94
448.675	693.94
448.896	808.94
449.117	681.94
449.338	637.94
449.559	749.94
449.779	874.94
450	664.94
450.221	586.94
450.442	527.94
450.662	485.94
450.883	524.94
451.104	534.94
451.324	526.94
451.545	485.94
451.766	465.94
451.986	476.94
452.207	442.94
452.428	449.94
452.648	462.94
452.869	435.94
453.089	476.94
453.31	486.94
453.53	458.94
453.751	455.94
453.971	467.94
454.192	483.94
454.412	488.94
454.633	425.94
454.853	419.94
455.073	451.94
455.294	467.94
455.514	531.94
455.734	542.94
455.955	458.94
456.175	424.94
456.395	405.94
456.616	414.94
456.836	405.94
457.056	424.94
457.276	392.94
457.497	409.94
457.717	420.94
457.937	437.94
458.157	423.94
458.377	430.94
458.598	447.94
458.818	520.94
459.038	630.94
459.258	660.94
459.478	538.94
459.698	472.94
459.918	472.94
460.138	459.94
460.358	454.94
460.578	425.94
460.798	476.94
461.018	466.94
461.238	456.94
461.458	434.94
461.678	460.94
461.898	438.94
462.118	435.94
462.338	447.94
462.558	451.94
462.777	460.94
462.997	475.94
463.217	488.94
463.437	482.94
463.657	474.94
463.876	489.94
464.096	467.94
464.316	459.94
464.536	462.94
464.755	461.94
464.975	487.94
465.195	546.94
465.414	629.94
465.634	557.94
465.854	519.94
466.073	469.94
466.293	478.94
466.512	437.94
466.732	440.94
466.951	469.94
467.171	440.94
467.391	444.94
467.61	474.94
467.829	477.94
468.049	472.94
468.268	444.94
468.488	459.94
468.707	441.94
468.927	455.94
469.146	423.94
469.365	430.94
469.585	431.94
469.804	444.94
470.023	450.94
470.243	452.94
470.462	463.94
470.681	469.94
470.901	475.94
471.12	443.94
471.339	469.94
471.558	452.94
471.777	468.94
471.997	448.94
472.216	457.94
472.435	501.94
472.654	506.94
472.873	456.94
473.092	427.94
473.311	450.94
473.53	456.94
473.749	467.94
473.968	504.94
474.187	625.94
474.406	665.94
474.625	526.94
474.844	483.94
475.063	455.94
475.282	457.94
475.501	455.94
475.72	473.94
475.939	469.94
476.158	440.94
476.377	467.94
476.596	469.94
476.814	478.94
477.033	474.94
477.252	491.94
477.471	486.94
477.69	482.94
477.908	513.94
478.127	497.94
478.346	502.94
478.564	509.94
478.783	511.94
479.002	505.94
479.22	504.94
479.439	522.94
479.658	546.94
479.876	552.94
480.095	554.94
480.313	596.94
480.532	561.94
480.751	576.94
480.969	573.94
481.188	619.94
481.406	692.94
481.624	618.94
481.843	578.94
482.061	557.94
482.28	546.94
482.498	536.94
482.717	550.94
482.935	543.94
483.153	539.94
483.372	551.94
483.59	545.94
483.808	526.94
484.027	552.94
484.245	513.94
484.463	547.94
484.681	548.94
484.9	537.94
485.118	540.94
485.336	542.94
485.554	548.94
485.772	558.94
485.99	540.94
486.209	557.94
486.427	583.94
486.645	586.94
486.863	608.94
487.081	603.94
487.299	598.94
487.517	596.94
487.735	578.94
487.953	569.94
488.171	570.94
488.389	589.94
488.607	574.94
488.825	577.94
489.043	588.94
489.261	573.94
489.479	565.94
489.696	574.94
489.914	587.94
490.132	611.94
490.35	621.94
490.568	635.94
490.786	632.94
491.003	631.94
491.221	640.94
491.439	677.94
491.657	661.94
491.874	663.94
492.092	689.94
492.31	677.94
492.527	675.94
492.745	670.94
492.963	675.94
493.18	651.94
493.398	668.94
493.615	697.94
493.833	700.94
494.05	733.94
494.268	692.94
494.485	709.94
494.703	696.94
494.92	710.94
495.138	733.94
495.355	693.94
495.573	716.94
495.79	710.94
496.008	726.94
496.225	695.94
496.442	717.94
496.66	709.94
496.877	694.94
497.094	692.94
497.312	703.94
497.529	704.94
497.746	713.94
497.963	730.94
498.181	732.94
498.398	745.94
498.615	757.94
498.832	758.94
499.049	761.94
499.267	771.94
499.484	803.94
499.701	807.94
499.918	828.94
500.135	839.94
500.352	849.94
500.569	855.94
500.786	868.94
501.003	842.94
501.22	835.94
501.437	843.94
501.654	835.94
501.871	865.94
