Data from 1980.PennyLincolnUp.Lamp.En5.5.200Scan.071819.P1_HRD10591_16-36-33-957.txt Node
Date: Thu Jul 18 16:36:33 EDT 2019
User: cochatt
Spectrometer: HR+D1059
Trigger mode: 1
Integration Time (sec): 1.000000E-1
Scans to average: 1
Electric dark correction enabled: true
Nonlinearity correction enabled: false
Boxcar width: 0
XAxis mode: Wavelengths
Number of Pixels in Spectrum: 2048
>>>>>Begin Spectral Data<<<<<
223.165	-17.88
223.4	-17.88
223.635	-17.88
223.869	-12.88
224.104	-12.88
224.338	-1.88
224.573	-14.88
224.808	-9.88
225.042	-3.88
225.277	-3.88
225.511	-19.88
225.746	-6.88
225.98	1.12
226.215	19.12
226.449	21.12
226.683	7.12
226.918	20.12
227.152	36.12
227.387	49.12
227.621	42.12
227.856	55.12
228.09	29.12
228.324	52.12
228.559	51.12
228.793	66.12
229.027	92.12
229.262	97.12
229.496	116.12
229.73	118.12
229.964	128.12
230.199	116.12
230.433	107.12
230.667	111.12
230.901	108.12
231.136	103.12
231.37	115.12
231.604	114.12
231.838	101.12
232.072	107.12
232.306	95.12
232.541	113.12
232.775	96.12
233.009	115.12
233.243	106.12
233.477	99.12
233.711	97.12
233.945	119.12
234.179	105.12
234.413	113.12
234.647	111.12
234.881	118.12
235.115	111.12
235.349	117.12
235.583	115.12
235.817	136.12
236.051	125.12
236.285	130.12
236.519	125.12
236.753	133.12
236.987	135.12
237.221	159.12
237.455	218.12
237.689	177.12
237.922	125.12
238.156	131.12
238.39	124.12
238.624	127.12
238.858	115.12
239.091	126.12
239.325	126.12
239.559	133.12
239.793	128.12
240.027	117.12
240.26	125.12
240.494	146.12
240.728	135.12
240.961	145.12
241.195	145.12
241.429	139.12
241.662	132.12
241.896	110.12
242.13	123.12
242.363	118.12
242.597	131.12
242.83	127.12
243.064	135.12
243.298	142.12
243.531	125.12
243.765	129.12
243.998	134.12
244.232	141.12
244.465	123.12
244.699	136.12
244.932	153.12
245.166	141.12
245.399	133.12
245.633	129.12
245.866	130.12
246.099	139.12
246.333	145.12
246.566	130.12
246.8	151.12
247.033	136.12
247.266	155.12
247.5	149.12
247.733	154.12
247.966	138.12
248.2	162.12
248.433	165.12
248.666	163.12
248.899	166.12
249.133	189.12
249.366	199.12
249.599	194.12
249.832	175.12
250.066	175.12
250.299	174.12
250.532	174.12
250.765	186.12
250.998	193.12
251.231	227.12
251.465	206.12
251.698	199.12
251.931	187.12
252.164	174.12
252.397	184.12
252.63	200.12
252.863	205.12
253.096	210.12
253.329	201.12
253.562	210.12
253.795	200.12
254.028	212.12
254.261	217.12
254.494	218.12
254.727	247.12
254.96	245.12
255.193	261.12
255.426	233.12
255.659	227.12
255.892	211.12
256.124	212.12
256.357	216.12
256.59	204.12
256.823	198.12
257.056	191.12
257.289	191.12
257.521	193.12
257.754	188.12
257.987	185.12
258.22	198.12
258.452	181.12
258.685	195.12
258.918	194.12
259.151	197.12
259.383	204.12
259.616	206.12
259.849	218.12
260.081	225.12
260.314	215.12
260.547	229.12
260.779	215.12
261.012	207.12
261.244	202.12
261.477	214.12
261.71	191.12
261.942	206.12
262.175	225.12
262.407	207.12
262.64	197.12
262.872	191.12
263.105	184.12
263.337	201.12
263.57	194.12
263.802	182.12
264.035	190.12
264.267	199.12
264.499	182.12
264.732	191.12
264.964	204.12
265.197	165.12
265.429	177.12
265.661	201.12
265.894	180.12
266.126	200.12
266.358	185.12
266.591	199.12
266.823	211.12
267.055	180.12
267.287	207.12
267.52	191.12
267.752	208.12
267.984	211.12
268.216	210.12
268.448	213.12
268.681	193.12
268.913	218.12
269.145	222.12
269.377	231.12
269.609	236.12
269.841	238.12
270.073	236.12
270.306	247.12
270.538	281.12
270.77	286.12
271.002	286.12
271.234	273.12
271.466	269.12
271.698	272.12
271.93	267.12
272.162	284.12
272.394	279.12
272.626	269.12
272.858	251.12
273.09	242.12
273.322	239.12
273.553	250.12
273.785	250.12
274.017	235.12
274.249	226.12
274.481	230.12
274.713	225.12
274.945	231.12
275.176	226.12
275.408	236.12
275.64	235.12
275.872	229.12
276.104	227.12
276.335	226.12
276.567	254.12
276.799	244.12
277.031	277.12
277.262	264.12
277.494	268.12
277.726	253.12
277.957	249.12
278.189	239.12
278.421	245.12
278.652	233.12
278.884	239.12
279.115	219.12
279.347	223.12
279.579	230.12
279.81	234.12
280.042	242.12
280.273	234.12
280.505	229.12
280.736	229.12
280.968	236.12
281.199	234.12
281.431	223.12
281.662	226.12
281.894	234.12
282.125	243.12
282.356	249.12
282.588	273.12
282.819	279.12
283.051	236.12
283.282	217.12
283.513	234.12
283.745	221.12
283.976	228.12
284.207	233.12
284.439	237.12
284.67	229.12
284.901	230.12
285.132	242.12
285.364	228.12
285.595	217.12
285.826	242.12
286.057	243.12
286.288	233.12
286.52	236.12
286.751	238.12
286.982	237.12
287.213	229.12
287.444	226.12
287.675	241.12
287.906	254.12
288.138	260.12
288.369	256.12
288.6	242.12
288.831	266.12
289.062	245.12
289.293	259.12
289.524	238.12
289.755	249.12
289.986	227.12
290.217	238.12
290.448	241.12
290.679	248.12
290.91	230.12
291.141	244.12
291.371	237.12
291.602	224.12
291.833	221.12
292.064	238.12
292.295	245.12
292.526	245.12
292.757	240.12
292.987	235.12
293.218	259.12
293.449	244.12
293.68	246.12
293.91	237.12
294.141	245.12
294.372	238.12
294.603	245.12
294.833	247.12
295.064	236.12
295.295	228.12
295.525	244.12
295.756	234.12
295.987	249.12
296.217	253.12
296.448	290.12
296.679	261.12
296.909	233.12
297.14	247.12
297.37	247.12
297.601	247.12
297.831	237.12
298.062	243.12
298.292	243.12
298.523	247.12
298.753	245.12
298.984	248.12
299.214	257.12
299.445	267.12
299.675	254.12
299.905	264.12
300.136	248.12
300.366	249.12
300.597	269.12
300.827	236.12
301.057	267.12
301.288	253.12
301.518	271.12
301.748	269.12
301.979	268.12
302.209	255.12
302.439	266.12
302.669	253.12
302.9	262.12
303.13	260.12
303.36	267.12
303.59	271.12
303.82	266.12
304.051	276.12
304.281	268.12
304.511	268.12
304.741	266.12
304.971	275.12
305.201	287.12
305.431	261.12
305.661	257.12
305.891	266.12
306.121	285.12
306.352	263.12
306.582	279.12
306.812	263.12
307.042	272.12
307.272	281.12
307.502	269.12
307.731	258.12
307.961	259.12
308.191	277.12
308.421	273.12
308.651	258.12
308.881	276.12
309.111	286.12
309.341	285.12
309.571	307.12
309.8	295.12
310.03	285.12
310.26	301.12
310.49	305.12
310.72	324.12
310.949	359.12
311.179	335.12
311.409	331.12
311.639	307.12
311.868	308.12
312.098	313.12
312.328	321.12
312.557	325.12
312.787	339.12
313.017	348.12
313.246	320.12
313.476	306.12
313.706	299.12
313.935	320.12
314.165	314.12
314.394	324.12
314.624	335.12
314.853	300.12
315.083	301.12
315.312	309.12
315.542	324.12
315.771	299.12
316.001	296.12
316.23	305.12
316.46	307.12
316.689	324.12
316.919	312.12
317.148	325.12
317.377	318.12
317.607	315.12
317.836	331.12
318.065	316.12
318.295	307.12
318.524	319.12
318.753	311.12
318.983	297.12
319.212	311.12
319.441	334.12
319.67	327.12
319.9	315.12
320.129	306.12
320.358	307.12
320.587	318.12
320.816	334.12
321.046	331.12
321.275	329.12
321.504	330.12
321.733	334.12
321.962	335.12
322.191	354.12
322.42	361.12
322.649	376.12
322.878	391.12
323.108	391.12
323.337	411.12
323.566	432.12
323.795	463.12
324.024	495.12
324.253	579.12
324.482	835.12
324.71	1321.12
324.939	1890.12
325.168	1645.12
325.397	901.12
325.626	585.12
325.855	496.12
326.084	452.12
326.313	443.12
326.542	428.12
326.77	498.12
326.999	563.12
327.228	776.12
327.457	1153.12
327.686	1439.12
327.914	993.12
328.143	643.12
328.372	567.12
328.6	503.12
328.829	479.12
329.058	491.12
329.287	500.12
329.515	467.12
329.744	449.12
329.972	427.12
330.201	419.12
330.43	478.12
330.658	497.12
330.887	539.12
331.115	521.12
331.344	460.12
331.572	409.12
331.801	417.12
332.03	409.12
332.258	393.12
332.486	349.12
332.715	376.12
332.943	370.12
333.172	380.12
333.4	383.12
333.629	355.12
333.857	364.12
334.085	403.12
334.314	393.12
334.542	412.12
334.771	435.12
334.999	401.12
335.227	381.12
335.455	365.12
335.684	345.12
335.912	358.12
336.14	357.12
336.369	361.12
336.597	375.12
336.825	375.12
337.053	349.12
337.281	340.12
337.51	345.12
337.738	373.12
337.966	349.12
338.194	347.12
338.422	349.12
338.65	362.12
338.878	347.12
339.106	343.12
339.334	348.12
339.562	347.12
339.79	346.12
340.018	354.12
340.246	350.12
340.474	366.12
340.702	344.12
340.93	339.12
341.158	339.12
341.386	357.12
341.614	340.12
341.842	341.12
342.07	352.12
342.298	344.12
342.526	335.12
342.754	342.12
342.981	322.12
343.209	333.12
343.437	331.12
343.665	354.12
343.893	331.12
344.12	350.12
344.348	349.12
344.576	335.12
344.804	369.12
345.031	377.12
345.259	377.12
345.487	356.12
345.714	362.12
345.942	349.12
346.17	347.12
346.397	347.12
346.625	347.12
346.853	356.12
347.08	347.12
347.308	347.12
347.535	374.12
347.763	350.12
347.99	351.12
348.218	341.12
348.445	357.12
348.673	369.12
348.9	350.12
349.128	341.12
349.355	319.12
349.583	333.12
349.81	327.12
350.037	322.12
350.265	325.12
350.492	347.12
350.72	343.12
350.947	346.12
351.174	347.12
351.402	335.12
351.629	366.12
351.856	346.12
352.083	356.12
352.311	377.12
352.538	359.12
352.765	374.12
352.992	364.12
353.22	347.12
353.447	355.12
353.674	344.12
353.901	341.12
354.128	324.12
354.355	311.12
354.583	331.12
354.81	309.12
355.037	312.12
355.264	321.12
355.491	332.12
355.718	318.12
355.945	310.12
356.172	309.12
356.399	309.12
356.626	316.12
356.853	290.12
357.08	332.12
357.307	304.12
357.534	319.12
357.761	314.12
357.988	301.12
358.215	315.12
358.441	333.12
358.668	326.12
358.895	317.12
359.122	318.12
359.349	340.12
359.576	354.12
359.802	372.12
360.029	389.12
360.256	399.12
360.483	371.12
360.709	357.12
360.936	342.12
361.163	330.12
361.39	335.12
361.616	349.12
361.843	331.12
362.07	341.12
362.296	336.12
362.523	344.12
362.749	323.12
362.976	308.12
363.203	322.12
363.429	342.12
363.656	337.12
363.882	313.12
364.109	330.12
364.335	313.12
364.562	320.12
364.788	331.12
365.015	322.12
365.241	347.12
365.468	329.12
365.694	346.12
365.92	334.12
366.147	320.12
366.373	324.12
366.599	329.12
366.826	325.12
367.052	315.12
367.278	334.12
367.505	321.12
367.731	331.12
367.957	339.12
368.184	317.12
368.41	332.12
368.636	344.12
368.862	350.12
369.089	334.12
369.315	340.12
369.541	335.12
369.767	323.12
369.993	319.12
370.219	337.12
370.445	315.12
370.672	335.12
370.898	323.12
371.124	311.12
371.35	322.12
371.576	320.12
371.802	322.12
372.028	319.12
372.254	316.12
372.48	329.12
372.706	287.12
372.932	305.12
373.158	312.12
373.384	341.12
373.61	324.12
373.835	339.12
374.061	341.12
374.287	325.12
374.513	333.12
374.739	334.12
374.965	331.12
375.191	327.12
375.416	331.12
375.642	319.12
375.868	333.12
376.094	344.12
376.319	332.12
376.545	330.12
376.771	309.12
376.997	332.12
377.222	317.12
377.448	315.12
377.674	316.12
377.899	309.12
378.125	308.12
378.35	306.12
378.576	308.12
378.802	301.12
379.027	326.12
379.253	313.12
379.478	313.12
379.704	329.12
379.929	324.12
380.155	344.12
380.38	326.12
380.606	341.12
380.831	316.12
381.057	333.12
381.282	324.12
381.507	328.12
381.733	325.12
381.958	341.12
382.184	325.12
382.409	325.12
382.634	344.12
382.86	328.12
383.085	337.12
383.31	343.12
383.535	333.12
383.761	315.12
383.986	344.12
384.211	347.12
384.436	331.12
384.662	330.12
384.887	329.12
385.112	346.12
385.337	346.12
385.562	351.12
385.787	335.12
386.013	364.12
386.238	362.12
386.463	334.12
386.688	349.12
386.913	321.12
387.138	324.12
387.363	338.12
387.588	342.12
387.813	334.12
388.038	344.12
388.263	356.12
388.488	334.12
388.713	336.12
388.938	344.12
389.163	339.12
389.387	351.12
389.612	346.12
389.837	339.12
390.062	344.12
390.287	326.12
390.512	339.12
390.736	333.12
390.961	339.12
391.186	351.12
391.411	331.12
391.636	331.12
391.86	373.12
392.085	334.12
392.31	344.12
392.534	361.12
392.759	342.12
392.984	330.12
393.208	351.12
393.433	345.12
393.658	349.12
393.882	363.12
394.107	356.12
394.331	333.12
394.556	334.12
394.78	344.12
395.005	340.12
395.229	361.12
395.454	364.12
395.678	343.12
395.903	364.12
396.127	379.12
396.352	381.12
396.576	362.12
396.801	335.12
397.025	378.12
397.249	360.12
397.474	367.12
397.698	362.12
397.922	370.12
398.147	391.12
398.371	373.12
398.595	374.12
398.82	386.12
399.044	378.12
399.268	397.12
399.492	407.12
399.717	418.12
399.941	429.12
400.165	476.12
400.389	487.12
400.613	439.12
400.837	401.12
401.062	403.12
401.286	378.12
401.51	378.12
401.734	390.12
401.958	400.12
402.182	383.12
402.406	382.12
402.63	411.12
402.854	395.12
403.078	389.12
403.302	397.12
403.526	404.12
403.75	399.12
403.974	387.12
404.198	403.12
404.422	395.12
404.645	395.12
404.869	401.12
405.093	438.12
405.317	478.12
405.541	489.12
405.765	439.12
405.988	419.12
406.212	426.12
406.436	455.12
406.66	464.12
406.883	433.12
407.107	460.12
407.331	501.12
407.555	548.12
407.778	553.12
408.002	493.12
408.226	433.12
408.449	446.12
408.673	445.12
408.896	461.12
409.12	513.12
409.344	499.12
409.567	412.12
409.791	387.12
410.014	409.12
410.238	393.12
410.461	414.12
410.685	413.12
410.908	423.12
411.132	462.12
411.355	475.12
411.578	450.12
411.802	428.12
412.025	417.12
412.249	403.12
412.472	435.12
412.695	474.12
412.919	450.12
413.142	402.12
413.365	397.12
413.589	409.12
413.812	385.12
414.035	398.12
414.258	378.12
414.482	378.12
414.705	384.12
414.928	374.12
415.151	397.12
415.374	371.12
415.597	374.12
415.821	397.12
416.044	371.12
416.267	383.12
416.49	396.12
416.713	371.12
416.936	385.12
417.159	370.12
417.382	396.12
417.605	388.12
417.828	392.12
418.051	394.12
418.274	411.12
418.497	384.12
418.72	405.12
418.943	378.12
419.166	398.12
419.389	403.12
419.611	398.12
419.834	409.12
420.057	407.12
420.28	391.12
420.503	393.12
420.726	405.12
420.948	406.12
421.171	423.12
421.394	474.12
421.617	414.12
421.839	419.12
422.062	411.12
422.285	418.12
422.507	452.12
422.73	542.12
422.953	545.12
423.175	464.12
423.398	430.12
423.621	437.12
423.843	451.12
424.066	471.12
424.288	452.12
424.511	459.12
424.733	503.12
424.956	587.12
425.178	549.12
425.401	551.12
425.623	594.12
425.846	486.12
426.068	428.12
426.291	426.12
426.513	446.12
426.735	451.12
426.958	490.12
427.18	567.12
427.402	669.12
427.625	747.12
427.847	673.12
428.069	567.12
428.292	498.12
428.514	467.12
428.736	441.12
428.958	430.12
429.181	422.12
429.403	426.12
429.625	418.12
429.847	450.12
430.069	517.12
430.292	506.12
430.514	442.12
430.736	405.12
430.958	427.12
431.18	394.12
431.402	405.12
431.624	377.12
431.846	399.12
432.068	380.12
432.29	393.12
432.512	359.12
432.734	381.12
432.956	383.12
433.178	393.12
433.4	413.12
433.622	383.12
433.844	387.12
434.066	383.12
434.287	396.12
434.509	387.12
434.731	410.12
434.953	405.12
435.175	420.12
435.397	441.12
435.618	447.12
435.84	504.12
436.062	561.12
436.284	611.12
436.505	532.12
436.727	461.12
436.949	451.12
437.17	418.12
437.392	430.12
437.614	415.12
437.835	458.12
438.057	531.12
438.278	628.12
438.5	641.12
438.721	704.12
438.943	637.12
439.165	533.12
439.386	484.12
439.608	478.12
439.829	482.12
440.05	495.12
440.272	534.12
440.493	513.12
440.715	470.12
440.936	445.12
441.158	411.12
441.379	407.12
441.6	417.12
441.822	435.12
442.043	471.12
442.264	573.12
442.486	609.12
442.707	487.12
442.928	469.12
443.149	477.12
443.371	493.12
443.592	538.12
443.813	602.12
444.034	645.12
444.255	535.12
444.476	483.12
444.698	459.12
444.919	436.12
445.14	525.12
445.361	475.12
445.582	498.12
445.803	545.12
446.024	621.12
446.245	637.12
446.466	583.12
446.687	521.12
446.908	467.12
447.129	429.12
447.35	437.12
447.571	413.12
447.792	415.12
448.013	426.12
448.234	443.12
448.455	490.12
448.675	597.12
448.896	681.12
449.117	588.12
449.338	571.12
449.559	609.12
449.779	699.12
450	589.12
450.221	479.12
450.442	447.12
450.662	439.12
450.883	435.12
451.104	447.12
451.324	430.12
451.545	404.12
451.766	410.12
451.986	386.12
452.207	374.12
452.428	379.12
452.648	380.12
452.869	395.12
453.089	382.12
453.31	398.12
453.53	401.12
453.751	396.12
453.971	395.12
454.192	409.12
454.412	381.12
454.633	376.12
454.853	375.12
455.073	388.12
455.294	395.12
455.514	479.12
455.734	445.12
455.955	385.12
456.175	339.12
456.395	373.12
456.616	344.12
456.836	360.12
457.056	346.12
457.276	343.12
457.497	362.12
457.717	352.12
457.937	373.12
458.157	368.12
458.377	363.12
458.598	381.12
458.818	436.12
459.038	487.12
459.258	541.12
459.478	439.12
459.698	414.12
459.918	400.12
460.138	387.12
460.358	390.12
460.578	379.12
460.798	385.12
461.018	393.12
461.238	411.12
461.458	374.12
461.678	356.12
461.898	374.12
462.118	373.12
462.338	391.12
462.558	384.12
462.777	403.12
462.997	401.12
463.217	396.12
463.437	411.12
463.657	415.12
463.876	395.12
464.096	392.12
464.316	397.12
464.536	400.12
464.755	393.12
464.975	404.12
465.195	461.12
465.414	537.12
465.634	454.12
465.854	428.12
466.073	389.12
466.293	389.12
466.512	377.12
466.732	370.12
466.951	379.12
467.171	393.12
467.391	392.12
467.61	399.12
467.829	400.12
468.049	379.12
468.268	381.12
468.488	391.12
468.707	377.12
468.927	374.12
469.146	366.12
469.365	370.12
469.585	382.12
469.804	375.12
470.023	380.12
470.243	375.12
470.462	383.12
470.681	425.12
470.901	398.12
471.12	384.12
471.339	395.12
471.558	385.12
471.777	402.12
471.997	395.12
472.216	395.12
472.435	439.12
472.654	415.12
472.873	403.12
473.092	393.12
473.311	377.12
473.53	398.12
473.749	400.12
473.968	439.12
474.187	511.12
474.406	550.12
474.625	445.12
474.844	421.12
475.063	401.12
475.282	406.12
475.501	372.12
475.72	375.12
475.939	409.12
476.158	403.12
476.377	396.12
476.596	398.12
476.814	402.12
477.033	411.12
477.252	402.12
477.471	402.12
477.69	409.12
477.908	391.12
478.127	409.12
478.346	419.12
478.564	414.12
478.783	419.12
479.002	428.12
479.22	439.12
479.439	438.12
479.658	458.12
479.876	457.12
480.095	462.12
480.313	509.12
480.532	464.12
480.751	464.12
480.969	479.12
481.188	507.12
481.406	534.12
481.624	492.12
481.843	478.12
482.061	461.12
482.28	460.12
482.498	472.12
482.717	439.12
482.935	457.12
483.153	443.12
483.372	444.12
483.59	446.12
483.808	451.12
484.027	472.12
484.245	449.12
484.463	470.12
484.681	455.12
484.9	459.12
485.118	466.12
485.336	495.12
485.554	466.12
485.772	463.12
485.99	475.12
486.209	478.12
486.427	469.12
486.645	472.12
486.863	528.12
487.081	493.12
487.299	497.12
487.517	487.12
487.735	495.12
487.953	479.12
488.171	511.12
488.389	505.12
488.607	493.12
488.825	498.12
489.043	492.12
489.261	518.12
489.479	499.12
489.696	506.12
489.914	509.12
490.132	502.12
490.35	502.12
490.568	519.12
490.786	539.12
491.003	558.12
491.221	548.12
491.439	566.12
491.657	554.12
491.874	571.12
492.092	576.12
492.31	562.12
492.527	561.12
492.745	559.12
492.963	577.12
493.18	597.12
493.398	605.12
493.615	573.12
493.833	583.12
494.05	594.12
494.268	590.12
494.485	576.12
494.703	572.12
494.92	598.12
495.138	584.12
495.355	596.12
495.573	602.12
495.79	607.12
496.008	597.12
496.225	599.12
496.442	581.12
496.66	587.12
496.877	583.12
497.094	598.12
497.312	595.12
497.529	613.12
497.746	618.12
497.963	577.12
498.181	603.12
498.398	629.12
498.615	645.12
498.832	667.12
499.049	634.12
499.267	639.12
499.484	656.12
499.701	670.12
499.918	677.12
500.135	691.12
500.352	719.12
500.569	708.12
500.786	716.12
501.003	704.12
501.22	725.12
501.437	710.12
501.654	712.12
501.871	733.12
502.088	700.12
