Data from 1980.PennyLincolnUp.Lamp.En5.5.200Scan.071819.P1_HRD10591_16-39-24-958.txt Node
Date: Thu Jul 18 16:39:24 EDT 2019
User: cochatt
Spectrometer: HR+D1059
Trigger mode: 1
Integration Time (sec): 1.000000E-1
Scans to average: 1
Electric dark correction enabled: true
Nonlinearity correction enabled: false
Boxcar width: 0
XAxis mode: Wavelengths
Number of Pixels in Spectrum: 2048
>>>>>Begin Spectral Data<<<<<
223.165	-23.94
223.4	-23.94
223.635	-23.94
223.869	-14.94
224.104	-16.94
224.338	-5.94
224.573	-26.94
224.808	-13.94
225.042	-6.94
225.277	-21.94
225.511	2.06
225.746	7.06
225.98	0.06
226.215	4.06
226.449	27.06
226.683	28.06
226.918	30.06
227.152	33.06
227.387	36.06
227.621	33.06
227.856	48.06
228.09	50.06
228.324	37.06
228.559	38.06
228.793	67.06
229.027	119.06
229.262	118.06
229.496	135.06
229.73	149.06
229.964	169.06
230.199	138.06
230.433	122.06
230.667	124.06
230.901	114.06
231.136	123.06
231.37	125.06
231.604	110.06
231.838	116.06
232.072	109.06
232.306	119.06
232.541	126.06
232.775	116.06
233.009	103.06
233.243	126.06
233.477	120.06
233.711	115.06
233.945	124.06
234.179	124.06
234.413	119.06
234.647	112.06
234.881	128.06
235.115	110.06
235.349	123.06
235.583	116.06
235.817	132.06
236.051	134.06
236.285	123.06
236.519	135.06
236.753	140.06
236.987	153.06
237.221	203.06
237.455	263.06
237.689	195.06
237.922	153.06
238.156	142.06
238.39	152.06
238.624	134.06
238.858	134.06
239.091	144.06
239.325	132.06
239.559	132.06
239.793	134.06
240.027	154.06
240.26	151.06
240.494	161.06
240.728	158.06
240.961	171.06
241.195	154.06
241.429	148.06
241.662	151.06
241.896	142.06
242.13	142.06
242.363	130.06
242.597	154.06
242.83	135.06
243.064	129.06
243.298	148.06
243.531	133.06
243.765	146.06
243.998	145.06
244.232	133.06
244.465	148.06
244.699	140.06
244.932	140.06
245.166	148.06
245.399	172.06
245.633	152.06
245.866	148.06
246.099	145.06
246.333	131.06
246.566	165.06
246.8	146.06
247.033	161.06
247.266	148.06
247.5	172.06
247.733	173.06
247.966	188.06
248.2	172.06
248.433	187.06
248.666	176.06
248.899	198.06
249.133	227.06
249.366	219.06
249.599	209.06
249.832	196.06
250.066	200.06
250.299	194.06
250.532	193.06
250.765	218.06
250.998	234.06
251.231	247.06
251.465	231.06
251.698	250.06
251.931	205.06
252.164	209.06
252.397	197.06
252.63	200.06
252.863	197.06
253.096	233.06
253.329	241.06
253.562	241.06
253.795	232.06
254.028	240.06
254.261	220.06
254.494	250.06
254.727	298.06
254.96	330.06
255.193	281.06
255.426	275.06
255.659	270.06
255.892	256.06
256.124	258.06
256.357	241.06
256.59	236.06
256.823	235.06
257.056	222.06
257.289	226.06
257.521	227.06
257.754	237.06
257.987	210.06
258.22	217.06
258.452	217.06
258.685	205.06
258.918	222.06
259.151	215.06
259.383	219.06
259.616	254.06
259.849	232.06
260.081	241.06
260.314	292.06
260.547	278.06
260.779	259.06
261.012	253.06
261.244	250.06
261.477	240.06
261.71	241.06
261.942	237.06
262.175	244.06
262.407	234.06
262.64	224.06
262.872	230.06
263.105	227.06
263.337	222.06
263.57	209.06
263.802	225.06
264.035	218.06
264.267	211.06
264.499	231.06
264.732	225.06
264.964	221.06
265.197	208.06
265.429	226.06
265.661	217.06
265.894	221.06
266.126	217.06
266.358	226.06
266.591	240.06
266.823	228.06
267.055	212.06
267.287	224.06
267.52	238.06
267.752	244.06
267.984	231.06
268.216	228.06
268.448	233.06
268.681	233.06
268.913	236.06
269.145	262.06
269.377	287.06
269.609	304.06
269.841	296.06
270.073	284.06
270.306	297.06
270.538	348.06
270.77	342.06
271.002	330.06
271.234	290.06
271.466	310.06
271.698	346.06
271.93	359.06
272.162	350.06
272.394	340.06
272.626	327.06
272.858	316.06
273.09	301.06
273.322	296.06
273.553	297.06
273.785	280.06
274.017	273.06
274.249	274.06
274.481	273.06
274.713	265.06
274.945	268.06
275.176	269.06
275.408	277.06
275.64	262.06
275.872	269.06
276.104	289.06
276.335	285.06
276.567	285.06
276.799	289.06
277.031	310.06
277.262	340.06
277.494	337.06
277.726	315.06
277.957	304.06
278.189	281.06
278.421	288.06
278.652	288.06
278.884	287.06
279.115	274.06
279.347	267.06
279.579	262.06
279.81	259.06
280.042	264.06
280.273	244.06
280.505	257.06
280.736	270.06
280.968	276.06
281.199	285.06
281.431	274.06
281.662	275.06
281.894	267.06
282.125	269.06
282.356	279.06
282.588	326.06
282.819	323.06
283.051	273.06
283.282	283.06
283.513	285.06
283.745	273.06
283.976	290.06
284.207	288.06
284.439	264.06
284.67	275.06
284.901	280.06
285.132	278.06
285.364	273.06
285.595	259.06
285.826	261.06
286.057	295.06
286.288	262.06
286.52	267.06
286.751	267.06
286.982	269.06
287.213	275.06
287.444	262.06
287.675	265.06
287.906	284.06
288.138	316.06
288.369	307.06
288.6	293.06
288.831	300.06
289.062	288.06
289.293	294.06
289.524	270.06
289.755	282.06
289.986	267.06
290.217	296.06
290.448	271.06
290.679	268.06
290.91	264.06
291.141	262.06
291.371	276.06
291.602	284.06
291.833	271.06
292.064	287.06
292.295	274.06
292.526	277.06
292.757	281.06
292.987	277.06
293.218	258.06
293.449	286.06
293.68	287.06
293.91	281.06
294.141	291.06
294.372	280.06
294.603	284.06
294.833	288.06
295.064	285.06
295.295	284.06
295.525	270.06
295.756	291.06
295.987	298.06
296.217	322.06
296.448	335.06
296.679	292.06
296.909	286.06
297.14	297.06
297.37	284.06
297.601	289.06
297.831	318.06
298.062	287.06
298.292	304.06
298.523	304.06
298.753	274.06
298.984	292.06
299.214	290.06
299.445	293.06
299.675	299.06
299.905	307.06
300.136	308.06
300.366	307.06
300.597	299.06
300.827	312.06
301.057	317.06
301.288	328.06
301.518	300.06
301.748	302.06
301.979	320.06
302.209	320.06
302.439	306.06
302.669	322.06
302.9	325.06
303.13	299.06
303.36	301.06
303.59	321.06
303.82	341.06
304.051	325.06
304.281	313.06
304.511	317.06
304.741	300.06
304.971	309.06
305.201	314.06
305.431	302.06
305.661	310.06
305.891	324.06
306.121	311.06
306.352	314.06
306.582	329.06
306.812	319.06
307.042	330.06
307.272	329.06
307.502	320.06
307.731	342.06
307.961	314.06
308.191	311.06
308.421	312.06
308.651	325.06
308.881	359.06
309.111	333.06
309.341	340.06
309.571	345.06
309.8	365.06
310.03	370.06
310.26	372.06
310.49	370.06
310.72	374.06
310.949	405.06
311.179	410.06
311.409	388.06
311.639	375.06
311.868	393.06
312.098	389.06
312.328	405.06
312.557	394.06
312.787	411.06
313.017	412.06
313.246	395.06
313.476	361.06
313.706	356.06
313.935	379.06
314.165	405.06
314.394	410.06
314.624	418.06
314.853	408.06
315.083	394.06
315.312	373.06
315.542	361.06
315.771	364.06
316.001	354.06
316.23	368.06
316.46	366.06
316.689	363.06
316.919	393.06
317.148	395.06
317.377	378.06
317.607	377.06
317.836	380.06
318.065	384.06
318.295	358.06
318.524	362.06
318.753	361.06
318.983	369.06
319.212	384.06
319.441	382.06
319.67	397.06
319.9	397.06
320.129	382.06
320.358	378.06
320.587	371.06
320.816	387.06
321.046	421.06
321.275	395.06
321.504	390.06
321.733	404.06
321.962	414.06
322.191	442.06
322.42	446.06
322.649	453.06
322.878	493.06
323.108	492.06
323.337	512.06
323.566	564.06
323.795	608.06
324.024	644.06
324.253	824.06
324.482	1176.06
324.71	1854.06
324.939	2642.06
325.168	2310.06
325.397	1210.06
325.626	776.06
325.855	630.06
326.084	575.06
326.313	557.06
326.542	567.06
326.77	631.06
326.999	730.06
327.228	1078.06
327.457	1576.06
327.686	2010.06
327.914	1341.06
328.143	876.06
328.372	732.06
328.6	692.06
328.829	650.06
329.058	676.06
329.287	681.06
329.515	630.06
329.744	554.06
329.972	562.06
330.201	579.06
330.43	654.06
330.658	675.06
330.887	694.06
331.115	665.06
331.344	570.06
331.572	565.06
331.801	520.06
332.03	520.06
332.258	498.06
332.486	466.06
332.715	465.06
332.943	448.06
333.172	440.06
333.4	439.06
333.629	457.06
333.857	472.06
334.085	510.06
334.314	524.06
334.542	562.06
334.771	564.06
334.999	504.06
335.227	467.06
335.455	459.06
335.684	446.06
335.912	437.06
336.14	415.06
336.369	425.06
336.597	438.06
336.825	443.06
337.053	421.06
337.281	413.06
337.51	423.06
337.738	424.06
337.966	431.06
338.194	428.06
338.422	432.06
338.65	427.06
338.878	424.06
339.106	406.06
339.334	424.06
339.562	427.06
339.79	425.06
340.018	425.06
340.246	403.06
340.474	423.06
340.702	430.06
340.93	411.06
341.158	432.06
341.386	421.06
341.614	429.06
341.842	432.06
342.07	426.06
342.298	414.06
342.526	385.06
342.754	395.06
342.981	385.06
343.209	384.06
343.437	383.06
343.665	407.06
343.893	395.06
344.12	407.06
344.348	398.06
344.576	428.06
344.804	428.06
345.031	450.06
345.259	443.06
345.487	417.06
345.714	427.06
345.942	413.06
346.17	412.06
346.397	406.06
346.625	424.06
346.853	400.06
347.08	411.06
347.308	414.06
347.535	404.06
347.763	441.06
347.99	444.06
348.218	423.06
348.445	420.06
348.673	435.06
348.9	405.06
349.128	409.06
349.355	401.06
349.583	392.06
349.81	399.06
350.037	390.06
350.265	379.06
350.492	391.06
350.72	386.06
350.947	418.06
351.174	428.06
351.402	435.06
351.629	423.06
351.856	420.06
352.083	430.06
352.311	429.06
352.538	431.06
352.765	434.06
352.992	418.06
353.22	432.06
353.447	418.06
353.674	412.06
353.901	366.06
354.128	368.06
354.355	384.06
354.583	377.06
354.81	371.06
355.037	372.06
355.264	397.06
355.491	368.06
355.718	360.06
355.945	370.06
356.172	371.06
356.399	369.06
356.626	389.06
356.853	358.06
357.08	374.06
357.307	363.06
357.534	387.06
357.761	374.06
357.988	377.06
358.215	355.06
358.441	372.06
358.668	374.06
358.895	376.06
359.122	372.06
359.349	408.06
359.576	411.06
359.802	436.06
360.029	470.06
360.256	504.06
360.483	456.06
360.709	422.06
360.936	435.06
361.163	419.06
361.39	424.06
361.616	424.06
361.843	414.06
362.07	406.06
362.296	425.06
362.523	385.06
362.749	422.06
362.976	395.06
363.203	419.06
363.429	399.06
363.656	390.06
363.882	381.06
364.109	362.06
364.335	386.06
364.562	404.06
364.788	376.06
365.015	373.06
365.241	376.06
365.468	398.06
365.694	398.06
365.92	394.06
366.147	384.06
366.373	394.06
366.599	377.06
366.826	373.06
367.052	374.06
367.278	378.06
367.505	381.06
367.731	378.06
367.957	397.06
368.184	381.06
368.41	387.06
368.636	389.06
368.862	386.06
369.089	391.06
369.315	390.06
369.541	392.06
369.767	401.06
369.993	378.06
370.219	365.06
370.445	365.06
370.672	377.06
370.898	366.06
371.124	388.06
371.35	362.06
371.576	364.06
371.802	382.06
372.028	373.06
372.254	381.06
372.48	356.06
372.706	366.06
372.932	386.06
373.158	361.06
373.384	374.06
373.61	388.06
373.835	381.06
374.061	361.06
374.287	361.06
374.513	374.06
374.739	364.06
374.965	386.06
375.191	358.06
375.416	375.06
375.642	363.06
375.868	384.06
376.094	387.06
376.319	347.06
376.545	366.06
376.771	358.06
376.997	363.06
377.222	373.06
377.448	372.06
377.674	373.06
377.899	371.06
378.125	372.06
378.35	371.06
378.576	358.06
378.802	378.06
379.027	360.06
379.253	350.06
379.478	365.06
379.704	381.06
379.929	381.06
380.155	363.06
380.38	370.06
380.606	361.06
380.831	390.06
381.057	365.06
381.282	368.06
381.507	370.06
381.733	373.06
381.958	365.06
382.184	379.06
382.409	377.06
382.634	381.06
382.86	378.06
383.085	384.06
383.31	388.06
383.535	388.06
383.761	376.06
383.986	369.06
384.211	387.06
384.436	366.06
384.662	392.06
384.887	380.06
385.112	378.06
385.337	372.06
385.562	397.06
385.787	399.06
386.013	413.06
386.238	418.06
386.463	397.06
386.688	388.06
386.913	402.06
387.138	379.06
387.363	396.06
387.588	376.06
387.813	401.06
388.038	395.06
388.263	404.06
388.488	389.06
388.713	408.06
388.938	395.06
389.163	397.06
389.387	410.06
389.612	400.06
389.837	384.06
390.062	384.06
390.287	401.06
390.512	373.06
390.736	375.06
390.961	361.06
391.186	391.06
391.411	384.06
391.636	408.06
391.86	415.06
392.085	398.06
392.31	411.06
392.534	386.06
392.759	379.06
392.984	394.06
393.208	405.06
393.433	392.06
393.658	388.06
393.882	368.06
394.107	380.06
394.331	399.06
394.556	386.06
394.78	394.06
395.005	389.06
395.229	401.06
395.454	386.06
395.678	397.06
395.903	408.06
396.127	440.06
396.352	442.06
396.576	434.06
396.801	396.06
397.025	409.06
397.249	416.06
397.474	403.06
397.698	402.06
397.922	442.06
398.147	467.06
398.371	440.06
398.595	442.06
398.82	432.06
399.044	425.06
399.268	428.06
399.492	464.06
399.717	483.06
399.941	498.06
400.165	534.06
400.389	564.06
400.613	515.06
400.837	490.06
401.062	466.06
401.286	473.06
401.51	438.06
401.734	424.06
401.958	428.06
402.182	465.06
402.406	489.06
402.63	473.06
402.854	460.06
403.078	462.06
403.302	459.06
403.526	472.06
403.75	447.06
403.974	462.06
404.198	452.06
404.422	466.06
404.645	498.06
404.869	479.06
405.093	512.06
405.317	547.06
405.541	597.06
405.765	549.06
405.988	532.06
406.212	542.06
406.436	516.06
406.66	560.06
406.883	532.06
407.107	527.06
407.331	584.06
407.555	628.06
407.778	634.06
408.002	577.06
408.226	525.06
408.449	490.06
408.673	514.06
408.896	545.06
409.12	599.06
409.344	551.06
409.567	504.06
409.791	497.06
410.014	491.06
410.238	455.06
410.461	480.06
410.685	472.06
410.908	486.06
411.132	544.06
411.355	575.06
411.578	542.06
411.802	501.06
412.025	472.06
412.249	502.06
412.472	516.06
412.695	534.06
412.919	538.06
413.142	494.06
413.365	463.06
413.589	456.06
413.812	458.06
414.035	450.06
414.258	445.06
414.482	446.06
414.705	432.06
414.928	461.06
415.151	452.06
415.374	455.06
415.597	459.06
415.821	439.06
416.044	443.06
416.267	435.06
416.49	445.06
416.713	437.06
416.936	430.06
417.159	456.06
417.382	464.06
417.605	453.06
417.828	476.06
418.051	483.06
418.274	469.06
418.497	441.06
418.72	461.06
418.943	436.06
419.166	458.06
419.389	493.06
419.611	477.06
419.834	471.06
420.057	484.06
420.28	461.06
420.503	458.06
420.726	466.06
420.948	492.06
421.171	527.06
421.394	552.06
421.617	486.06
421.839	487.06
422.062	491.06
422.285	495.06
422.507	536.06
422.73	636.06
422.953	606.06
423.175	519.06
423.398	516.06
423.621	534.06
423.843	522.06
424.066	505.06
424.288	542.06
424.511	530.06
424.733	589.06
424.956	661.06
425.178	652.06
425.401	657.06
425.623	679.06
425.846	572.06
426.068	532.06
426.291	560.06
426.513	522.06
426.735	534.06
426.958	582.06
427.18	679.06
427.402	792.06
427.625	882.06
427.847	817.06
428.069	729.06
428.292	610.06
428.514	555.06
428.736	520.06
428.958	507.06
429.181	499.06
429.403	501.06
429.625	489.06
429.847	543.06
430.069	590.06
430.292	604.06
430.514	527.06
430.736	512.06
430.958	486.06
431.18	463.06
431.402	459.06
431.624	463.06
431.846	436.06
432.068	448.06
432.29	445.06
432.512	459.06
432.734	459.06
432.956	445.06
433.178	467.06
433.4	473.06
433.622	454.06
433.844	457.06
434.066	444.06
434.287	459.06
434.509	465.06
434.731	472.06
434.953	461.06
435.175	519.06
435.397	541.06
435.618	540.06
435.84	574.06
436.062	692.06
436.284	760.06
436.505	624.06
436.727	548.06
436.949	510.06
437.17	485.06
437.392	513.06
437.614	525.06
437.835	566.06
438.057	659.06
438.278	749.06
438.5	791.06
438.721	832.06
438.943	794.06
439.165	642.06
439.386	585.06
439.608	578.06
439.829	553.06
440.05	593.06
440.272	660.06
440.493	616.06
440.715	534.06
440.936	536.06
441.158	509.06
441.379	494.06
441.6	536.06
441.822	545.06
442.043	581.06
442.264	643.06
442.486	731.06
442.707	604.06
442.928	551.06
443.149	572.06
443.371	574.06
443.592	628.06
443.813	708.06
444.034	777.06
444.255	638.06
444.476	570.06
444.698	527.06
444.919	534.06
445.14	612.06
445.361	590.06
445.582	608.06
445.803	671.06
446.024	748.06
446.245	784.06
446.466	717.06
446.687	593.06
446.908	558.06
447.129	518.06
447.35	497.06
447.571	502.06
447.792	496.06
448.013	515.06
448.234	529.06
448.455	589.06
448.675	712.06
448.896	811.06
449.117	697.06
449.338	676.06
449.559	770.06
449.779	849.06
450	680.06
450.221	585.06
450.442	544.06
450.662	519.06
450.883	524.06
451.104	517.06
451.324	504.06
451.545	482.06
451.766	469.06
451.986	459.06
452.207	464.06
452.428	436.06
452.648	449.06
452.869	464.06
453.089	483.06
453.31	467.06
453.53	465.06
453.751	449.06
453.971	475.06
454.192	477.06
454.412	474.06
454.633	442.06
454.853	451.06
455.073	447.06
455.294	485.06
455.514	546.06
455.734	535.06
455.955	452.06
456.175	431.06
456.395	406.06
456.616	416.06
456.836	415.06
457.056	402.06
457.276	410.06
457.497	421.06
457.717	415.06
457.937	424.06
458.157	425.06
458.377	440.06
458.598	438.06
458.818	550.06
459.038	637.06
459.258	670.06
459.478	542.06
459.698	477.06
459.918	470.06
460.138	459.06
460.358	441.06
460.578	455.06
460.798	457.06
461.018	451.06
461.238	465.06
461.458	446.06
461.678	440.06
461.898	467.06
462.118	446.06
462.338	439.06
462.558	451.06
462.777	454.06
462.997	456.06
463.217	469.06
463.437	431.06
463.657	468.06
463.876	464.06
464.096	473.06
464.316	466.06
464.536	484.06
464.755	480.06
464.975	486.06
465.195	564.06
465.414	659.06
465.634	582.06
465.854	510.06
466.073	478.06
466.293	443.06
466.512	464.06
466.732	419.06
466.951	448.06
467.171	440.06
467.391	434.06
467.61	475.06
467.829	473.06
468.049	468.06
468.268	469.06
468.488	449.06
468.707	425.06
468.927	422.06
469.146	429.06
469.365	425.06
469.585	425.06
469.804	441.06
470.023	474.06
470.243	466.06
470.462	469.06
470.681	475.06
470.901	453.06
471.12	464.06
471.339	424.06
471.558	454.06
471.777	473.06
471.997	461.06
472.216	475.06
472.435	503.06
472.654	512.06
472.873	466.06
473.092	452.06
473.311	451.06
473.53	476.06
473.749	465.06
473.968	517.06
474.187	633.06
474.406	650.06
474.625	526.06
474.844	478.06
475.063	456.06
475.282	455.06
475.501	442.06
475.72	483.06
475.939	467.06
476.158	443.06
476.377	475.06
476.596	458.06
476.814	474.06
477.033	486.06
477.252	498.06
477.471	492.06
477.69	492.06
477.908	503.06
478.127	500.06
478.346	492.06
478.564	483.06
478.783	513.06
479.002	514.06
479.22	518.06
479.439	534.06
479.658	538.06
479.876	526.06
480.095	550.06
480.313	579.06
480.532	565.06
480.751	562.06
480.969	577.06
481.188	674.06
481.406	705.06
481.624	630.06
481.843	566.06
482.061	561.06
482.28	547.06
482.498	563.06
482.717	533.06
482.935	551.06
483.153	530.06
483.372	566.06
483.59	552.06
483.808	563.06
484.027	552.06
484.245	554.06
484.463	564.06
484.681	534.06
484.9	544.06
485.118	553.06
485.336	539.06
485.554	570.06
485.772	589.06
485.99	534.06
486.209	553.06
486.427	566.06
486.645	589.06
486.863	605.06
487.081	605.06
487.299	592.06
487.517	562.06
487.735	589.06
487.953	580.06
488.171	587.06
488.389	580.06
488.607	600.06
488.825	578.06
489.043	584.06
489.261	571.06
489.479	601.06
489.696	613.06
489.914	591.06
490.132	615.06
490.35	597.06
490.568	636.06
490.786	624.06
491.003	638.06
491.221	669.06
491.439	641.06
491.657	642.06
491.874	681.06
492.092	671.06
492.31	661.06
492.527	668.06
492.745	685.06
492.963	695.06
493.18	718.06
493.398	686.06
493.615	722.06
493.833	711.06
494.05	702.06
494.268	697.06
494.485	726.06
494.703	701.06
494.92	707.06
495.138	692.06
495.355	703.06
495.573	700.06
495.79	720.06
496.008	706.06
496.225	687.06
496.442	690.06
496.66	707.06
496.877	690.06
497.094	697.06
497.312	684.06
497.529	691.06
497.746	717.06
497.963	722.06
498.181	741.06
498.398	749.06
498.615	736.06
498.832	761.06
499.049	760.06
499.267	742.06
499.484	801.06
499.701	795.06
499.918	824.06
500.135	818.06
500.352	836.06
500.569	860.06
500.786	845.06
501.003	836.06
501.22	846.06
501.437	808.06
501.654	832.06
501.871	836.06
