Data from 1980.PennyLincolnUp.Lamp.En5.5.200Scan.071819.P1_HRD10591_16-38-39-958.txt Node
Date: Thu Jul 18 16:38:39 EDT 2019
User: cochatt
Spectrometer: HR+D1059
Trigger mode: 1
Integration Time (sec): 1.000000E-1
Scans to average: 1
Electric dark correction enabled: true
Nonlinearity correction enabled: false
Boxcar width: 0
XAxis mode: Wavelengths
Number of Pixels in Spectrum: 2048
>>>>>Begin Spectral Data<<<<<
223.165	-19.12
223.4	-19.12
223.635	-19.12
223.869	-9.12
224.104	-21.12
224.338	-9.12
224.573	-1.12
224.808	-21.12
225.042	-1.12
225.277	-11.12
225.511	-8.12
225.746	-3.12
225.98	14.88
226.215	16.88
226.449	4.88
226.683	21.88
226.918	24.88
227.152	20.88
227.387	37.88
227.621	45.88
227.856	40.88
228.09	41.88
228.324	47.88
228.559	44.88
228.793	55.88
229.027	96.88
229.262	112.88
229.496	120.88
229.73	131.88
229.964	168.88
230.199	140.88
230.433	117.88
230.667	114.88
230.901	108.88
231.136	112.88
231.37	104.88
231.604	116.88
231.838	116.88
232.072	127.88
232.306	96.88
232.541	106.88
232.775	109.88
233.009	112.88
233.243	99.88
233.477	115.88
233.711	112.88
233.945	114.88
234.179	114.88
234.413	121.88
234.647	114.88
234.881	108.88
235.115	115.88
235.349	116.88
235.583	125.88
235.817	131.88
236.051	133.88
236.285	134.88
236.519	131.88
236.753	121.88
236.987	149.88
237.221	189.88
237.455	249.88
237.689	221.88
237.922	162.88
238.156	145.88
238.39	143.88
238.624	125.88
238.858	113.88
239.091	128.88
239.325	118.88
239.559	122.88
239.793	119.88
240.027	119.88
240.26	153.88
240.494	171.88
240.728	162.88
240.961	166.88
241.195	148.88
241.429	139.88
241.662	138.88
241.896	132.88
242.13	142.88
242.363	143.88
242.597	137.88
242.83	140.88
243.064	143.88
243.298	138.88
243.531	140.88
243.765	137.88
243.998	144.88
244.232	131.88
244.465	140.88
244.699	137.88
244.932	155.88
245.166	154.88
245.399	154.88
245.633	149.88
245.866	160.88
246.099	142.88
246.333	164.88
246.566	155.88
246.8	149.88
247.033	160.88
247.266	154.88
247.5	152.88
247.733	179.88
247.966	182.88
248.2	185.88
248.433	178.88
248.666	181.88
248.899	188.88
249.133	209.88
249.366	231.88
249.599	209.88
249.832	181.88
250.066	188.88
250.299	200.88
250.532	204.88
250.765	205.88
250.998	249.88
251.231	231.88
251.465	227.88
251.698	212.88
251.931	207.88
252.164	202.88
252.397	204.88
252.63	206.88
252.863	223.88
253.096	221.88
253.329	220.88
253.562	243.88
253.795	235.88
254.028	233.88
254.261	228.88
254.494	228.88
254.727	284.88
254.96	323.88
255.193	308.88
255.426	265.88
255.659	269.88
255.892	249.88
256.124	237.88
256.357	232.88
256.59	236.88
256.823	232.88
257.056	211.88
257.289	224.88
257.521	233.88
257.754	220.88
257.987	204.88
258.22	217.88
258.452	226.88
258.685	216.88
258.918	202.88
259.151	201.88
259.383	219.88
259.616	224.88
259.849	240.88
260.081	269.88
260.314	256.88
260.547	267.88
260.779	254.88
261.012	256.88
261.244	267.88
261.477	250.88
261.71	238.88
261.942	231.88
262.175	249.88
262.407	242.88
262.64	240.88
262.872	216.88
263.105	228.88
263.337	225.88
263.57	211.88
263.802	225.88
264.035	203.88
264.267	211.88
264.499	220.88
264.732	211.88
264.964	221.88
265.197	210.88
265.429	216.88
265.661	216.88
265.894	206.88
266.126	215.88
266.358	210.88
266.591	222.88
266.823	214.88
267.055	202.88
267.287	217.88
267.52	216.88
267.752	221.88
267.984	223.88
268.216	222.88
268.448	231.88
268.681	234.88
268.913	255.88
269.145	270.88
269.377	285.88
269.609	290.88
269.841	277.88
270.073	283.88
270.306	300.88
270.538	334.88
270.77	355.88
271.002	325.88
271.234	326.88
271.466	317.88
271.698	324.88
271.93	322.88
272.162	332.88
272.394	332.88
272.626	319.88
272.858	299.88
273.09	293.88
273.322	281.88
273.553	274.88
273.785	260.88
274.017	262.88
274.249	251.88
274.481	276.88
274.713	269.88
274.945	288.88
275.176	259.88
275.408	271.88
275.64	258.88
275.872	251.88
276.104	274.88
276.335	276.88
276.567	281.88
276.799	284.88
277.031	322.88
277.262	349.88
277.494	336.88
277.726	311.88
277.957	297.88
278.189	304.88
278.421	274.88
278.652	272.88
278.884	273.88
279.115	273.88
279.347	261.88
279.579	273.88
279.81	256.88
280.042	272.88
280.273	268.88
280.505	272.88
280.736	248.88
280.968	258.88
281.199	264.88
281.431	245.88
281.662	245.88
281.894	251.88
282.125	250.88
282.356	292.88
282.588	284.88
282.819	316.88
283.051	283.88
283.282	277.88
283.513	269.88
283.745	280.88
283.976	270.88
284.207	262.88
284.439	267.88
284.67	270.88
284.901	260.88
285.132	269.88
285.364	258.88
285.595	262.88
285.826	247.88
286.057	274.88
286.288	268.88
286.52	278.88
286.751	265.88
286.982	276.88
287.213	261.88
287.444	274.88
287.675	278.88
287.906	284.88
288.138	299.88
288.369	280.88
288.6	292.88
288.831	288.88
289.062	282.88
289.293	285.88
289.524	269.88
289.755	269.88
289.986	278.88
290.217	267.88
290.448	281.88
290.679	266.88
290.91	272.88
291.141	278.88
291.371	260.88
291.602	285.88
291.833	275.88
292.064	285.88
292.295	279.88
292.526	278.88
292.757	279.88
292.987	274.88
293.218	281.88
293.449	264.88
293.68	266.88
293.91	266.88
294.141	270.88
294.372	263.88
294.603	270.88
294.833	263.88
295.064	258.88
295.295	249.88
295.525	273.88
295.756	290.88
295.987	282.88
296.217	311.88
296.448	325.88
296.679	288.88
296.909	281.88
297.14	268.88
297.37	278.88
297.601	292.88
297.831	280.88
298.062	273.88
298.292	282.88
298.523	284.88
298.753	281.88
298.984	280.88
299.214	276.88
299.445	296.88
299.675	288.88
299.905	294.88
300.136	318.88
300.366	286.88
300.597	291.88
300.827	308.88
301.057	283.88
301.288	298.88
301.518	299.88
301.748	299.88
301.979	303.88
302.209	316.88
302.439	312.88
302.669	299.88
302.9	310.88
303.13	299.88
303.36	321.88
303.59	308.88
303.82	332.88
304.051	328.88
304.281	321.88
304.511	315.88
304.741	312.88
304.971	304.88
305.201	296.88
305.431	313.88
305.661	300.88
305.891	304.88
306.121	310.88
306.352	313.88
306.582	310.88
306.812	328.88
307.042	315.88
307.272	297.88
307.502	326.88
307.731	323.88
307.961	326.88
308.191	308.88
308.421	328.88
308.651	320.88
308.881	328.88
309.111	300.88
309.341	336.88
309.571	336.88
309.8	350.88
310.03	373.88
310.26	378.88
310.49	372.88
310.72	387.88
310.949	407.88
311.179	397.88
311.409	381.88
311.639	366.88
311.868	373.88
312.098	378.88
312.328	385.88
312.557	396.88
312.787	408.88
313.017	439.88
313.246	389.88
313.476	360.88
313.706	370.88
313.935	362.88
314.165	380.88
314.394	387.88
314.624	381.88
314.853	396.88
315.083	388.88
315.312	370.88
315.542	373.88
315.771	373.88
316.001	358.88
316.23	358.88
316.46	353.88
316.689	369.88
316.919	362.88
317.148	360.88
317.377	397.88
317.607	376.88
317.836	386.88
318.065	396.88
318.295	365.88
318.524	361.88
318.753	386.88
318.983	356.88
319.212	380.88
319.441	382.88
319.67	370.88
319.9	389.88
320.129	370.88
320.358	374.88
320.587	379.88
320.816	379.88
321.046	368.88
321.275	385.88
321.504	406.88
321.733	399.88
321.962	421.88
322.191	432.88
322.42	456.88
322.649	460.88
322.878	470.88
323.108	476.88
323.337	520.88
323.566	553.88
323.795	594.88
324.024	647.88
324.253	803.88
324.482	1162.88
324.71	1804.88
324.939	2573.88
325.168	2247.88
325.397	1204.88
325.626	763.88
325.855	632.88
326.084	557.88
326.313	522.88
326.542	552.88
326.77	611.88
326.999	717.88
327.228	1018.88
327.457	1554.88
327.686	1940.88
327.914	1338.88
328.143	849.88
328.372	734.88
328.6	656.88
328.829	614.88
329.058	659.88
329.287	644.88
329.515	602.88
329.744	562.88
329.972	534.88
330.201	576.88
330.43	617.88
330.658	661.88
330.887	694.88
331.115	664.88
331.344	572.88
331.572	517.88
331.801	525.88
332.03	505.88
332.258	492.88
332.486	436.88
332.715	428.88
332.943	434.88
333.172	444.88
333.4	448.88
333.629	446.88
333.857	449.88
334.085	461.88
334.314	482.88
334.542	528.88
334.771	566.88
334.999	518.88
335.227	485.88
335.455	426.88
335.684	424.88
335.912	406.88
336.14	427.88
336.369	444.88
336.597	436.88
336.825	434.88
337.053	426.88
337.281	418.88
337.51	420.88
337.738	419.88
337.966	430.88
338.194	427.88
338.422	423.88
338.65	417.88
338.878	429.88
339.106	407.88
339.334	431.88
339.562	387.88
339.79	394.88
340.018	399.88
340.246	422.88
340.474	415.88
340.702	421.88
340.93	414.88
341.158	421.88
341.386	417.88
341.614	427.88
341.842	418.88
342.07	393.88
342.298	420.88
342.526	404.88
342.754	392.88
342.981	377.88
343.209	395.88
343.437	392.88
343.665	389.88
343.893	397.88
344.12	414.88
344.348	390.88
344.576	389.88
344.804	424.88
345.031	412.88
345.259	432.88
345.487	426.88
345.714	426.88
345.942	407.88
346.17	389.88
346.397	388.88
346.625	395.88
346.853	425.88
347.08	398.88
347.308	420.88
347.535	415.88
347.763	412.88
347.99	441.88
348.218	418.88
348.445	427.88
348.673	410.88
348.9	392.88
349.128	392.88
349.355	382.88
349.583	384.88
349.81	364.88
350.037	364.88
350.265	366.88
350.492	380.88
350.72	396.88
350.947	404.88
351.174	436.88
351.402	411.88
351.629	423.88
351.856	402.88
352.083	428.88
352.311	421.88
352.538	443.88
352.765	449.88
352.992	416.88
353.22	397.88
353.447	410.88
353.674	404.88
353.901	382.88
354.128	384.88
354.355	363.88
354.583	370.88
354.81	370.88
355.037	370.88
355.264	370.88
355.491	363.88
355.718	348.88
355.945	385.88
356.172	354.88
356.399	372.88
356.626	351.88
356.853	372.88
357.08	372.88
357.307	350.88
357.534	352.88
357.761	364.88
357.988	358.88
358.215	341.88
358.441	357.88
358.668	350.88
358.895	377.88
359.122	386.88
359.349	404.88
359.576	402.88
359.802	432.88
360.029	458.88
360.256	473.88
360.483	458.88
360.709	419.88
360.936	417.88
361.163	395.88
361.39	436.88
361.616	419.88
361.843	404.88
362.07	397.88
362.296	392.88
362.523	406.88
362.749	398.88
362.976	401.88
363.203	391.88
363.429	400.88
363.656	394.88
363.882	390.88
364.109	398.88
364.335	377.88
364.562	373.88
364.788	380.88
365.015	373.88
365.241	373.88
365.468	402.88
365.694	382.88
365.92	382.88
366.147	372.88
366.373	370.88
366.599	379.88
366.826	360.88
367.052	361.88
367.278	352.88
367.505	367.88
367.731	393.88
367.957	380.88
368.184	351.88
368.41	382.88
368.636	396.88
368.862	389.88
369.089	375.88
369.315	372.88
369.541	365.88
369.767	374.88
369.993	368.88
370.219	368.88
370.445	358.88
370.672	344.88
370.898	363.88
371.124	362.88
371.35	353.88
371.576	379.88
371.802	349.88
372.028	352.88
372.254	369.88
372.48	369.88
372.706	368.88
372.932	372.88
373.158	362.88
373.384	354.88
373.61	359.88
373.835	358.88
374.061	357.88
374.287	369.88
374.513	350.88
374.739	389.88
374.965	374.88
375.191	372.88
375.416	348.88
375.642	359.88
375.868	358.88
376.094	373.88
376.319	352.88
376.545	358.88
376.771	348.88
376.997	353.88
377.222	370.88
377.448	355.88
377.674	356.88
377.899	359.88
378.125	348.88
378.35	352.88
378.576	348.88
378.802	354.88
379.027	368.88
379.253	349.88
379.478	362.88
379.704	354.88
379.929	344.88
380.155	372.88
380.38	355.88
380.606	346.88
380.831	345.88
381.057	365.88
381.282	357.88
381.507	367.88
381.733	372.88
381.958	382.88
382.184	343.88
382.409	370.88
382.634	373.88
382.86	372.88
383.085	383.88
383.31	392.88
383.535	358.88
383.761	361.88
383.986	351.88
384.211	358.88
384.436	360.88
384.662	375.88
384.887	376.88
385.112	354.88
385.337	382.88
385.562	378.88
385.787	383.88
386.013	399.88
386.238	415.88
386.463	405.88
386.688	394.88
386.913	370.88
387.138	378.88
387.363	373.88
387.588	374.88
387.813	385.88
388.038	386.88
388.263	365.88
388.488	384.88
388.713	380.88
388.938	365.88
389.163	368.88
389.387	379.88
389.612	377.88
389.837	383.88
390.062	370.88
390.287	386.88
390.512	368.88
390.736	390.88
390.961	383.88
391.186	372.88
391.411	370.88
391.636	382.88
391.86	386.88
392.085	381.88
392.31	380.88
392.534	378.88
392.759	383.88
392.984	377.88
393.208	384.88
393.433	378.88
393.658	378.88
393.882	398.88
394.107	389.88
394.331	387.88
394.556	392.88
394.78	394.88
395.005	401.88
395.229	406.88
395.454	399.88
395.678	393.88
395.903	392.88
396.127	432.88
396.352	404.88
396.576	399.88
396.801	401.88
397.025	381.88
397.249	396.88
397.474	413.88
397.698	408.88
397.922	440.88
398.147	438.88
398.371	445.88
398.595	409.88
398.82	421.88
399.044	444.88
399.268	422.88
399.492	434.88
399.717	479.88
399.941	484.88
400.165	519.88
400.389	542.88
400.613	481.88
400.837	459.88
401.062	448.88
401.286	423.88
401.51	434.88
401.734	434.88
401.958	435.88
402.182	438.88
402.406	424.88
402.63	462.88
402.854	451.88
403.078	443.88
403.302	442.88
403.526	460.88
403.75	480.88
403.974	458.88
404.198	434.88
404.422	456.88
404.645	477.88
404.869	461.88
405.093	512.88
405.317	560.88
405.541	558.88
405.765	525.88
405.988	484.88
406.212	484.88
406.436	523.88
406.66	534.88
406.883	493.88
407.107	526.88
407.331	530.88
407.555	618.88
407.778	617.88
408.002	571.88
408.226	503.88
408.449	504.88
408.673	518.88
408.896	540.88
409.12	581.88
409.344	544.88
409.567	483.88
409.791	468.88
410.014	465.88
410.238	473.88
410.461	476.88
410.685	458.88
410.908	472.88
411.132	522.88
411.355	570.88
411.578	541.88
411.802	482.88
412.025	461.88
412.249	483.88
412.472	500.88
412.695	529.88
412.919	534.88
413.142	476.88
413.365	458.88
413.589	437.88
413.812	443.88
414.035	416.88
414.258	437.88
414.482	446.88
414.705	409.88
414.928	428.88
415.151	406.88
415.374	432.88
415.597	438.88
415.821	428.88
416.044	418.88
416.267	433.88
416.49	450.88
416.713	418.88
416.936	442.88
417.159	418.88
417.382	429.88
417.605	448.88
417.828	461.88
418.051	457.88
418.274	438.88
418.497	456.88
418.72	438.88
418.943	432.88
419.166	452.88
419.389	473.88
419.611	458.88
419.834	473.88
420.057	464.88
420.28	454.88
420.503	471.88
420.726	464.88
420.948	479.88
421.171	508.88
421.394	566.88
421.617	486.88
421.839	475.88
422.062	473.88
422.285	488.88
422.507	536.88
422.73	597.88
422.953	592.88
423.175	533.88
423.398	483.88
423.621	513.88
423.843	491.88
424.066	523.88
424.288	515.88
424.511	520.88
424.733	595.88
424.956	698.88
425.178	636.88
425.401	638.88
425.623	651.88
425.846	574.88
426.068	528.88
426.291	521.88
426.513	546.88
426.735	518.88
426.958	582.88
427.18	644.88
427.402	761.88
427.625	851.88
427.847	792.88
428.069	682.88
428.292	592.88
428.514	542.88
428.736	520.88
428.958	509.88
429.181	472.88
429.403	466.88
429.625	503.88
429.847	516.88
430.069	591.88
430.292	592.88
430.514	515.88
430.736	470.88
430.958	464.88
431.18	439.88
431.402	448.88
431.624	438.88
431.846	442.88
432.068	444.88
432.29	436.88
432.512	446.88
432.734	458.88
432.956	470.88
433.178	466.88
433.4	466.88
433.622	449.88
433.844	452.88
434.066	445.88
434.287	436.88
434.509	432.88
434.731	435.88
434.953	474.88
435.175	483.88
435.397	507.88
435.618	516.88
435.84	548.88
436.062	636.88
436.284	732.88
436.505	570.88
436.727	550.88
436.949	500.88
437.17	486.88
437.392	473.88
437.614	500.88
437.835	549.88
438.057	606.88
438.278	776.88
438.5	755.88
438.721	784.88
438.943	749.88
439.165	624.88
439.386	562.88
439.608	536.88
439.829	549.88
440.05	598.88
440.272	620.88
440.493	584.88
440.715	539.88
440.936	528.88
441.158	502.88
441.379	480.88
441.6	499.88
441.822	526.88
442.043	578.88
442.264	654.88
442.486	695.88
442.707	588.88
442.928	562.88
443.149	552.88
443.371	600.88
443.592	624.88
443.813	702.88
444.034	749.88
444.255	637.88
444.476	576.88
444.698	496.88
444.919	508.88
445.14	584.88
445.361	557.88
445.582	570.88
445.803	673.88
446.024	764.88
446.245	786.88
446.466	702.88
446.687	589.88
446.908	545.88
447.129	508.88
447.35	504.88
447.571	514.88
447.792	486.88
448.013	520.88
448.234	532.88
448.455	585.88
448.675	685.88
448.896	769.88
449.117	684.88
449.338	630.88
449.559	728.88
449.779	828.88
450	653.88
450.221	553.88
450.442	506.88
450.662	501.88
450.883	526.88
451.104	512.88
451.324	486.88
451.545	479.88
451.766	436.88
451.986	446.88
452.207	445.88
452.428	419.88
452.648	452.88
452.869	426.88
453.089	445.88
453.31	453.88
453.53	437.88
453.751	443.88
453.971	459.88
454.192	457.88
454.412	454.88
454.633	433.88
454.853	452.88
455.073	437.88
455.294	455.88
455.514	540.88
455.734	539.88
455.955	437.88
456.175	414.88
456.395	400.88
456.616	396.88
456.836	394.88
457.056	391.88
457.276	390.88
457.497	409.88
457.717	402.88
457.937	405.88
458.157	425.88
458.377	416.88
458.598	466.88
458.818	518.88
459.038	604.88
459.258	640.88
459.478	528.88
459.698	462.88
459.918	436.88
460.138	444.88
460.358	427.88
460.578	442.88
460.798	450.88
461.018	460.88
461.238	431.88
461.458	415.88
461.678	432.88
461.898	427.88
462.118	408.88
462.338	420.88
462.558	433.88
462.777	439.88
462.997	418.88
463.217	448.88
463.437	457.88
463.657	452.88
463.876	465.88
464.096	436.88
464.316	461.88
464.536	471.88
464.755	461.88
464.975	480.88
465.195	549.88
465.414	656.88
465.634	567.88
465.854	505.88
466.073	482.88
466.293	448.88
466.512	451.88
466.732	440.88
466.951	440.88
467.171	428.88
467.391	428.88
467.61	437.88
467.829	458.88
468.049	444.88
468.268	434.88
468.488	422.88
468.707	435.88
468.927	412.88
469.146	402.88
469.365	410.88
469.585	390.88
469.804	436.88
470.023	458.88
470.243	440.88
470.462	459.88
470.681	458.88
470.901	473.88
471.12	448.88
471.339	439.88
471.558	459.88
471.777	441.88
471.997	445.88
472.216	445.88
472.435	508.88
472.654	462.88
472.873	444.88
473.092	424.88
473.311	442.88
473.53	435.88
473.749	457.88
473.968	503.88
474.187	598.88
474.406	638.88
474.625	536.88
474.844	483.88
475.063	463.88
475.282	441.88
475.501	455.88
475.72	445.88
475.939	445.88
476.158	460.88
476.377	456.88
476.596	444.88
476.814	454.88
477.033	471.88
477.252	453.88
477.471	471.88
477.69	454.88
477.908	481.88
478.127	470.88
478.346	477.88
478.564	480.88
478.783	468.88
479.002	475.88
479.22	506.88
479.439	508.88
479.658	497.88
479.876	529.88
480.095	512.88
480.313	556.88
480.532	545.88
480.751	536.88
480.969	580.88
481.188	616.88
481.406	672.88
481.624	596.88
481.843	553.88
482.061	563.88
482.28	518.88
482.498	527.88
482.717	527.88
482.935	518.88
483.153	520.88
483.372	504.88
483.59	546.88
483.808	527.88
484.027	533.88
484.245	516.88
484.463	543.88
484.681	549.88
484.9	525.88
485.118	534.88
485.336	542.88
485.554	562.88
485.772	537.88
485.99	516.88
486.209	559.88
486.427	548.88
486.645	557.88
486.863	607.88
487.081	580.88
487.299	568.88
487.517	578.88
487.735	560.88
487.953	577.88
488.171	566.88
488.389	575.88
488.607	559.88
488.825	562.88
489.043	587.88
489.261	574.88
489.479	567.88
489.696	586.88
489.914	562.88
490.132	584.88
490.35	614.88
490.568	594.88
490.786	614.88
491.003	607.88
491.221	633.88
491.439	661.88
491.657	646.88
491.874	662.88
492.092	658.88
492.31	669.88
492.527	648.88
492.745	664.88
492.963	654.88
493.18	692.88
493.398	677.88
493.615	694.88
493.833	657.88
494.05	669.88
494.268	681.88
494.485	700.88
494.703	661.88
494.92	700.88
495.138	697.88
495.355	692.88
495.573	684.88
495.79	658.88
496.008	678.88
496.225	660.88
496.442	672.88
496.66	675.88
496.877	685.88
497.094	669.88
497.312	660.88
497.529	673.88
497.746	682.88
497.963	700.88
498.181	745.88
498.398	711.88
498.615	725.88
498.832	737.88
499.049	730.88
499.267	767.88
499.484	749.88
499.701	739.88
499.918	752.88
500.135	798.88
500.352	791.88
500.569	775.88
500.786	801.88
501.003	823.88
501.22	790.88
501.437	816.88
501.654	781.88
501.871	841.88
