Data from 1980.PennyLincolnUp.Lamp.En5.5.200Scan.071819.P1_HRD10591_16-39-13-958.txt Node
Date: Thu Jul 18 16:39:13 EDT 2019
User: cochatt
Spectrometer: HR+D1059
Trigger mode: 1
Integration Time (sec): 1.000000E-1
Scans to average: 1
Electric dark correction enabled: true
Nonlinearity correction enabled: false
Boxcar width: 0
XAxis mode: Wavelengths
Number of Pixels in Spectrum: 2048
>>>>>Begin Spectral Data<<<<<
223.165	-14.75
223.4	-14.75
223.635	-14.75
223.869	-27.75
224.104	-14.75
224.338	-22.75
224.573	-17.75
224.808	-10.75
225.042	-17.75
225.277	-2.75
225.511	1.25
225.746	1.25
225.98	-1.75
226.215	25.25
226.449	19.25
226.683	15.25
226.918	30.25
227.152	38.25
227.387	41.25
227.621	51.25
227.856	39.25
228.09	39.25
228.324	51.25
228.559	52.25
228.793	71.25
229.027	107.25
229.262	121.25
229.496	117.25
229.73	138.25
229.964	171.25
230.199	145.25
230.433	134.25
230.667	122.25
230.901	120.25
231.136	122.25
231.37	117.25
231.604	107.25
231.838	123.25
232.072	110.25
232.306	108.25
232.541	108.25
232.775	114.25
233.009	112.25
233.243	124.25
233.477	118.25
233.711	133.25
233.945	130.25
234.179	130.25
234.413	135.25
234.647	126.25
234.881	132.25
235.115	132.25
235.349	127.25
235.583	137.25
235.817	116.25
236.051	118.25
236.285	139.25
236.519	134.25
236.753	155.25
236.987	140.25
237.221	189.25
237.455	245.25
237.689	201.25
237.922	158.25
238.156	151.25
238.39	139.25
238.624	129.25
238.858	123.25
239.091	123.25
239.325	129.25
239.559	125.25
239.793	125.25
240.027	125.25
240.26	146.25
240.494	179.25
240.728	148.25
240.961	156.25
241.195	154.25
241.429	128.25
241.662	140.25
241.896	142.25
242.13	139.25
242.363	134.25
242.597	139.25
242.83	137.25
243.064	141.25
243.298	141.25
243.531	140.25
243.765	137.25
243.998	146.25
244.232	135.25
244.465	131.25
244.699	144.25
244.932	159.25
245.166	146.25
245.399	140.25
245.633	145.25
245.866	129.25
246.099	149.25
246.333	137.25
246.566	154.25
246.8	158.25
247.033	156.25
247.266	151.25
247.5	158.25
247.733	183.25
247.966	168.25
248.2	170.25
248.433	188.25
248.666	181.25
248.899	182.25
249.133	190.25
249.366	227.25
249.599	210.25
249.832	193.25
250.066	191.25
250.299	195.25
250.532	194.25
250.765	220.25
250.998	229.25
251.231	226.25
251.465	232.25
251.698	209.25
251.931	204.25
252.164	197.25
252.397	199.25
252.63	197.25
252.863	217.25
253.096	203.25
253.329	235.25
253.562	237.25
253.795	241.25
254.028	223.25
254.261	227.25
254.494	241.25
254.727	262.25
254.96	292.25
255.193	292.25
255.426	288.25
255.659	258.25
255.892	252.25
256.124	255.25
256.357	250.25
256.59	238.25
256.823	227.25
257.056	224.25
257.289	222.25
257.521	216.25
257.754	222.25
257.987	209.25
258.22	220.25
258.452	208.25
258.685	216.25
258.918	224.25
259.151	217.25
259.383	220.25
259.616	233.25
259.849	229.25
260.081	242.25
260.314	265.25
260.547	253.25
260.779	270.25
261.012	247.25
261.244	243.25
261.477	235.25
261.71	229.25
261.942	250.25
262.175	245.25
262.407	250.25
262.64	228.25
262.872	226.25
263.105	226.25
263.337	222.25
263.57	223.25
263.802	231.25
264.035	215.25
264.267	227.25
264.499	213.25
264.732	229.25
264.964	207.25
265.197	213.25
265.429	213.25
265.661	202.25
265.894	211.25
266.126	217.25
266.358	210.25
266.591	215.25
266.823	219.25
267.055	226.25
267.287	238.25
267.52	236.25
267.752	242.25
267.984	211.25
268.216	232.25
268.448	229.25
268.681	234.25
268.913	216.25
269.145	261.25
269.377	290.25
269.609	285.25
269.841	266.25
270.073	301.25
270.306	288.25
270.538	327.25
270.77	333.25
271.002	305.25
271.234	308.25
271.466	315.25
271.698	311.25
271.93	342.25
272.162	328.25
272.394	325.25
272.626	313.25
272.858	292.25
273.09	303.25
273.322	295.25
273.553	281.25
273.785	262.25
274.017	269.25
274.249	279.25
274.481	251.25
274.713	262.25
274.945	286.25
275.176	285.25
275.408	279.25
275.64	261.25
275.872	265.25
276.104	267.25
276.335	273.25
276.567	285.25
276.799	299.25
277.031	315.25
277.262	311.25
277.494	345.25
277.726	301.25
277.957	294.25
278.189	286.25
278.421	276.25
278.652	276.25
278.884	263.25
279.115	248.25
279.347	265.25
279.579	255.25
279.81	258.25
280.042	250.25
280.273	281.25
280.505	241.25
280.736	245.25
280.968	250.25
281.199	244.25
281.431	261.25
281.662	259.25
281.894	252.25
282.125	264.25
282.356	286.25
282.588	312.25
282.819	318.25
283.051	264.25
283.282	267.25
283.513	263.25
283.745	243.25
283.976	261.25
284.207	278.25
284.439	297.25
284.67	273.25
284.901	272.25
285.132	257.25
285.364	257.25
285.595	285.25
285.826	270.25
286.057	257.25
286.288	245.25
286.52	265.25
286.751	262.25
286.982	261.25
287.213	251.25
287.444	277.25
287.675	268.25
287.906	282.25
288.138	290.25
288.369	286.25
288.6	288.25
288.831	277.25
289.062	295.25
289.293	285.25
289.524	271.25
289.755	282.25
289.986	265.25
290.217	279.25
290.448	270.25
290.679	266.25
290.91	266.25
291.141	269.25
291.371	271.25
291.602	257.25
291.833	258.25
292.064	263.25
292.295	266.25
292.526	266.25
292.757	275.25
292.987	271.25
293.218	277.25
293.449	281.25
293.68	253.25
293.91	253.25
294.141	276.25
294.372	271.25
294.603	280.25
294.833	277.25
295.064	270.25
295.295	260.25
295.525	270.25
295.756	282.25
295.987	298.25
296.217	313.25
296.448	315.25
296.679	277.25
296.909	297.25
297.14	270.25
297.37	268.25
297.601	300.25
297.831	268.25
298.062	282.25
298.292	285.25
298.523	275.25
298.753	287.25
298.984	286.25
299.214	294.25
299.445	291.25
299.675	289.25
299.905	318.25
300.136	288.25
300.366	287.25
300.597	293.25
300.827	309.25
301.057	293.25
301.288	313.25
301.518	309.25
301.748	299.25
301.979	295.25
302.209	315.25
302.439	317.25
302.669	298.25
302.9	305.25
303.13	298.25
303.36	302.25
303.59	324.25
303.82	326.25
304.051	301.25
304.281	316.25
304.511	321.25
304.741	283.25
304.971	300.25
305.201	285.25
305.431	299.25
305.661	293.25
305.891	287.25
306.121	305.25
306.352	306.25
306.582	310.25
306.812	328.25
307.042	302.25
307.272	309.25
307.502	323.25
307.731	331.25
307.961	314.25
308.191	316.25
308.421	313.25
308.651	322.25
308.881	328.25
309.111	334.25
309.341	348.25
309.571	331.25
309.8	349.25
310.03	335.25
310.26	356.25
310.49	350.25
310.72	377.25
310.949	384.25
311.179	409.25
311.409	371.25
311.639	362.25
311.868	368.25
312.098	371.25
312.328	362.25
312.557	379.25
312.787	401.25
313.017	407.25
313.246	402.25
313.476	386.25
313.706	351.25
313.935	373.25
314.165	404.25
314.394	400.25
314.624	377.25
314.853	356.25
315.083	371.25
315.312	364.25
315.542	371.25
315.771	351.25
316.001	367.25
316.23	340.25
316.46	343.25
316.689	367.25
316.919	361.25
317.148	392.25
317.377	373.25
317.607	379.25
317.836	372.25
318.065	356.25
318.295	365.25
318.524	348.25
318.753	357.25
318.983	379.25
319.212	358.25
319.441	373.25
319.67	386.25
319.9	367.25
320.129	368.25
320.358	365.25
320.587	372.25
320.816	381.25
321.046	402.25
321.275	393.25
321.504	391.25
321.733	396.25
321.962	420.25
322.191	402.25
322.42	416.25
322.649	449.25
322.878	450.25
323.108	473.25
323.337	512.25
323.566	501.25
323.795	533.25
324.024	603.25
324.253	777.25
324.482	1085.25
324.71	1688.25
324.939	2425.25
325.168	2127.25
325.397	1131.25
325.626	734.25
325.855	603.25
326.084	561.25
326.313	540.25
326.542	559.25
326.77	601.25
326.999	716.25
327.228	1006.25
327.457	1498.25
327.686	1891.25
327.914	1261.25
328.143	791.25
328.372	705.25
328.6	641.25
328.829	613.25
329.058	615.25
329.287	632.25
329.515	598.25
329.744	537.25
329.972	518.25
330.201	559.25
330.43	629.25
330.658	637.25
330.887	652.25
331.115	639.25
331.344	550.25
331.572	513.25
331.801	479.25
332.03	497.25
332.258	472.25
332.486	454.25
332.715	432.25
332.943	422.25
333.172	439.25
333.4	444.25
333.629	432.25
333.857	465.25
334.085	463.25
334.314	473.25
334.542	525.25
334.771	539.25
334.999	491.25
335.227	453.25
335.455	428.25
335.684	412.25
335.912	418.25
336.14	397.25
336.369	418.25
336.597	419.25
336.825	436.25
337.053	419.25
337.281	392.25
337.51	398.25
337.738	422.25
337.966	418.25
338.194	397.25
338.422	415.25
338.65	420.25
338.878	417.25
339.106	400.25
339.334	397.25
339.562	381.25
339.79	406.25
340.018	419.25
340.246	409.25
340.474	399.25
340.702	402.25
340.93	405.25
341.158	401.25
341.386	403.25
341.614	415.25
341.842	419.25
342.07	400.25
342.298	402.25
342.526	403.25
342.754	397.25
342.981	381.25
343.209	395.25
343.437	395.25
343.665	411.25
343.893	377.25
344.12	396.25
344.348	380.25
344.576	416.25
344.804	414.25
345.031	431.25
345.259	421.25
345.487	413.25
345.714	403.25
345.942	403.25
346.17	405.25
346.397	372.25
346.625	375.25
346.853	394.25
347.08	387.25
347.308	401.25
347.535	394.25
347.763	411.25
347.99	414.25
348.218	403.25
348.445	400.25
348.673	405.25
348.9	392.25
349.128	391.25
349.355	387.25
349.583	386.25
349.81	358.25
350.037	383.25
350.265	387.25
350.492	382.25
350.72	378.25
350.947	402.25
351.174	402.25
351.402	417.25
351.629	415.25
351.856	407.25
352.083	420.25
352.311	437.25
352.538	422.25
352.765	415.25
352.992	407.25
353.22	393.25
353.447	381.25
353.674	388.25
353.901	387.25
354.128	368.25
354.355	369.25
354.583	350.25
354.81	363.25
355.037	362.25
355.264	349.25
355.491	354.25
355.718	357.25
355.945	360.25
356.172	332.25
356.399	350.25
356.626	365.25
356.853	361.25
357.08	364.25
357.307	374.25
357.534	355.25
357.761	373.25
357.988	355.25
358.215	356.25
358.441	358.25
358.668	370.25
358.895	375.25
359.122	363.25
359.349	387.25
359.576	381.25
359.802	434.25
360.029	460.25
360.256	473.25
360.483	441.25
360.709	414.25
360.936	399.25
361.163	365.25
361.39	402.25
361.616	403.25
361.843	390.25
362.07	392.25
362.296	394.25
362.523	385.25
362.749	388.25
362.976	390.25
363.203	372.25
363.429	382.25
363.656	393.25
363.882	378.25
364.109	372.25
364.335	360.25
364.562	362.25
364.788	383.25
365.015	379.25
365.241	358.25
365.468	377.25
365.694	392.25
365.92	380.25
366.147	374.25
366.373	372.25
366.599	348.25
366.826	366.25
367.052	381.25
367.278	355.25
367.505	361.25
367.731	374.25
367.957	362.25
368.184	382.25
368.41	385.25
368.636	387.25
368.862	391.25
369.089	397.25
369.315	358.25
369.541	357.25
369.767	378.25
369.993	373.25
370.219	371.25
370.445	354.25
370.672	368.25
370.898	374.25
371.124	363.25
371.35	348.25
371.576	361.25
371.802	326.25
372.028	348.25
372.254	356.25
372.48	356.25
372.706	362.25
372.932	332.25
373.158	344.25
373.384	373.25
373.61	357.25
373.835	376.25
374.061	341.25
374.287	368.25
374.513	356.25
374.739	389.25
374.965	347.25
375.191	362.25
375.416	373.25
375.642	339.25
375.868	364.25
376.094	362.25
376.319	364.25
376.545	354.25
376.771	344.25
376.997	353.25
377.222	365.25
377.448	344.25
377.674	346.25
377.899	359.25
378.125	345.25
378.35	349.25
378.576	358.25
378.802	353.25
379.027	344.25
379.253	365.25
379.478	356.25
379.704	350.25
379.929	344.25
380.155	356.25
380.38	353.25
380.606	365.25
380.831	369.25
381.057	368.25
381.282	357.25
381.507	359.25
381.733	362.25
381.958	355.25
382.184	362.25
382.409	366.25
382.634	380.25
382.86	353.25
383.085	372.25
383.31	375.25
383.535	373.25
383.761	369.25
383.986	381.25
384.211	378.25
384.436	358.25
384.662	371.25
384.887	354.25
385.112	370.25
385.337	385.25
385.562	379.25
385.787	396.25
386.013	392.25
386.238	357.25
386.463	395.25
386.688	371.25
386.913	376.25
387.138	369.25
387.363	366.25
387.588	371.25
387.813	376.25
388.038	366.25
388.263	364.25
388.488	382.25
388.713	382.25
388.938	370.25
389.163	401.25
389.387	391.25
389.612	389.25
389.837	372.25
390.062	381.25
390.287	381.25
390.512	349.25
390.736	377.25
390.961	369.25
391.186	385.25
391.411	387.25
391.636	388.25
391.86	397.25
392.085	382.25
392.31	369.25
392.534	379.25
392.759	393.25
392.984	379.25
393.208	379.25
393.433	382.25
393.658	381.25
393.882	372.25
394.107	382.25
394.331	386.25
394.556	373.25
394.78	383.25
395.005	377.25
395.229	392.25
395.454	366.25
395.678	388.25
395.903	408.25
396.127	410.25
396.352	453.25
396.576	379.25
396.801	387.25
397.025	372.25
397.249	377.25
397.474	393.25
397.698	407.25
397.922	388.25
398.147	422.25
398.371	437.25
398.595	438.25
398.82	411.25
399.044	421.25
399.268	452.25
399.492	440.25
399.717	456.25
399.941	481.25
400.165	514.25
400.389	525.25
400.613	507.25
400.837	429.25
401.062	447.25
401.286	440.25
401.51	425.25
401.734	435.25
401.958	421.25
402.182	430.25
402.406	462.25
402.63	458.25
402.854	446.25
403.078	442.25
403.302	448.25
403.526	452.25
403.75	462.25
403.974	446.25
404.198	438.25
404.422	435.25
404.645	466.25
404.869	458.25
405.093	504.25
405.317	553.25
405.541	579.25
405.765	505.25
405.988	469.25
406.212	506.25
406.436	511.25
406.66	531.25
406.883	507.25
407.107	495.25
407.331	554.25
407.555	610.25
407.778	611.25
408.002	566.25
408.226	531.25
408.449	494.25
408.673	512.25
408.896	530.25
409.12	570.25
409.344	529.25
409.567	476.25
409.791	459.25
410.014	468.25
410.238	462.25
410.461	467.25
410.685	467.25
410.908	476.25
411.132	504.25
411.355	564.25
411.578	513.25
411.802	469.25
412.025	450.25
412.249	428.25
412.472	472.25
412.695	541.25
412.919	525.25
413.142	458.25
413.365	469.25
413.589	441.25
413.812	428.25
414.035	425.25
414.258	438.25
414.482	425.25
414.705	419.25
414.928	426.25
415.151	432.25
415.374	424.25
415.597	428.25
415.821	425.25
416.044	410.25
416.267	445.25
416.49	465.25
416.713	412.25
416.936	425.25
417.159	426.25
417.382	458.25
417.605	449.25
417.828	453.25
418.051	453.25
418.274	451.25
418.497	448.25
418.72	404.25
418.943	415.25
419.166	455.25
419.389	468.25
419.611	484.25
419.834	443.25
420.057	463.25
420.28	480.25
420.503	455.25
420.726	462.25
420.948	492.25
421.171	528.25
421.394	548.25
421.617	485.25
421.839	479.25
422.062	452.25
422.285	487.25
422.507	518.25
422.73	607.25
422.953	592.25
423.175	514.25
423.398	487.25
423.621	515.25
423.843	518.25
424.066	511.25
424.288	503.25
424.511	529.25
424.733	582.25
424.956	665.25
425.178	649.25
425.401	616.25
425.623	661.25
425.846	573.25
426.068	508.25
426.291	527.25
426.513	529.25
426.735	525.25
426.958	570.25
427.18	651.25
427.402	794.25
427.625	831.25
427.847	735.25
428.069	691.25
428.292	618.25
428.514	535.25
428.736	502.25
428.958	489.25
429.181	469.25
429.403	469.25
429.625	485.25
429.847	528.25
430.069	601.25
430.292	577.25
430.514	503.25
430.736	490.25
430.958	457.25
431.18	447.25
431.402	454.25
431.624	441.25
431.846	446.25
432.068	459.25
432.29	438.25
432.512	484.25
432.734	475.25
432.956	453.25
433.178	449.25
433.4	446.25
433.622	478.25
433.844	442.25
434.066	459.25
434.287	444.25
434.509	441.25
434.731	445.25
434.953	472.25
435.175	467.25
435.397	506.25
435.618	501.25
435.84	550.25
436.062	656.25
436.284	735.25
436.505	595.25
436.727	518.25
436.949	508.25
437.17	490.25
437.392	465.25
437.614	488.25
437.835	546.25
438.057	638.25
438.278	718.25
438.5	717.25
438.721	786.25
438.943	745.25
439.165	606.25
439.386	569.25
439.608	535.25
439.829	543.25
440.05	583.25
440.272	620.25
440.493	571.25
440.715	524.25
440.936	501.25
441.158	500.25
441.379	486.25
441.6	483.25
441.822	515.25
442.043	558.25
442.264	641.25
442.486	680.25
442.707	599.25
442.928	549.25
443.149	540.25
443.371	558.25
443.592	606.25
443.813	707.25
444.034	735.25
444.255	609.25
444.476	556.25
444.698	526.25
444.919	521.25
445.14	610.25
445.361	570.25
445.582	575.25
445.803	630.25
446.024	726.25
446.245	745.25
446.466	683.25
446.687	571.25
446.908	512.25
447.129	499.25
447.35	475.25
447.571	479.25
447.792	471.25
448.013	488.25
448.234	515.25
448.455	555.25
448.675	665.25
448.896	759.25
449.117	637.25
449.338	630.25
449.559	719.25
449.779	814.25
450	656.25
450.221	559.25
450.442	511.25
450.662	484.25
450.883	492.25
451.104	514.25
451.324	526.25
451.545	481.25
451.766	460.25
451.986	433.25
452.207	433.25
452.428	457.25
452.648	420.25
452.869	438.25
453.089	433.25
453.31	469.25
453.53	460.25
453.751	430.25
453.971	451.25
454.192	489.25
454.412	433.25
454.633	430.25
454.853	434.25
455.073	437.25
455.294	461.25
455.514	542.25
455.734	519.25
455.955	443.25
456.175	405.25
456.395	390.25
456.616	394.25
456.836	398.25
457.056	390.25
457.276	389.25
457.497	396.25
457.717	399.25
457.937	410.25
458.157	426.25
458.377	421.25
458.598	450.25
458.818	525.25
459.038	626.25
459.258	619.25
459.478	517.25
459.698	461.25
459.918	453.25
460.138	421.25
460.358	454.25
460.578	427.25
460.798	423.25
461.018	447.25
461.238	433.25
461.458	451.25
461.678	395.25
461.898	409.25
462.118	421.25
462.338	428.25
462.558	430.25
462.777	447.25
462.997	470.25
463.217	442.25
463.437	471.25
463.657	454.25
463.876	441.25
464.096	457.25
464.316	457.25
464.536	463.25
464.755	477.25
464.975	483.25
465.195	558.25
465.414	618.25
465.634	545.25
465.854	487.25
466.073	472.25
466.293	453.25
466.512	417.25
466.732	435.25
466.951	417.25
467.171	441.25
467.391	423.25
467.61	457.25
467.829	453.25
468.049	465.25
468.268	421.25
468.488	436.25
468.707	428.25
468.927	420.25
469.146	407.25
469.365	398.25
469.585	410.25
469.804	437.25
470.023	472.25
470.243	442.25
470.462	453.25
470.681	483.25
470.901	458.25
471.12	431.25
471.339	443.25
471.558	441.25
471.777	462.25
471.997	443.25
472.216	440.25
472.435	508.25
472.654	449.25
472.873	451.25
473.092	451.25
473.311	442.25
473.53	451.25
473.749	440.25
473.968	499.25
474.187	615.25
474.406	635.25
474.625	515.25
474.844	485.25
475.063	451.25
475.282	438.25
475.501	464.25
475.72	460.25
475.939	444.25
476.158	450.25
476.377	445.25
476.596	459.25
476.814	460.25
477.033	438.25
477.252	456.25
477.471	462.25
477.69	471.25
477.908	473.25
478.127	482.25
478.346	457.25
478.564	471.25
478.783	485.25
479.002	492.25
479.22	495.25
479.439	503.25
479.658	531.25
479.876	541.25
480.095	561.25
480.313	572.25
480.532	559.25
480.751	519.25
480.969	569.25
481.188	619.25
481.406	690.25
481.624	604.25
481.843	553.25
482.061	542.25
482.28	531.25
482.498	528.25
482.717	522.25
482.935	530.25
483.153	531.25
483.372	507.25
483.59	542.25
483.808	517.25
484.027	535.25
484.245	530.25
484.463	531.25
484.681	531.25
484.9	526.25
485.118	500.25
485.336	518.25
485.554	534.25
485.772	529.25
485.99	533.25
486.209	533.25
486.427	540.25
486.645	579.25
486.863	566.25
487.081	588.25
487.299	579.25
487.517	572.25
487.735	568.25
487.953	573.25
488.171	561.25
488.389	555.25
488.607	585.25
488.825	565.25
489.043	562.25
489.261	593.25
489.479	587.25
489.696	581.25
489.914	581.25
490.132	569.25
490.35	592.25
490.568	591.25
490.786	576.25
491.003	613.25
491.221	631.25
491.439	636.25
491.657	619.25
491.874	649.25
492.092	654.25
492.31	676.25
492.527	682.25
492.745	670.25
492.963	676.25
493.18	672.25
493.398	671.25
493.615	667.25
493.833	664.25
494.05	664.25
494.268	684.25
494.485	673.25
494.703	666.25
494.92	677.25
495.138	678.25
495.355	697.25
495.573	689.25
495.79	661.25
496.008	691.25
496.225	669.25
496.442	685.25
496.66	662.25
496.877	674.25
497.094	677.25
497.312	657.25
497.529	677.25
497.746	694.25
497.963	674.25
498.181	731.25
498.398	715.25
498.615	719.25
498.832	729.25
499.049	715.25
499.267	727.25
499.484	732.25
499.701	774.25
499.918	757.25
500.135	811.25
500.352	812.25
500.569	779.25
500.786	811.25
501.003	822.25
501.22	788.25
501.437	824.25
501.654	771.25
501.871	802.25
