Data from 1980.PennyLincolnUp.Lamp.En5.5.200Scan.071819.P1_HRD10591_16-37-13-957.txt Node
Date: Thu Jul 18 16:37:13 EDT 2019
User: cochatt
Spectrometer: HR+D1059
Trigger mode: 1
Integration Time (sec): 1.000000E-1
Scans to average: 1
Electric dark correction enabled: true
Nonlinearity correction enabled: false
Boxcar width: 0
XAxis mode: Wavelengths
Number of Pixels in Spectrum: 2048
>>>>>Begin Spectral Data<<<<<
223.165	-21.88
223.4	-21.88
223.635	-21.88
223.869	-10.88
224.104	-22.88
224.338	-11.88
224.573	-14.88
224.808	-4.88
225.042	2.12
225.277	-20.88
225.511	-3.88
225.746	11.12
225.98	0.12
226.215	4.12
226.449	14.12
226.683	22.12
226.918	22.12
227.152	36.12
227.387	50.12
227.621	47.12
227.856	54.12
228.09	43.12
228.324	54.12
228.559	51.12
228.793	59.12
229.027	105.12
229.262	102.12
229.496	134.12
229.73	147.12
229.964	172.12
230.199	139.12
230.433	119.12
230.667	113.12
230.901	111.12
231.136	130.12
231.37	127.12
231.604	116.12
231.838	115.12
232.072	132.12
232.306	108.12
232.541	115.12
232.775	118.12
233.009	115.12
233.243	97.12
233.477	105.12
233.711	118.12
233.945	123.12
234.179	136.12
234.413	110.12
234.647	117.12
234.881	92.12
235.115	119.12
235.349	99.12
235.583	109.12
235.817	129.12
236.051	109.12
236.285	134.12
236.519	127.12
236.753	135.12
236.987	136.12
237.221	177.12
237.455	232.12
237.689	195.12
237.922	149.12
238.156	134.12
238.39	119.12
238.624	131.12
238.858	128.12
239.091	111.12
239.325	127.12
239.559	123.12
239.793	128.12
240.027	133.12
240.26	141.12
240.494	145.12
240.728	154.12
240.961	149.12
241.195	141.12
241.429	142.12
241.662	127.12
241.896	140.12
242.13	135.12
242.363	139.12
242.597	136.12
242.83	122.12
243.064	141.12
243.298	135.12
243.531	144.12
243.765	135.12
243.998	151.12
244.232	126.12
244.465	147.12
244.699	135.12
244.932	153.12
245.166	157.12
245.399	132.12
245.633	139.12
245.866	129.12
246.099	158.12
246.333	155.12
246.566	144.12
246.8	147.12
247.033	146.12
247.266	145.12
247.5	167.12
247.733	185.12
247.966	162.12
248.2	173.12
248.433	168.12
248.666	164.12
248.899	173.12
249.133	196.12
249.366	211.12
249.599	193.12
249.832	187.12
250.066	189.12
250.299	181.12
250.532	207.12
250.765	191.12
250.998	223.12
251.231	227.12
251.465	214.12
251.698	216.12
251.931	198.12
252.164	204.12
252.397	201.12
252.63	200.12
252.863	215.12
253.096	217.12
253.329	224.12
253.562	224.12
253.795	238.12
254.028	218.12
254.261	218.12
254.494	233.12
254.727	273.12
254.96	296.12
255.193	271.12
255.426	268.12
255.659	236.12
255.892	235.12
256.124	213.12
256.357	236.12
256.59	217.12
256.823	213.12
257.056	221.12
257.289	225.12
257.521	197.12
257.754	197.12
257.987	202.12
258.22	205.12
258.452	211.12
258.685	208.12
258.918	203.12
259.151	229.12
259.383	217.12
259.616	226.12
259.849	222.12
260.081	236.12
260.314	249.12
260.547	261.12
260.779	256.12
261.012	235.12
261.244	229.12
261.477	234.12
261.71	191.12
261.942	223.12
262.175	241.12
262.407	229.12
262.64	221.12
262.872	215.12
263.105	201.12
263.337	207.12
263.57	198.12
263.802	198.12
264.035	204.12
264.267	198.12
264.499	204.12
264.732	213.12
264.964	209.12
265.197	209.12
265.429	212.12
265.661	199.12
265.894	209.12
266.126	205.12
266.358	210.12
266.591	195.12
266.823	204.12
267.055	217.12
267.287	223.12
267.52	207.12
267.752	218.12
267.984	209.12
268.216	217.12
268.448	219.12
268.681	211.12
268.913	236.12
269.145	254.12
269.377	277.12
269.609	281.12
269.841	273.12
270.073	261.12
270.306	281.12
270.538	299.12
270.77	306.12
271.002	296.12
271.234	293.12
271.466	286.12
271.698	309.12
271.93	327.12
272.162	316.12
272.394	335.12
272.626	311.12
272.858	281.12
273.09	286.12
273.322	270.12
273.553	254.12
273.785	249.12
274.017	265.12
274.249	266.12
274.481	259.12
274.713	263.12
274.945	255.12
275.176	259.12
275.408	237.12
275.64	232.12
275.872	238.12
276.104	263.12
276.335	253.12
276.567	259.12
276.799	288.12
277.031	292.12
277.262	306.12
277.494	301.12
277.726	289.12
277.957	288.12
278.189	263.12
278.421	258.12
278.652	271.12
278.884	241.12
279.115	240.12
279.347	255.12
279.579	252.12
279.81	247.12
280.042	254.12
280.273	253.12
280.505	265.12
280.736	258.12
280.968	253.12
281.199	280.12
281.431	255.12
281.662	247.12
281.894	252.12
282.125	260.12
282.356	259.12
282.588	290.12
282.819	297.12
283.051	261.12
283.282	258.12
283.513	259.12
283.745	258.12
283.976	268.12
284.207	251.12
284.439	262.12
284.67	264.12
284.901	251.12
285.132	251.12
285.364	246.12
285.595	273.12
285.826	262.12
286.057	269.12
286.288	244.12
286.52	257.12
286.751	259.12
286.982	255.12
287.213	237.12
287.444	250.12
287.675	261.12
287.906	254.12
288.138	279.12
288.369	286.12
288.6	283.12
288.831	281.12
289.062	241.12
289.293	264.12
289.524	269.12
289.755	262.12
289.986	271.12
290.217	260.12
290.448	252.12
290.679	256.12
290.91	237.12
291.141	249.12
291.371	261.12
291.602	271.12
291.833	249.12
292.064	256.12
292.295	241.12
292.526	272.12
292.757	265.12
292.987	248.12
293.218	243.12
293.449	256.12
293.68	255.12
293.91	256.12
294.141	241.12
294.372	271.12
294.603	233.12
294.833	258.12
295.064	259.12
295.295	252.12
295.525	253.12
295.756	277.12
295.987	282.12
296.217	304.12
296.448	310.12
296.679	272.12
296.909	275.12
297.14	280.12
297.37	277.12
297.601	240.12
297.831	265.12
298.062	269.12
298.292	270.12
298.523	273.12
298.753	275.12
298.984	266.12
299.214	269.12
299.445	273.12
299.675	271.12
299.905	301.12
300.136	286.12
300.366	277.12
300.597	261.12
300.827	286.12
301.057	282.12
301.288	301.12
301.518	296.12
301.748	298.12
301.979	292.12
302.209	284.12
302.439	293.12
302.669	284.12
302.9	307.12
303.13	292.12
303.36	281.12
303.59	300.12
303.82	304.12
304.051	302.12
304.281	297.12
304.511	298.12
304.741	287.12
304.971	304.12
305.201	313.12
305.431	279.12
305.661	281.12
305.891	288.12
306.121	287.12
306.352	308.12
306.582	299.12
306.812	301.12
307.042	288.12
307.272	292.12
307.502	292.12
307.731	292.12
307.961	294.12
308.191	299.12
308.421	302.12
308.651	316.12
308.881	316.12
309.111	308.12
309.341	300.12
309.571	305.12
309.8	324.12
310.03	337.12
310.26	338.12
310.49	335.12
310.72	352.12
310.949	350.12
311.179	374.12
311.409	360.12
311.639	355.12
311.868	340.12
312.098	352.12
312.328	362.12
312.557	387.12
312.787	401.12
313.017	385.12
313.246	348.12
313.476	336.12
313.706	332.12
313.935	348.12
314.165	343.12
314.394	373.12
314.624	379.12
314.853	360.12
315.083	361.12
315.312	350.12
315.542	354.12
315.771	344.12
316.001	332.12
316.23	343.12
316.46	331.12
316.689	331.12
316.919	336.12
317.148	351.12
317.377	348.12
317.607	346.12
317.836	359.12
318.065	340.12
318.295	338.12
318.524	333.12
318.753	334.12
318.983	337.12
319.212	324.12
319.441	343.12
319.67	356.12
319.9	336.12
320.129	346.12
320.358	334.12
320.587	341.12
320.816	364.12
321.046	365.12
321.275	381.12
321.504	368.12
321.733	357.12
321.962	363.12
322.191	392.12
322.42	407.12
322.649	411.12
322.878	435.12
323.108	438.12
323.337	459.12
323.566	481.12
323.795	511.12
324.024	595.12
324.253	705.12
324.482	987.12
324.71	1524.12
324.939	2224.12
325.168	1970.12
325.397	1051.12
325.626	707.12
325.855	575.12
326.084	561.12
326.313	485.12
326.542	501.12
326.77	559.12
326.999	645.12
327.228	891.12
327.457	1362.12
327.686	1717.12
327.914	1157.12
328.143	768.12
328.372	638.12
328.6	605.12
328.829	578.12
329.058	597.12
329.287	608.12
329.515	541.12
329.744	520.12
329.972	494.12
330.201	511.12
330.43	556.12
330.658	589.12
330.887	637.12
331.115	601.12
331.344	535.12
331.572	469.12
331.801	471.12
332.03	469.12
332.258	450.12
332.486	416.12
332.715	405.12
332.943	401.12
333.172	419.12
333.4	393.12
333.629	424.12
333.857	402.12
334.085	470.12
334.314	457.12
334.542	483.12
334.771	505.12
334.999	462.12
335.227	428.12
335.455	417.12
335.684	398.12
335.912	397.12
336.14	396.12
336.369	393.12
336.597	404.12
336.825	403.12
337.053	414.12
337.281	399.12
337.51	389.12
337.738	383.12
337.966	380.12
338.194	399.12
338.422	397.12
338.65	388.12
338.878	381.12
339.106	367.12
339.334	383.12
339.562	383.12
339.79	385.12
340.018	394.12
340.246	392.12
340.474	395.12
340.702	377.12
340.93	378.12
341.158	384.12
341.386	398.12
341.614	388.12
341.842	387.12
342.07	385.12
342.298	406.12
342.526	363.12
342.754	371.12
342.981	352.12
343.209	377.12
343.437	375.12
343.665	365.12
343.893	378.12
344.12	371.12
344.348	383.12
344.576	379.12
344.804	394.12
345.031	412.12
345.259	424.12
345.487	392.12
345.714	395.12
345.942	375.12
346.17	388.12
346.397	379.12
346.625	373.12
346.853	377.12
347.08	386.12
347.308	392.12
347.535	391.12
347.763	392.12
347.99	393.12
348.218	378.12
348.445	394.12
348.673	404.12
348.9	379.12
349.128	357.12
349.355	357.12
349.583	350.12
349.81	368.12
350.037	364.12
350.265	364.12
350.492	337.12
350.72	360.12
350.947	383.12
351.174	387.12
351.402	391.12
351.629	384.12
351.856	369.12
352.083	379.12
352.311	391.12
352.538	407.12
352.765	404.12
352.992	402.12
353.22	380.12
353.447	375.12
353.674	387.12
353.901	349.12
354.128	358.12
354.355	364.12
354.583	349.12
354.81	360.12
355.037	340.12
355.264	328.12
355.491	343.12
355.718	349.12
355.945	342.12
356.172	349.12
356.399	347.12
356.626	343.12
356.853	344.12
357.08	347.12
357.307	344.12
357.534	336.12
357.761	342.12
357.988	339.12
358.215	356.12
358.441	360.12
358.668	359.12
358.895	325.12
359.122	346.12
359.349	359.12
359.576	381.12
359.802	415.12
360.029	428.12
360.256	446.12
360.483	431.12
360.709	387.12
360.936	379.12
361.163	379.12
361.39	392.12
361.616	389.12
361.843	385.12
362.07	393.12
362.296	383.12
362.523	375.12
362.749	374.12
362.976	367.12
363.203	370.12
363.429	355.12
363.656	338.12
363.882	343.12
364.109	371.12
364.335	344.12
364.562	353.12
364.788	365.12
365.015	344.12
365.241	362.12
365.468	380.12
365.694	365.12
365.92	347.12
366.147	352.12
366.373	332.12
366.599	356.12
366.826	332.12
367.052	349.12
367.278	342.12
367.505	364.12
367.731	359.12
367.957	367.12
368.184	353.12
368.41	356.12
368.636	383.12
368.862	375.12
369.089	368.12
369.315	377.12
369.541	356.12
369.767	336.12
369.993	343.12
370.219	345.12
370.445	360.12
370.672	346.12
370.898	349.12
371.124	341.12
371.35	349.12
371.576	353.12
371.802	334.12
372.028	348.12
372.254	336.12
372.48	344.12
372.706	337.12
372.932	346.12
373.158	355.12
373.384	351.12
373.61	347.12
373.835	352.12
374.061	377.12
374.287	358.12
374.513	350.12
374.739	358.12
374.965	342.12
375.191	341.12
375.416	353.12
375.642	350.12
375.868	352.12
376.094	339.12
376.319	342.12
376.545	334.12
376.771	342.12
376.997	334.12
377.222	342.12
377.448	362.12
377.674	340.12
377.899	351.12
378.125	349.12
378.35	345.12
378.576	343.12
378.802	334.12
379.027	335.12
379.253	332.12
379.478	359.12
379.704	364.12
379.929	350.12
380.155	351.12
380.38	339.12
380.606	357.12
380.831	357.12
381.057	335.12
381.282	352.12
381.507	343.12
381.733	351.12
381.958	346.12
382.184	351.12
382.409	346.12
382.634	352.12
382.86	348.12
383.085	356.12
383.31	360.12
383.535	362.12
383.761	347.12
383.986	358.12
384.211	371.12
384.436	360.12
384.662	369.12
384.887	369.12
385.112	346.12
385.337	345.12
385.562	378.12
385.787	347.12
386.013	351.12
386.238	392.12
386.463	394.12
386.688	382.12
386.913	354.12
387.138	360.12
387.363	372.12
387.588	366.12
387.813	380.12
388.038	392.12
388.263	361.12
388.488	363.12
388.713	351.12
388.938	360.12
389.163	393.12
389.387	366.12
389.612	351.12
389.837	369.12
390.062	363.12
390.287	360.12
390.512	363.12
390.736	372.12
390.961	348.12
391.186	362.12
391.411	373.12
391.636	381.12
391.86	376.12
392.085	360.12
392.31	364.12
392.534	379.12
392.759	368.12
392.984	359.12
393.208	380.12
393.433	359.12
393.658	363.12
393.882	364.12
394.107	356.12
394.331	364.12
394.556	368.12
394.78	365.12
395.005	368.12
395.229	366.12
395.454	363.12
395.678	367.12
395.903	401.12
396.127	412.12
396.352	391.12
396.576	411.12
396.801	388.12
397.025	380.12
397.249	408.12
397.474	407.12
397.698	388.12
397.922	396.12
398.147	401.12
398.371	416.12
398.595	406.12
398.82	395.12
399.044	407.12
399.268	402.12
399.492	422.12
399.717	457.12
399.941	463.12
400.165	503.12
400.389	513.12
400.613	469.12
400.837	451.12
401.062	440.12
401.286	431.12
401.51	419.12
401.734	404.12
401.958	423.12
402.182	412.12
402.406	436.12
402.63	420.12
402.854	430.12
403.078	437.12
403.302	419.12
403.526	422.12
403.75	423.12
403.974	422.12
404.198	443.12
404.422	438.12
404.645	461.12
404.869	435.12
405.093	491.12
405.317	520.12
405.541	530.12
405.765	483.12
405.988	467.12
406.212	451.12
406.436	503.12
406.66	488.12
406.883	471.12
407.107	514.12
407.331	539.12
407.555	598.12
407.778	573.12
408.002	517.12
408.226	471.12
408.449	492.12
408.673	486.12
408.896	508.12
409.12	531.12
409.344	519.12
409.567	475.12
409.791	450.12
410.014	431.12
410.238	427.12
410.461	444.12
410.685	457.12
410.908	445.12
411.132	480.12
411.355	540.12
411.578	492.12
411.802	460.12
412.025	440.12
412.249	451.12
412.472	477.12
412.695	488.12
412.919	487.12
413.142	437.12
413.365	443.12
413.589	431.12
413.812	433.12
414.035	449.12
414.258	431.12
414.482	417.12
414.705	426.12
414.928	411.12
415.151	411.12
415.374	418.12
415.597	416.12
415.821	418.12
416.044	398.12
416.267	416.12
416.49	395.12
416.713	402.12
416.936	415.12
417.159	415.12
417.382	449.12
417.605	415.12
417.828	428.12
418.051	440.12
418.274	433.12
418.497	412.12
418.72	428.12
418.943	398.12
419.166	420.12
419.389	441.12
419.611	451.12
419.834	437.12
420.057	443.12
420.28	441.12
420.503	425.12
420.726	436.12
420.948	451.12
421.171	507.12
421.394	528.12
421.617	489.12
421.839	435.12
422.062	439.12
422.285	477.12
422.507	486.12
422.73	589.12
422.953	581.12
423.175	512.12
423.398	461.12
423.621	472.12
423.843	486.12
424.066	493.12
424.288	475.12
424.511	494.12
424.733	544.12
424.956	605.12
425.178	618.12
425.401	582.12
425.623	629.12
425.846	525.12
426.068	486.12
426.291	501.12
426.513	487.12
426.735	504.12
426.958	551.12
427.18	614.12
427.402	725.12
427.625	799.12
427.847	718.12
428.069	633.12
428.292	560.12
428.514	499.12
428.736	478.12
428.958	474.12
429.181	451.12
429.403	465.12
429.625	464.12
429.847	488.12
430.069	549.12
430.292	562.12
430.514	497.12
430.736	457.12
430.958	431.12
431.18	439.12
431.402	436.12
431.624	442.12
431.846	409.12
432.068	418.12
432.29	422.12
432.512	420.12
432.734	431.12
432.956	420.12
433.178	411.12
433.4	451.12
433.622	437.12
433.844	415.12
434.066	415.12
434.287	434.12
434.509	429.12
434.731	435.12
434.953	423.12
435.175	441.12
435.397	486.12
435.618	488.12
435.84	545.12
436.062	599.12
436.284	696.12
436.505	572.12
436.727	496.12
436.949	464.12
437.17	453.12
437.392	431.12
437.614	457.12
437.835	528.12
438.057	631.12
438.278	714.12
438.5	693.12
438.721	770.12
438.943	706.12
439.165	559.12
439.386	518.12
439.608	533.12
439.829	521.12
440.05	543.12
440.272	590.12
440.493	555.12
440.715	511.12
440.936	488.12
441.158	457.12
441.379	448.12
441.6	458.12
441.822	481.12
442.043	541.12
442.264	592.12
442.486	671.12
442.707	566.12
442.928	513.12
443.149	521.12
443.371	544.12
443.592	554.12
443.813	641.12
444.034	700.12
444.255	582.12
444.476	511.12
444.698	476.12
444.919	479.12
445.14	570.12
445.361	543.12
445.582	566.12
445.803	601.12
446.024	691.12
446.245	697.12
446.466	653.12
446.687	560.12
446.908	519.12
447.129	489.12
447.35	468.12
447.571	435.12
447.792	449.12
448.013	478.12
448.234	485.12
448.455	544.12
448.675	635.12
448.896	720.12
449.117	616.12
449.338	591.12
449.559	683.12
449.779	740.12
450	619.12
450.221	542.12
450.442	492.12
450.662	451.12
450.883	475.12
451.104	477.12
451.324	463.12
451.545	464.12
451.766	422.12
451.986	407.12
452.207	415.12
452.428	399.12
452.648	411.12
452.869	418.12
453.089	431.12
453.31	427.12
453.53	422.12
453.751	419.12
453.971	420.12
454.192	439.12
454.412	435.12
454.633	420.12
454.853	402.12
455.073	399.12
455.294	432.12
455.514	486.12
455.734	502.12
455.955	444.12
456.175	391.12
456.395	394.12
456.616	391.12
456.836	398.12
457.056	375.12
457.276	381.12
457.497	381.12
457.717	391.12
457.937	404.12
458.157	395.12
458.377	406.12
458.598	391.12
458.818	517.12
459.038	571.12
459.258	587.12
459.478	472.12
459.698	439.12
459.918	432.12
460.138	420.12
460.358	419.12
460.578	409.12
460.798	420.12
461.018	417.12
461.238	419.12
461.458	399.12
461.678	407.12
461.898	411.12
462.118	427.12
462.338	404.12
462.558	435.12
462.777	412.12
462.997	424.12
463.217	428.12
463.437	427.12
463.657	428.12
463.876	428.12
464.096	454.12
464.316	428.12
464.536	439.12
464.755	425.12
464.975	447.12
465.195	499.12
465.414	592.12
465.634	524.12
465.854	480.12
466.073	445.12
466.293	424.12
466.512	400.12
466.732	392.12
466.951	417.12
467.171	399.12
467.391	415.12
467.61	437.12
467.829	423.12
468.049	413.12
468.268	426.12
468.488	404.12
468.707	403.12
468.927	394.12
469.146	389.12
469.365	394.12
469.585	402.12
469.804	405.12
470.023	435.12
470.243	429.12
470.462	412.12
470.681	452.12
470.901	429.12
471.12	429.12
471.339	416.12
471.558	419.12
471.777	411.12
471.997	401.12
472.216	425.12
472.435	463.12
472.654	449.12
472.873	425.12
473.092	419.12
473.311	401.12
473.53	422.12
473.749	440.12
473.968	488.12
474.187	560.12
474.406	632.12
474.625	504.12
474.844	447.12
475.063	442.12
475.282	428.12
475.501	437.12
475.72	426.12
475.939	407.12
476.158	429.12
476.377	425.12
476.596	451.12
476.814	436.12
477.033	449.12
477.252	441.12
477.471	446.12
477.69	455.12
477.908	431.12
478.127	442.12
478.346	469.12
478.564	447.12
478.783	468.12
479.002	477.12
479.22	461.12
479.439	475.12
479.658	507.12
479.876	506.12
480.095	523.12
480.313	538.12
480.532	529.12
480.751	531.12
480.969	518.12
481.188	591.12
481.406	641.12
481.624	576.12
481.843	507.12
482.061	508.12
482.28	503.12
482.498	501.12
482.717	494.12
482.935	471.12
483.153	484.12
483.372	500.12
483.59	502.12
483.808	492.12
484.027	481.12
484.245	503.12
484.463	491.12
484.681	517.12
484.9	504.12
485.118	495.12
485.336	493.12
485.554	499.12
485.772	515.12
485.99	522.12
486.209	509.12
486.427	532.12
486.645	509.12
486.863	557.12
487.081	542.12
487.299	530.12
487.517	548.12
487.735	518.12
487.953	533.12
488.171	537.12
488.389	540.12
488.607	527.12
488.825	557.12
489.043	540.12
489.261	539.12
489.479	530.12
489.696	541.12
489.914	552.12
490.132	555.12
490.35	556.12
490.568	574.12
490.786	554.12
491.003	585.12
491.221	587.12
491.439	598.12
491.657	611.12
491.874	622.12
492.092	648.12
492.31	635.12
492.527	603.12
492.745	631.12
492.963	604.12
493.18	638.12
493.398	641.12
493.615	629.12
493.833	654.12
494.05	649.12
494.268	657.12
494.485	646.12
494.703	644.12
494.92	617.12
495.138	641.12
495.355	649.12
495.573	642.12
495.79	645.12
496.008	637.12
496.225	650.12
496.442	639.12
496.66	632.12
496.877	657.12
497.094	640.12
497.312	653.12
497.529	641.12
497.746	650.12
497.963	665.12
498.181	687.12
498.398	683.12
498.615	686.12
498.832	665.12
499.049	679.12
499.267	690.12
499.484	693.12
499.701	715.12
499.918	728.12
500.135	761.12
500.352	770.12
500.569	791.12
500.786	797.12
501.003	785.12
501.22	784.12
501.437	764.12
501.654	740.12
501.871	755.12
