Data from 1980.PennyLincolnUp.Lamp.En5.5.200Scan.071819.P1_HRD10591_16-38-06-957.txt Node
Date: Thu Jul 18 16:38:06 EDT 2019
User: cochatt
Spectrometer: HR+D1059
Trigger mode: 1
Integration Time (sec): 1.000000E-1
Scans to average: 1
Electric dark correction enabled: true
Nonlinearity correction enabled: false
Boxcar width: 0
XAxis mode: Wavelengths
Number of Pixels in Spectrum: 2048
>>>>>Begin Spectral Data<<<<<
223.165	1.88
223.4	1.88
223.635	1.88
223.869	-28.12
224.104	-34.12
224.338	2.88
224.573	-9.12
224.808	-8.12
225.042	-10.12
225.277	-15.12
225.511	-1.12
225.746	-0.12
225.98	7.88
226.215	-0.12
226.449	6.88
226.683	20.88
226.918	32.88
227.152	32.88
227.387	40.88
227.621	39.88
227.856	43.88
228.09	45.88
228.324	54.88
228.559	55.88
228.793	56.88
229.027	101.88
229.262	110.88
229.496	122.88
229.73	156.88
229.964	166.88
230.199	139.88
230.433	117.88
230.667	118.88
230.901	119.88
231.136	113.88
231.37	102.88
231.604	113.88
231.838	114.88
232.072	97.88
232.306	110.88
232.541	113.88
232.775	126.88
233.009	118.88
233.243	110.88
233.477	107.88
233.711	106.88
233.945	118.88
234.179	103.88
234.413	119.88
234.647	118.88
234.881	120.88
235.115	114.88
235.349	126.88
235.583	120.88
235.817	123.88
236.051	126.88
236.285	128.88
236.519	130.88
236.753	138.88
236.987	146.88
237.221	203.88
237.455	251.88
237.689	198.88
237.922	141.88
238.156	141.88
238.39	139.88
238.624	144.88
238.858	140.88
239.091	124.88
239.325	131.88
239.559	127.88
239.793	136.88
240.027	131.88
240.26	123.88
240.494	177.88
240.728	150.88
240.961	138.88
241.195	132.88
241.429	142.88
241.662	140.88
241.896	144.88
242.13	146.88
242.363	125.88
242.597	145.88
242.83	147.88
243.064	144.88
243.298	128.88
243.531	134.88
243.765	139.88
243.998	143.88
244.232	146.88
244.465	154.88
244.699	149.88
244.932	148.88
245.166	130.88
245.399	148.88
245.633	148.88
245.866	148.88
246.099	154.88
246.333	155.88
246.566	169.88
246.8	150.88
247.033	148.88
247.266	139.88
247.5	160.88
247.733	166.88
247.966	174.88
248.2	182.88
248.433	180.88
248.666	177.88
248.899	196.88
249.133	210.88
249.366	207.88
249.599	209.88
249.832	196.88
250.066	187.88
250.299	195.88
250.532	189.88
250.765	214.88
250.998	212.88
251.231	250.88
251.465	228.88
251.698	213.88
251.931	215.88
252.164	200.88
252.397	200.88
252.63	187.88
252.863	204.88
253.096	207.88
253.329	236.88
253.562	240.88
253.795	233.88
254.028	230.88
254.261	240.88
254.494	246.88
254.727	282.88
254.96	314.88
255.193	286.88
255.426	266.88
255.659	244.88
255.892	250.88
256.124	225.88
256.357	256.88
256.59	253.88
256.823	231.88
257.056	213.88
257.289	215.88
257.521	213.88
257.754	232.88
257.987	230.88
258.22	226.88
258.452	218.88
258.685	212.88
258.918	204.88
259.151	214.88
259.383	221.88
259.616	231.88
259.849	227.88
260.081	237.88
260.314	282.88
260.547	264.88
260.779	260.88
261.012	243.88
261.244	227.88
261.477	238.88
261.71	236.88
261.942	242.88
262.175	246.88
262.407	246.88
262.64	239.88
262.872	223.88
263.105	225.88
263.337	230.88
263.57	231.88
263.802	208.88
264.035	202.88
264.267	216.88
264.499	219.88
264.732	223.88
264.964	209.88
265.197	215.88
265.429	221.88
265.661	204.88
265.894	232.88
266.126	209.88
266.358	208.88
266.591	222.88
266.823	227.88
267.055	216.88
267.287	222.88
267.52	215.88
267.752	226.88
267.984	235.88
268.216	223.88
268.448	227.88
268.681	233.88
268.913	239.88
269.145	250.88
269.377	282.88
269.609	295.88
269.841	269.88
270.073	267.88
270.306	300.88
270.538	354.88
270.77	320.88
271.002	319.88
271.234	294.88
271.466	310.88
271.698	308.88
271.93	333.88
272.162	340.88
272.394	333.88
272.626	312.88
272.858	315.88
273.09	294.88
273.322	266.88
273.553	273.88
273.785	274.88
274.017	281.88
274.249	269.88
274.481	255.88
274.713	261.88
274.945	258.88
275.176	279.88
275.408	257.88
275.64	259.88
275.872	258.88
276.104	260.88
276.335	266.88
276.567	297.88
276.799	285.88
277.031	316.88
277.262	325.88
277.494	311.88
277.726	310.88
277.957	307.88
278.189	279.88
278.421	281.88
278.652	269.88
278.884	271.88
279.115	263.88
279.347	282.88
279.579	254.88
279.81	264.88
280.042	242.88
280.273	259.88
280.505	262.88
280.736	267.88
280.968	259.88
281.199	251.88
281.431	238.88
281.662	244.88
281.894	269.88
282.125	274.88
282.356	273.88
282.588	312.88
282.819	330.88
283.051	277.88
283.282	264.88
283.513	270.88
283.745	279.88
283.976	276.88
284.207	263.88
284.439	269.88
284.67	266.88
284.901	268.88
285.132	255.88
285.364	269.88
285.595	278.88
285.826	269.88
286.057	270.88
286.288	244.88
286.52	261.88
286.751	263.88
286.982	274.88
287.213	259.88
287.444	254.88
287.675	267.88
287.906	290.88
288.138	282.88
288.369	297.88
288.6	283.88
288.831	282.88
289.062	274.88
289.293	277.88
289.524	264.88
289.755	289.88
289.986	267.88
290.217	264.88
290.448	259.88
290.679	266.88
290.91	260.88
291.141	274.88
291.371	263.88
291.602	286.88
291.833	268.88
292.064	291.88
292.295	272.88
292.526	273.88
292.757	271.88
292.987	252.88
293.218	291.88
293.449	271.88
293.68	257.88
293.91	282.88
294.141	276.88
294.372	275.88
294.603	273.88
294.833	276.88
295.064	268.88
295.295	266.88
295.525	253.88
295.756	290.88
295.987	297.88
296.217	319.88
296.448	317.88
296.679	302.88
296.909	266.88
297.14	290.88
297.37	275.88
297.601	280.88
297.831	273.88
298.062	272.88
298.292	278.88
298.523	280.88
298.753	284.88
298.984	281.88
299.214	284.88
299.445	278.88
299.675	295.88
299.905	313.88
300.136	309.88
300.366	281.88
300.597	286.88
300.827	300.88
301.057	296.88
301.288	298.88
301.518	311.88
301.748	302.88
301.979	295.88
302.209	313.88
302.439	314.88
302.669	319.88
302.9	313.88
303.13	305.88
303.36	283.88
303.59	308.88
303.82	318.88
304.051	324.88
304.281	315.88
304.511	305.88
304.741	296.88
304.971	320.88
305.201	299.88
305.431	306.88
305.661	330.88
305.891	309.88
306.121	301.88
306.352	323.88
306.582	324.88
306.812	310.88
307.042	323.88
307.272	307.88
307.502	330.88
307.731	315.88
307.961	307.88
308.191	313.88
308.421	310.88
308.651	316.88
308.881	328.88
309.111	322.88
309.341	318.88
309.571	345.88
309.8	368.88
310.03	351.88
310.26	364.88
310.49	366.88
310.72	378.88
310.949	383.88
311.179	390.88
311.409	378.88
311.639	378.88
311.868	370.88
312.098	361.88
312.328	373.88
312.557	402.88
312.787	421.88
313.017	403.88
313.246	387.88
313.476	370.88
313.706	372.88
313.935	372.88
314.165	392.88
314.394	396.88
314.624	407.88
314.853	379.88
315.083	381.88
315.312	357.88
315.542	357.88
315.771	345.88
316.001	367.88
316.23	330.88
316.46	355.88
316.689	370.88
316.919	382.88
317.148	387.88
317.377	367.88
317.607	366.88
317.836	362.88
318.065	361.88
318.295	362.88
318.524	363.88
318.753	339.88
318.983	344.88
319.212	359.88
319.441	378.88
319.67	375.88
319.9	381.88
320.129	384.88
320.358	387.88
320.587	365.88
320.816	388.88
321.046	408.88
321.275	410.88
321.504	383.88
321.733	396.88
321.962	397.88
322.191	406.88
322.42	446.88
322.649	444.88
322.878	459.88
323.108	489.88
323.337	500.88
323.566	522.88
323.795	584.88
324.024	643.88
324.253	787.88
324.482	1122.88
324.71	1761.88
324.939	2527.88
325.168	2218.88
325.397	1142.88
325.626	745.88
325.855	592.88
326.084	562.88
326.313	528.88
326.542	562.88
326.77	594.88
326.999	724.88
327.228	991.88
327.457	1516.88
327.686	1912.88
327.914	1310.88
328.143	828.88
328.372	734.88
328.6	644.88
328.829	601.88
329.058	636.88
329.287	655.88
329.515	594.88
329.744	550.88
329.972	548.88
330.201	559.88
330.43	602.88
330.658	631.88
330.887	671.88
331.115	675.88
331.344	539.88
331.572	532.88
331.801	496.88
332.03	504.88
332.258	450.88
332.486	440.88
332.715	432.88
332.943	436.88
333.172	444.88
333.4	442.88
333.629	446.88
333.857	479.88
334.085	464.88
334.314	505.88
334.542	515.88
334.771	564.88
334.999	510.88
335.227	460.88
335.455	436.88
335.684	416.88
335.912	441.88
336.14	419.88
336.369	406.88
336.597	430.88
336.825	446.88
337.053	432.88
337.281	408.88
337.51	428.88
337.738	414.88
337.966	418.88
338.194	430.88
338.422	422.88
338.65	406.88
338.878	392.88
339.106	399.88
339.334	420.88
339.562	391.88
339.79	387.88
340.018	405.88
340.246	402.88
340.474	406.88
340.702	422.88
340.93	402.88
341.158	402.88
341.386	401.88
341.614	412.88
341.842	412.88
342.07	397.88
342.298	390.88
342.526	398.88
342.754	378.88
342.981	378.88
343.209	372.88
343.437	387.88
343.665	394.88
343.893	400.88
344.12	396.88
344.348	388.88
344.576	420.88
344.804	414.88
345.031	435.88
345.259	438.88
345.487	441.88
345.714	402.88
345.942	414.88
346.17	417.88
346.397	396.88
346.625	385.88
346.853	410.88
347.08	396.88
347.308	397.88
347.535	438.88
347.763	418.88
347.99	405.88
348.218	422.88
348.445	407.88
348.673	412.88
348.9	397.88
349.128	392.88
349.355	376.88
349.583	374.88
349.81	371.88
350.037	382.88
350.265	376.88
350.492	382.88
350.72	373.88
350.947	407.88
351.174	407.88
351.402	416.88
351.629	415.88
351.856	421.88
352.083	420.88
352.311	433.88
352.538	423.88
352.765	432.88
352.992	390.88
353.22	406.88
353.447	395.88
353.674	414.88
353.901	374.88
354.128	374.88
354.355	378.88
354.583	360.88
354.81	360.88
355.037	369.88
355.264	363.88
355.491	360.88
355.718	345.88
355.945	382.88
356.172	344.88
356.399	350.88
356.626	348.88
356.853	347.88
357.08	339.88
357.307	368.88
357.534	343.88
357.761	351.88
357.988	373.88
358.215	374.88
358.441	355.88
358.668	384.88
358.895	348.88
359.122	397.88
359.349	400.88
359.576	419.88
359.802	436.88
360.029	447.88
360.256	474.88
360.483	474.88
360.709	421.88
360.936	420.88
361.163	400.88
361.39	412.88
361.616	414.88
361.843	384.88
362.07	400.88
362.296	395.88
362.523	392.88
362.749	422.88
362.976	392.88
363.203	393.88
363.429	367.88
363.656	378.88
363.882	368.88
364.109	390.88
364.335	366.88
364.562	368.88
364.788	387.88
365.015	368.88
365.241	378.88
365.468	390.88
365.694	385.88
365.92	384.88
366.147	372.88
366.373	368.88
366.599	354.88
366.826	368.88
367.052	361.88
367.278	376.88
367.505	356.88
367.731	374.88
367.957	366.88
368.184	375.88
368.41	392.88
368.636	377.88
368.862	391.88
369.089	396.88
369.315	373.88
369.541	347.88
369.767	401.88
369.993	370.88
370.219	367.88
370.445	362.88
370.672	371.88
370.898	359.88
371.124	352.88
371.35	354.88
371.576	357.88
371.802	329.88
372.028	374.88
372.254	360.88
372.48	331.88
372.706	369.88
372.932	339.88
373.158	363.88
373.384	372.88
373.61	363.88
373.835	360.88
374.061	360.88
374.287	375.88
374.513	369.88
374.739	375.88
374.965	370.88
375.191	349.88
375.416	359.88
375.642	354.88
375.868	362.88
376.094	357.88
376.319	352.88
376.545	356.88
376.771	343.88
376.997	366.88
377.222	358.88
377.448	346.88
377.674	344.88
377.899	362.88
378.125	370.88
378.35	353.88
378.576	354.88
378.802	354.88
379.027	361.88
379.253	354.88
379.478	361.88
379.704	366.88
379.929	374.88
380.155	359.88
380.38	386.88
380.606	372.88
380.831	364.88
381.057	361.88
381.282	362.88
381.507	371.88
381.733	350.88
381.958	348.88
382.184	368.88
382.409	372.88
382.634	367.88
382.86	347.88
383.085	357.88
383.31	360.88
383.535	362.88
383.761	353.88
383.986	375.88
384.211	382.88
384.436	380.88
384.662	370.88
384.887	366.88
385.112	379.88
385.337	355.88
385.562	402.88
385.787	403.88
386.013	372.88
386.238	395.88
386.463	400.88
386.688	406.88
386.913	371.88
387.138	362.88
387.363	378.88
387.588	376.88
387.813	395.88
388.038	384.88
388.263	367.88
388.488	370.88
388.713	377.88
388.938	385.88
389.163	393.88
389.387	374.88
389.612	384.88
389.837	390.88
390.062	393.88
390.287	379.88
390.512	384.88
390.736	357.88
390.961	390.88
391.186	387.88
391.411	393.88
391.636	375.88
391.86	376.88
392.085	373.88
392.31	383.88
392.534	387.88
392.759	392.88
392.984	388.88
393.208	379.88
393.433	393.88
393.658	379.88
393.882	383.88
394.107	378.88
394.331	392.88
394.556	379.88
394.78	369.88
395.005	368.88
395.229	390.88
395.454	396.88
395.678	384.88
395.903	404.88
396.127	430.88
396.352	425.88
396.576	417.88
396.801	392.88
397.025	400.88
397.249	384.88
397.474	422.88
397.698	407.88
397.922	430.88
398.147	420.88
398.371	442.88
398.595	425.88
398.82	420.88
399.044	417.88
399.268	446.88
399.492	448.88
399.717	472.88
399.941	507.88
400.165	514.88
400.389	534.88
400.613	510.88
400.837	445.88
401.062	460.88
401.286	432.88
401.51	440.88
401.734	417.88
401.958	434.88
402.182	472.88
402.406	457.88
402.63	452.88
402.854	429.88
403.078	464.88
403.302	447.88
403.526	449.88
403.75	459.88
403.974	452.88
404.198	436.88
404.422	452.88
404.645	480.88
404.869	467.88
405.093	497.88
405.317	534.88
405.541	555.88
405.765	519.88
405.988	502.88
406.212	490.88
406.436	514.88
406.66	520.88
406.883	514.88
407.107	520.88
407.331	552.88
407.555	622.88
407.778	617.88
408.002	560.88
408.226	518.88
408.449	496.88
408.673	500.88
408.896	543.88
409.12	590.88
409.344	545.88
409.567	484.88
409.791	468.88
410.014	462.88
410.238	444.88
410.461	445.88
410.685	454.88
410.908	487.88
411.132	504.88
411.355	565.88
411.578	518.88
411.802	482.88
412.025	449.88
412.249	462.88
412.472	474.88
412.695	535.88
412.919	531.88
413.142	470.88
413.365	465.88
413.589	445.88
413.812	440.88
414.035	438.88
414.258	424.88
414.482	416.88
414.705	444.88
414.928	427.88
415.151	421.88
415.374	443.88
415.597	430.88
415.821	428.88
416.044	434.88
416.267	438.88
416.49	440.88
416.713	422.88
416.936	427.88
417.159	442.88
417.382	457.88
417.605	450.88
417.828	460.88
418.051	466.88
418.274	459.88
418.497	435.88
418.72	426.88
418.943	432.88
419.166	446.88
419.389	474.88
419.611	460.88
419.834	460.88
420.057	460.88
420.28	458.88
420.503	458.88
420.726	471.88
420.948	488.88
421.171	534.88
421.394	565.88
421.617	488.88
421.839	484.88
422.062	465.88
422.285	503.88
422.507	546.88
422.73	617.88
422.953	581.88
423.175	521.88
423.398	470.88
423.621	492.88
423.843	500.88
424.066	521.88
424.288	503.88
424.511	537.88
424.733	600.88
424.956	666.88
425.178	651.88
425.401	627.88
425.623	668.88
425.846	575.88
426.068	519.88
426.291	520.88
426.513	527.88
426.735	515.88
426.958	566.88
427.18	634.88
427.402	773.88
427.625	898.88
427.847	781.88
428.069	680.88
428.292	585.88
428.514	525.88
428.736	524.88
428.958	496.88
429.181	490.88
429.403	462.88
429.625	487.88
429.847	533.88
430.069	634.88
430.292	605.88
430.514	495.88
430.736	480.88
430.958	474.88
431.18	459.88
431.402	443.88
431.624	437.88
431.846	434.88
432.068	447.88
432.29	447.88
432.512	437.88
432.734	444.88
432.956	443.88
433.178	456.88
433.4	490.88
433.622	463.88
433.844	429.88
434.066	449.88
434.287	419.88
434.509	430.88
434.731	445.88
434.953	464.88
435.175	485.88
435.397	510.88
435.618	514.88
435.84	568.88
436.062	672.88
436.284	731.88
436.505	594.88
436.727	531.88
436.949	513.88
437.17	514.88
437.392	477.88
437.614	508.88
437.835	540.88
438.057	649.88
438.278	741.88
438.5	738.88
438.721	822.88
438.943	739.88
439.165	611.88
439.386	559.88
439.608	572.88
439.829	551.88
440.05	577.88
440.272	626.88
440.493	574.88
440.715	530.88
440.936	525.88
441.158	486.88
441.379	477.88
441.6	489.88
441.822	527.88
442.043	564.88
442.264	638.88
442.486	703.88
442.707	613.88
442.928	567.88
443.149	548.88
443.371	570.88
443.592	632.88
443.813	699.88
444.034	770.88
444.255	638.88
444.476	546.88
444.698	526.88
444.919	505.88
445.14	603.88
445.361	558.88
445.582	563.88
445.803	648.88
446.024	759.88
446.245	757.88
446.466	670.88
446.687	570.88
446.908	544.88
447.129	521.88
447.35	500.88
447.571	494.88
447.792	487.88
448.013	502.88
448.234	505.88
448.455	551.88
448.675	676.88
448.896	764.88
449.117	676.88
449.338	678.88
449.559	744.88
449.779	819.88
450	683.88
450.221	555.88
450.442	513.88
450.662	502.88
450.883	522.88
451.104	525.88
451.324	516.88
451.545	491.88
451.766	471.88
451.986	439.88
452.207	431.88
452.428	435.88
452.648	443.88
452.869	438.88
453.089	440.88
453.31	451.88
453.53	455.88
453.751	447.88
453.971	442.88
454.192	458.88
454.412	449.88
454.633	424.88
454.853	434.88
455.073	438.88
455.294	479.88
455.514	535.88
455.734	526.88
455.955	449.88
456.175	428.88
456.395	401.88
456.616	400.88
456.836	409.88
457.056	396.88
457.276	390.88
457.497	382.88
457.717	423.88
457.937	422.88
458.157	428.88
458.377	416.88
458.598	440.88
458.818	540.88
459.038	612.88
459.258	612.88
459.478	551.88
459.698	460.88
459.918	444.88
460.138	432.88
460.358	430.88
460.578	434.88
460.798	443.88
461.018	421.88
461.238	443.88
461.458	420.88
461.678	421.88
461.898	438.88
462.118	437.88
462.338	429.88
462.558	415.88
462.777	440.88
462.997	441.88
463.217	450.88
463.437	452.88
463.657	451.88
463.876	436.88
464.096	460.88
464.316	468.88
464.536	472.88
464.755	475.88
464.975	467.88
465.195	532.88
465.414	624.88
465.634	556.88
465.854	502.88
466.073	479.88
466.293	458.88
466.512	438.88
466.732	441.88
466.951	444.88
467.171	426.88
467.391	428.88
467.61	448.88
467.829	454.88
468.049	456.88
468.268	457.88
468.488	438.88
468.707	414.88
468.927	403.88
469.146	404.88
469.365	420.88
469.585	424.88
469.804	417.88
470.023	458.88
470.243	454.88
470.462	446.88
470.681	475.88
470.901	490.88
471.12	432.88
471.339	450.88
471.558	445.88
471.777	439.88
471.997	446.88
472.216	451.88
472.435	499.88
472.654	488.88
472.873	453.88
473.092	445.88
473.311	450.88
473.53	436.88
473.749	451.88
473.968	506.88
474.187	603.88
474.406	615.88
474.625	527.88
474.844	474.88
475.063	459.88
475.282	462.88
475.501	451.88
475.72	472.88
475.939	466.88
476.158	468.88
476.377	449.88
476.596	466.88
476.814	450.88
477.033	457.88
477.252	451.88
477.471	467.88
477.69	476.88
477.908	482.88
478.127	481.88
478.346	460.88
478.564	498.88
478.783	497.88
479.002	499.88
479.22	491.88
479.439	521.88
479.658	534.88
479.876	526.88
480.095	546.88
480.313	569.88
480.532	566.88
480.751	537.88
480.969	564.88
481.188	648.88
481.406	666.88
481.624	601.88
481.843	535.88
482.061	551.88
482.28	546.88
482.498	523.88
482.717	522.88
482.935	544.88
483.153	550.88
483.372	532.88
483.59	531.88
483.808	529.88
484.027	512.88
484.245	510.88
484.463	534.88
484.681	543.88
484.9	547.88
485.118	524.88
485.336	542.88
485.554	550.88
485.772	539.88
485.99	513.88
486.209	522.88
486.427	545.88
486.645	545.88
486.863	577.88
487.081	584.88
487.299	566.88
487.517	574.88
487.735	560.88
487.953	573.88
488.171	555.88
488.389	560.88
488.607	597.88
488.825	574.88
489.043	575.88
489.261	561.88
489.479	600.88
489.696	567.88
489.914	580.88
490.132	588.88
490.35	607.88
490.568	597.88
490.786	596.88
491.003	637.88
491.221	636.88
491.439	642.88
491.657	660.88
491.874	671.88
492.092	692.88
492.31	667.88
492.527	680.88
492.745	684.88
492.963	689.88
493.18	679.88
493.398	688.88
493.615	690.88
493.833	688.88
494.05	697.88
494.268	697.88
494.485	696.88
494.703	666.88
494.92	680.88
495.138	682.88
495.355	703.88
495.573	696.88
495.79	693.88
496.008	715.88
496.225	678.88
496.442	686.88
496.66	695.88
496.877	678.88
497.094	690.88
497.312	683.88
497.529	710.88
497.746	708.88
497.963	720.88
498.181	738.88
498.398	721.88
498.615	738.88
498.832	754.88
499.049	729.88
499.267	734.88
499.484	762.88
499.701	739.88
499.918	773.88
500.135	791.88
500.352	830.88
500.569	844.88
500.786	804.88
501.003	834.88
501.22	817.88
501.437	822.88
501.654	794.88
501.871	820.88
502.088	782.88
