Data from 1980.PennyLincolnUp.Lamp.En5.5.200Scan.071819.P1_HRD10591_16-37-02-956.txt Node
Date: Thu Jul 18 16:37:02 EDT 2019
User: cochatt
Spectrometer: HR+D1059
Trigger mode: 1
Integration Time (sec): 1.000000E-1
Scans to average: 1
Electric dark correction enabled: true
Nonlinearity correction enabled: false
Boxcar width: 0
XAxis mode: Wavelengths
Number of Pixels in Spectrum: 2048
>>>>>Begin Spectral Data<<<<<
223.165	-11.12
223.4	-11.12
223.635	-11.12
223.869	-14.12
224.104	-31.12
224.338	-19.12
224.573	-7.12
224.808	-19.12
225.042	-6.12
225.277	-8.12
225.511	-9.12
225.746	3.88
225.98	1.88
226.215	13.88
226.449	18.88
226.683	22.88
226.918	28.88
227.152	34.88
227.387	32.88
227.621	27.88
227.856	21.88
228.09	44.88
228.324	56.88
228.559	57.88
228.793	72.88
229.027	88.88
229.262	99.88
229.496	104.88
229.73	118.88
229.964	151.88
230.199	144.88
230.433	123.88
230.667	115.88
230.901	108.88
231.136	112.88
231.37	108.88
231.604	96.88
231.838	101.88
232.072	113.88
232.306	98.88
232.541	103.88
232.775	103.88
233.009	101.88
233.243	101.88
233.477	114.88
233.711	102.88
233.945	121.88
234.179	104.88
234.413	129.88
234.647	115.88
234.881	108.88
235.115	113.88
235.349	116.88
235.583	100.88
235.817	108.88
236.051	109.88
236.285	112.88
236.519	127.88
236.753	117.88
236.987	148.88
237.221	193.88
237.455	225.88
237.689	191.88
237.922	133.88
238.156	128.88
238.39	119.88
238.624	121.88
238.858	122.88
239.091	118.88
239.325	108.88
239.559	124.88
239.793	117.88
240.027	115.88
240.26	141.88
240.494	145.88
240.728	149.88
240.961	146.88
241.195	131.88
241.429	144.88
241.662	127.88
241.896	121.88
242.13	129.88
242.363	123.88
242.597	141.88
242.83	129.88
243.064	127.88
243.298	123.88
243.531	136.88
243.765	128.88
243.998	150.88
244.232	141.88
244.465	147.88
244.699	129.88
244.932	135.88
245.166	129.88
245.399	127.88
245.633	156.88
245.866	141.88
246.099	132.88
246.333	153.88
246.566	141.88
246.8	141.88
247.033	148.88
247.266	152.88
247.5	156.88
247.733	177.88
247.966	172.88
248.2	175.88
248.433	147.88
248.666	171.88
248.899	191.88
249.133	182.88
249.366	209.88
249.599	189.88
249.832	179.88
250.066	177.88
250.299	188.88
250.532	181.88
250.765	195.88
250.998	205.88
251.231	213.88
251.465	216.88
251.698	206.88
251.931	201.88
252.164	207.88
252.397	202.88
252.63	199.88
252.863	200.88
253.096	196.88
253.329	217.88
253.562	218.88
253.795	212.88
254.028	226.88
254.261	214.88
254.494	218.88
254.727	256.88
254.96	280.88
255.193	268.88
255.426	245.88
255.659	243.88
255.892	220.88
256.124	228.88
256.357	226.88
256.59	214.88
256.823	221.88
257.056	216.88
257.289	197.88
257.521	200.88
257.754	204.88
257.987	205.88
258.22	209.88
258.452	192.88
258.685	190.88
258.918	198.88
259.151	201.88
259.383	193.88
259.616	216.88
259.849	203.88
260.081	223.88
260.314	246.88
260.547	242.88
260.779	229.88
261.012	232.88
261.244	229.88
261.477	223.88
261.71	219.88
261.942	204.88
262.175	215.88
262.407	220.88
262.64	199.88
262.872	208.88
263.105	199.88
263.337	210.88
263.57	208.88
263.802	203.88
264.035	193.88
264.267	201.88
264.499	201.88
264.732	195.88
264.964	186.88
265.197	193.88
265.429	203.88
265.661	211.88
265.894	199.88
266.126	213.88
266.358	196.88
266.591	198.88
266.823	211.88
267.055	207.88
267.287	209.88
267.52	197.88
267.752	202.88
267.984	208.88
268.216	211.88
268.448	212.88
268.681	218.88
268.913	216.88
269.145	247.88
269.377	260.88
269.609	254.88
269.841	255.88
270.073	264.88
270.306	273.88
270.538	315.88
270.77	289.88
271.002	296.88
271.234	266.88
271.466	289.88
271.698	302.88
271.93	312.88
272.162	320.88
272.394	333.88
272.626	295.88
272.858	270.88
273.09	277.88
273.322	270.88
273.553	260.88
273.785	241.88
274.017	243.88
274.249	236.88
274.481	239.88
274.713	242.88
274.945	260.88
275.176	244.88
275.408	244.88
275.64	244.88
275.872	240.88
276.104	258.88
276.335	264.88
276.567	249.88
276.799	264.88
277.031	299.88
277.262	303.88
277.494	327.88
277.726	273.88
277.957	256.88
278.189	257.88
278.421	245.88
278.652	261.88
278.884	242.88
279.115	259.88
279.347	246.88
279.579	241.88
279.81	256.88
280.042	241.88
280.273	236.88
280.505	225.88
280.736	237.88
280.968	247.88
281.199	243.88
281.431	245.88
281.662	257.88
281.894	241.88
282.125	262.88
282.356	289.88
282.588	282.88
282.819	277.88
283.051	245.88
283.282	231.88
283.513	235.88
283.745	243.88
283.976	257.88
284.207	244.88
284.439	262.88
284.67	244.88
284.901	264.88
285.132	250.88
285.364	236.88
285.595	246.88
285.826	233.88
286.057	257.88
286.288	250.88
286.52	247.88
286.751	253.88
286.982	248.88
287.213	247.88
287.444	251.88
287.675	243.88
287.906	266.88
288.138	277.88
288.369	279.88
288.6	267.88
288.831	251.88
289.062	274.88
289.293	275.88
289.524	271.88
289.755	262.88
289.986	254.88
290.217	245.88
290.448	264.88
290.679	250.88
290.91	266.88
291.141	244.88
291.371	259.88
291.602	255.88
291.833	260.88
292.064	246.88
292.295	249.88
292.526	227.88
292.757	257.88
292.987	265.88
293.218	242.88
293.449	265.88
293.68	251.88
293.91	261.88
294.141	257.88
294.372	262.88
294.603	279.88
294.833	264.88
295.064	252.88
295.295	267.88
295.525	264.88
295.756	264.88
295.987	276.88
296.217	279.88
296.448	303.88
296.679	287.88
296.909	260.88
297.14	260.88
297.37	281.88
297.601	261.88
297.831	268.88
298.062	283.88
298.292	264.88
298.523	261.88
298.753	255.88
298.984	258.88
299.214	280.88
299.445	277.88
299.675	268.88
299.905	264.88
300.136	262.88
300.366	249.88
300.597	282.88
300.827	285.88
301.057	266.88
301.288	283.88
301.518	295.88
301.748	273.88
301.979	279.88
302.209	278.88
302.439	289.88
302.669	288.88
302.9	283.88
303.13	277.88
303.36	296.88
303.59	297.88
303.82	310.88
304.051	291.88
304.281	279.88
304.511	283.88
304.741	294.88
304.971	286.88
305.201	272.88
305.431	281.88
305.661	295.88
305.891	287.88
306.121	278.88
306.352	301.88
306.582	324.88
306.812	287.88
307.042	288.88
307.272	299.88
307.502	301.88
307.731	298.88
307.961	295.88
308.191	307.88
308.421	310.88
308.651	293.88
308.881	313.88
309.111	285.88
309.341	318.88
309.571	313.88
309.8	313.88
310.03	322.88
310.26	325.88
310.49	354.88
310.72	342.88
310.949	348.88
311.179	378.88
311.409	368.88
311.639	344.88
311.868	340.88
312.098	363.88
312.328	360.88
312.557	354.88
312.787	380.88
313.017	388.88
313.246	350.88
313.476	328.88
313.706	320.88
313.935	334.88
314.165	364.88
314.394	355.88
314.624	369.88
314.853	358.88
315.083	345.88
315.312	338.88
315.542	340.88
315.771	324.88
316.001	319.88
316.23	337.88
316.46	336.88
316.689	334.88
316.919	351.88
317.148	364.88
317.377	347.88
317.607	347.88
317.836	341.88
318.065	340.88
318.295	336.88
318.524	339.88
318.753	346.88
318.983	326.88
319.212	329.88
319.441	347.88
319.67	359.88
319.9	347.88
320.129	321.88
320.358	335.88
320.587	370.88
320.816	357.88
321.046	375.88
321.275	363.88
321.504	362.88
321.733	355.88
321.962	384.88
322.191	381.88
322.42	399.88
322.649	410.88
322.878	404.88
323.108	460.88
323.337	468.88
323.566	486.88
323.795	519.88
324.024	564.88
324.253	687.88
324.482	990.88
324.71	1506.88
324.939	2166.88
325.168	1959.88
325.397	1037.88
325.626	691.88
325.855	561.88
326.084	485.88
326.313	493.88
326.542	508.88
326.77	538.88
326.999	659.88
327.228	883.88
327.457	1337.88
327.686	1658.88
327.914	1125.88
328.143	755.88
328.372	639.88
328.6	590.88
328.829	572.88
329.058	573.88
329.287	581.88
329.515	546.88
329.744	491.88
329.972	481.88
330.201	492.88
330.43	536.88
330.658	567.88
330.887	609.88
331.115	578.88
331.344	509.88
331.572	481.88
331.801	477.88
332.03	439.88
332.258	434.88
332.486	405.88
332.715	407.88
332.943	400.88
333.172	397.88
333.4	387.88
333.629	406.88
333.857	417.88
334.085	459.88
334.314	434.88
334.542	488.88
334.771	517.88
334.999	437.88
335.227	406.88
335.455	405.88
335.684	398.88
335.912	388.88
336.14	399.88
336.369	399.88
336.597	386.88
336.825	423.88
337.053	412.88
337.281	382.88
337.51	409.88
337.738	389.88
337.966	393.88
338.194	393.88
338.422	411.88
338.65	394.88
338.878	387.88
339.106	369.88
339.334	370.88
339.562	369.88
339.79	395.88
340.018	371.88
340.246	391.88
340.474	375.88
340.702	382.88
340.93	379.88
341.158	368.88
341.386	389.88
341.614	393.88
341.842	384.88
342.07	384.88
342.298	365.88
342.526	364.88
342.754	358.88
342.981	366.88
343.209	353.88
343.437	365.88
343.665	359.88
343.893	401.88
344.12	401.88
344.348	381.88
344.576	391.88
344.804	367.88
345.031	425.88
345.259	423.88
345.487	385.88
345.714	400.88
345.942	383.88
346.17	379.88
346.397	378.88
346.625	363.88
346.853	378.88
347.08	363.88
347.308	375.88
347.535	387.88
347.763	375.88
347.99	380.88
348.218	410.88
348.445	376.88
348.673	402.88
348.9	363.88
349.128	377.88
349.355	355.88
349.583	373.88
349.81	369.88
350.037	369.88
350.265	347.88
350.492	337.88
350.72	362.88
350.947	371.88
351.174	388.88
351.402	390.88
351.629	392.88
351.856	361.88
352.083	373.88
352.311	392.88
352.538	392.88
352.765	391.88
352.992	396.88
353.22	373.88
353.447	382.88
353.674	350.88
353.901	353.88
354.128	358.88
354.355	352.88
354.583	348.88
354.81	359.88
355.037	356.88
355.264	326.88
355.491	340.88
355.718	321.88
355.945	338.88
356.172	356.88
356.399	318.88
356.626	350.88
356.853	335.88
357.08	348.88
357.307	348.88
357.534	353.88
357.761	349.88
357.988	341.88
358.215	336.88
358.441	350.88
358.668	346.88
358.895	348.88
359.122	332.88
359.349	344.88
359.576	367.88
359.802	388.88
360.029	416.88
360.256	451.88
360.483	402.88
360.709	367.88
360.936	371.88
361.163	384.88
361.39	401.88
361.616	389.88
361.843	375.88
362.07	377.88
362.296	382.88
362.523	375.88
362.749	352.88
362.976	375.88
363.203	367.88
363.429	349.88
363.656	376.88
363.882	360.88
364.109	369.88
364.335	343.88
364.562	379.88
364.788	356.88
365.015	353.88
365.241	357.88
365.468	354.88
365.694	336.88
365.92	355.88
366.147	358.88
366.373	364.88
366.599	352.88
366.826	323.88
367.052	348.88
367.278	344.88
367.505	339.88
367.731	361.88
367.957	345.88
368.184	344.88
368.41	324.88
368.636	377.88
368.862	373.88
369.089	360.88
369.315	356.88
369.541	359.88
369.767	343.88
369.993	360.88
370.219	353.88
370.445	360.88
370.672	346.88
370.898	343.88
371.124	345.88
371.35	344.88
371.576	337.88
371.802	348.88
372.028	340.88
372.254	343.88
372.48	331.88
372.706	327.88
372.932	337.88
373.158	347.88
373.384	363.88
373.61	339.88
373.835	344.88
374.061	343.88
374.287	371.88
374.513	337.88
374.739	343.88
374.965	347.88
375.191	348.88
375.416	349.88
375.642	345.88
375.868	356.88
376.094	341.88
376.319	344.88
376.545	321.88
376.771	327.88
376.997	327.88
377.222	358.88
377.448	336.88
377.674	340.88
377.899	352.88
378.125	336.88
378.35	331.88
378.576	337.88
378.802	343.88
379.027	330.88
379.253	345.88
379.478	329.88
379.704	350.88
379.929	348.88
380.155	346.88
380.38	363.88
380.606	338.88
380.831	343.88
381.057	344.88
381.282	326.88
381.507	341.88
381.733	345.88
381.958	348.88
382.184	368.88
382.409	349.88
382.634	349.88
382.86	342.88
383.085	345.88
383.31	326.88
383.535	346.88
383.761	334.88
383.986	341.88
384.211	344.88
384.436	336.88
384.662	354.88
384.887	353.88
385.112	348.88
385.337	349.88
385.562	366.88
385.787	362.88
386.013	378.88
386.238	357.88
386.463	365.88
386.688	355.88
386.913	347.88
387.138	353.88
387.363	355.88
387.588	393.88
387.813	355.88
388.038	351.88
388.263	376.88
388.488	383.88
388.713	357.88
388.938	362.88
389.163	387.88
389.387	368.88
389.612	360.88
389.837	353.88
390.062	343.88
390.287	345.88
390.512	373.88
390.736	387.88
390.961	370.88
391.186	373.88
391.411	369.88
391.636	367.88
391.86	390.88
392.085	390.88
392.31	388.88
392.534	379.88
392.759	360.88
392.984	368.88
393.208	363.88
393.433	373.88
393.658	367.88
393.882	373.88
394.107	352.88
394.331	357.88
394.556	367.88
394.78	369.88
395.005	351.88
395.229	362.88
395.454	364.88
395.678	380.88
395.903	383.88
396.127	389.88
396.352	410.88
396.576	393.88
396.801	406.88
397.025	379.88
397.249	385.88
397.474	383.88
397.698	395.88
397.922	394.88
398.147	391.88
398.371	419.88
398.595	417.88
398.82	392.88
399.044	399.88
399.268	410.88
399.492	441.88
399.717	471.88
399.941	481.88
400.165	493.88
400.389	507.88
400.613	464.88
400.837	417.88
401.062	421.88
401.286	413.88
401.51	427.88
401.734	412.88
401.958	383.88
402.182	443.88
402.406	427.88
402.63	434.88
402.854	426.88
403.078	436.88
403.302	422.88
403.526	421.88
403.75	417.88
403.974	417.88
404.198	438.88
404.422	420.88
404.645	425.88
404.869	423.88
405.093	470.88
405.317	502.88
405.541	535.88
405.765	473.88
405.988	466.88
406.212	485.88
406.436	492.88
406.66	489.88
406.883	479.88
407.107	469.88
407.331	525.88
407.555	573.88
407.778	574.88
408.002	546.88
408.226	473.88
408.449	465.88
408.673	456.88
408.896	476.88
409.12	550.88
409.344	528.88
409.567	454.88
409.791	445.88
410.014	435.88
410.238	441.88
410.461	443.88
410.685	432.88
410.908	459.88
411.132	502.88
411.355	520.88
411.578	523.88
411.802	456.88
412.025	435.88
412.249	430.88
412.472	442.88
412.695	495.88
412.919	469.88
413.142	442.88
413.365	408.88
413.589	423.88
413.812	405.88
414.035	417.88
414.258	415.88
414.482	402.88
414.705	403.88
414.928	399.88
415.151	400.88
415.374	406.88
415.597	397.88
415.821	377.88
416.044	418.88
416.267	403.88
416.49	411.88
416.713	391.88
416.936	411.88
417.159	409.88
417.382	440.88
417.605	432.88
417.828	422.88
418.051	445.88
418.274	427.88
418.497	412.88
418.72	384.88
418.943	405.88
419.166	443.88
419.389	447.88
419.611	446.88
419.834	438.88
420.057	446.88
420.28	444.88
420.503	428.88
420.726	444.88
420.948	453.88
421.171	476.88
421.394	522.88
421.617	459.88
421.839	455.88
422.062	456.88
422.285	450.88
422.507	518.88
422.73	570.88
422.953	549.88
423.175	497.88
423.398	448.88
423.621	458.88
423.843	487.88
424.066	492.88
424.288	481.88
424.511	478.88
424.733	545.88
424.956	596.88
425.178	600.88
425.401	612.88
425.623	649.88
425.846	523.88
426.068	507.88
426.291	497.88
426.513	481.88
426.735	496.88
426.958	537.88
427.18	611.88
427.402	715.88
427.625	769.88
427.847	738.88
428.069	613.88
428.292	560.88
428.514	501.88
428.736	479.88
428.958	468.88
429.181	447.88
429.403	445.88
429.625	467.88
429.847	495.88
430.069	543.88
430.292	532.88
430.514	481.88
430.736	469.88
430.958	451.88
431.18	436.88
431.402	420.88
431.624	429.88
431.846	391.88
432.068	396.88
432.29	419.88
432.512	423.88
432.734	436.88
432.956	441.88
433.178	455.88
433.4	443.88
433.622	431.88
433.844	420.88
434.066	392.88
434.287	405.88
434.509	431.88
434.731	420.88
434.953	425.88
435.175	443.88
435.397	469.88
435.618	491.88
435.84	534.88
436.062	623.88
436.284	697.88
436.505	591.88
436.727	523.88
436.949	485.88
437.17	475.88
437.392	449.88
437.614	479.88
437.835	488.88
438.057	587.88
438.278	707.88
438.5	699.88
438.721	749.88
438.943	715.88
439.165	600.88
439.386	519.88
439.608	501.88
439.829	515.88
440.05	540.88
440.272	589.88
440.493	551.88
440.715	489.88
440.936	485.88
441.158	447.88
441.379	460.88
441.6	469.88
441.822	519.88
442.043	523.88
442.264	624.88
442.486	653.88
442.707	543.88
442.928	519.88
443.149	526.88
443.371	523.88
443.592	582.88
443.813	656.88
444.034	700.88
444.255	595.88
444.476	530.88
444.698	498.88
444.919	474.88
445.14	576.88
445.361	551.88
445.582	531.88
445.803	594.88
446.024	685.88
446.245	693.88
446.466	637.88
446.687	513.88
446.908	503.88
447.129	473.88
447.35	444.88
447.571	466.88
447.792	445.88
448.013	448.88
448.234	483.88
448.455	529.88
448.675	622.88
448.896	721.88
449.117	639.88
449.338	598.88
449.559	683.88
449.779	777.88
450	645.88
450.221	515.88
450.442	471.88
450.662	469.88
450.883	473.88
451.104	476.88
451.324	468.88
451.545	441.88
451.766	417.88
451.986	417.88
452.207	404.88
452.428	403.88
452.648	408.88
452.869	415.88
453.089	440.88
453.31	423.88
453.53	436.88
453.751	413.88
453.971	420.88
454.192	462.88
454.412	424.88
454.633	415.88
454.853	403.88
455.073	397.88
455.294	438.88
455.514	498.88
455.734	486.88
455.955	418.88
456.175	389.88
456.395	367.88
456.616	380.88
456.836	388.88
457.056	401.88
457.276	372.88
457.497	378.88
457.717	398.88
457.937	380.88
458.157	391.88
458.377	387.88
458.598	434.88
458.818	489.88
459.038	573.88
459.258	573.88
459.478	505.88
459.698	436.88
459.918	420.88
460.138	402.88
460.358	419.88
460.578	413.88
460.798	391.88
461.018	408.88
461.238	412.88
461.458	401.88
461.678	413.88
461.898	395.88
462.118	388.88
462.338	404.88
462.558	436.88
462.777	411.88
462.997	409.88
463.217	417.88
463.437	448.88
463.657	447.88
463.876	426.88
464.096	443.88
464.316	437.88
464.536	450.88
464.755	443.88
464.975	457.88
465.195	497.88
465.414	583.88
465.634	507.88
465.854	476.88
466.073	432.88
466.293	426.88
466.512	413.88
466.732	402.88
466.951	423.88
467.171	389.88
467.391	396.88
467.61	422.88
467.829	444.88
468.049	429.88
468.268	416.88
468.488	412.88
468.707	378.88
468.927	412.88
469.146	388.88
469.365	389.88
469.585	392.88
469.804	425.88
470.023	418.88
470.243	392.88
470.462	423.88
470.681	434.88
470.901	448.88
471.12	441.88
471.339	436.88
471.558	424.88
471.777	427.88
471.997	419.88
472.216	424.88
472.435	475.88
472.654	447.88
472.873	424.88
473.092	421.88
473.311	434.88
473.53	418.88
473.749	457.88
473.968	470.88
474.187	585.88
474.406	605.88
474.625	494.88
474.844	450.88
475.063	413.88
475.282	442.88
475.501	438.88
475.72	429.88
475.939	425.88
476.158	421.88
476.377	430.88
476.596	431.88
476.814	432.88
477.033	439.88
477.252	435.88
477.471	445.88
477.69	449.88
477.908	440.88
478.127	452.88
478.346	455.88
478.564	464.88
478.783	464.88
479.002	477.88
479.22	459.88
479.439	488.88
479.658	493.88
479.876	495.88
480.095	487.88
480.313	513.88
480.532	531.88
480.751	504.88
480.969	556.88
481.188	578.88
481.406	595.88
481.624	536.88
481.843	513.88
482.061	493.88
482.28	467.88
482.498	466.88
482.717	474.88
482.935	480.88
483.153	488.88
483.372	483.88
483.59	498.88
483.808	496.88
484.027	492.88
484.245	498.88
484.463	491.88
484.681	521.88
484.9	487.88
485.118	490.88
485.336	492.88
485.554	494.88
485.772	509.88
485.99	513.88
486.209	529.88
486.427	504.88
486.645	521.88
486.863	550.88
487.081	565.88
487.299	549.88
487.517	524.88
487.735	529.88
487.953	543.88
488.171	544.88
488.389	546.88
488.607	548.88
488.825	541.88
489.043	563.88
489.261	532.88
489.479	547.88
489.696	552.88
489.914	554.88
490.132	568.88
490.35	570.88
490.568	584.88
490.786	573.88
491.003	601.88
491.221	582.88
491.439	606.88
491.657	599.88
491.874	604.88
492.092	635.88
492.31	613.88
492.527	605.88
492.745	648.88
492.963	640.88
493.18	632.88
493.398	661.88
493.615	645.88
493.833	639.88
494.05	612.88
494.268	639.88
494.485	608.88
494.703	632.88
494.92	639.88
495.138	644.88
495.355	640.88
495.573	637.88
495.79	621.88
496.008	659.88
496.225	641.88
496.442	645.88
496.66	645.88
496.877	642.88
497.094	625.88
497.312	627.88
497.529	649.88
497.746	657.88
497.963	669.88
498.181	683.88
498.398	672.88
498.615	675.88
498.832	682.88
499.049	704.88
499.267	686.88
499.484	697.88
499.701	727.88
499.918	709.88
500.135	780.88
500.352	772.88
500.569	778.88
500.786	773.88
501.003	780.88
501.22	780.88
501.437	784.88
501.654	757.88
501.871	776.88
