Data from 1980.PennyLincolnUp.Lamp.En5.5.200Scan.071819.P1_HRD10591_16-37-38-957.txt Node
Date: Thu Jul 18 16:37:38 EDT 2019
User: cochatt
Spectrometer: HR+D1059
Trigger mode: 1
Integration Time (sec): 1.000000E-1
Scans to average: 1
Electric dark correction enabled: true
Nonlinearity correction enabled: false
Boxcar width: 0
XAxis mode: Wavelengths
Number of Pixels in Spectrum: 2048
>>>>>Begin Spectral Data<<<<<
223.165	-19.56
223.4	-19.56
223.635	-19.56
223.869	-16.56
224.104	-23.56
224.338	-0.56
224.573	-17.56
224.808	-3.56
225.042	2.44
225.277	-14.56
225.511	-2.56
225.746	10.44
225.98	4.44
226.215	10.44
226.449	12.44
226.683	7.44
226.918	25.44
227.152	25.44
227.387	25.44
227.621	40.44
227.856	55.44
228.09	45.44
228.324	29.44
228.559	45.44
228.793	69.44
229.027	90.44
229.262	108.44
229.496	109.44
229.73	149.44
229.964	163.44
230.199	130.44
230.433	110.44
230.667	122.44
230.901	121.44
231.136	109.44
231.37	113.44
231.604	113.44
231.838	110.44
232.072	103.44
232.306	118.44
232.541	119.44
232.775	112.44
233.009	130.44
233.243	125.44
233.477	101.44
233.711	135.44
233.945	109.44
234.179	116.44
234.413	99.44
234.647	132.44
234.881	113.44
235.115	108.44
235.349	133.44
235.583	117.44
235.817	119.44
236.051	129.44
236.285	134.44
236.519	120.44
236.753	141.44
236.987	153.44
237.221	193.44
237.455	228.44
237.689	191.44
237.922	151.44
238.156	135.44
238.39	134.44
238.624	121.44
238.858	116.44
239.091	125.44
239.325	123.44
239.559	121.44
239.793	117.44
240.027	132.44
240.26	148.44
240.494	159.44
240.728	169.44
240.961	159.44
241.195	145.44
241.429	138.44
241.662	127.44
241.896	136.44
242.13	137.44
242.363	131.44
242.597	147.44
242.83	133.44
243.064	143.44
243.298	133.44
243.531	142.44
243.765	125.44
243.998	138.44
244.232	141.44
244.465	144.44
244.699	149.44
244.932	153.44
245.166	138.44
245.399	147.44
245.633	142.44
245.866	134.44
246.099	150.44
246.333	151.44
246.566	137.44
246.8	143.44
247.033	175.44
247.266	161.44
247.5	156.44
247.733	174.44
247.966	188.44
248.2	172.44
248.433	149.44
248.666	169.44
248.899	181.44
249.133	198.44
249.366	206.44
249.599	206.44
249.832	181.44
250.066	184.44
250.299	191.44
250.532	185.44
250.765	206.44
250.998	205.44
251.231	233.44
251.465	218.44
251.698	208.44
251.931	202.44
252.164	199.44
252.397	199.44
252.63	211.44
252.863	203.44
253.096	226.44
253.329	229.44
253.562	227.44
253.795	232.44
254.028	231.44
254.261	219.44
254.494	219.44
254.727	272.44
254.96	284.44
255.193	290.44
255.426	263.44
255.659	244.44
255.892	243.44
256.124	224.44
256.357	234.44
256.59	226.44
256.823	216.44
257.056	204.44
257.289	201.44
257.521	198.44
257.754	216.44
257.987	199.44
258.22	201.44
258.452	208.44
258.685	203.44
258.918	216.44
259.151	222.44
259.383	207.44
259.616	243.44
259.849	232.44
260.081	223.44
260.314	267.44
260.547	251.44
260.779	246.44
261.012	249.44
261.244	226.44
261.477	246.44
261.71	233.44
261.942	229.44
262.175	247.44
262.407	244.44
262.64	222.44
262.872	210.44
263.105	195.44
263.337	212.44
263.57	208.44
263.802	213.44
264.035	209.44
264.267	204.44
264.499	206.44
264.732	200.44
264.964	203.44
265.197	204.44
265.429	206.44
265.661	212.44
265.894	206.44
266.126	219.44
266.358	209.44
266.591	219.44
266.823	220.44
267.055	228.44
267.287	212.44
267.52	221.44
267.752	216.44
267.984	207.44
268.216	216.44
268.448	232.44
268.681	227.44
268.913	242.44
269.145	252.44
269.377	274.44
269.609	269.44
269.841	264.44
270.073	268.44
270.306	285.44
270.538	332.44
270.77	311.44
271.002	311.44
271.234	283.44
271.466	286.44
271.698	289.44
271.93	321.44
272.162	300.44
272.394	322.44
272.626	309.44
272.858	287.44
273.09	281.44
273.322	266.44
273.553	280.44
273.785	277.44
274.017	269.44
274.249	262.44
274.481	261.44
274.713	265.44
274.945	268.44
275.176	259.44
275.408	264.44
275.64	260.44
275.872	247.44
276.104	244.44
276.335	278.44
276.567	275.44
276.799	273.44
277.031	302.44
277.262	312.44
277.494	334.44
277.726	314.44
277.957	281.44
278.189	289.44
278.421	271.44
278.652	264.44
278.884	253.44
279.115	269.44
279.347	262.44
279.579	273.44
279.81	257.44
280.042	264.44
280.273	259.44
280.505	258.44
280.736	270.44
280.968	251.44
281.199	249.44
281.431	260.44
281.662	243.44
281.894	244.44
282.125	250.44
282.356	286.44
282.588	298.44
282.819	302.44
283.051	261.44
283.282	255.44
283.513	263.44
283.745	246.44
283.976	291.44
284.207	275.44
284.439	283.44
284.67	260.44
284.901	270.44
285.132	266.44
285.364	260.44
285.595	265.44
285.826	258.44
286.057	261.44
286.288	264.44
286.52	274.44
286.751	244.44
286.982	265.44
287.213	238.44
287.444	259.44
287.675	286.44
287.906	253.44
288.138	257.44
288.369	277.44
288.6	292.44
288.831	271.44
289.062	271.44
289.293	274.44
289.524	276.44
289.755	275.44
289.986	277.44
290.217	254.44
290.448	276.44
290.679	262.44
290.91	255.44
291.141	275.44
291.371	262.44
291.602	281.44
291.833	273.44
292.064	268.44
292.295	266.44
292.526	277.44
292.757	271.44
292.987	286.44
293.218	261.44
293.449	255.44
293.68	269.44
293.91	265.44
294.141	260.44
294.372	266.44
294.603	262.44
294.833	271.44
295.064	262.44
295.295	258.44
295.525	275.44
295.756	260.44
295.987	257.44
296.217	304.44
296.448	319.44
296.679	293.44
296.909	264.44
297.14	283.44
297.37	270.44
297.601	285.44
297.831	279.44
298.062	279.44
298.292	266.44
298.523	281.44
298.753	271.44
298.984	281.44
299.214	269.44
299.445	262.44
299.675	289.44
299.905	293.44
300.136	282.44
300.366	289.44
300.597	277.44
300.827	290.44
301.057	286.44
301.288	299.44
301.518	290.44
301.748	302.44
301.979	313.44
302.209	285.44
302.439	290.44
302.669	299.44
302.9	297.44
303.13	301.44
303.36	293.44
303.59	317.44
303.82	330.44
304.051	306.44
304.281	305.44
304.511	300.44
304.741	295.44
304.971	283.44
305.201	294.44
305.431	311.44
305.661	306.44
305.891	287.44
306.121	307.44
306.352	312.44
306.582	311.44
306.812	305.44
307.042	305.44
307.272	289.44
307.502	285.44
307.731	309.44
307.961	308.44
308.191	312.44
308.421	313.44
308.651	324.44
308.881	318.44
309.111	322.44
309.341	315.44
309.571	342.44
309.8	339.44
310.03	346.44
310.26	355.44
310.49	352.44
310.72	381.44
310.949	395.44
311.179	387.44
311.409	375.44
311.639	369.44
311.868	344.44
312.098	366.44
312.328	361.44
312.557	379.44
312.787	396.44
313.017	407.44
313.246	386.44
313.476	358.44
313.706	365.44
313.935	386.44
314.165	383.44
314.394	378.44
314.624	389.44
314.853	381.44
315.083	358.44
315.312	347.44
315.542	335.44
315.771	341.44
316.001	342.44
316.23	356.44
316.46	343.44
316.689	339.44
316.919	363.44
317.148	355.44
317.377	378.44
317.607	366.44
317.836	352.44
318.065	342.44
318.295	355.44
318.524	347.44
318.753	348.44
318.983	366.44
319.212	382.44
319.441	370.44
319.67	357.44
319.9	362.44
320.129	379.44
320.358	368.44
320.587	363.44
320.816	363.44
321.046	391.44
321.275	395.44
321.504	381.44
321.733	367.44
321.962	381.44
322.191	406.44
322.42	410.44
322.649	438.44
322.878	439.44
323.108	449.44
323.337	463.44
323.566	512.44
323.795	563.44
324.024	616.44
324.253	740.44
324.482	1082.44
324.71	1608.44
324.939	2363.44
325.168	2027.44
325.397	1090.44
325.626	721.44
325.855	590.44
326.084	533.44
326.313	505.44
326.542	491.44
326.77	582.44
326.999	694.44
327.228	942.44
327.457	1440.44
327.686	1802.44
327.914	1230.44
328.143	791.44
328.372	693.44
328.6	647.44
328.829	613.44
329.058	597.44
329.287	625.44
329.515	589.44
329.744	522.44
329.972	511.44
330.201	549.44
330.43	588.44
330.658	604.44
330.887	631.44
331.115	629.44
331.344	523.44
331.572	481.44
331.801	484.44
332.03	491.44
332.258	462.44
332.486	430.44
332.715	423.44
332.943	422.44
333.172	406.44
333.4	424.44
333.629	424.44
333.857	434.44
334.085	458.44
334.314	486.44
334.542	490.44
334.771	514.44
334.999	476.44
335.227	470.44
335.455	412.44
335.684	413.44
335.912	413.44
336.14	402.44
336.369	417.44
336.597	410.44
336.825	416.44
337.053	381.44
337.281	402.44
337.51	389.44
337.738	399.44
337.966	399.44
338.194	410.44
338.422	428.44
338.65	391.44
338.878	405.44
339.106	395.44
339.334	383.44
339.562	394.44
339.79	379.44
340.018	399.44
340.246	384.44
340.474	411.44
340.702	387.44
340.93	387.44
341.158	376.44
341.386	393.44
341.614	412.44
341.842	401.44
342.07	402.44
342.298	398.44
342.526	394.44
342.754	393.44
342.981	371.44
343.209	383.44
343.437	366.44
343.665	381.44
343.893	397.44
344.12	392.44
344.348	385.44
344.576	392.44
344.804	398.44
345.031	421.44
345.259	420.44
345.487	413.44
345.714	396.44
345.942	382.44
346.17	381.44
346.397	405.44
346.625	401.44
346.853	390.44
347.08	409.44
347.308	383.44
347.535	424.44
347.763	429.44
347.99	387.44
348.218	399.44
348.445	431.44
348.673	409.44
348.9	395.44
349.128	380.44
349.355	377.44
349.583	370.44
349.81	367.44
350.037	387.44
350.265	373.44
350.492	390.44
350.72	375.44
350.947	374.44
351.174	414.44
351.402	401.44
351.629	391.44
351.856	388.44
352.083	392.44
352.311	408.44
352.538	383.44
352.765	414.44
352.992	410.44
353.22	369.44
353.447	379.44
353.674	403.44
353.901	377.44
354.128	367.44
354.355	362.44
354.583	357.44
354.81	358.44
355.037	356.44
355.264	344.44
355.491	350.44
355.718	360.44
355.945	339.44
356.172	362.44
356.399	347.44
356.626	346.44
356.853	330.44
357.08	341.44
357.307	338.44
357.534	355.44
357.761	349.44
357.988	359.44
358.215	373.44
358.441	365.44
358.668	343.44
358.895	360.44
359.122	348.44
359.349	373.44
359.576	391.44
359.802	419.44
360.029	434.44
360.256	460.44
360.483	431.44
360.709	381.44
360.936	377.44
361.163	386.44
361.39	398.44
361.616	397.44
361.843	389.44
362.07	390.44
362.296	409.44
362.523	385.44
362.749	362.44
362.976	367.44
363.203	367.44
363.429	366.44
363.656	370.44
363.882	362.44
364.109	363.44
364.335	365.44
364.562	353.44
364.788	367.44
365.015	367.44
365.241	361.44
365.468	395.44
365.694	358.44
365.92	381.44
366.147	377.44
366.373	353.44
366.599	358.44
366.826	357.44
367.052	349.44
367.278	360.44
367.505	361.44
367.731	354.44
367.957	353.44
368.184	352.44
368.41	396.44
368.636	381.44
368.862	379.44
369.089	385.44
369.315	357.44
369.541	363.44
369.767	356.44
369.993	365.44
370.219	362.44
370.445	344.44
370.672	356.44
370.898	348.44
371.124	358.44
371.35	358.44
371.576	331.44
371.802	347.44
372.028	316.44
372.254	336.44
372.48	358.44
372.706	346.44
372.932	365.44
373.158	363.44
373.384	342.44
373.61	343.44
373.835	360.44
374.061	373.44
374.287	351.44
374.513	361.44
374.739	367.44
374.965	355.44
375.191	372.44
375.416	361.44
375.642	372.44
375.868	357.44
376.094	355.44
376.319	361.44
376.545	351.44
376.771	334.44
376.997	359.44
377.222	352.44
377.448	344.44
377.674	356.44
377.899	342.44
378.125	346.44
378.35	336.44
378.576	318.44
378.802	325.44
379.027	341.44
379.253	350.44
379.478	347.44
379.704	369.44
379.929	347.44
380.155	358.44
380.38	350.44
380.606	360.44
380.831	363.44
381.057	342.44
381.282	335.44
381.507	358.44
381.733	381.44
381.958	351.44
382.184	350.44
382.409	352.44
382.634	369.44
382.86	363.44
383.085	351.44
383.31	358.44
383.535	351.44
383.761	359.44
383.986	355.44
384.211	362.44
384.436	362.44
384.662	373.44
384.887	377.44
385.112	360.44
385.337	361.44
385.562	384.44
385.787	370.44
386.013	389.44
386.238	376.44
386.463	382.44
386.688	384.44
386.913	395.44
387.138	374.44
387.363	387.44
387.588	343.44
387.813	366.44
388.038	358.44
388.263	376.44
388.488	364.44
388.713	379.44
388.938	370.44
389.163	368.44
389.387	377.44
389.612	379.44
389.837	370.44
390.062	373.44
390.287	385.44
390.512	380.44
390.736	367.44
390.961	380.44
391.186	366.44
391.411	376.44
391.636	383.44
391.86	385.44
392.085	377.44
392.31	381.44
392.534	377.44
392.759	375.44
392.984	372.44
393.208	372.44
393.433	374.44
393.658	365.44
393.882	370.44
394.107	366.44
394.331	400.44
394.556	387.44
394.78	388.44
395.005	376.44
395.229	377.44
395.454	380.44
395.678	377.44
395.903	376.44
396.127	415.44
396.352	413.44
396.576	382.44
396.801	381.44
397.025	382.44
397.249	400.44
397.474	395.44
397.698	405.44
397.922	388.44
398.147	429.44
398.371	417.44
398.595	409.44
398.82	417.44
399.044	420.44
399.268	437.44
399.492	445.44
399.717	440.44
399.941	488.44
400.165	520.44
400.389	524.44
400.613	478.44
400.837	442.44
401.062	436.44
401.286	445.44
401.51	450.44
401.734	437.44
401.958	422.44
402.182	441.44
402.406	445.44
402.63	435.44
402.854	419.44
403.078	426.44
403.302	443.44
403.526	469.44
403.75	461.44
403.974	439.44
404.198	447.44
404.422	457.44
404.645	440.44
404.869	467.44
405.093	471.44
405.317	522.44
405.541	558.44
405.765	485.44
405.988	465.44
406.212	484.44
406.436	531.44
406.66	497.44
406.883	495.44
407.107	513.44
407.331	546.44
407.555	616.44
407.778	591.44
408.002	541.44
408.226	501.44
408.449	502.44
408.673	479.44
408.896	519.44
409.12	544.44
409.344	509.44
409.567	476.44
409.791	459.44
410.014	428.44
410.238	446.44
410.461	441.44
410.685	447.44
410.908	461.44
411.132	499.44
411.355	542.44
411.578	509.44
411.802	465.44
412.025	445.44
412.249	444.44
412.472	459.44
412.695	504.44
412.919	510.44
413.142	461.44
413.365	448.44
413.589	445.44
413.812	427.44
414.035	421.44
414.258	397.44
414.482	411.44
414.705	399.44
414.928	424.44
415.151	428.44
415.374	420.44
415.597	414.44
415.821	421.44
416.044	435.44
416.267	446.44
416.49	430.44
416.713	407.44
416.936	419.44
417.159	417.44
417.382	443.44
417.605	430.44
417.828	451.44
418.051	466.44
418.274	445.44
418.497	433.44
418.72	437.44
418.943	389.44
419.166	419.44
419.389	465.44
419.611	444.44
419.834	455.44
420.057	451.44
420.28	472.44
420.503	454.44
420.726	449.44
420.948	467.44
421.171	499.44
421.394	554.44
421.617	475.44
421.839	468.44
422.062	464.44
422.285	471.44
422.507	538.44
422.73	586.44
422.953	566.44
423.175	515.44
423.398	473.44
423.621	492.44
423.843	484.44
424.066	491.44
424.288	490.44
424.511	498.44
424.733	573.44
424.956	629.44
425.178	631.44
425.401	614.44
425.623	627.44
425.846	545.44
426.068	515.44
426.291	498.44
426.513	512.44
426.735	510.44
426.958	546.44
427.18	649.44
427.402	753.44
427.625	838.44
427.847	756.44
428.069	644.44
428.292	576.44
428.514	522.44
428.736	494.44
428.958	493.44
429.181	454.44
429.403	452.44
429.625	483.44
429.847	511.44
430.069	557.44
430.292	585.44
430.514	500.44
430.736	468.44
430.958	478.44
431.18	441.44
431.402	424.44
431.624	423.44
431.846	417.44
432.068	411.44
432.29	424.44
432.512	421.44
432.734	439.44
432.956	422.44
433.178	447.44
433.4	459.44
433.622	452.44
433.844	452.44
434.066	410.44
434.287	417.44
434.509	449.44
434.731	435.44
434.953	431.44
435.175	456.44
435.397	484.44
435.618	497.44
435.84	549.44
436.062	630.44
436.284	711.44
436.505	573.44
436.727	491.44
436.949	483.44
437.17	501.44
437.392	494.44
437.614	488.44
437.835	539.44
438.057	613.44
438.278	702.44
438.5	707.44
438.721	758.44
438.943	725.44
439.165	605.44
439.386	552.44
439.608	549.44
439.829	526.44
440.05	558.44
440.272	607.44
440.493	547.44
440.715	486.44
440.936	478.44
441.158	473.44
441.379	468.44
441.6	474.44
441.822	518.44
442.043	553.44
442.264	638.44
442.486	681.44
442.707	572.44
442.928	518.44
443.149	532.44
443.371	578.44
443.592	607.44
443.813	661.44
444.034	727.44
444.255	629.44
444.476	536.44
444.698	526.44
444.919	517.44
445.14	647.44
445.361	585.44
445.582	530.44
445.803	628.44
446.024	734.44
446.245	726.44
446.466	665.44
446.687	558.44
446.908	540.44
447.129	513.44
447.35	499.44
447.571	459.44
447.792	472.44
448.013	486.44
448.234	484.44
448.455	554.44
448.675	670.44
448.896	758.44
449.117	645.44
449.338	617.44
449.559	706.44
449.779	795.44
450	647.44
450.221	539.44
450.442	489.44
450.662	493.44
450.883	492.44
451.104	487.44
451.324	508.44
451.545	465.44
451.766	451.44
451.986	446.44
452.207	419.44
452.428	425.44
452.648	431.44
452.869	437.44
453.089	447.44
453.31	446.44
453.53	421.44
453.751	432.44
453.971	449.44
454.192	455.44
454.412	441.44
454.633	435.44
454.853	418.44
455.073	411.44
455.294	443.44
455.514	523.44
455.734	521.44
455.955	434.44
456.175	407.44
456.395	396.44
456.616	394.44
456.836	412.44
457.056	380.44
457.276	377.44
457.497	396.44
457.717	378.44
457.937	396.44
458.157	407.44
458.377	426.44
458.598	433.44
458.818	497.44
459.038	607.44
459.258	600.44
459.478	510.44
459.698	456.44
459.918	447.44
460.138	419.44
460.358	430.44
460.578	425.44
460.798	428.44
461.018	421.44
461.238	430.44
461.458	421.44
461.678	414.44
461.898	422.44
462.118	429.44
462.338	422.44
462.558	425.44
462.777	421.44
462.997	443.44
463.217	443.44
463.437	446.44
463.657	430.44
463.876	451.44
464.096	474.44
464.316	443.44
464.536	454.44
464.755	470.44
464.975	483.44
465.195	530.44
465.414	640.44
465.634	549.44
465.854	484.44
466.073	430.44
466.293	453.44
466.512	428.44
466.732	414.44
466.951	415.44
467.171	420.44
467.391	435.44
467.61	435.44
467.829	430.44
468.049	433.44
468.268	426.44
468.488	444.44
468.707	422.44
468.927	398.44
469.146	396.44
469.365	421.44
469.585	411.44
469.804	405.44
470.023	428.44
470.243	437.44
470.462	435.44
470.681	445.44
470.901	448.44
471.12	431.44
471.339	407.44
471.558	451.44
471.777	418.44
471.997	431.44
472.216	431.44
472.435	460.44
472.654	460.44
472.873	421.44
473.092	429.44
473.311	430.44
473.53	429.44
473.749	439.44
473.968	484.44
474.187	572.44
474.406	636.44
474.625	511.44
474.844	472.44
475.063	445.44
475.282	429.44
475.501	445.44
475.72	460.44
475.939	440.44
476.158	447.44
476.377	442.44
476.596	451.44
476.814	451.44
477.033	443.44
477.252	447.44
477.471	434.44
477.69	470.44
477.908	451.44
478.127	465.44
478.346	446.44
478.564	492.44
478.783	457.44
479.002	486.44
479.22	493.44
479.439	505.44
479.658	516.44
479.876	531.44
480.095	529.44
480.313	557.44
480.532	532.44
480.751	525.44
480.969	558.44
481.188	603.44
481.406	645.44
481.624	563.44
481.843	553.44
482.061	534.44
482.28	501.44
482.498	522.44
482.717	509.44
482.935	501.44
483.153	513.44
483.372	497.44
483.59	498.44
483.808	491.44
484.027	536.44
484.245	500.44
484.463	482.44
484.681	515.44
484.9	525.44
485.118	543.44
485.336	525.44
485.554	513.44
485.772	525.44
485.99	518.44
486.209	545.44
486.427	518.44
486.645	539.44
486.863	558.44
487.081	585.44
487.299	557.44
487.517	530.44
487.735	556.44
487.953	557.44
488.171	549.44
488.389	550.44
488.607	534.44
488.825	537.44
489.043	543.44
489.261	562.44
489.479	571.44
489.696	547.44
489.914	577.44
490.132	590.44
490.35	571.44
490.568	576.44
490.786	600.44
491.003	610.44
491.221	612.44
491.439	620.44
491.657	636.44
491.874	623.44
492.092	653.44
492.31	645.44
492.527	630.44
492.745	628.44
492.963	663.44
493.18	663.44
493.398	677.44
493.615	645.44
493.833	668.44
494.05	645.44
494.268	648.44
494.485	666.44
494.703	648.44
494.92	665.44
495.138	651.44
495.355	697.44
495.573	661.44
495.79	665.44
496.008	661.44
496.225	686.44
496.442	692.44
496.66	673.44
496.877	667.44
497.094	625.44
497.312	653.44
497.529	653.44
497.746	678.44
497.963	674.44
498.181	699.44
498.398	700.44
498.615	703.44
498.832	705.44
499.049	708.44
499.267	693.44
499.484	708.44
499.701	743.44
499.918	765.44
500.135	797.44
500.352	811.44
500.569	799.44
500.786	821.44
501.003	815.44
501.22	782.44
501.437	801.44
501.654	787.44
501.871	790.44
