Data from 1980.PennyLincolnUp.Lamp.En5.5.200Scan.071819.P1_HRD10591_16-37-25-957.txt Node
Date: Thu Jul 18 16:37:25 EDT 2019
User: cochatt
Spectrometer: HR+D1059
Trigger mode: 1
Integration Time (sec): 1.000000E-1
Scans to average: 1
Electric dark correction enabled: true
Nonlinearity correction enabled: false
Boxcar width: 0
XAxis mode: Wavelengths
Number of Pixels in Spectrum: 2048
>>>>>Begin Spectral Data<<<<<
223.165	-21.75
223.4	-21.75
223.635	-21.75
223.869	-15.75
224.104	-12.75
224.338	-0.75
224.573	-17.75
224.808	-12.75
225.042	-11.75
225.277	9.25
225.511	-14.75
225.746	10.25
225.98	-5.75
226.215	0.25
226.449	12.25
226.683	19.25
226.918	34.25
227.152	28.25
227.387	35.25
227.621	36.25
227.856	33.25
228.09	41.25
228.324	30.25
228.559	68.25
228.793	55.25
229.027	100.25
229.262	121.25
229.496	113.25
229.73	146.25
229.964	166.25
230.199	134.25
230.433	128.25
230.667	120.25
230.901	113.25
231.136	115.25
231.37	115.25
231.604	106.25
231.838	106.25
232.072	98.25
232.306	127.25
232.541	116.25
232.775	117.25
233.009	109.25
233.243	114.25
233.477	113.25
233.711	116.25
233.945	113.25
234.179	124.25
234.413	128.25
234.647	119.25
234.881	115.25
235.115	109.25
235.349	112.25
235.583	112.25
235.817	122.25
236.051	130.25
236.285	139.25
236.519	136.25
236.753	142.25
236.987	156.25
237.221	178.25
237.455	251.25
237.689	180.25
237.922	161.25
238.156	122.25
238.39	140.25
238.624	129.25
238.858	126.25
239.091	121.25
239.325	127.25
239.559	122.25
239.793	118.25
240.027	134.25
240.26	139.25
240.494	164.25
240.728	155.25
240.961	169.25
241.195	155.25
241.429	143.25
241.662	140.25
241.896	128.25
242.13	149.25
242.363	137.25
242.597	124.25
242.83	119.25
243.064	148.25
243.298	152.25
243.531	147.25
243.765	156.25
243.998	142.25
244.232	133.25
244.465	150.25
244.699	143.25
244.932	152.25
245.166	152.25
245.399	153.25
245.633	155.25
245.866	168.25
246.099	140.25
246.333	150.25
246.566	154.25
246.8	175.25
247.033	140.25
247.266	157.25
247.5	165.25
247.733	176.25
247.966	180.25
248.2	175.25
248.433	157.25
248.666	176.25
248.899	178.25
249.133	202.25
249.366	228.25
249.599	194.25
249.832	194.25
250.066	190.25
250.299	186.25
250.532	191.25
250.765	212.25
250.998	242.25
251.231	245.25
251.465	224.25
251.698	199.25
251.931	188.25
252.164	212.25
252.397	205.25
252.63	229.25
252.863	223.25
253.096	232.25
253.329	228.25
253.562	234.25
253.795	233.25
254.028	214.25
254.261	230.25
254.494	232.25
254.727	279.25
254.96	297.25
255.193	300.25
255.426	280.25
255.659	270.25
255.892	246.25
256.124	252.25
256.357	218.25
256.59	232.25
256.823	221.25
257.056	228.25
257.289	218.25
257.521	221.25
257.754	226.25
257.987	218.25
258.22	232.25
258.452	212.25
258.685	198.25
258.918	216.25
259.151	226.25
259.383	224.25
259.616	231.25
259.849	253.25
260.081	247.25
260.314	250.25
260.547	293.25
260.779	264.25
261.012	249.25
261.244	244.25
261.477	226.25
261.71	241.25
261.942	240.25
262.175	256.25
262.407	243.25
262.64	221.25
262.872	227.25
263.105	198.25
263.337	224.25
263.57	205.25
263.802	220.25
264.035	221.25
264.267	193.25
264.499	210.25
264.732	221.25
264.964	227.25
265.197	213.25
265.429	212.25
265.661	219.25
265.894	219.25
266.126	216.25
266.358	205.25
266.591	220.25
266.823	218.25
267.055	226.25
267.287	213.25
267.52	224.25
267.752	221.25
267.984	210.25
268.216	228.25
268.448	225.25
268.681	222.25
268.913	250.25
269.145	261.25
269.377	285.25
269.609	294.25
269.841	256.25
270.073	285.25
270.306	278.25
270.538	321.25
270.77	323.25
271.002	292.25
271.234	309.25
271.466	308.25
271.698	327.25
271.93	326.25
272.162	328.25
272.394	332.25
272.626	314.25
272.858	301.25
273.09	278.25
273.322	284.25
273.553	270.25
273.785	264.25
274.017	280.25
274.249	270.25
274.481	276.25
274.713	276.25
274.945	275.25
275.176	286.25
275.408	266.25
275.64	272.25
275.872	266.25
276.104	280.25
276.335	266.25
276.567	267.25
276.799	296.25
277.031	321.25
277.262	310.25
277.494	333.25
277.726	311.25
277.957	293.25
278.189	288.25
278.421	271.25
278.652	264.25
278.884	238.25
279.115	254.25
279.347	245.25
279.579	252.25
279.81	260.25
280.042	253.25
280.273	249.25
280.505	268.25
280.736	260.25
280.968	277.25
281.199	238.25
281.431	237.25
281.662	242.25
281.894	267.25
282.125	272.25
282.356	255.25
282.588	301.25
282.819	302.25
283.051	278.25
283.282	245.25
283.513	251.25
283.745	258.25
283.976	252.25
284.207	268.25
284.439	270.25
284.67	281.25
284.901	274.25
285.132	267.25
285.364	265.25
285.595	258.25
285.826	257.25
286.057	265.25
286.288	257.25
286.52	260.25
286.751	268.25
286.982	280.25
287.213	271.25
287.444	272.25
287.675	278.25
287.906	291.25
288.138	296.25
288.369	280.25
288.6	290.25
288.831	283.25
289.062	316.25
289.293	285.25
289.524	269.25
289.755	274.25
289.986	269.25
290.217	270.25
290.448	269.25
290.679	263.25
290.91	268.25
291.141	274.25
291.371	257.25
291.602	278.25
291.833	253.25
292.064	269.25
292.295	269.25
292.526	253.25
292.757	259.25
292.987	253.25
293.218	273.25
293.449	275.25
293.68	288.25
293.91	281.25
294.141	272.25
294.372	286.25
294.603	274.25
294.833	281.25
295.064	278.25
295.295	262.25
295.525	266.25
295.756	273.25
295.987	294.25
296.217	302.25
296.448	309.25
296.679	291.25
296.909	262.25
297.14	260.25
297.37	278.25
297.601	289.25
297.831	280.25
298.062	281.25
298.292	284.25
298.523	282.25
298.753	288.25
298.984	279.25
299.214	284.25
299.445	268.25
299.675	289.25
299.905	306.25
300.136	290.25
300.366	291.25
300.597	281.25
300.827	304.25
301.057	308.25
301.288	317.25
301.518	309.25
301.748	312.25
301.979	298.25
302.209	314.25
302.439	310.25
302.669	299.25
302.9	298.25
303.13	298.25
303.36	313.25
303.59	316.25
303.82	312.25
304.051	320.25
304.281	313.25
304.511	294.25
304.741	302.25
304.971	290.25
305.201	304.25
305.431	308.25
305.661	316.25
305.891	309.25
306.121	300.25
306.352	301.25
306.582	319.25
306.812	299.25
307.042	317.25
307.272	308.25
307.502	307.25
307.731	290.25
307.961	312.25
308.191	298.25
308.421	319.25
308.651	321.25
308.881	308.25
309.111	325.25
309.341	339.25
309.571	330.25
309.8	345.25
310.03	357.25
310.26	360.25
310.49	346.25
310.72	374.25
310.949	399.25
311.179	405.25
311.409	372.25
311.639	361.25
311.868	368.25
312.098	359.25
312.328	373.25
312.557	398.25
312.787	413.25
313.017	409.25
313.246	390.25
313.476	336.25
313.706	355.25
313.935	370.25
314.165	380.25
314.394	397.25
314.624	399.25
314.853	372.25
315.083	368.25
315.312	360.25
315.542	355.25
315.771	341.25
316.001	360.25
316.23	365.25
316.46	349.25
316.689	334.25
316.919	373.25
317.148	364.25
317.377	365.25
317.607	362.25
317.836	348.25
318.065	346.25
318.295	356.25
318.524	361.25
318.753	342.25
318.983	352.25
319.212	387.25
319.441	374.25
319.67	391.25
319.9	373.25
320.129	362.25
320.358	358.25
320.587	385.25
320.816	392.25
321.046	383.25
321.275	378.25
321.504	380.25
321.733	410.25
321.962	394.25
322.191	425.25
322.42	422.25
322.649	445.25
322.878	458.25
323.108	462.25
323.337	520.25
323.566	535.25
323.795	560.25
324.024	609.25
324.253	753.25
324.482	1089.25
324.71	1637.25
324.939	2422.25
325.168	2105.25
325.397	1122.25
325.626	728.25
325.855	583.25
326.084	533.25
326.313	532.25
326.542	530.25
326.77	569.25
326.999	707.25
327.228	962.25
327.457	1468.25
327.686	1820.25
327.914	1248.25
328.143	797.25
328.372	707.25
328.6	633.25
328.829	578.25
329.058	612.25
329.287	630.25
329.515	584.25
329.744	522.25
329.972	527.25
330.201	541.25
330.43	594.25
330.658	629.25
330.887	660.25
331.115	634.25
331.344	532.25
331.572	507.25
331.801	481.25
332.03	504.25
332.258	502.25
332.486	432.25
332.715	428.25
332.943	424.25
333.172	420.25
333.4	440.25
333.629	446.25
333.857	428.25
334.085	458.25
334.314	490.25
334.542	504.25
334.771	536.25
334.999	478.25
335.227	472.25
335.455	449.25
335.684	415.25
335.912	432.25
336.14	412.25
336.369	418.25
336.597	423.25
336.825	438.25
337.053	412.25
337.281	398.25
337.51	414.25
337.738	414.25
337.966	420.25
338.194	397.25
338.422	393.25
338.65	422.25
338.878	410.25
339.106	416.25
339.334	412.25
339.562	390.25
339.79	389.25
340.018	408.25
340.246	413.25
340.474	406.25
340.702	419.25
340.93	399.25
341.158	388.25
341.386	403.25
341.614	390.25
341.842	410.25
342.07	398.25
342.298	395.25
342.526	387.25
342.754	381.25
342.981	389.25
343.209	396.25
343.437	394.25
343.665	373.25
343.893	391.25
344.12	390.25
344.348	404.25
344.576	406.25
344.804	428.25
345.031	415.25
345.259	445.25
345.487	425.25
345.714	416.25
345.942	399.25
346.17	414.25
346.397	400.25
346.625	399.25
346.853	401.25
347.08	388.25
347.308	410.25
347.535	392.25
347.763	402.25
347.99	384.25
348.218	389.25
348.445	425.25
348.673	396.25
348.9	378.25
349.128	400.25
349.355	378.25
349.583	373.25
349.81	392.25
350.037	382.25
350.265	356.25
350.492	375.25
350.72	358.25
350.947	378.25
351.174	392.25
351.402	398.25
351.629	419.25
351.856	423.25
352.083	409.25
352.311	409.25
352.538	394.25
352.765	441.25
352.992	416.25
353.22	388.25
353.447	404.25
353.674	396.25
353.901	376.25
354.128	377.25
354.355	356.25
354.583	364.25
354.81	349.25
355.037	356.25
355.264	363.25
355.491	360.25
355.718	346.25
355.945	355.25
356.172	352.25
356.399	344.25
356.626	355.25
356.853	370.25
357.08	356.25
357.307	370.25
357.534	348.25
357.761	368.25
357.988	358.25
358.215	360.25
358.441	368.25
358.668	350.25
358.895	368.25
359.122	370.25
359.349	379.25
359.576	418.25
359.802	434.25
360.029	451.25
360.256	461.25
360.483	470.25
360.709	401.25
360.936	400.25
361.163	398.25
361.39	409.25
361.616	417.25
361.843	390.25
362.07	394.25
362.296	390.25
362.523	394.25
362.749	406.25
362.976	383.25
363.203	365.25
363.429	400.25
363.656	377.25
363.882	384.25
364.109	368.25
364.335	375.25
364.562	388.25
364.788	385.25
365.015	373.25
365.241	355.25
365.468	365.25
365.694	370.25
365.92	386.25
366.147	369.25
366.373	384.25
366.599	394.25
366.826	369.25
367.052	361.25
367.278	380.25
367.505	384.25
367.731	388.25
367.957	394.25
368.184	382.25
368.41	386.25
368.636	394.25
368.862	399.25
369.089	375.25
369.315	386.25
369.541	373.25
369.767	352.25
369.993	363.25
370.219	360.25
370.445	375.25
370.672	358.25
370.898	370.25
371.124	360.25
371.35	353.25
371.576	353.25
371.802	350.25
372.028	345.25
372.254	341.25
372.48	351.25
372.706	362.25
372.932	341.25
373.158	373.25
373.384	370.25
373.61	376.25
373.835	350.25
374.061	347.25
374.287	361.25
374.513	362.25
374.739	363.25
374.965	365.25
375.191	346.25
375.416	354.25
375.642	380.25
375.868	389.25
376.094	360.25
376.319	359.25
376.545	354.25
376.771	376.25
376.997	374.25
377.222	369.25
377.448	357.25
377.674	354.25
377.899	361.25
378.125	353.25
378.35	364.25
378.576	342.25
378.802	338.25
379.027	341.25
379.253	365.25
379.478	366.25
379.704	362.25
379.929	377.25
380.155	366.25
380.38	372.25
380.606	356.25
380.831	352.25
381.057	365.25
381.282	347.25
381.507	366.25
381.733	350.25
381.958	372.25
382.184	363.25
382.409	383.25
382.634	375.25
382.86	374.25
383.085	368.25
383.31	374.25
383.535	373.25
383.761	374.25
383.986	358.25
384.211	374.25
384.436	376.25
384.662	392.25
384.887	384.25
385.112	378.25
385.337	380.25
385.562	382.25
385.787	396.25
386.013	398.25
386.238	382.25
386.463	379.25
386.688	389.25
386.913	379.25
387.138	377.25
387.363	378.25
387.588	380.25
387.813	382.25
388.038	393.25
388.263	376.25
388.488	385.25
388.713	371.25
388.938	398.25
389.163	392.25
389.387	409.25
389.612	402.25
389.837	379.25
390.062	372.25
390.287	392.25
390.512	369.25
390.736	365.25
390.961	377.25
391.186	373.25
391.411	379.25
391.636	393.25
391.86	385.25
392.085	388.25
392.31	377.25
392.534	376.25
392.759	374.25
392.984	382.25
393.208	384.25
393.433	404.25
393.658	394.25
393.882	390.25
394.107	386.25
394.331	377.25
394.556	406.25
394.78	392.25
395.005	409.25
395.229	381.25
395.454	394.25
395.678	396.25
395.903	396.25
396.127	424.25
396.352	444.25
396.576	399.25
396.801	376.25
397.025	384.25
397.249	404.25
397.474	401.25
397.698	401.25
397.922	423.25
398.147	424.25
398.371	458.25
398.595	432.25
398.82	408.25
399.044	421.25
399.268	437.25
399.492	454.25
399.717	466.25
399.941	496.25
400.165	518.25
400.389	530.25
400.613	485.25
400.837	464.25
401.062	451.25
401.286	446.25
401.51	456.25
401.734	431.25
401.958	428.25
402.182	438.25
402.406	441.25
402.63	481.25
402.854	461.25
403.078	429.25
403.302	452.25
403.526	471.25
403.75	448.25
403.974	456.25
404.198	471.25
404.422	469.25
404.645	476.25
404.869	475.25
405.093	520.25
405.317	563.25
405.541	576.25
405.765	523.25
405.988	490.25
406.212	504.25
406.436	522.25
406.66	536.25
406.883	501.25
407.107	534.25
407.331	537.25
407.555	622.25
407.778	608.25
408.002	558.25
408.226	542.25
408.449	531.25
408.673	516.25
408.896	526.25
409.12	581.25
409.344	563.25
409.567	484.25
409.791	466.25
410.014	457.25
410.238	474.25
410.461	462.25
410.685	461.25
410.908	503.25
411.132	528.25
411.355	565.25
411.578	510.25
411.802	476.25
412.025	454.25
412.249	454.25
412.472	482.25
412.695	516.25
412.919	514.25
413.142	481.25
413.365	462.25
413.589	438.25
413.812	447.25
414.035	425.25
414.258	433.25
414.482	432.25
414.705	428.25
414.928	434.25
415.151	426.25
415.374	439.25
415.597	440.25
415.821	436.25
416.044	450.25
416.267	450.25
416.49	434.25
416.713	442.25
416.936	454.25
417.159	437.25
417.382	452.25
417.605	441.25
417.828	460.25
418.051	476.25
418.274	473.25
418.497	436.25
418.72	423.25
418.943	414.25
419.166	454.25
419.389	465.25
419.611	481.25
419.834	463.25
420.057	483.25
420.28	477.25
420.503	480.25
420.726	442.25
420.948	473.25
421.171	486.25
421.394	538.25
421.617	506.25
421.839	457.25
422.062	461.25
422.285	466.25
422.507	534.25
422.73	612.25
422.953	598.25
423.175	496.25
423.398	497.25
423.621	480.25
423.843	530.25
424.066	512.25
424.288	509.25
424.511	544.25
424.733	576.25
424.956	662.25
425.178	660.25
425.401	639.25
425.623	646.25
425.846	563.25
426.068	523.25
426.291	516.25
426.513	516.25
426.735	526.25
426.958	576.25
427.18	652.25
427.402	772.25
427.625	836.25
427.847	773.25
428.069	684.25
428.292	576.25
428.514	544.25
428.736	518.25
428.958	508.25
429.181	475.25
429.403	465.25
429.625	480.25
429.847	524.25
430.069	602.25
430.292	605.25
430.514	508.25
430.736	466.25
430.958	470.25
431.18	454.25
431.402	442.25
431.624	433.25
431.846	436.25
432.068	441.25
432.29	437.25
432.512	435.25
432.734	470.25
432.956	460.25
433.178	468.25
433.4	463.25
433.622	445.25
433.844	457.25
434.066	463.25
434.287	445.25
434.509	442.25
434.731	459.25
434.953	463.25
435.175	474.25
435.397	524.25
435.618	536.25
435.84	564.25
436.062	670.25
436.284	722.25
436.505	590.25
436.727	539.25
436.949	508.25
437.17	469.25
437.392	484.25
437.614	498.25
437.835	546.25
438.057	641.25
438.278	744.25
438.5	716.25
438.721	756.25
438.943	770.25
439.165	611.25
439.386	537.25
439.608	539.25
439.829	561.25
440.05	578.25
440.272	609.25
440.493	583.25
440.715	531.25
440.936	505.25
441.158	488.25
441.379	501.25
441.6	493.25
441.822	527.25
442.043	544.25
442.264	675.25
442.486	692.25
442.707	574.25
442.928	540.25
443.149	557.25
443.371	587.25
443.592	620.25
443.813	699.25
444.034	742.25
444.255	633.25
444.476	528.25
444.698	510.25
444.919	504.25
445.14	649.25
445.361	582.25
445.582	564.25
445.803	621.25
446.024	747.25
446.245	744.25
446.466	665.25
446.687	575.25
446.908	535.25
447.129	516.25
447.35	481.25
447.571	498.25
447.792	472.25
448.013	480.25
448.234	524.25
448.455	557.25
448.675	693.25
448.896	781.25
449.117	666.25
449.338	621.25
449.559	744.25
449.779	818.25
450	655.25
450.221	568.25
450.442	529.25
450.662	482.25
450.883	508.25
451.104	532.25
451.324	497.25
451.545	452.25
451.766	438.25
451.986	437.25
452.207	428.25
452.428	421.25
452.648	428.25
452.869	420.25
453.089	439.25
453.31	464.25
453.53	431.25
453.751	449.25
453.971	445.25
454.192	457.25
454.412	456.25
454.633	446.25
454.853	451.25
455.073	440.25
455.294	449.25
455.514	534.25
455.734	518.25
455.955	458.25
456.175	414.25
456.395	413.25
456.616	390.25
456.836	416.25
457.056	382.25
457.276	384.25
457.497	393.25
457.717	393.25
457.937	393.25
458.157	397.25
458.377	405.25
458.598	430.25
458.818	516.25
459.038	613.25
459.258	613.25
459.478	508.25
459.698	464.25
459.918	450.25
460.138	416.25
460.358	454.25
460.578	403.25
460.798	415.25
461.018	440.25
461.238	439.25
461.458	446.25
461.678	408.25
461.898	410.25
462.118	436.25
462.338	456.25
462.558	444.25
462.777	428.25
462.997	455.25
463.217	460.25
463.437	449.25
463.657	461.25
463.876	435.25
464.096	458.25
464.316	449.25
464.536	474.25
464.755	475.25
464.975	468.25
465.195	539.25
465.414	649.25
465.634	557.25
465.854	516.25
466.073	464.25
466.293	445.25
466.512	450.25
466.732	451.25
466.951	446.25
467.171	426.25
467.391	455.25
467.61	439.25
467.829	466.25
468.049	472.25
468.268	460.25
468.488	448.25
468.707	429.25
468.927	419.25
469.146	396.25
469.365	406.25
469.585	424.25
469.804	427.25
470.023	450.25
470.243	448.25
470.462	458.25
470.681	476.25
470.901	465.25
471.12	446.25
471.339	414.25
471.558	460.25
471.777	449.25
471.997	438.25
472.216	452.25
472.435	477.25
472.654	463.25
472.873	442.25
473.092	445.25
473.311	443.25
473.53	456.25
473.749	467.25
473.968	510.25
474.187	618.25
474.406	634.25
474.625	514.25
474.844	479.25
475.063	438.25
475.282	456.25
475.501	452.25
475.72	460.25
475.939	461.25
476.158	453.25
476.377	449.25
476.596	456.25
476.814	467.25
477.033	482.25
477.252	462.25
477.471	472.25
477.69	481.25
477.908	487.25
478.127	477.25
478.346	475.25
478.564	457.25
478.783	493.25
479.002	495.25
479.22	492.25
479.439	524.25
479.658	540.25
479.876	536.25
480.095	531.25
480.313	569.25
480.532	550.25
480.751	517.25
480.969	560.25
481.188	607.25
481.406	647.25
481.624	610.25
481.843	560.25
482.061	533.25
482.28	537.25
482.498	533.25
482.717	532.25
482.935	528.25
483.153	522.25
483.372	509.25
483.59	503.25
483.808	512.25
484.027	538.25
484.245	501.25
484.463	518.25
484.681	541.25
484.9	530.25
485.118	550.25
485.336	513.25
485.554	539.25
485.772	546.25
485.99	553.25
486.209	528.25
486.427	536.25
486.645	541.25
486.863	586.25
487.081	585.25
487.299	565.25
487.517	568.25
487.735	578.25
487.953	572.25
488.171	562.25
488.389	587.25
488.607	568.25
488.825	575.25
489.043	600.25
489.261	570.25
489.479	577.25
489.696	593.25
489.914	589.25
490.132	579.25
490.35	594.25
490.568	612.25
490.786	603.25
491.003	606.25
491.221	612.25
491.439	616.25
491.657	646.25
491.874	650.25
492.092	666.25
492.31	661.25
492.527	675.25
492.745	686.25
492.963	697.25
493.18	667.25
493.398	677.25
493.615	669.25
493.833	683.25
494.05	720.25
494.268	668.25
494.485	690.25
494.703	681.25
494.92	686.25
495.138	671.25
495.355	685.25
495.573	674.25
495.79	685.25
496.008	676.25
496.225	671.25
496.442	691.25
496.66	708.25
496.877	681.25
497.094	654.25
497.312	694.25
497.529	690.25
497.746	705.25
497.963	714.25
498.181	738.25
498.398	730.25
498.615	736.25
498.832	730.25
499.049	744.25
499.267	747.25
499.484	768.25
499.701	763.25
499.918	779.25
500.135	796.25
500.352	818.25
500.569	841.25
500.786	823.25
501.003	850.25
501.22	848.25
501.437	820.25
501.654	813.25
501.871	819.25
