Data from 1980.PennyLincolnUp.Lamp.En5.5.200Scan.071819.P1_HRD10591_16-36-54-957.txt Node
Date: Thu Jul 18 16:36:54 EDT 2019
User: cochatt
Spectrometer: HR+D1059
Trigger mode: 1
Integration Time (sec): 1.000000E-1
Scans to average: 1
Electric dark correction enabled: true
Nonlinearity correction enabled: false
Boxcar width: 0
XAxis mode: Wavelengths
Number of Pixels in Spectrum: 2048
>>>>>Begin Spectral Data<<<<<
223.165	-27.5
223.4	-27.5
223.635	-27.5
223.869	-18.5
224.104	6.5
224.338	-16.5
224.573	-22.5
224.808	-12.5
225.042	-10.5
225.277	-8.5
225.511	-2.5
225.746	-3.5
225.98	5.5
226.215	7.5
226.449	17.5
226.683	27.5
226.918	26.5
227.152	31.5
227.387	44.5
227.621	38.5
227.856	41.5
228.09	60.5
228.324	50.5
228.559	48.5
228.793	65.5
229.027	106.5
229.262	112.5
229.496	120.5
229.73	132.5
229.964	151.5
230.199	120.5
230.433	112.5
230.667	120.5
230.901	123.5
231.136	108.5
231.37	121.5
231.604	110.5
231.838	100.5
232.072	103.5
232.306	119.5
232.541	116.5
232.775	88.5
233.009	106.5
233.243	108.5
233.477	107.5
233.711	127.5
233.945	120.5
234.179	117.5
234.413	132.5
234.647	124.5
234.881	110.5
235.115	134.5
235.349	114.5
235.583	109.5
235.817	116.5
236.051	136.5
236.285	138.5
236.519	119.5
236.753	132.5
236.987	132.5
237.221	189.5
237.455	247.5
237.689	192.5
237.922	139.5
238.156	121.5
238.39	128.5
238.624	119.5
238.858	134.5
239.091	134.5
239.325	119.5
239.559	125.5
239.793	139.5
240.027	123.5
240.26	144.5
240.494	163.5
240.728	150.5
240.961	139.5
241.195	149.5
241.429	135.5
241.662	139.5
241.896	134.5
242.13	123.5
242.363	118.5
242.597	146.5
242.83	136.5
243.064	136.5
243.298	134.5
243.531	144.5
243.765	134.5
243.998	135.5
244.232	132.5
244.465	152.5
244.699	139.5
244.932	134.5
245.166	143.5
245.399	161.5
245.633	150.5
245.866	145.5
246.099	140.5
246.333	140.5
246.566	158.5
246.8	154.5
247.033	136.5
247.266	148.5
247.5	160.5
247.733	154.5
247.966	165.5
248.2	167.5
248.433	154.5
248.666	166.5
248.899	187.5
249.133	196.5
249.366	217.5
249.599	221.5
249.832	204.5
250.066	174.5
250.299	184.5
250.532	184.5
250.765	190.5
250.998	221.5
251.231	230.5
251.465	231.5
251.698	198.5
251.931	199.5
252.164	203.5
252.397	200.5
252.63	207.5
252.863	210.5
253.096	207.5
253.329	235.5
253.562	229.5
253.795	250.5
254.028	218.5
254.261	212.5
254.494	235.5
254.727	275.5
254.96	293.5
255.193	270.5
255.426	255.5
255.659	246.5
255.892	250.5
256.124	238.5
256.357	228.5
256.59	223.5
256.823	207.5
257.056	203.5
257.289	218.5
257.521	216.5
257.754	197.5
257.987	229.5
258.22	184.5
258.452	197.5
258.685	194.5
258.918	198.5
259.151	216.5
259.383	216.5
259.616	214.5
259.849	218.5
260.081	244.5
260.314	256.5
260.547	273.5
260.779	262.5
261.012	223.5
261.244	240.5
261.477	220.5
261.71	226.5
261.942	245.5
262.175	232.5
262.407	223.5
262.64	216.5
262.872	213.5
263.105	195.5
263.337	204.5
263.57	214.5
263.802	210.5
264.035	205.5
264.267	199.5
264.499	213.5
264.732	217.5
264.964	192.5
265.197	210.5
265.429	207.5
265.661	193.5
265.894	204.5
266.126	198.5
266.358	200.5
266.591	211.5
266.823	210.5
267.055	226.5
267.287	219.5
267.52	202.5
267.752	215.5
267.984	218.5
268.216	214.5
268.448	224.5
268.681	235.5
268.913	243.5
269.145	237.5
269.377	286.5
269.609	254.5
269.841	254.5
270.073	282.5
270.306	287.5
270.538	305.5
270.77	314.5
271.002	320.5
271.234	294.5
271.466	296.5
271.698	299.5
271.93	326.5
272.162	322.5
272.394	317.5
272.626	299.5
272.858	272.5
273.09	267.5
273.322	270.5
273.553	278.5
273.785	244.5
274.017	264.5
274.249	235.5
274.481	250.5
274.713	262.5
274.945	248.5
275.176	254.5
275.408	277.5
275.64	241.5
275.872	240.5
276.104	250.5
276.335	257.5
276.567	257.5
276.799	275.5
277.031	291.5
277.262	295.5
277.494	306.5
277.726	295.5
277.957	276.5
278.189	287.5
278.421	248.5
278.652	246.5
278.884	228.5
279.115	239.5
279.347	249.5
279.579	244.5
279.81	246.5
280.042	249.5
280.273	246.5
280.505	256.5
280.736	273.5
280.968	251.5
281.199	253.5
281.431	251.5
281.662	243.5
281.894	243.5
282.125	244.5
282.356	258.5
282.588	281.5
282.819	278.5
283.051	275.5
283.282	262.5
283.513	267.5
283.745	263.5
283.976	255.5
284.207	271.5
284.439	252.5
284.67	273.5
284.901	261.5
285.132	263.5
285.364	270.5
285.595	249.5
285.826	270.5
286.057	263.5
286.288	261.5
286.52	257.5
286.751	257.5
286.982	265.5
287.213	253.5
287.444	267.5
287.675	254.5
287.906	267.5
288.138	278.5
288.369	278.5
288.6	278.5
288.831	263.5
289.062	263.5
289.293	276.5
289.524	260.5
289.755	264.5
289.986	264.5
290.217	270.5
290.448	255.5
290.679	278.5
290.91	263.5
291.141	264.5
291.371	271.5
291.602	252.5
291.833	247.5
292.064	263.5
292.295	255.5
292.526	259.5
292.757	258.5
292.987	269.5
293.218	245.5
293.449	269.5
293.68	262.5
293.91	265.5
294.141	270.5
294.372	264.5
294.603	254.5
294.833	263.5
295.064	271.5
295.295	263.5
295.525	271.5
295.756	280.5
295.987	284.5
296.217	316.5
296.448	309.5
296.679	291.5
296.909	263.5
297.14	272.5
297.37	268.5
297.601	284.5
297.831	260.5
298.062	272.5
298.292	280.5
298.523	277.5
298.753	292.5
298.984	244.5
299.214	259.5
299.445	275.5
299.675	283.5
299.905	284.5
300.136	293.5
300.366	279.5
300.597	276.5
300.827	297.5
301.057	294.5
301.288	290.5
301.518	296.5
301.748	292.5
301.979	291.5
302.209	290.5
302.439	302.5
302.669	306.5
302.9	311.5
303.13	309.5
303.36	322.5
303.59	298.5
303.82	288.5
304.051	300.5
304.281	289.5
304.511	294.5
304.741	282.5
304.971	282.5
305.201	287.5
305.431	292.5
305.661	303.5
305.891	303.5
306.121	297.5
306.352	290.5
306.582	317.5
306.812	292.5
307.042	310.5
307.272	293.5
307.502	300.5
307.731	304.5
307.961	299.5
308.191	284.5
308.421	298.5
308.651	289.5
308.881	311.5
309.111	315.5
309.341	309.5
309.571	322.5
309.8	338.5
310.03	361.5
310.26	367.5
310.49	350.5
310.72	354.5
310.949	375.5
311.179	368.5
311.409	359.5
311.639	347.5
311.868	359.5
312.098	345.5
312.328	368.5
312.557	381.5
312.787	384.5
313.017	375.5
313.246	367.5
313.476	344.5
313.706	330.5
313.935	360.5
314.165	345.5
314.394	367.5
314.624	366.5
314.853	356.5
315.083	345.5
315.312	349.5
315.542	330.5
315.771	335.5
316.001	336.5
316.23	350.5
316.46	347.5
316.689	342.5
316.919	350.5
317.148	367.5
317.377	358.5
317.607	358.5
317.836	356.5
318.065	351.5
318.295	365.5
318.524	343.5
318.753	353.5
318.983	331.5
319.212	335.5
319.441	365.5
319.67	357.5
319.9	355.5
320.129	367.5
320.358	362.5
320.587	347.5
320.816	355.5
321.046	353.5
321.275	359.5
321.504	380.5
321.733	364.5
321.962	372.5
322.191	392.5
322.42	406.5
322.649	440.5
322.878	418.5
323.108	441.5
323.337	451.5
323.566	501.5
323.795	534.5
324.024	578.5
324.253	704.5
324.482	1002.5
324.71	1559.5
324.939	2250.5
325.168	1964.5
325.397	1047.5
325.626	680.5
325.855	578.5
326.084	517.5
326.313	518.5
326.542	519.5
326.77	546.5
326.999	651.5
327.228	926.5
327.457	1394.5
327.686	1728.5
327.914	1147.5
328.143	768.5
328.372	660.5
328.6	600.5
328.829	574.5
329.058	603.5
329.287	595.5
329.515	558.5
329.744	516.5
329.972	499.5
330.201	501.5
330.43	546.5
330.658	582.5
330.887	627.5
331.115	598.5
331.344	502.5
331.572	476.5
331.801	474.5
332.03	468.5
332.258	452.5
332.486	429.5
332.715	400.5
332.943	388.5
333.172	407.5
333.4	414.5
333.629	410.5
333.857	425.5
334.085	430.5
334.314	439.5
334.542	507.5
334.771	494.5
334.999	462.5
335.227	434.5
335.455	414.5
335.684	404.5
335.912	392.5
336.14	407.5
336.369	400.5
336.597	411.5
336.825	418.5
337.053	409.5
337.281	404.5
337.51	398.5
337.738	412.5
337.966	386.5
338.194	404.5
338.422	404.5
338.65	407.5
338.878	399.5
339.106	351.5
339.334	383.5
339.562	380.5
339.79	377.5
340.018	382.5
340.246	400.5
340.474	394.5
340.702	390.5
340.93	378.5
341.158	366.5
341.386	416.5
341.614	404.5
341.842	373.5
342.07	378.5
342.298	381.5
342.526	362.5
342.754	378.5
342.981	352.5
343.209	379.5
343.437	388.5
343.665	379.5
343.893	381.5
344.12	386.5
344.348	364.5
344.576	377.5
344.804	396.5
345.031	438.5
345.259	427.5
345.487	402.5
345.714	381.5
345.942	400.5
346.17	400.5
346.397	387.5
346.625	395.5
346.853	375.5
347.08	374.5
347.308	384.5
347.535	393.5
347.763	413.5
347.99	410.5
348.218	398.5
348.445	406.5
348.673	403.5
348.9	379.5
349.128	376.5
349.355	371.5
349.583	367.5
349.81	360.5
350.037	363.5
350.265	364.5
350.492	382.5
350.72	382.5
350.947	359.5
351.174	386.5
351.402	416.5
351.629	384.5
351.856	394.5
352.083	393.5
352.311	412.5
352.538	402.5
352.765	396.5
352.992	402.5
353.22	367.5
353.447	380.5
353.674	384.5
353.901	367.5
354.128	352.5
354.355	351.5
354.583	341.5
354.81	348.5
355.037	376.5
355.264	341.5
355.491	354.5
355.718	333.5
355.945	345.5
356.172	337.5
356.399	340.5
356.626	344.5
356.853	350.5
357.08	368.5
357.307	339.5
357.534	363.5
357.761	357.5
357.988	355.5
358.215	346.5
358.441	343.5
358.668	328.5
358.895	358.5
359.122	352.5
359.349	390.5
359.576	382.5
359.802	411.5
360.029	439.5
360.256	456.5
360.483	432.5
360.709	398.5
360.936	398.5
361.163	392.5
361.39	366.5
361.616	380.5
361.843	382.5
362.07	375.5
362.296	388.5
362.523	374.5
362.749	384.5
362.976	381.5
363.203	372.5
363.429	379.5
363.656	375.5
363.882	361.5
364.109	356.5
364.335	361.5
364.562	359.5
364.788	382.5
365.015	362.5
365.241	384.5
365.468	374.5
365.694	381.5
365.92	391.5
366.147	381.5
366.373	347.5
366.599	359.5
366.826	363.5
367.052	359.5
367.278	351.5
367.505	356.5
367.731	363.5
367.957	354.5
368.184	367.5
368.41	378.5
368.636	375.5
368.862	384.5
369.089	353.5
369.315	375.5
369.541	385.5
369.767	373.5
369.993	363.5
370.219	364.5
370.445	357.5
370.672	379.5
370.898	357.5
371.124	351.5
371.35	357.5
371.576	349.5
371.802	357.5
372.028	343.5
372.254	350.5
372.48	354.5
372.706	364.5
372.932	328.5
373.158	363.5
373.384	346.5
373.61	363.5
373.835	348.5
374.061	359.5
374.287	361.5
374.513	349.5
374.739	373.5
374.965	350.5
375.191	354.5
375.416	349.5
375.642	356.5
375.868	376.5
376.094	346.5
376.319	347.5
376.545	356.5
376.771	346.5
376.997	346.5
377.222	352.5
377.448	355.5
377.674	353.5
377.899	339.5
378.125	350.5
378.35	365.5
378.576	340.5
378.802	372.5
379.027	340.5
379.253	330.5
379.478	334.5
379.704	350.5
379.929	349.5
380.155	367.5
380.38	356.5
380.606	346.5
380.831	344.5
381.057	362.5
381.282	341.5
381.507	360.5
381.733	356.5
381.958	344.5
382.184	351.5
382.409	337.5
382.634	352.5
382.86	364.5
383.085	344.5
383.31	349.5
383.535	357.5
383.761	358.5
383.986	384.5
384.211	374.5
384.436	351.5
384.662	363.5
384.887	382.5
385.112	374.5
385.337	379.5
385.562	371.5
385.787	367.5
386.013	392.5
386.238	398.5
386.463	382.5
386.688	390.5
386.913	390.5
387.138	363.5
387.363	377.5
387.588	384.5
387.813	373.5
388.038	394.5
388.263	367.5
388.488	380.5
388.713	376.5
388.938	372.5
389.163	366.5
389.387	384.5
389.612	370.5
389.837	378.5
390.062	363.5
390.287	371.5
390.512	382.5
390.736	388.5
390.961	397.5
391.186	367.5
391.411	378.5
391.636	374.5
391.86	388.5
392.085	393.5
392.31	381.5
392.534	397.5
392.759	374.5
392.984	395.5
393.208	370.5
393.433	380.5
393.658	366.5
393.882	363.5
394.107	373.5
394.331	359.5
394.556	376.5
394.78	365.5
395.005	390.5
395.229	372.5
395.454	381.5
395.678	394.5
395.903	381.5
396.127	415.5
396.352	438.5
396.576	382.5
396.801	406.5
397.025	403.5
397.249	404.5
397.474	388.5
397.698	408.5
397.922	415.5
398.147	407.5
398.371	427.5
398.595	426.5
398.82	426.5
399.044	438.5
399.268	426.5
399.492	438.5
399.717	453.5
399.941	483.5
400.165	523.5
400.389	521.5
400.613	488.5
400.837	454.5
401.062	439.5
401.286	429.5
401.51	408.5
401.734	428.5
401.958	418.5
402.182	433.5
402.406	447.5
402.63	424.5
402.854	433.5
403.078	430.5
403.302	447.5
403.526	432.5
403.75	453.5
403.974	447.5
404.198	420.5
404.422	454.5
404.645	451.5
404.869	457.5
405.093	492.5
405.317	494.5
405.541	548.5
405.765	507.5
405.988	472.5
406.212	488.5
406.436	526.5
406.66	522.5
406.883	499.5
407.107	527.5
407.331	537.5
407.555	607.5
407.778	599.5
408.002	504.5
408.226	508.5
408.449	499.5
408.673	498.5
408.896	518.5
409.12	548.5
409.344	523.5
409.567	455.5
409.791	453.5
410.014	441.5
410.238	460.5
410.461	452.5
410.685	426.5
410.908	475.5
411.132	498.5
411.355	545.5
411.578	504.5
411.802	440.5
412.025	456.5
412.249	469.5
412.472	464.5
412.695	503.5
412.919	500.5
413.142	444.5
413.365	442.5
413.589	432.5
413.812	420.5
414.035	415.5
414.258	425.5
414.482	412.5
414.705	418.5
414.928	426.5
415.151	406.5
415.374	422.5
415.597	412.5
415.821	423.5
416.044	435.5
416.267	421.5
416.49	416.5
416.713	404.5
416.936	425.5
417.159	426.5
417.382	425.5
417.605	423.5
417.828	430.5
418.051	443.5
418.274	441.5
418.497	399.5
418.72	424.5
418.943	423.5
419.166	441.5
419.389	448.5
419.611	446.5
419.834	435.5
420.057	440.5
420.28	480.5
420.503	439.5
420.726	446.5
420.948	461.5
421.171	495.5
421.394	529.5
421.617	472.5
421.839	455.5
422.062	438.5
422.285	466.5
422.507	510.5
422.73	578.5
422.953	580.5
423.175	505.5
423.398	470.5
423.621	481.5
423.843	487.5
424.066	503.5
424.288	491.5
424.511	494.5
424.733	568.5
424.956	637.5
425.178	612.5
425.401	616.5
425.623	637.5
425.846	546.5
426.068	499.5
426.291	494.5
426.513	482.5
426.735	538.5
426.958	545.5
427.18	635.5
427.402	742.5
427.625	804.5
427.847	762.5
428.069	642.5
428.292	568.5
428.514	526.5
428.736	470.5
428.958	482.5
429.181	444.5
429.403	461.5
429.625	476.5
429.847	517.5
430.069	566.5
430.292	578.5
430.514	492.5
430.736	482.5
430.958	446.5
431.18	449.5
431.402	417.5
431.624	427.5
431.846	423.5
432.068	436.5
432.29	412.5
432.512	432.5
432.734	430.5
432.956	454.5
433.178	456.5
433.4	466.5
433.622	449.5
433.844	406.5
434.066	416.5
434.287	434.5
434.509	426.5
434.731	435.5
434.953	446.5
435.175	460.5
435.397	485.5
435.618	516.5
435.84	556.5
436.062	631.5
436.284	696.5
436.505	584.5
436.727	528.5
436.949	486.5
437.17	484.5
437.392	461.5
437.614	503.5
437.835	532.5
438.057	616.5
438.278	734.5
438.5	702.5
438.721	755.5
438.943	728.5
439.165	590.5
439.386	538.5
439.608	523.5
439.829	526.5
440.05	541.5
440.272	596.5
440.493	560.5
440.715	503.5
440.936	486.5
441.158	486.5
441.379	466.5
441.6	469.5
441.822	506.5
442.043	556.5
442.264	642.5
442.486	655.5
442.707	570.5
442.928	539.5
443.149	546.5
443.371	564.5
443.592	592.5
443.813	664.5
444.034	736.5
444.255	621.5
444.476	514.5
444.698	494.5
444.919	504.5
445.14	582.5
445.361	551.5
445.582	562.5
445.803	616.5
446.024	734.5
446.245	721.5
446.466	646.5
446.687	568.5
446.908	524.5
447.129	517.5
447.35	466.5
447.571	470.5
447.792	461.5
448.013	480.5
448.234	493.5
448.455	536.5
448.675	663.5
448.896	740.5
449.117	634.5
449.338	597.5
449.559	704.5
449.779	807.5
450	629.5
450.221	546.5
450.442	473.5
450.662	459.5
450.883	490.5
451.104	482.5
451.324	489.5
451.545	470.5
451.766	452.5
451.986	450.5
452.207	409.5
452.428	400.5
452.648	414.5
452.869	401.5
453.089	426.5
453.31	443.5
453.53	427.5
453.751	412.5
453.971	438.5
454.192	457.5
454.412	448.5
454.633	431.5
454.853	413.5
455.073	423.5
455.294	439.5
455.514	514.5
455.734	492.5
455.955	453.5
456.175	423.5
456.395	384.5
456.616	399.5
456.836	380.5
457.056	379.5
457.276	374.5
457.497	381.5
457.717	397.5
457.937	398.5
458.157	399.5
458.377	410.5
458.598	429.5
458.818	501.5
459.038	586.5
459.258	590.5
459.478	490.5
459.698	455.5
459.918	436.5
460.138	429.5
460.358	453.5
460.578	419.5
460.798	426.5
461.018	440.5
461.238	442.5
461.458	426.5
461.678	430.5
461.898	433.5
462.118	418.5
462.338	422.5
462.558	430.5
462.777	440.5
462.997	452.5
463.217	444.5
463.437	443.5
463.657	431.5
463.876	442.5
464.096	436.5
464.316	429.5
464.536	467.5
464.755	463.5
464.975	456.5
465.195	532.5
465.414	602.5
465.634	526.5
465.854	470.5
466.073	452.5
466.293	439.5
466.512	421.5
466.732	406.5
466.951	404.5
467.171	417.5
467.391	455.5
467.61	431.5
467.829	452.5
468.049	433.5
468.268	452.5
468.488	426.5
468.707	426.5
468.927	406.5
469.146	401.5
469.365	396.5
469.585	417.5
469.804	412.5
470.023	448.5
470.243	425.5
470.462	421.5
470.681	455.5
470.901	451.5
471.12	411.5
471.339	427.5
471.558	430.5
471.777	430.5
471.997	438.5
472.216	430.5
472.435	457.5
472.654	467.5
472.873	435.5
473.092	441.5
473.311	424.5
473.53	438.5
473.749	443.5
473.968	498.5
474.187	596.5
474.406	628.5
474.625	514.5
474.844	453.5
475.063	427.5
475.282	442.5
475.501	442.5
475.72	453.5
475.939	417.5
476.158	455.5
476.377	444.5
476.596	442.5
476.814	468.5
477.033	460.5
477.252	453.5
477.471	459.5
477.69	456.5
477.908	447.5
478.127	457.5
478.346	466.5
478.564	473.5
478.783	488.5
479.002	497.5
479.22	490.5
479.439	498.5
479.658	513.5
479.876	509.5
480.095	518.5
480.313	541.5
480.532	525.5
480.751	536.5
480.969	534.5
481.188	616.5
481.406	623.5
481.624	565.5
481.843	515.5
482.061	522.5
482.28	495.5
482.498	516.5
482.717	514.5
482.935	500.5
483.153	510.5
483.372	521.5
483.59	523.5
483.808	492.5
484.027	501.5
484.245	523.5
484.463	526.5
484.681	538.5
484.9	507.5
485.118	522.5
485.336	518.5
485.554	520.5
485.772	522.5
485.99	518.5
486.209	505.5
486.427	531.5
486.645	529.5
486.863	560.5
487.081	574.5
487.299	538.5
487.517	548.5
487.735	564.5
487.953	549.5
488.171	555.5
488.389	556.5
488.607	547.5
488.825	572.5
489.043	558.5
489.261	544.5
489.479	563.5
489.696	577.5
489.914	579.5
490.132	528.5
490.35	570.5
490.568	582.5
490.786	611.5
491.003	611.5
491.221	619.5
491.439	591.5
491.657	649.5
491.874	620.5
492.092	634.5
492.31	624.5
492.527	634.5
492.745	630.5
492.963	622.5
493.18	633.5
493.398	664.5
493.615	654.5
493.833	639.5
494.05	663.5
494.268	659.5
494.485	643.5
494.703	651.5
494.92	653.5
495.138	648.5
495.355	678.5
495.573	650.5
495.79	673.5
496.008	663.5
496.225	654.5
496.442	654.5
496.66	677.5
496.877	646.5
497.094	668.5
497.312	673.5
497.529	680.5
497.746	682.5
497.963	690.5
498.181	704.5
498.398	696.5
498.615	702.5
498.832	688.5
499.049	683.5
499.267	740.5
499.484	733.5
499.701	751.5
499.918	760.5
500.135	785.5
500.352	796.5
500.569	796.5
500.786	836.5
501.003	794.5
501.22	782.5
501.437	768.5
501.654	781.5
501.871	788.5
502.088	780.5
502.305	755.5
502.522	708.5
502.739	718.5
502.956	701.5
503.172	695.5
503.389	663.5
503.606	692.5
503.823	682.5
504.04	697.5
504.256	676.5
504.473	646.5
504.69	646.5
504.907	656.5
505.123	633.5
505.34	639.5
505.557	650.5
505.773	637.5
505.99	642.5
506.207	632.5
506.423	630.5
506.64	622.5
506.856	627.5
507.073	623.5
507.289	615.5
507.506	607.5
507.722	631.5
507.939	672.5
508.155	634.5
508.372	596.5
508.588	609.5
508.805	620.5
509.021	618.5
509.238	630.5
509.454	637.5
509.67	632.5
509.887	634.5
510.103	626.5
510.319	632.5
510.536	742.5
510.752	1280.5
510.968	1039.5
511.184	666.5
511.401	619.5
511.617	614.5
511.833	611.5
512.049	591.5
512.265	585.5
512.481	580.5
512.698	571.5
512.914	574.5
513.13	579.5
513.346	551.5
513.562	581.5
513.778	576.5
513.994	591.5
514.21	607.5
514.426	635.5
514.642	676.5
514.858	701.5
515.074	734.5
515.29	897.5
515.506	1418.5
515.721	1118.5
515.937	732.5
516.153	663.5
516.369	629.5
516.585	620.5
516.801	601.5
517.016	591.5
517.232	609.5
517.448	580.5
517.664	590.5
517.879	597.5
518.095	578.5
518.311	568.5
518.527	594.5
518.742	584.5
518.958	571.5
519.173	579.5
519.389	572.5
519.605	586.5
519.82	578.5
