Data from 1980.PennyLincolnUp.Lamp.En5.5.200Scan.071819.P1_HRD10591_16-36-43-956.txt Node
Date: Thu Jul 18 16:36:43 EDT 2019
User: cochatt
Spectrometer: HR+D1059
Trigger mode: 1
Integration Time (sec): 1.000000E-1
Scans to average: 1
Electric dark correction enabled: true
Nonlinearity correction enabled: false
Boxcar width: 0
XAxis mode: Wavelengths
Number of Pixels in Spectrum: 2048
>>>>>Begin Spectral Data<<<<<
223.165	-12.56
223.4	-12.56
223.635	-12.56
223.869	-7.56
224.104	-16.56
224.338	-10.56
224.573	-21.56
224.808	-11.56
225.042	-6.56
225.277	-1.56
225.511	1.44
225.746	4.44
225.98	1.44
226.215	7.44
226.449	17.44
226.683	6.44
226.918	16.44
227.152	33.44
227.387	42.44
227.621	37.44
227.856	31.44
228.09	36.44
228.324	32.44
228.559	60.44
228.793	69.44
229.027	92.44
229.262	95.44
229.496	102.44
229.73	128.44
229.964	162.44
230.199	127.44
230.433	106.44
230.667	111.44
230.901	104.44
231.136	99.44
231.37	110.44
231.604	120.44
231.838	103.44
232.072	95.44
232.306	113.44
232.541	112.44
232.775	105.44
233.009	110.44
233.243	112.44
233.477	106.44
233.711	115.44
233.945	114.44
234.179	103.44
234.413	116.44
234.647	115.44
234.881	120.44
235.115	109.44
235.349	111.44
235.583	108.44
235.817	100.44
236.051	130.44
236.285	115.44
236.519	117.44
236.753	128.44
236.987	126.44
237.221	184.44
237.455	234.44
237.689	184.44
237.922	137.44
238.156	118.44
238.39	128.44
238.624	122.44
238.858	119.44
239.091	110.44
239.325	128.44
239.559	124.44
239.793	120.44
240.027	128.44
240.26	132.44
240.494	152.44
240.728	140.44
240.961	152.44
241.195	138.44
241.429	143.44
241.662	137.44
241.896	121.44
242.13	110.44
242.363	113.44
242.597	133.44
242.83	125.44
243.064	141.44
243.298	144.44
243.531	140.44
243.765	134.44
243.998	144.44
244.232	126.44
244.465	133.44
244.699	142.44
244.932	150.44
245.166	119.44
245.399	128.44
245.633	147.44
245.866	133.44
246.099	141.44
246.333	140.44
246.566	150.44
246.8	147.44
247.033	120.44
247.266	155.44
247.5	138.44
247.733	161.44
247.966	166.44
248.2	151.44
248.433	154.44
248.666	166.44
248.899	180.44
249.133	192.44
249.366	200.44
249.599	198.44
249.832	179.44
250.066	180.44
250.299	178.44
250.532	189.44
250.765	210.44
250.998	209.44
251.231	233.44
251.465	228.44
251.698	201.44
251.931	195.44
252.164	179.44
252.397	190.44
252.63	183.44
252.863	212.44
253.096	200.44
253.329	221.44
253.562	207.44
253.795	224.44
254.028	215.44
254.261	208.44
254.494	223.44
254.727	254.44
254.96	278.44
255.193	262.44
255.426	225.44
255.659	240.44
255.892	223.44
256.124	218.44
256.357	213.44
256.59	208.44
256.823	217.44
257.056	204.44
257.289	192.44
257.521	210.44
257.754	209.44
257.987	195.44
258.22	202.44
258.452	195.44
258.685	192.44
258.918	202.44
259.151	192.44
259.383	205.44
259.616	224.44
259.849	211.44
260.081	234.44
260.314	228.44
260.547	251.44
260.779	246.44
261.012	223.44
261.244	221.44
261.477	227.44
261.71	214.44
261.942	214.44
262.175	233.44
262.407	223.44
262.64	215.44
262.872	217.44
263.105	197.44
263.337	195.44
263.57	214.44
263.802	181.44
264.035	196.44
264.267	194.44
264.499	193.44
264.732	196.44
264.964	188.44
265.197	202.44
265.429	200.44
265.661	191.44
265.894	208.44
266.126	198.44
266.358	196.44
266.591	188.44
266.823	201.44
267.055	209.44
267.287	209.44
267.52	217.44
267.752	222.44
267.984	197.44
268.216	211.44
268.448	211.44
268.681	227.44
268.913	218.44
269.145	244.44
269.377	259.44
269.609	264.44
269.841	246.44
270.073	247.44
270.306	270.44
270.538	284.44
270.77	313.44
271.002	292.44
271.234	280.44
271.466	264.44
271.698	312.44
271.93	310.44
272.162	301.44
272.394	275.44
272.626	283.44
272.858	271.44
273.09	274.44
273.322	263.44
273.553	260.44
273.785	233.44
274.017	247.44
274.249	239.44
274.481	244.44
274.713	254.44
274.945	245.44
275.176	260.44
275.408	225.44
275.64	244.44
275.872	236.44
276.104	240.44
276.335	241.44
276.567	264.44
276.799	247.44
277.031	280.44
277.262	301.44
277.494	283.44
277.726	278.44
277.957	280.44
278.189	266.44
278.421	255.44
278.652	250.44
278.884	256.44
279.115	232.44
279.347	234.44
279.579	239.44
279.81	242.44
280.042	241.44
280.273	234.44
280.505	214.44
280.736	233.44
280.968	233.44
281.199	239.44
281.431	245.44
281.662	247.44
281.894	252.44
282.125	232.44
282.356	241.44
282.588	286.44
282.819	273.44
283.051	227.44
283.282	232.44
283.513	250.44
283.745	242.44
283.976	253.44
284.207	246.44
284.439	252.44
284.67	245.44
284.901	234.44
285.132	248.44
285.364	239.44
285.595	243.44
285.826	245.44
286.057	246.44
286.288	240.44
286.52	253.44
286.751	256.44
286.982	247.44
287.213	230.44
287.444	256.44
287.675	253.44
287.906	271.44
288.138	275.44
288.369	257.44
288.6	265.44
288.831	254.44
289.062	258.44
289.293	254.44
289.524	246.44
289.755	252.44
289.986	244.44
290.217	249.44
290.448	273.44
290.679	261.44
290.91	231.44
291.141	261.44
291.371	240.44
291.602	243.44
291.833	249.44
292.064	234.44
292.295	246.44
292.526	257.44
292.757	254.44
292.987	248.44
293.218	258.44
293.449	248.44
293.68	248.44
293.91	252.44
294.141	257.44
294.372	259.44
294.603	241.44
294.833	272.44
295.064	273.44
295.295	270.44
295.525	252.44
295.756	251.44
295.987	272.44
296.217	272.44
296.448	300.44
296.679	269.44
296.909	264.44
297.14	252.44
297.37	243.44
297.601	245.44
297.831	261.44
298.062	265.44
298.292	256.44
298.523	249.44
298.753	271.44
298.984	266.44
299.214	276.44
299.445	266.44
299.675	244.44
299.905	263.44
300.136	281.44
300.366	277.44
300.597	279.44
300.827	278.44
301.057	290.44
301.288	285.44
301.518	277.44
301.748	267.44
301.979	276.44
302.209	265.44
302.439	273.44
302.669	294.44
302.9	275.44
303.13	286.44
303.36	281.44
303.59	294.44
303.82	297.44
304.051	300.44
304.281	293.44
304.511	284.44
304.741	282.44
304.971	257.44
305.201	272.44
305.431	289.44
305.661	284.44
305.891	284.44
306.121	288.44
306.352	297.44
306.582	290.44
306.812	272.44
307.042	278.44
307.272	289.44
307.502	288.44
307.731	297.44
307.961	289.44
308.191	285.44
308.421	298.44
308.651	269.44
308.881	277.44
309.111	297.44
309.341	297.44
309.571	305.44
309.8	316.44
310.03	324.44
310.26	306.44
310.49	330.44
310.72	335.44
310.949	362.44
311.179	351.44
311.409	342.44
311.639	326.44
311.868	343.44
312.098	341.44
312.328	326.44
312.557	361.44
312.787	358.44
313.017	375.44
313.246	344.44
313.476	326.44
313.706	327.44
313.935	357.44
314.165	346.44
314.394	356.44
314.624	367.44
314.853	353.44
315.083	348.44
315.312	305.44
315.542	309.44
315.771	330.44
316.001	295.44
316.23	315.44
316.46	318.44
316.689	312.44
316.919	348.44
317.148	340.44
317.377	322.44
317.607	346.44
317.836	342.44
318.065	330.44
318.295	325.44
318.524	341.44
318.753	315.44
318.983	313.44
319.212	308.44
319.441	317.44
319.67	355.44
319.9	331.44
320.129	349.44
320.358	335.44
320.587	326.44
320.816	344.44
321.046	357.44
321.275	359.44
321.504	342.44
321.733	363.44
321.962	360.44
322.191	377.44
322.42	361.44
322.649	391.44
322.878	394.44
323.108	402.44
323.337	454.44
323.566	468.44
323.795	494.44
324.024	562.44
324.253	687.44
324.482	937.44
324.71	1422.44
324.939	2110.44
325.168	1854.44
325.397	974.44
325.626	632.44
325.855	529.44
326.084	470.44
326.313	444.44
326.542	476.44
326.77	509.44
326.999	620.44
327.228	852.44
327.457	1263.44
327.686	1601.44
327.914	1112.44
328.143	700.44
328.372	609.44
328.6	548.44
328.829	518.44
329.058	561.44
329.287	572.44
329.515	537.44
329.744	468.44
329.972	459.44
330.201	483.44
330.43	515.44
330.658	522.44
330.887	562.44
331.115	580.44
331.344	501.44
331.572	454.44
331.801	440.44
332.03	422.44
332.258	405.44
332.486	391.44
332.715	392.44
332.943	396.44
333.172	378.44
333.4	404.44
333.629	393.44
333.857	409.44
334.085	422.44
334.314	431.44
334.542	469.44
334.771	458.44
334.999	444.44
335.227	400.44
335.455	401.44
335.684	371.44
335.912	392.44
336.14	369.44
336.369	382.44
336.597	370.44
336.825	375.44
337.053	371.44
337.281	374.44
337.51	383.44
337.738	392.44
337.966	375.44
338.194	391.44
338.422	373.44
338.65	378.44
338.878	379.44
339.106	364.44
339.334	365.44
339.562	365.44
339.79	369.44
340.018	382.44
340.246	386.44
340.474	361.44
340.702	377.44
340.93	366.44
341.158	365.44
341.386	367.44
341.614	392.44
341.842	367.44
342.07	368.44
342.298	354.44
342.526	352.44
342.754	367.44
342.981	352.44
343.209	336.44
343.437	351.44
343.665	354.44
343.893	376.44
344.12	376.44
344.348	361.44
344.576	380.44
344.804	366.44
345.031	384.44
345.259	399.44
345.487	372.44
345.714	378.44
345.942	381.44
346.17	372.44
346.397	352.44
346.625	341.44
346.853	354.44
347.08	359.44
347.308	356.44
347.535	365.44
347.763	361.44
347.99	388.44
348.218	382.44
348.445	394.44
348.673	390.44
348.9	387.44
349.128	364.44
349.355	330.44
349.583	362.44
349.81	346.44
350.037	335.44
350.265	350.44
350.492	351.44
350.72	349.44
350.947	366.44
351.174	370.44
351.402	374.44
351.629	368.44
351.856	383.44
352.083	356.44
352.311	378.44
352.538	402.44
352.765	387.44
352.992	370.44
353.22	378.44
353.447	369.44
353.674	361.44
353.901	340.44
354.128	321.44
354.355	328.44
354.583	344.44
354.81	335.44
355.037	327.44
355.264	347.44
355.491	326.44
355.718	336.44
355.945	323.44
356.172	324.44
356.399	329.44
356.626	321.44
356.853	312.44
357.08	336.44
357.307	337.44
357.534	332.44
357.761	322.44
357.988	334.44
358.215	315.44
358.441	334.44
358.668	338.44
358.895	329.44
359.122	339.44
359.349	354.44
359.576	364.44
359.802	386.44
360.029	423.44
360.256	440.44
360.483	406.44
360.709	368.44
360.936	378.44
361.163	375.44
361.39	362.44
361.616	382.44
361.843	361.44
362.07	363.44
362.296	388.44
362.523	368.44
362.749	356.44
362.976	351.44
363.203	343.44
363.429	334.44
363.656	351.44
363.882	342.44
364.109	351.44
364.335	354.44
364.562	349.44
364.788	353.44
365.015	347.44
365.241	341.44
365.468	366.44
365.694	338.44
365.92	365.44
366.147	361.44
366.373	350.44
366.599	341.44
366.826	328.44
367.052	330.44
367.278	349.44
367.505	346.44
367.731	326.44
367.957	364.44
368.184	346.44
368.41	360.44
368.636	375.44
368.862	365.44
369.089	370.44
369.315	350.44
369.541	359.44
369.767	341.44
369.993	343.44
370.219	343.44
370.445	352.44
370.672	335.44
370.898	336.44
371.124	322.44
371.35	335.44
371.576	355.44
371.802	362.44
372.028	340.44
372.254	342.44
372.48	346.44
372.706	328.44
372.932	339.44
373.158	349.44
373.384	338.44
373.61	366.44
373.835	346.44
374.061	341.44
374.287	355.44
374.513	332.44
374.739	341.44
374.965	340.44
375.191	329.44
375.416	333.44
375.642	339.44
375.868	346.44
376.094	330.44
376.319	336.44
376.545	342.44
376.771	369.44
376.997	358.44
377.222	352.44
377.448	352.44
377.674	349.44
377.899	340.44
378.125	333.44
378.35	337.44
378.576	326.44
378.802	339.44
379.027	344.44
379.253	346.44
379.478	364.44
379.704	358.44
379.929	336.44
380.155	374.44
380.38	344.44
380.606	347.44
380.831	357.44
381.057	353.44
381.282	349.44
381.507	335.44
381.733	339.44
381.958	340.44
382.184	337.44
382.409	345.44
382.634	338.44
382.86	341.44
383.085	350.44
383.31	335.44
383.535	338.44
383.761	369.44
383.986	361.44
384.211	345.44
384.436	360.44
384.662	352.44
384.887	366.44
385.112	366.44
385.337	356.44
385.562	330.44
385.787	370.44
386.013	379.44
386.238	378.44
386.463	380.44
386.688	372.44
386.913	385.44
387.138	351.44
387.363	345.44
387.588	354.44
387.813	355.44
388.038	361.44
388.263	353.44
388.488	373.44
388.713	354.44
388.938	364.44
389.163	377.44
389.387	376.44
389.612	388.44
389.837	372.44
390.062	360.44
390.287	346.44
390.512	374.44
390.736	361.44
390.961	345.44
391.186	344.44
391.411	361.44
391.636	359.44
391.86	369.44
392.085	376.44
392.31	364.44
392.534	376.44
392.759	381.44
392.984	352.44
393.208	359.44
393.433	383.44
393.658	374.44
393.882	386.44
394.107	360.44
394.331	380.44
394.556	359.44
394.78	370.44
395.005	359.44
395.229	348.44
395.454	382.44
395.678	364.44
395.903	381.44
396.127	382.44
396.352	406.44
396.576	382.44
396.801	384.44
397.025	381.44
397.249	380.44
397.474	383.44
397.698	406.44
397.922	418.44
398.147	422.44
398.371	409.44
398.595	400.44
398.82	386.44
399.044	410.44
399.268	416.44
399.492	435.44
399.717	449.44
399.941	505.44
400.165	497.44
400.389	489.44
400.613	473.44
400.837	451.44
401.062	422.44
401.286	408.44
401.51	408.44
401.734	413.44
401.958	438.44
402.182	418.44
402.406	426.44
402.63	428.44
402.854	419.44
403.078	415.44
403.302	433.44
403.526	432.44
403.75	430.44
403.974	407.44
404.198	410.44
404.422	410.44
404.645	431.44
404.869	432.44
405.093	475.44
405.317	501.44
405.541	540.44
405.765	489.44
405.988	460.44
406.212	466.44
406.436	481.44
406.66	497.44
406.883	465.44
407.107	508.44
407.331	530.44
407.555	581.44
407.778	576.44
408.002	532.44
408.226	464.44
408.449	477.44
408.673	485.44
408.896	514.44
409.12	517.44
409.344	520.44
409.567	445.44
409.791	463.44
410.014	431.44
410.238	410.44
410.461	409.44
410.685	433.44
410.908	468.44
411.132	472.44
411.355	535.44
411.578	502.44
411.802	444.44
412.025	423.44
412.249	436.44
412.472	470.44
412.695	488.44
412.919	463.44
413.142	456.44
413.365	429.44
413.589	416.44
413.812	400.44
414.035	416.44
414.258	381.44
414.482	407.44
414.705	404.44
414.928	399.44
415.151	392.44
415.374	394.44
415.597	387.44
415.821	414.44
416.044	414.44
416.267	428.44
416.49	408.44
416.713	395.44
416.936	405.44
417.159	398.44
417.382	423.44
417.605	412.44
417.828	432.44
418.051	434.44
418.274	435.44
418.497	416.44
418.72	399.44
418.943	405.44
419.166	416.44
419.389	449.44
419.611	424.44
419.834	439.44
420.057	429.44
420.28	428.44
420.503	433.44
420.726	446.44
420.948	430.44
421.171	478.44
421.394	516.44
421.617	461.44
421.839	422.44
422.062	450.44
422.285	457.44
422.507	523.44
422.73	552.44
422.953	544.44
423.175	497.44
423.398	456.44
423.621	436.44
423.843	476.44
424.066	465.44
424.288	523.44
424.511	487.44
424.733	544.44
424.956	602.44
425.178	615.44
425.401	601.44
425.623	608.44
425.846	534.44
426.068	492.44
426.291	486.44
426.513	475.44
426.735	492.44
426.958	536.44
427.18	610.44
427.402	730.44
427.625	781.44
427.847	717.44
428.069	618.44
428.292	544.44
428.514	497.44
428.736	468.44
428.958	457.44
429.181	455.44
429.403	437.44
429.625	453.44
429.847	493.44
430.069	541.44
430.292	547.44
430.514	468.44
430.736	439.44
430.958	442.44
431.18	428.44
431.402	434.44
431.624	408.44
431.846	412.44
432.068	400.44
432.29	408.44
432.512	411.44
432.734	416.44
432.956	425.44
433.178	415.44
433.4	436.44
433.622	415.44
433.844	432.44
434.066	404.44
434.287	418.44
434.509	398.44
434.731	433.44
434.953	422.44
435.175	449.44
435.397	473.44
435.618	496.44
435.84	527.44
436.062	593.44
436.284	665.44
436.505	570.44
436.727	495.44
436.949	464.44
437.17	465.44
437.392	462.44
437.614	479.44
437.835	514.44
438.057	622.44
438.278	691.44
438.5	654.44
438.721	754.44
438.943	700.44
439.165	577.44
439.386	508.44
439.608	513.44
439.829	487.44
440.05	509.44
440.272	569.44
440.493	541.44
440.715	490.44
440.936	476.44
441.158	444.44
441.379	438.44
441.6	467.44
441.822	480.44
442.043	530.44
442.264	604.44
442.486	612.44
442.707	548.44
442.928	518.44
443.149	524.44
443.371	536.44
443.592	559.44
443.813	651.44
444.034	714.44
444.255	572.44
444.476	500.44
444.698	494.44
444.919	468.44
445.14	556.44
445.361	546.44
445.582	529.44
445.803	564.44
446.024	688.44
446.245	696.44
446.466	622.44
446.687	541.44
446.908	494.44
447.129	480.44
447.35	460.44
447.571	439.44
447.792	441.44
448.013	447.44
448.234	498.44
448.455	516.44
448.675	623.44
448.896	744.44
449.117	630.44
449.338	570.44
449.559	686.44
449.779	754.44
450	630.44
450.221	526.44
450.442	481.44
450.662	451.44
450.883	480.44
451.104	473.44
451.324	478.44
451.545	429.44
451.766	424.44
451.986	384.44
452.207	374.44
452.428	386.44
452.648	388.44
452.869	401.44
453.089	423.44
453.31	442.44
453.53	422.44
453.751	406.44
453.971	406.44
454.192	427.44
454.412	413.44
454.633	412.44
454.853	399.44
455.073	393.44
455.294	445.44
455.514	490.44
455.734	466.44
455.955	406.44
456.175	368.44
456.395	398.44
456.616	370.44
456.836	392.44
457.056	369.44
457.276	376.44
457.497	376.44
457.717	361.44
457.937	374.44
458.157	402.44
458.377	374.44
458.598	406.44
458.818	486.44
459.038	569.44
459.258	553.44
459.478	482.44
459.698	441.44
459.918	438.44
460.138	412.44
460.358	414.44
460.578	405.44
460.798	408.44
461.018	414.44
461.238	430.44
461.458	407.44
461.678	417.44
461.898	395.44
462.118	403.44
462.338	401.44
462.558	409.44
462.777	416.44
462.997	441.44
463.217	418.44
463.437	428.44
463.657	423.44
463.876	444.44
464.096	414.44
464.316	424.44
464.536	412.44
464.755	428.44
464.975	446.44
465.195	508.44
465.414	582.44
465.634	518.44
465.854	455.44
466.073	411.44
466.293	416.44
466.512	417.44
466.732	416.44
466.951	412.44
467.171	399.44
467.391	385.44
467.61	410.44
467.829	417.44
468.049	421.44
468.268	412.44
468.488	402.44
468.707	390.44
468.927	393.44
469.146	398.44
469.365	388.44
469.585	387.44
469.804	405.44
470.023	420.44
470.243	400.44
470.462	413.44
470.681	429.44
470.901	453.44
471.12	403.44
471.339	413.44
471.558	404.44
471.777	419.44
471.997	413.44
472.216	409.44
472.435	454.44
472.654	444.44
472.873	417.44
473.092	414.44
473.311	411.44
473.53	394.44
473.749	432.44
473.968	472.44
474.187	563.44
474.406	582.44
474.625	498.44
474.844	429.44
475.063	436.44
475.282	423.44
475.501	394.44
475.72	413.44
475.939	424.44
476.158	421.44
476.377	438.44
476.596	432.44
476.814	423.44
477.033	446.44
477.252	444.44
477.471	445.44
477.69	416.44
477.908	426.44
478.127	463.44
478.346	447.44
478.564	441.44
478.783	440.44
479.002	473.44
479.22	483.44
479.439	489.44
479.658	501.44
479.876	506.44
480.095	471.44
480.313	516.44
480.532	519.44
480.751	517.44
480.969	498.44
481.188	566.44
481.406	596.44
481.624	524.44
481.843	514.44
482.061	489.44
482.28	481.44
482.498	484.44
482.717	469.44
482.935	497.44
483.153	504.44
483.372	486.44
483.59	476.44
483.808	479.44
484.027	479.44
484.245	507.44
484.463	505.44
484.681	495.44
484.9	493.44
485.118	483.44
485.336	514.44
485.554	498.44
485.772	495.44
485.99	504.44
486.209	486.44
486.427	483.44
486.645	498.44
486.863	538.44
487.081	536.44
487.299	517.44
487.517	520.44
487.735	534.44
487.953	544.44
488.171	528.44
488.389	522.44
488.607	526.44
488.825	510.44
489.043	533.44
489.261	546.44
489.479	532.44
489.696	537.44
489.914	527.44
490.132	544.44
490.35	560.44
490.568	576.44
490.786	561.44
491.003	553.44
491.221	594.44
491.439	621.44
491.657	601.44
491.874	603.44
492.092	587.44
492.31	609.44
492.527	607.44
492.745	641.44
492.963	622.44
493.18	651.44
493.398	632.44
493.615	630.44
493.833	634.44
494.05	642.44
494.268	619.44
494.485	644.44
494.703	620.44
494.92	625.44
495.138	644.44
495.355	624.44
495.573	646.44
495.79	661.44
496.008	627.44
496.225	631.44
496.442	650.44
496.66	653.44
496.877	637.44
497.094	658.44
497.312	633.44
497.529	646.44
497.746	672.44
497.963	670.44
498.181	682.44
498.398	689.44
498.615	694.44
498.832	670.44
499.049	696.44
499.267	684.44
499.484	726.44
499.701	717.44
499.918	725.44
500.135	749.44
500.352	786.44
500.569	778.44
500.786	788.44
501.003	796.44
501.22	763.44
501.437	772.44
501.654	761.44
501.871	744.44
502.088	732.44
