Data from 1980.PennyLincolnUp.Lamp.En5.5.200Scan.071819.P1_HRD10591_16-38-33-958.txt Node
Date: Thu Jul 18 16:38:33 EDT 2019
User: cochatt
Spectrometer: HR+D1059
Trigger mode: 1
Integration Time (sec): 1.000000E-1
Scans to average: 1
Electric dark correction enabled: true
Nonlinearity correction enabled: false
Boxcar width: 0
XAxis mode: Wavelengths
Number of Pixels in Spectrum: 2048
>>>>>Begin Spectral Data<<<<<
223.165	-5.25
223.4	-5.25
223.635	-5.25
223.869	-7.25
224.104	-15.25
224.338	-11.25
224.573	-23.25
224.808	-33.25
225.042	0.75
225.277	-10.25
225.511	-5.25
225.746	7.75
225.98	-0.25
226.215	-1.25
226.449	11.75
226.683	34.75
226.918	31.75
227.152	25.75
227.387	40.75
227.621	38.75
227.856	44.75
228.09	50.75
228.324	63.75
228.559	62.75
228.793	74.75
229.027	101.75
229.262	120.75
229.496	124.75
229.73	161.75
229.964	189.75
230.199	153.75
230.433	139.75
230.667	136.75
230.901	125.75
231.136	129.75
231.37	121.75
231.604	120.75
231.838	118.75
232.072	121.75
232.306	131.75
232.541	125.75
232.775	119.75
233.009	124.75
233.243	125.75
233.477	121.75
233.711	118.75
233.945	108.75
234.179	128.75
234.413	139.75
234.647	125.75
234.881	141.75
235.115	110.75
235.349	119.75
235.583	126.75
235.817	131.75
236.051	129.75
236.285	124.75
236.519	132.75
236.753	133.75
236.987	151.75
237.221	185.75
237.455	250.75
237.689	221.75
237.922	142.75
238.156	151.75
238.39	155.75
238.624	131.75
238.858	124.75
239.091	145.75
239.325	117.75
239.559	116.75
239.793	141.75
240.027	145.75
240.26	174.75
240.494	182.75
240.728	171.75
240.961	151.75
241.195	149.75
241.429	145.75
241.662	138.75
241.896	139.75
242.13	132.75
242.363	128.75
242.597	154.75
242.83	133.75
243.064	154.75
243.298	125.75
243.531	128.75
243.765	129.75
243.998	154.75
244.232	149.75
244.465	141.75
244.699	156.75
244.932	143.75
245.166	149.75
245.399	146.75
245.633	137.75
245.866	156.75
246.099	152.75
246.333	150.75
246.566	156.75
246.8	165.75
247.033	165.75
247.266	170.75
247.5	177.75
247.733	175.75
247.966	169.75
248.2	181.75
248.433	181.75
248.666	197.75
248.899	195.75
249.133	212.75
249.366	230.75
249.599	215.75
249.832	198.75
250.066	174.75
250.299	185.75
250.532	206.75
250.765	217.75
250.998	217.75
251.231	240.75
251.465	232.75
251.698	201.75
251.931	223.75
252.164	224.75
252.397	218.75
252.63	216.75
252.863	212.75
253.096	246.75
253.329	236.75
253.562	229.75
253.795	224.75
254.028	240.75
254.261	222.75
254.494	252.75
254.727	270.75
254.96	288.75
255.193	299.75
255.426	260.75
255.659	230.75
255.892	254.75
256.124	233.75
256.357	233.75
256.59	245.75
256.823	220.75
257.056	233.75
257.289	223.75
257.521	232.75
257.754	212.75
257.987	212.75
258.22	209.75
258.452	221.75
258.685	202.75
258.918	229.75
259.151	211.75
259.383	229.75
259.616	228.75
259.849	241.75
260.081	251.75
260.314	270.75
260.547	263.75
260.779	267.75
261.012	264.75
261.244	259.75
261.477	254.75
261.71	225.75
261.942	228.75
262.175	250.75
262.407	235.75
262.64	232.75
262.872	203.75
263.105	231.75
263.337	227.75
263.57	208.75
263.802	215.75
264.035	221.75
264.267	195.75
264.499	200.75
264.732	217.75
264.964	225.75
265.197	215.75
265.429	214.75
265.661	246.75
265.894	219.75
266.126	217.75
266.358	209.75
266.591	218.75
266.823	229.75
267.055	223.75
267.287	225.75
267.52	232.75
267.752	246.75
267.984	226.75
268.216	231.75
268.448	245.75
268.681	240.75
268.913	245.75
269.145	269.75
269.377	299.75
269.609	309.75
269.841	282.75
270.073	279.75
270.306	299.75
270.538	334.75
270.77	347.75
271.002	318.75
271.234	308.75
271.466	321.75
271.698	315.75
271.93	317.75
272.162	319.75
272.394	337.75
272.626	336.75
272.858	301.75
273.09	307.75
273.322	302.75
273.553	271.75
273.785	265.75
274.017	272.75
274.249	269.75
274.481	261.75
274.713	281.75
274.945	280.75
275.176	282.75
275.408	271.75
275.64	261.75
275.872	266.75
276.104	277.75
276.335	260.75
276.567	265.75
276.799	307.75
277.031	290.75
277.262	310.75
277.494	334.75
277.726	308.75
277.957	299.75
278.189	271.75
278.421	289.75
278.652	273.75
278.884	281.75
279.115	273.75
279.347	261.75
279.579	252.75
279.81	275.75
280.042	286.75
280.273	267.75
280.505	262.75
280.736	252.75
280.968	265.75
281.199	259.75
281.431	272.75
281.662	245.75
281.894	273.75
282.125	282.75
282.356	295.75
282.588	290.75
282.819	301.75
283.051	271.75
283.282	266.75
283.513	268.75
283.745	267.75
283.976	260.75
284.207	277.75
284.439	281.75
284.67	269.75
284.901	251.75
285.132	280.75
285.364	255.75
285.595	275.75
285.826	275.75
286.057	291.75
286.288	271.75
286.52	269.75
286.751	267.75
286.982	268.75
287.213	270.75
287.444	280.75
287.675	269.75
287.906	291.75
288.138	271.75
288.369	294.75
288.6	288.75
288.831	287.75
289.062	277.75
289.293	281.75
289.524	276.75
289.755	279.75
289.986	281.75
290.217	271.75
290.448	279.75
290.679	294.75
290.91	279.75
291.141	276.75
291.371	263.75
291.602	272.75
291.833	281.75
292.064	275.75
292.295	268.75
292.526	281.75
292.757	293.75
292.987	275.75
293.218	263.75
293.449	276.75
293.68	283.75
293.91	271.75
294.141	261.75
294.372	282.75
294.603	255.75
294.833	276.75
295.064	273.75
295.295	263.75
295.525	272.75
295.756	293.75
295.987	312.75
296.217	303.75
296.448	332.75
296.679	307.75
296.909	289.75
297.14	276.75
297.37	284.75
297.601	252.75
297.831	282.75
298.062	281.75
298.292	276.75
298.523	266.75
298.753	289.75
298.984	285.75
299.214	292.75
299.445	286.75
299.675	309.75
299.905	293.75
300.136	288.75
300.366	313.75
300.597	292.75
300.827	286.75
301.057	297.75
301.288	314.75
301.518	320.75
301.748	298.75
301.979	288.75
302.209	294.75
302.439	291.75
302.669	321.75
302.9	306.75
303.13	308.75
303.36	301.75
303.59	307.75
303.82	324.75
304.051	320.75
304.281	302.75
304.511	318.75
304.741	302.75
304.971	298.75
305.201	296.75
305.431	304.75
305.661	287.75
305.891	294.75
306.121	300.75
306.352	303.75
306.582	326.75
306.812	321.75
307.042	311.75
307.272	304.75
307.502	307.75
307.731	326.75
307.961	311.75
308.191	298.75
308.421	325.75
308.651	318.75
308.881	315.75
309.111	328.75
309.341	311.75
309.571	318.75
309.8	349.75
310.03	358.75
310.26	376.75
310.49	369.75
310.72	384.75
310.949	387.75
311.179	415.75
311.409	390.75
311.639	356.75
311.868	350.75
312.098	364.75
312.328	386.75
312.557	384.75
312.787	413.75
313.017	405.75
313.246	398.75
313.476	381.75
313.706	391.75
313.935	371.75
314.165	378.75
314.394	402.75
314.624	384.75
314.853	383.75
315.083	382.75
315.312	365.75
315.542	361.75
315.771	348.75
316.001	364.75
316.23	362.75
316.46	384.75
316.689	364.75
316.919	360.75
317.148	383.75
317.377	383.75
317.607	380.75
317.836	361.75
318.065	363.75
318.295	351.75
318.524	347.75
318.753	381.75
318.983	363.75
319.212	349.75
319.441	375.75
319.67	386.75
319.9	369.75
320.129	372.75
320.358	364.75
320.587	375.75
320.816	372.75
321.046	381.75
321.275	415.75
321.504	381.75
321.733	387.75
321.962	405.75
322.191	416.75
322.42	437.75
322.649	441.75
322.878	461.75
323.108	460.75
323.337	511.75
323.566	559.75
323.795	586.75
324.024	643.75
324.253	815.75
324.482	1124.75
324.71	1729.75
324.939	2542.75
325.168	2227.75
325.397	1179.75
325.626	774.75
325.855	625.75
326.084	567.75
326.313	547.75
326.542	564.75
326.77	596.75
326.999	731.75
327.228	1011.75
327.457	1537.75
327.686	1916.75
327.914	1301.75
328.143	841.75
328.372	697.75
328.6	663.75
328.829	605.75
329.058	638.75
329.287	655.75
329.515	598.75
329.744	547.75
329.972	534.75
330.201	560.75
330.43	606.75
330.658	650.75
330.887	688.75
331.115	639.75
331.344	547.75
331.572	528.75
331.801	533.75
332.03	514.75
332.258	455.75
332.486	452.75
332.715	444.75
332.943	430.75
333.172	439.75
333.4	426.75
333.629	452.75
333.857	474.75
334.085	499.75
334.314	490.75
334.542	547.75
334.771	557.75
334.999	478.75
335.227	464.75
335.455	448.75
335.684	434.75
335.912	432.75
336.14	401.75
336.369	404.75
336.597	453.75
336.825	444.75
337.053	410.75
337.281	399.75
337.51	443.75
337.738	424.75
337.966	410.75
338.194	429.75
338.422	429.75
338.65	419.75
338.878	420.75
339.106	396.75
339.334	394.75
339.562	374.75
339.79	397.75
340.018	402.75
340.246	398.75
340.474	429.75
340.702	407.75
340.93	417.75
341.158	401.75
341.386	407.75
341.614	421.75
341.842	443.75
342.07	391.75
342.298	397.75
342.526	405.75
342.754	375.75
342.981	367.75
343.209	384.75
343.437	387.75
343.665	400.75
343.893	409.75
344.12	384.75
344.348	394.75
344.576	411.75
344.804	409.75
345.031	413.75
345.259	424.75
345.487	424.75
345.714	425.75
345.942	415.75
346.17	409.75
346.397	396.75
346.625	412.75
346.853	399.75
347.08	413.75
347.308	391.75
347.535	415.75
347.763	420.75
347.99	393.75
348.218	427.75
348.445	432.75
348.673	421.75
348.9	418.75
349.128	401.75
349.355	378.75
349.583	389.75
349.81	365.75
350.037	379.75
350.265	383.75
350.492	381.75
350.72	373.75
350.947	390.75
351.174	378.75
351.402	409.75
351.629	411.75
351.856	424.75
352.083	428.75
352.311	440.75
352.538	413.75
352.765	421.75
352.992	406.75
353.22	406.75
353.447	387.75
353.674	383.75
353.901	366.75
354.128	366.75
354.355	375.75
354.583	381.75
354.81	384.75
355.037	359.75
355.264	352.75
355.491	360.75
355.718	337.75
355.945	367.75
356.172	351.75
356.399	358.75
356.626	358.75
356.853	366.75
357.08	344.75
357.307	361.75
357.534	358.75
357.761	360.75
357.988	360.75
358.215	347.75
358.441	343.75
358.668	368.75
358.895	366.75
359.122	377.75
359.349	382.75
359.576	394.75
359.802	431.75
360.029	485.75
360.256	474.75
360.483	443.75
360.709	415.75
360.936	419.75
361.163	405.75
361.39	403.75
361.616	401.75
361.843	400.75
362.07	392.75
362.296	398.75
362.523	407.75
362.749	403.75
362.976	385.75
363.203	387.75
363.429	378.75
363.656	379.75
363.882	374.75
364.109	365.75
364.335	383.75
364.562	389.75
364.788	381.75
365.015	368.75
365.241	364.75
365.468	405.75
365.694	381.75
365.92	395.75
366.147	373.75
366.373	364.75
366.599	375.75
366.826	363.75
367.052	377.75
367.278	373.75
367.505	374.75
367.731	376.75
367.957	375.75
368.184	390.75
368.41	375.75
368.636	385.75
368.862	382.75
369.089	354.75
369.315	381.75
369.541	350.75
369.767	358.75
369.993	360.75
370.219	366.75
370.445	367.75
370.672	358.75
370.898	350.75
371.124	359.75
371.35	375.75
371.576	364.75
371.802	364.75
372.028	361.75
372.254	355.75
372.48	363.75
372.706	349.75
372.932	371.75
373.158	363.75
373.384	341.75
373.61	377.75
373.835	369.75
374.061	368.75
374.287	374.75
374.513	374.75
374.739	369.75
374.965	373.75
375.191	364.75
375.416	365.75
375.642	359.75
375.868	363.75
376.094	350.75
376.319	356.75
376.545	375.75
376.771	365.75
376.997	355.75
377.222	346.75
377.448	360.75
377.674	364.75
377.899	352.75
378.125	359.75
378.35	332.75
378.576	368.75
378.802	356.75
379.027	334.75
379.253	347.75
379.478	365.75
379.704	356.75
379.929	349.75
380.155	339.75
380.38	369.75
380.606	355.75
380.831	373.75
381.057	355.75
381.282	352.75
381.507	355.75
381.733	369.75
381.958	357.75
382.184	366.75
382.409	362.75
382.634	365.75
382.86	352.75
383.085	359.75
383.31	365.75
383.535	371.75
383.761	375.75
383.986	350.75
384.211	383.75
384.436	343.75
384.662	380.75
384.887	378.75
385.112	374.75
385.337	377.75
385.562	380.75
385.787	372.75
386.013	390.75
386.238	383.75
386.463	399.75
386.688	365.75
386.913	368.75
387.138	381.75
387.363	372.75
387.588	374.75
387.813	358.75
388.038	401.75
388.263	369.75
388.488	378.75
388.713	363.75
388.938	380.75
389.163	385.75
389.387	406.75
389.612	385.75
389.837	355.75
390.062	375.75
390.287	383.75
390.512	376.75
390.736	375.75
390.961	388.75
391.186	373.75
391.411	373.75
391.636	379.75
391.86	392.75
392.085	378.75
392.31	379.75
392.534	393.75
392.759	385.75
392.984	359.75
393.208	372.75
393.433	382.75
393.658	371.75
393.882	359.75
394.107	381.75
394.331	400.75
394.556	374.75
394.78	379.75
395.005	378.75
395.229	387.75
395.454	378.75
395.678	388.75
395.903	416.75
396.127	424.75
396.352	426.75
396.576	399.75
396.801	396.75
397.025	394.75
397.249	402.75
397.474	410.75
397.698	409.75
397.922	405.75
398.147	421.75
398.371	432.75
398.595	420.75
398.82	413.75
399.044	438.75
399.268	437.75
399.492	436.75
399.717	465.75
399.941	492.75
400.165	504.75
400.389	519.75
400.613	497.75
400.837	458.75
401.062	435.75
401.286	443.75
401.51	436.75
401.734	424.75
401.958	421.75
402.182	430.75
402.406	408.75
402.63	437.75
402.854	448.75
403.078	445.75
403.302	438.75
403.526	459.75
403.75	447.75
403.974	431.75
404.198	436.75
404.422	464.75
404.645	479.75
404.869	453.75
405.093	483.75
405.317	522.75
405.541	567.75
405.765	492.75
405.988	510.75
406.212	479.75
406.436	521.75
406.66	524.75
406.883	517.75
407.107	512.75
407.331	537.75
407.555	615.75
407.778	619.75
408.002	559.75
408.226	523.75
408.449	522.75
408.673	503.75
408.896	532.75
409.12	561.75
409.344	543.75
409.567	453.75
409.791	479.75
410.014	463.75
410.238	454.75
410.461	447.75
410.685	465.75
410.908	464.75
411.132	512.75
411.355	566.75
411.578	514.75
411.802	497.75
412.025	441.75
412.249	472.75
412.472	468.75
412.695	524.75
412.919	532.75
413.142	471.75
413.365	443.75
413.589	427.75
413.812	435.75
414.035	454.75
414.258	431.75
414.482	428.75
414.705	433.75
414.928	428.75
415.151	423.75
415.374	415.75
415.597	392.75
415.821	418.75
416.044	422.75
416.267	416.75
416.49	432.75
416.713	426.75
416.936	424.75
417.159	437.75
417.382	454.75
417.605	420.75
417.828	452.75
418.051	454.75
418.274	449.75
418.497	441.75
418.72	452.75
418.943	425.75
419.166	456.75
419.389	460.75
419.611	472.75
419.834	456.75
420.057	476.75
420.28	461.75
420.503	468.75
420.726	461.75
420.948	485.75
421.171	519.75
421.394	548.75
421.617	504.75
421.839	457.75
422.062	459.75
422.285	495.75
422.507	518.75
422.73	611.75
422.953	593.75
423.175	540.75
423.398	497.75
423.621	490.75
423.843	509.75
424.066	515.75
424.288	521.75
424.511	534.75
424.733	566.75
424.956	675.75
425.178	653.75
425.401	638.75
425.623	669.75
425.846	575.75
426.068	506.75
426.291	505.75
426.513	494.75
426.735	511.75
426.958	577.75
427.18	631.75
427.402	783.75
427.625	844.75
427.847	773.75
428.069	665.75
428.292	585.75
428.514	543.75
428.736	496.75
428.958	485.75
429.181	480.75
429.403	473.75
429.625	473.75
429.847	530.75
430.069	592.75
430.292	595.75
430.514	502.75
430.736	468.75
430.958	473.75
431.18	469.75
431.402	440.75
431.624	447.75
431.846	433.75
432.068	441.75
432.29	457.75
432.512	413.75
432.734	450.75
432.956	443.75
433.178	450.75
433.4	464.75
433.622	446.75
433.844	427.75
434.066	453.75
434.287	437.75
434.509	440.75
434.731	460.75
434.953	457.75
435.175	464.75
435.397	493.75
435.618	512.75
435.84	551.75
436.062	663.75
436.284	723.75
436.505	613.75
436.727	549.75
436.949	512.75
437.17	467.75
437.392	489.75
437.614	496.75
437.835	535.75
438.057	658.75
438.278	750.75
438.5	751.75
438.721	783.75
438.943	771.75
439.165	616.75
439.386	552.75
439.608	548.75
439.829	556.75
440.05	569.75
440.272	622.75
440.493	596.75
440.715	525.75
440.936	494.75
441.158	455.75
441.379	500.75
441.6	487.75
441.822	503.75
442.043	563.75
442.264	628.75
442.486	694.75
442.707	582.75
442.928	532.75
443.149	533.75
443.371	587.75
443.592	614.75
443.813	697.75
444.034	753.75
444.255	633.75
444.476	552.75
444.698	519.75
444.919	512.75
445.14	583.75
445.361	561.75
445.582	573.75
445.803	645.75
446.024	755.75
446.245	758.75
446.466	705.75
446.687	600.75
446.908	513.75
447.129	474.75
447.35	483.75
447.571	484.75
447.792	484.75
448.013	492.75
448.234	505.75
448.455	562.75
448.675	671.75
448.896	766.75
449.117	673.75
449.338	625.75
449.559	719.75
449.779	821.75
450	669.75
450.221	581.75
450.442	511.75
450.662	513.75
450.883	499.75
451.104	496.75
451.324	501.75
451.545	480.75
451.766	458.75
451.986	441.75
452.207	459.75
452.428	447.75
452.648	454.75
452.869	423.75
453.089	456.75
453.31	452.75
453.53	460.75
453.751	416.75
453.971	434.75
454.192	473.75
454.412	478.75
454.633	442.75
454.853	465.75
455.073	438.75
455.294	469.75
455.514	526.75
455.734	533.75
455.955	439.75
456.175	413.75
456.395	394.75
456.616	394.75
456.836	404.75
457.056	386.75
457.276	387.75
457.497	419.75
457.717	380.75
457.937	413.75
458.157	387.75
458.377	411.75
458.598	428.75
458.818	517.75
459.038	622.75
459.258	627.75
459.478	511.75
459.698	461.75
459.918	432.75
460.138	426.75
460.358	436.75
460.578	416.75
460.798	420.75
461.018	426.75
461.238	438.75
461.458	407.75
461.678	431.75
461.898	438.75
462.118	454.75
462.338	417.75
462.558	446.75
462.777	437.75
462.997	461.75
463.217	469.75
463.437	449.75
463.657	423.75
463.876	464.75
464.096	439.75
464.316	458.75
464.536	454.75
464.755	443.75
464.975	480.75
465.195	540.75
465.414	644.75
465.634	543.75
465.854	512.75
466.073	458.75
466.293	457.75
466.512	419.75
466.732	411.75
466.951	435.75
467.171	447.75
467.391	408.75
467.61	432.75
467.829	455.75
468.049	475.75
468.268	449.75
468.488	429.75
468.707	423.75
468.927	405.75
469.146	432.75
469.365	448.75
469.585	413.75
469.804	416.75
470.023	435.75
470.243	455.75
470.462	449.75
470.681	476.75
470.901	456.75
471.12	433.75
471.339	464.75
471.558	441.75
471.777	459.75
471.997	430.75
472.216	427.75
472.435	487.75
472.654	481.75
472.873	432.75
473.092	455.75
473.311	441.75
473.53	442.75
473.749	463.75
473.968	488.75
474.187	608.75
474.406	631.75
474.625	490.75
474.844	442.75
475.063	439.75
475.282	445.75
475.501	436.75
475.72	459.75
475.939	460.75
476.158	445.75
476.377	459.75
476.596	424.75
476.814	472.75
477.033	456.75
477.252	472.75
477.471	455.75
477.69	457.75
477.908	464.75
478.127	465.75
478.346	474.75
478.564	467.75
478.783	476.75
479.002	497.75
479.22	489.75
479.439	509.75
479.658	508.75
479.876	520.75
480.095	525.75
480.313	560.75
480.532	533.75
480.751	533.75
480.969	564.75
481.188	597.75
481.406	678.75
481.624	582.75
481.843	550.75
482.061	541.75
482.28	549.75
482.498	517.75
482.717	525.75
482.935	509.75
483.153	523.75
483.372	503.75
483.59	521.75
483.808	518.75
484.027	522.75
484.245	508.75
484.463	532.75
484.681	530.75
484.9	511.75
485.118	517.75
485.336	525.75
485.554	527.75
485.772	554.75
485.99	541.75
486.209	539.75
486.427	540.75
486.645	564.75
486.863	572.75
487.081	551.75
487.299	551.75
487.517	550.75
487.735	572.75
487.953	551.75
488.171	575.75
488.389	567.75
488.607	559.75
488.825	567.75
489.043	571.75
489.261	564.75
489.479	567.75
489.696	572.75
489.914	571.75
490.132	582.75
490.35	592.75
490.568	603.75
490.786	606.75
491.003	636.75
491.221	629.75
491.439	622.75
491.657	649.75
491.874	648.75
492.092	649.75
492.31	669.75
492.527	681.75
492.745	669.75
492.963	663.75
493.18	671.75
493.398	681.75
493.615	672.75
493.833	663.75
494.05	701.75
494.268	671.75
494.485	683.75
494.703	673.75
494.92	689.75
495.138	696.75
495.355	667.75
495.573	675.75
495.79	676.75
496.008	668.75
496.225	676.75
496.442	665.75
496.66	671.75
496.877	661.75
497.094	651.75
497.312	681.75
497.529	683.75
497.746	705.75
497.963	704.75
498.181	725.75
498.398	709.75
498.615	715.75
498.832	729.75
499.049	713.75
499.267	729.75
499.484	755.75
499.701	748.75
499.918	742.75
500.135	784.75
500.352	794.75
500.569	775.75
500.786	810.75
501.003	781.75
501.22	796.75
501.437	806.75
501.654	801.75
501.871	811.75
