Data from 1980.PennyLincolnUp.Lamp.En5.5.200Scan.071819.P1_HRD10591_16-36-37-956.txt Node
Date: Thu Jul 18 16:36:37 EDT 2019
User: cochatt
Spectrometer: HR+D1059
Trigger mode: 1
Integration Time (sec): 1.000000E-1
Scans to average: 1
Electric dark correction enabled: true
Nonlinearity correction enabled: false
Boxcar width: 0
XAxis mode: Wavelengths
Number of Pixels in Spectrum: 2048
>>>>>Begin Spectral Data<<<<<
223.165	-25.38
223.4	-25.38
223.635	-25.38
223.869	-29.38
224.104	-15.38
224.338	-16.38
224.573	-18.38
224.808	-16.38
225.042	-3.38
225.277	8.62
225.511	12.62
225.746	8.62
225.98	-5.38
226.215	8.62
226.449	6.62
226.683	23.62
226.918	28.62
227.152	32.62
227.387	23.62
227.621	46.62
227.856	55.62
228.09	45.62
228.324	69.62
228.559	46.62
228.793	82.62
229.027	81.62
229.262	106.62
229.496	108.62
229.73	142.62
229.964	162.62
230.199	141.62
230.433	122.62
230.667	118.62
230.901	118.62
231.136	122.62
231.37	102.62
231.604	124.62
231.838	119.62
232.072	104.62
232.306	115.62
232.541	106.62
232.775	106.62
233.009	111.62
233.243	111.62
233.477	101.62
233.711	115.62
233.945	96.62
234.179	114.62
234.413	110.62
234.647	99.62
234.881	123.62
235.115	121.62
235.349	125.62
235.583	124.62
235.817	125.62
236.051	128.62
236.285	131.62
236.519	142.62
236.753	127.62
236.987	148.62
237.221	173.62
237.455	212.62
237.689	189.62
237.922	132.62
238.156	128.62
238.39	130.62
238.624	124.62
238.858	116.62
239.091	125.62
239.325	123.62
239.559	112.62
239.793	111.62
240.027	119.62
240.26	130.62
240.494	150.62
240.728	141.62
240.961	148.62
241.195	128.62
241.429	138.62
241.662	134.62
241.896	116.62
242.13	119.62
242.363	130.62
242.597	138.62
242.83	142.62
243.064	133.62
243.298	128.62
243.531	124.62
243.765	142.62
243.998	129.62
244.232	123.62
244.465	142.62
244.699	146.62
244.932	158.62
245.166	133.62
245.399	132.62
245.633	142.62
245.866	155.62
246.099	146.62
246.333	144.62
246.566	150.62
246.8	142.62
247.033	148.62
247.266	150.62
247.5	144.62
247.733	162.62
247.966	165.62
248.2	159.62
248.433	172.62
248.666	169.62
248.899	173.62
249.133	197.62
249.366	198.62
249.599	204.62
249.832	181.62
250.066	175.62
250.299	168.62
250.532	192.62
250.765	210.62
250.998	213.62
251.231	227.62
251.465	211.62
251.698	217.62
251.931	193.62
252.164	204.62
252.397	201.62
252.63	190.62
252.863	208.62
253.096	221.62
253.329	234.62
253.562	235.62
253.795	216.62
254.028	227.62
254.261	220.62
254.494	218.62
254.727	262.62
254.96	265.62
255.193	269.62
255.426	252.62
255.659	231.62
255.892	234.62
256.124	223.62
256.357	226.62
256.59	231.62
256.823	204.62
257.056	198.62
257.289	214.62
257.521	213.62
257.754	204.62
257.987	209.62
258.22	197.62
258.452	211.62
258.685	207.62
258.918	188.62
259.151	199.62
259.383	222.62
259.616	211.62
259.849	217.62
260.081	237.62
260.314	234.62
260.547	252.62
260.779	239.62
261.012	238.62
261.244	193.62
261.477	235.62
261.71	221.62
261.942	227.62
262.175	220.62
262.407	227.62
262.64	228.62
262.872	220.62
263.105	195.62
263.337	201.62
263.57	206.62
263.802	200.62
264.035	205.62
264.267	206.62
264.499	193.62
264.732	205.62
264.964	214.62
265.197	205.62
265.429	198.62
265.661	201.62
265.894	208.62
266.126	204.62
266.358	218.62
266.591	203.62
266.823	201.62
267.055	220.62
267.287	206.62
267.52	208.62
267.752	226.62
267.984	210.62
268.216	208.62
268.448	218.62
268.681	232.62
268.913	230.62
269.145	238.62
269.377	266.62
269.609	285.62
269.841	264.62
270.073	252.62
270.306	290.62
270.538	307.62
270.77	314.62
271.002	284.62
271.234	292.62
271.466	284.62
271.698	306.62
271.93	318.62
272.162	311.62
272.394	304.62
272.626	292.62
272.858	270.62
273.09	269.62
273.322	258.62
273.553	260.62
273.785	260.62
274.017	243.62
274.249	251.62
274.481	258.62
274.713	239.62
274.945	242.62
275.176	235.62
275.408	242.62
275.64	258.62
275.872	229.62
276.104	247.62
276.335	238.62
276.567	246.62
276.799	264.62
277.031	269.62
277.262	297.62
277.494	292.62
277.726	274.62
277.957	267.62
278.189	255.62
278.421	256.62
278.652	252.62
278.884	256.62
279.115	232.62
279.347	250.62
279.579	246.62
279.81	243.62
280.042	239.62
280.273	241.62
280.505	245.62
280.736	237.62
280.968	247.62
281.199	238.62
281.431	252.62
281.662	239.62
281.894	262.62
282.125	242.62
282.356	272.62
282.588	290.62
282.819	277.62
283.051	255.62
283.282	253.62
283.513	255.62
283.745	253.62
283.976	250.62
284.207	269.62
284.439	252.62
284.67	244.62
284.901	233.62
285.132	244.62
285.364	257.62
285.595	248.62
285.826	249.62
286.057	246.62
286.288	247.62
286.52	262.62
286.751	247.62
286.982	254.62
287.213	253.62
287.444	254.62
287.675	265.62
287.906	263.62
288.138	294.62
288.369	283.62
288.6	275.62
288.831	245.62
289.062	260.62
289.293	226.62
289.524	271.62
289.755	265.62
289.986	261.62
290.217	262.62
290.448	250.62
290.679	242.62
290.91	274.62
291.141	267.62
291.371	235.62
291.602	258.62
291.833	245.62
292.064	278.62
292.295	276.62
292.526	262.62
292.757	266.62
292.987	259.62
293.218	253.62
293.449	271.62
293.68	262.62
293.91	271.62
294.141	243.62
294.372	262.62
294.603	256.62
294.833	246.62
295.064	254.62
295.295	276.62
295.525	288.62
295.756	255.62
295.987	277.62
296.217	283.62
296.448	297.62
296.679	283.62
296.909	270.62
297.14	266.62
297.37	275.62
297.601	274.62
297.831	251.62
298.062	266.62
298.292	269.62
298.523	264.62
298.753	261.62
298.984	266.62
299.214	290.62
299.445	248.62
299.675	295.62
299.905	297.62
300.136	294.62
300.366	274.62
300.597	269.62
300.827	276.62
301.057	280.62
301.288	283.62
301.518	297.62
301.748	293.62
301.979	292.62
302.209	280.62
302.439	287.62
302.669	290.62
302.9	271.62
303.13	291.62
303.36	284.62
303.59	304.62
303.82	300.62
304.051	295.62
304.281	284.62
304.511	300.62
304.741	280.62
304.971	265.62
305.201	292.62
305.431	287.62
305.661	302.62
305.891	299.62
306.121	288.62
306.352	290.62
306.582	295.62
306.812	299.62
307.042	316.62
307.272	269.62
307.502	290.62
307.731	303.62
307.961	291.62
308.191	304.62
308.421	298.62
308.651	270.62
308.881	291.62
309.111	297.62
309.341	303.62
309.571	311.62
309.8	303.62
310.03	327.62
310.26	326.62
310.49	327.62
310.72	344.62
310.949	356.62
311.179	374.62
311.409	328.62
311.639	345.62
311.868	330.62
312.098	346.62
312.328	352.62
312.557	349.62
312.787	379.62
313.017	376.62
313.246	354.62
313.476	324.62
313.706	327.62
313.935	356.62
314.165	336.62
314.394	353.62
314.624	354.62
314.853	339.62
315.083	340.62
315.312	338.62
315.542	336.62
315.771	322.62
316.001	332.62
316.23	332.62
316.46	332.62
316.689	339.62
316.919	334.62
317.148	338.62
317.377	337.62
317.607	346.62
317.836	329.62
318.065	349.62
318.295	317.62
318.524	325.62
318.753	332.62
318.983	343.62
319.212	342.62
319.441	344.62
319.67	342.62
319.9	338.62
320.129	328.62
320.358	337.62
320.587	374.62
320.816	333.62
321.046	338.62
321.275	359.62
321.504	354.62
321.733	358.62
321.962	366.62
322.191	392.62
322.42	390.62
322.649	397.62
322.878	413.62
323.108	415.62
323.337	439.62
323.566	475.62
323.795	506.62
324.024	546.62
324.253	641.62
324.482	923.62
324.71	1452.62
324.939	2083.62
325.168	1838.62
325.397	946.62
325.626	638.62
325.855	518.62
326.084	479.62
326.313	462.62
326.542	469.62
326.77	516.62
326.999	614.62
327.228	812.62
327.457	1263.62
327.686	1570.62
327.914	1073.62
328.143	698.62
328.372	591.62
328.6	554.62
328.829	534.62
329.058	533.62
329.287	564.62
329.515	514.62
329.744	466.62
329.972	458.62
330.201	486.62
330.43	509.62
330.658	565.62
330.887	574.62
331.115	563.62
331.344	463.62
331.572	464.62
331.801	449.62
332.03	456.62
332.258	412.62
332.486	406.62
332.715	391.62
332.943	395.62
333.172	393.62
333.4	402.62
333.629	399.62
333.857	418.62
334.085	426.62
334.314	429.62
334.542	460.62
334.771	479.62
334.999	420.62
335.227	422.62
335.455	422.62
335.684	406.62
335.912	383.62
336.14	391.62
336.369	383.62
336.597	387.62
336.825	406.62
337.053	389.62
337.281	380.62
337.51	363.62
337.738	382.62
337.966	388.62
338.194	395.62
338.422	414.62
338.65	396.62
338.878	360.62
339.106	364.62
339.334	381.62
339.562	380.62
339.79	378.62
340.018	371.62
340.246	372.62
340.474	375.62
340.702	380.62
340.93	356.62
341.158	372.62
341.386	380.62
341.614	379.62
341.842	375.62
342.07	365.62
342.298	376.62
342.526	382.62
342.754	367.62
342.981	360.62
343.209	379.62
343.437	376.62
343.665	370.62
343.893	364.62
344.12	375.62
344.348	382.62
344.576	375.62
344.804	401.62
345.031	388.62
345.259	392.62
345.487	404.62
345.714	382.62
345.942	372.62
346.17	354.62
346.397	366.62
346.625	367.62
346.853	374.62
347.08	358.62
347.308	372.62
347.535	378.62
347.763	393.62
347.99	381.62
348.218	390.62
348.445	388.62
348.673	389.62
348.9	375.62
349.128	342.62
349.355	352.62
349.583	374.62
349.81	354.62
350.037	360.62
350.265	347.62
350.492	349.62
350.72	357.62
350.947	364.62
351.174	372.62
351.402	390.62
351.629	380.62
351.856	382.62
352.083	378.62
352.311	395.62
352.538	386.62
352.765	408.62
352.992	388.62
353.22	366.62
353.447	364.62
353.674	375.62
353.901	340.62
354.128	352.62
354.355	327.62
354.583	328.62
354.81	323.62
355.037	342.62
355.264	324.62
355.491	350.62
355.718	332.62
355.945	350.62
356.172	336.62
356.399	344.62
356.626	342.62
356.853	331.62
357.08	339.62
357.307	352.62
357.534	342.62
357.761	342.62
357.988	331.62
358.215	346.62
358.441	344.62
358.668	345.62
358.895	339.62
359.122	354.62
359.349	372.62
359.576	388.62
359.802	406.62
360.029	430.62
360.256	410.62
360.483	391.62
360.709	372.62
360.936	365.62
361.163	382.62
361.39	370.62
361.616	372.62
361.843	356.62
362.07	365.62
362.296	378.62
362.523	364.62
362.749	352.62
362.976	370.62
363.203	347.62
363.429	345.62
363.656	335.62
363.882	368.62
364.109	339.62
364.335	343.62
364.562	351.62
364.788	337.62
365.015	358.62
365.241	352.62
365.468	363.62
365.694	367.62
365.92	362.62
366.147	352.62
366.373	360.62
366.599	347.62
366.826	361.62
367.052	377.62
367.278	334.62
367.505	356.62
367.731	368.62
367.957	350.62
368.184	360.62
368.41	359.62
368.636	354.62
368.862	370.62
369.089	375.62
369.315	367.62
369.541	353.62
369.767	353.62
369.993	342.62
370.219	346.62
370.445	338.62
370.672	338.62
370.898	341.62
371.124	321.62
371.35	329.62
371.576	335.62
371.802	343.62
372.028	350.62
372.254	347.62
372.48	342.62
372.706	331.62
372.932	344.62
373.158	349.62
373.384	336.62
373.61	339.62
373.835	343.62
374.061	339.62
374.287	343.62
374.513	366.62
374.739	352.62
374.965	352.62
375.191	345.62
375.416	348.62
375.642	343.62
375.868	348.62
376.094	366.62
376.319	365.62
376.545	340.62
376.771	340.62
376.997	336.62
377.222	348.62
377.448	335.62
377.674	346.62
377.899	338.62
378.125	325.62
378.35	348.62
378.576	332.62
378.802	352.62
379.027	349.62
379.253	356.62
379.478	343.62
379.704	363.62
379.929	373.62
380.155	345.62
380.38	346.62
380.606	346.62
380.831	341.62
381.057	376.62
381.282	350.62
381.507	338.62
381.733	350.62
381.958	355.62
382.184	348.62
382.409	339.62
382.634	354.62
382.86	365.62
383.085	365.62
383.31	352.62
383.535	362.62
383.761	340.62
383.986	358.62
384.211	371.62
384.436	336.62
384.662	378.62
384.887	368.62
385.112	370.62
385.337	352.62
385.562	368.62
385.787	348.62
386.013	377.62
386.238	370.62
386.463	383.62
386.688	375.62
386.913	380.62
387.138	366.62
387.363	370.62
387.588	368.62
387.813	385.62
388.038	365.62
388.263	379.62
388.488	378.62
388.713	354.62
388.938	362.62
389.163	377.62
389.387	367.62
389.612	374.62
389.837	363.62
390.062	370.62
390.287	396.62
390.512	360.62
390.736	362.62
390.961	374.62
391.186	342.62
391.411	368.62
391.636	357.62
391.86	407.62
392.085	375.62
392.31	363.62
392.534	382.62
392.759	388.62
392.984	379.62
393.208	370.62
393.433	366.62
393.658	382.62
393.882	363.62
394.107	386.62
394.331	380.62
394.556	374.62
394.78	367.62
395.005	370.62
395.229	361.62
395.454	394.62
395.678	386.62
395.903	394.62
396.127	424.62
396.352	430.62
396.576	396.62
396.801	383.62
397.025	393.62
397.249	388.62
397.474	390.62
397.698	414.62
397.922	404.62
398.147	420.62
398.371	410.62
398.595	422.62
398.82	404.62
399.044	410.62
399.268	415.62
399.492	444.62
399.717	461.62
399.941	492.62
400.165	502.62
400.389	534.62
400.613	486.62
400.837	452.62
401.062	439.62
401.286	414.62
401.51	412.62
401.734	401.62
401.958	408.62
402.182	421.62
402.406	446.62
402.63	454.62
402.854	424.62
403.078	410.62
403.302	431.62
403.526	442.62
403.75	427.62
403.974	418.62
404.198	407.62
404.422	436.62
404.645	444.62
404.869	450.62
405.093	450.62
405.317	520.62
405.541	536.62
405.765	501.62
405.988	476.62
406.212	470.62
406.436	488.62
406.66	491.62
406.883	484.62
407.107	496.62
407.331	535.62
407.555	571.62
407.778	584.62
408.002	522.62
408.226	495.62
408.449	470.62
408.673	491.62
408.896	527.62
409.12	553.62
409.344	525.62
409.567	456.62
409.791	461.62
410.014	421.62
410.238	425.62
410.461	444.62
410.685	448.62
410.908	448.62
411.132	489.62
411.355	517.62
411.578	488.62
411.802	471.62
412.025	458.62
412.249	447.62
412.472	473.62
412.695	487.62
412.919	481.62
413.142	452.62
413.365	424.62
413.589	430.62
413.812	410.62
414.035	396.62
414.258	406.62
414.482	392.62
414.705	412.62
414.928	413.62
415.151	390.62
415.374	411.62
415.597	382.62
415.821	416.62
416.044	406.62
416.267	410.62
416.49	409.62
416.713	408.62
416.936	399.62
417.159	396.62
417.382	423.62
417.605	431.62
417.828	431.62
418.051	443.62
418.274	430.62
418.497	440.62
418.72	389.62
418.943	423.62
419.166	431.62
419.389	434.62
419.611	442.62
419.834	446.62
420.057	453.62
420.28	437.62
420.503	442.62
420.726	468.62
420.948	440.62
421.171	503.62
421.394	520.62
421.617	473.62
421.839	440.62
422.062	429.62
422.285	446.62
422.507	514.62
422.73	564.62
422.953	559.62
423.175	503.62
423.398	475.62
423.621	465.62
423.843	477.62
424.066	492.62
424.288	474.62
424.511	500.62
424.733	550.62
424.956	605.62
425.178	610.62
425.401	592.62
425.623	613.62
425.846	520.62
426.068	505.62
426.291	495.62
426.513	498.62
426.735	498.62
426.958	522.62
427.18	616.62
427.402	716.62
427.625	799.62
427.847	713.62
428.069	618.62
428.292	550.62
428.514	477.62
428.736	473.62
428.958	480.62
429.181	447.62
429.403	458.62
429.625	459.62
429.847	491.62
430.069	553.62
430.292	563.62
430.514	475.62
430.736	439.62
430.958	446.62
431.18	419.62
431.402	432.62
431.624	423.62
431.846	398.62
432.068	407.62
432.29	422.62
432.512	421.62
432.734	430.62
432.956	427.62
433.178	413.62
433.4	428.62
433.622	442.62
433.844	430.62
434.066	413.62
434.287	416.62
434.509	445.62
434.731	423.62
434.953	427.62
435.175	458.62
435.397	486.62
435.618	482.62
435.84	515.62
436.062	613.62
436.284	670.62
436.505	568.62
436.727	512.62
436.949	473.62
437.17	452.62
437.392	456.62
437.614	475.62
437.835	500.62
438.057	612.62
438.278	689.62
438.5	684.62
438.721	724.62
438.943	698.62
439.165	576.62
439.386	534.62
439.608	504.62
439.829	517.62
440.05	542.62
440.272	562.62
440.493	549.62
440.715	496.62
440.936	482.62
441.158	461.62
441.379	456.62
441.6	470.62
441.822	485.62
442.043	528.62
442.264	586.62
442.486	638.62
442.707	548.62
442.928	501.62
443.149	508.62
443.371	534.62
443.592	565.62
443.813	654.62
444.034	685.62
444.255	592.62
444.476	543.62
444.698	478.62
444.919	471.62
445.14	558.62
445.361	523.62
445.582	534.62
445.803	589.62
446.024	681.62
446.245	671.62
446.466	667.62
446.687	547.62
446.908	520.62
447.129	483.62
447.35	463.62
447.571	439.62
447.792	446.62
448.013	446.62
448.234	459.62
448.455	535.62
448.675	639.62
448.896	721.62
449.117	632.62
449.338	582.62
449.559	692.62
449.779	763.62
450	632.62
450.221	542.62
450.442	471.62
450.662	466.62
450.883	469.62
451.104	487.62
451.324	467.62
451.545	439.62
451.766	426.62
451.986	420.62
452.207	395.62
452.428	406.62
452.648	421.62
452.869	424.62
453.089	420.62
453.31	440.62
453.53	418.62
453.751	407.62
453.971	418.62
454.192	430.62
454.412	412.62
454.633	394.62
454.853	411.62
455.073	412.62
455.294	414.62
455.514	484.62
455.734	468.62
455.955	405.62
456.175	402.62
456.395	387.62
456.616	375.62
456.836	378.62
457.056	363.62
457.276	386.62
457.497	381.62
457.717	382.62
457.937	389.62
458.157	395.62
458.377	399.62
458.598	422.62
458.818	474.62
459.038	573.62
459.258	532.62
459.478	469.62
459.698	427.62
459.918	431.62
460.138	420.62
460.358	411.62
460.578	414.62
460.798	401.62
461.018	412.62
461.238	414.62
461.458	414.62
461.678	411.62
461.898	381.62
462.118	414.62
462.338	433.62
462.558	425.62
462.777	430.62
462.997	443.62
463.217	445.62
463.437	446.62
463.657	436.62
463.876	447.62
464.096	424.62
464.316	438.62
464.536	427.62
464.755	441.62
464.975	460.62
465.195	486.62
465.414	573.62
465.634	485.62
465.854	461.62
466.073	418.62
466.293	422.62
466.512	410.62
466.732	420.62
466.951	391.62
467.171	418.62
467.391	407.62
467.61	435.62
467.829	440.62
468.049	425.62
468.268	400.62
468.488	415.62
468.707	394.62
468.927	402.62
469.146	412.62
469.365	412.62
469.585	401.62
469.804	419.62
470.023	427.62
470.243	416.62
470.462	413.62
470.681	455.62
470.901	427.62
471.12	424.62
471.339	402.62
471.558	399.62
471.777	424.62
471.997	430.62
472.216	423.62
472.435	450.62
472.654	432.62
472.873	414.62
473.092	408.62
473.311	382.62
473.53	406.62
473.749	432.62
473.968	470.62
474.187	557.62
474.406	575.62
474.625	479.62
474.844	414.62
475.063	429.62
475.282	420.62
475.501	403.62
475.72	411.62
475.939	439.62
476.158	438.62
476.377	424.62
476.596	442.62
476.814	418.62
477.033	443.62
477.252	454.62
477.471	456.62
477.69	451.62
477.908	460.62
478.127	459.62
478.346	433.62
478.564	447.62
478.783	453.62
479.002	442.62
479.22	484.62
479.439	483.62
479.658	506.62
479.876	514.62
480.095	504.62
480.313	522.62
480.532	513.62
480.751	506.62
480.969	512.62
481.188	555.62
481.406	597.62
481.624	540.62
481.843	498.62
482.061	512.62
482.28	514.62
482.498	479.62
482.717	482.62
482.935	489.62
483.153	488.62
483.372	488.62
483.59	496.62
483.808	500.62
484.027	494.62
484.245	499.62
484.463	482.62
484.681	493.62
484.9	506.62
485.118	514.62
485.336	484.62
485.554	499.62
485.772	509.62
485.99	515.62
486.209	511.62
486.427	525.62
486.645	526.62
486.863	537.62
487.081	520.62
487.299	521.62
487.517	538.62
487.735	520.62
487.953	550.62
488.171	546.62
488.389	547.62
488.607	537.62
488.825	539.62
489.043	531.62
489.261	554.62
489.479	543.62
489.696	530.62
489.914	552.62
490.132	550.62
490.35	550.62
490.568	582.62
490.786	568.62
491.003	583.62
491.221	600.62
491.439	620.62
491.657	585.62
491.874	608.62
492.092	607.62
492.31	606.62
492.527	620.62
492.745	631.62
492.963	628.62
493.18	629.62
493.398	630.62
493.615	631.62
493.833	632.62
494.05	623.62
494.268	632.62
494.485	635.62
494.703	626.62
494.92	618.62
495.138	649.62
495.355	644.62
495.573	638.62
495.79	644.62
496.008	638.62
496.225	629.62
496.442	633.62
496.66	637.62
496.877	633.62
497.094	638.62
497.312	634.62
497.529	668.62
497.746	656.62
497.963	664.62
498.181	662.62
498.398	656.62
498.615	696.62
498.832	715.62
499.049	681.62
499.267	689.62
499.484	726.62
499.701	727.62
499.918	727.62
500.135	763.62
500.352	781.62
500.569	798.62
500.786	799.62
501.003	787.62
501.22	772.62
501.437	778.62
501.654	758.62
501.871	764.62
502.088	749.62
