Data from 1980.PennyLincolnUp.Lamp.En5.5.200Scan.071819.P1_HRD10591_16-37-45-958.txt Node
Date: Thu Jul 18 16:37:45 EDT 2019
User: cochatt
Spectrometer: HR+D1059
Trigger mode: 1
Integration Time (sec): 1.000000E-1
Scans to average: 1
Electric dark correction enabled: true
Nonlinearity correction enabled: false
Boxcar width: 0
XAxis mode: Wavelengths
Number of Pixels in Spectrum: 2048
>>>>>Begin Spectral Data<<<<<
223.165	-10.88
223.4	-10.88
223.635	-10.88
223.869	-22.88
224.104	-16.88
224.338	-8.88
224.573	-12.88
224.808	-6.88
225.042	-4.88
225.277	-7.88
225.511	-17.88
225.746	20.12
225.98	0.12
226.215	7.12
226.449	10.12
226.683	17.12
226.918	22.12
227.152	33.12
227.387	31.12
227.621	30.12
227.856	39.12
228.09	35.12
228.324	56.12
228.559	50.12
228.793	57.12
229.027	113.12
229.262	99.12
229.496	115.12
229.73	134.12
229.964	160.12
230.199	128.12
230.433	110.12
230.667	111.12
230.901	110.12
231.136	102.12
231.37	103.12
231.604	131.12
231.838	96.12
232.072	119.12
232.306	96.12
232.541	112.12
232.775	90.12
233.009	126.12
233.243	126.12
233.477	106.12
233.711	109.12
233.945	114.12
234.179	128.12
234.413	120.12
234.647	118.12
234.881	109.12
235.115	113.12
235.349	115.12
235.583	108.12
235.817	114.12
236.051	126.12
236.285	112.12
236.519	120.12
236.753	138.12
236.987	132.12
237.221	183.12
237.455	219.12
237.689	180.12
237.922	140.12
238.156	143.12
238.39	131.12
238.624	131.12
238.858	119.12
239.091	114.12
239.325	118.12
239.559	124.12
239.793	122.12
240.027	129.12
240.26	148.12
240.494	159.12
240.728	159.12
240.961	152.12
241.195	142.12
241.429	147.12
241.662	138.12
241.896	125.12
242.13	129.12
242.363	141.12
242.597	137.12
242.83	155.12
243.064	146.12
243.298	130.12
243.531	135.12
243.765	138.12
243.998	134.12
244.232	126.12
244.465	141.12
244.699	134.12
244.932	147.12
245.166	159.12
245.399	152.12
245.633	137.12
245.866	151.12
246.099	132.12
246.333	139.12
246.566	147.12
246.8	153.12
247.033	144.12
247.266	154.12
247.5	146.12
247.733	164.12
247.966	168.12
248.2	178.12
248.433	174.12
248.666	150.12
248.899	199.12
249.133	202.12
249.366	216.12
249.599	204.12
249.832	184.12
250.066	171.12
250.299	187.12
250.532	200.12
250.765	197.12
250.998	214.12
251.231	231.12
251.465	228.12
251.698	222.12
251.931	201.12
252.164	210.12
252.397	198.12
252.63	200.12
252.863	216.12
253.096	218.12
253.329	242.12
253.562	223.12
253.795	245.12
254.028	240.12
254.261	215.12
254.494	248.12
254.727	243.12
254.96	284.12
255.193	293.12
255.426	262.12
255.659	259.12
255.892	243.12
256.124	249.12
256.357	250.12
256.59	228.12
256.823	250.12
257.056	220.12
257.289	202.12
257.521	215.12
257.754	173.12
257.987	198.12
258.22	222.12
258.452	204.12
258.685	194.12
258.918	227.12
259.151	208.12
259.383	216.12
259.616	216.12
259.849	212.12
260.081	233.12
260.314	245.12
260.547	261.12
260.779	249.12
261.012	239.12
261.244	240.12
261.477	230.12
261.71	206.12
261.942	234.12
262.175	250.12
262.407	241.12
262.64	214.12
262.872	207.12
263.105	208.12
263.337	199.12
263.57	215.12
263.802	193.12
264.035	203.12
264.267	192.12
264.499	200.12
264.732	211.12
264.964	198.12
265.197	207.12
265.429	201.12
265.661	212.12
265.894	216.12
266.126	201.12
266.358	206.12
266.591	227.12
266.823	219.12
267.055	218.12
267.287	228.12
267.52	209.12
267.752	227.12
267.984	200.12
268.216	229.12
268.448	226.12
268.681	224.12
268.913	244.12
269.145	263.12
269.377	270.12
269.609	282.12
269.841	269.12
270.073	272.12
270.306	286.12
270.538	319.12
270.77	306.12
271.002	304.12
271.234	299.12
271.466	278.12
271.698	322.12
271.93	322.12
272.162	319.12
272.394	309.12
272.626	326.12
272.858	291.12
273.09	283.12
273.322	275.12
273.553	264.12
273.785	256.12
274.017	252.12
274.249	253.12
274.481	267.12
274.713	263.12
274.945	246.12
275.176	263.12
275.408	247.12
275.64	247.12
275.872	257.12
276.104	260.12
276.335	257.12
276.567	278.12
276.799	278.12
277.031	298.12
277.262	310.12
277.494	312.12
277.726	290.12
277.957	295.12
278.189	285.12
278.421	287.12
278.652	268.12
278.884	258.12
279.115	243.12
279.347	271.12
279.579	258.12
279.81	259.12
280.042	255.12
280.273	259.12
280.505	265.12
280.736	257.12
280.968	247.12
281.199	242.12
281.431	246.12
281.662	244.12
281.894	248.12
282.125	264.12
282.356	283.12
282.588	306.12
282.819	283.12
283.051	266.12
283.282	254.12
283.513	262.12
283.745	258.12
283.976	269.12
284.207	265.12
284.439	278.12
284.67	261.12
284.901	263.12
285.132	233.12
285.364	246.12
285.595	264.12
285.826	247.12
286.057	263.12
286.288	241.12
286.52	286.12
286.751	248.12
286.982	247.12
287.213	262.12
287.444	268.12
287.675	261.12
287.906	270.12
288.138	279.12
288.369	266.12
288.6	272.12
288.831	271.12
289.062	274.12
289.293	278.12
289.524	284.12
289.755	273.12
289.986	256.12
290.217	251.12
290.448	257.12
290.679	245.12
290.91	285.12
291.141	242.12
291.371	289.12
291.602	261.12
291.833	262.12
292.064	277.12
292.295	266.12
292.526	254.12
292.757	265.12
292.987	251.12
293.218	269.12
293.449	271.12
293.68	266.12
293.91	264.12
294.141	264.12
294.372	280.12
294.603	256.12
294.833	239.12
295.064	262.12
295.295	256.12
295.525	267.12
295.756	268.12
295.987	278.12
296.217	296.12
296.448	322.12
296.679	293.12
296.909	270.12
297.14	257.12
297.37	268.12
297.601	258.12
297.831	275.12
298.062	259.12
298.292	279.12
298.523	271.12
298.753	273.12
298.984	271.12
299.214	273.12
299.445	280.12
299.675	287.12
299.905	292.12
300.136	295.12
300.366	275.12
300.597	276.12
300.827	296.12
301.057	282.12
301.288	312.12
301.518	281.12
301.748	302.12
301.979	289.12
302.209	296.12
302.439	286.12
302.669	295.12
302.9	285.12
303.13	296.12
303.36	307.12
303.59	306.12
303.82	308.12
304.051	320.12
304.281	292.12
304.511	300.12
304.741	298.12
304.971	288.12
305.201	295.12
305.431	293.12
305.661	296.12
305.891	311.12
306.121	293.12
306.352	308.12
306.582	324.12
306.812	320.12
307.042	296.12
307.272	299.12
307.502	311.12
307.731	292.12
307.961	288.12
308.191	297.12
308.421	314.12
308.651	300.12
308.881	296.12
309.111	309.12
309.341	307.12
309.571	335.12
309.8	346.12
310.03	344.12
310.26	375.12
310.49	361.12
310.72	372.12
310.949	392.12
311.179	386.12
311.409	362.12
311.639	372.12
311.868	362.12
312.098	370.12
312.328	363.12
312.557	400.12
312.787	406.12
313.017	405.12
313.246	375.12
313.476	355.12
313.706	351.12
313.935	367.12
314.165	372.12
314.394	392.12
314.624	404.12
314.853	360.12
315.083	374.12
315.312	349.12
315.542	351.12
315.771	335.12
316.001	347.12
316.23	353.12
316.46	348.12
316.689	342.12
316.919	367.12
317.148	368.12
317.377	371.12
317.607	357.12
317.836	350.12
318.065	363.12
318.295	360.12
318.524	347.12
318.753	340.12
318.983	349.12
319.212	353.12
319.441	359.12
319.67	382.12
319.9	332.12
320.129	361.12
320.358	346.12
320.587	353.12
320.816	380.12
321.046	374.12
321.275	371.12
321.504	370.12
321.733	374.12
321.962	377.12
322.191	397.12
322.42	429.12
322.649	438.12
322.878	449.12
323.108	445.12
323.337	491.12
323.566	503.12
323.795	567.12
324.024	598.12
324.253	744.12
324.482	1088.12
324.71	1693.12
324.939	2356.12
325.168	2131.12
325.397	1105.12
325.626	733.12
325.855	592.12
326.084	537.12
326.313	524.12
326.542	501.12
326.77	588.12
326.999	688.12
327.228	947.12
327.457	1490.12
327.686	1818.12
327.914	1262.12
328.143	836.12
328.372	707.12
328.6	627.12
328.829	614.12
329.058	613.12
329.287	617.12
329.515	603.12
329.744	537.12
329.972	524.12
330.201	537.12
330.43	609.12
330.658	638.12
330.887	688.12
331.115	640.12
331.344	536.12
331.572	491.12
331.801	498.12
332.03	492.12
332.258	472.12
332.486	432.12
332.715	442.12
332.943	426.12
333.172	431.12
333.4	416.12
333.629	418.12
333.857	461.12
334.085	472.12
334.314	480.12
334.542	507.12
334.771	547.12
334.999	478.12
335.227	426.12
335.455	416.12
335.684	402.12
335.912	415.12
336.14	392.12
336.369	418.12
336.597	407.12
336.825	419.12
337.053	405.12
337.281	402.12
337.51	394.12
337.738	402.12
337.966	396.12
338.194	404.12
338.422	406.12
338.65	402.12
338.878	420.12
339.106	370.12
339.334	389.12
339.562	371.12
339.79	392.12
340.018	380.12
340.246	394.12
340.474	402.12
340.702	410.12
340.93	399.12
341.158	383.12
341.386	388.12
341.614	390.12
341.842	384.12
342.07	388.12
342.298	394.12
342.526	396.12
342.754	373.12
342.981	374.12
343.209	385.12
343.437	378.12
343.665	393.12
343.893	385.12
344.12	368.12
344.348	392.12
344.576	402.12
344.804	400.12
345.031	423.12
345.259	446.12
345.487	420.12
345.714	411.12
345.942	390.12
346.17	394.12
346.397	407.12
346.625	383.12
346.853	388.12
347.08	384.12
347.308	394.12
347.535	408.12
347.763	408.12
347.99	391.12
348.218	395.12
348.445	422.12
348.673	400.12
348.9	387.12
349.128	383.12
349.355	382.12
349.583	381.12
349.81	400.12
350.037	371.12
350.265	384.12
350.492	386.12
350.72	369.12
350.947	377.12
351.174	380.12
351.402	415.12
351.629	389.12
351.856	413.12
352.083	402.12
352.311	427.12
352.538	403.12
352.765	394.12
352.992	419.12
353.22	404.12
353.447	395.12
353.674	374.12
353.901	377.12
354.128	373.12
354.355	349.12
354.583	355.12
354.81	370.12
355.037	336.12
355.264	350.12
355.491	347.12
355.718	340.12
355.945	342.12
356.172	352.12
356.399	339.12
356.626	340.12
356.853	353.12
357.08	345.12
357.307	337.12
357.534	375.12
357.761	345.12
357.988	342.12
358.215	349.12
358.441	350.12
358.668	349.12
358.895	364.12
359.122	364.12
359.349	395.12
359.576	392.12
359.802	411.12
360.029	453.12
360.256	471.12
360.483	423.12
360.709	418.12
360.936	400.12
361.163	382.12
361.39	406.12
361.616	403.12
361.843	414.12
362.07	387.12
362.296	406.12
362.523	386.12
362.749	378.12
362.976	376.12
363.203	364.12
363.429	368.12
363.656	360.12
363.882	355.12
364.109	367.12
364.335	359.12
364.562	366.12
364.788	348.12
365.015	360.12
365.241	368.12
365.468	377.12
365.694	381.12
365.92	389.12
366.147	357.12
366.373	374.12
366.599	361.12
366.826	371.12
367.052	353.12
367.278	364.12
367.505	343.12
367.731	390.12
367.957	366.12
368.184	364.12
368.41	368.12
368.636	378.12
368.862	382.12
369.089	370.12
369.315	372.12
369.541	350.12
369.767	354.12
369.993	368.12
370.219	356.12
370.445	371.12
370.672	376.12
370.898	345.12
371.124	350.12
371.35	355.12
371.576	366.12
371.802	351.12
372.028	346.12
372.254	349.12
372.48	347.12
372.706	339.12
372.932	336.12
373.158	354.12
373.384	351.12
373.61	339.12
373.835	350.12
374.061	350.12
374.287	352.12
374.513	369.12
374.739	346.12
374.965	357.12
375.191	345.12
375.416	358.12
375.642	348.12
375.868	362.12
376.094	353.12
376.319	348.12
376.545	346.12
376.771	343.12
376.997	368.12
377.222	366.12
377.448	344.12
377.674	352.12
377.899	357.12
378.125	329.12
378.35	359.12
378.576	355.12
378.802	345.12
379.027	335.12
379.253	339.12
379.478	326.12
379.704	368.12
379.929	369.12
380.155	354.12
380.38	348.12
380.606	352.12
380.831	376.12
381.057	357.12
381.282	360.12
381.507	373.12
381.733	362.12
381.958	361.12
382.184	343.12
382.409	348.12
382.634	346.12
382.86	350.12
383.085	357.12
383.31	356.12
383.535	352.12
383.761	355.12
383.986	347.12
384.211	374.12
384.436	359.12
384.662	365.12
384.887	360.12
385.112	366.12
385.337	377.12
385.562	374.12
385.787	369.12
386.013	388.12
386.238	385.12
386.463	386.12
386.688	390.12
386.913	374.12
387.138	370.12
387.363	376.12
387.588	374.12
387.813	379.12
388.038	378.12
388.263	374.12
388.488	370.12
388.713	377.12
388.938	370.12
389.163	367.12
389.387	370.12
389.612	357.12
389.837	345.12
390.062	370.12
390.287	376.12
390.512	364.12
390.736	376.12
390.961	376.12
391.186	376.12
391.411	351.12
391.636	359.12
391.86	366.12
392.085	378.12
392.31	383.12
392.534	358.12
392.759	384.12
392.984	367.12
393.208	378.12
393.433	377.12
393.658	355.12
393.882	363.12
394.107	364.12
394.331	378.12
394.556	378.12
394.78	357.12
395.005	375.12
395.229	382.12
395.454	384.12
395.678	373.12
395.903	384.12
396.127	419.12
396.352	405.12
396.576	387.12
396.801	391.12
397.025	368.12
397.249	395.12
397.474	407.12
397.698	398.12
397.922	400.12
398.147	420.12
398.371	426.12
398.595	412.12
398.82	390.12
399.044	418.12
399.268	403.12
399.492	441.12
399.717	458.12
399.941	491.12
400.165	523.12
400.389	510.12
400.613	474.12
400.837	467.12
401.062	445.12
401.286	418.12
401.51	418.12
401.734	407.12
401.958	440.12
402.182	422.12
402.406	435.12
402.63	447.12
402.854	434.12
403.078	422.12
403.302	442.12
403.526	435.12
403.75	449.12
403.974	431.12
404.198	432.12
404.422	469.12
404.645	451.12
404.869	441.12
405.093	482.12
405.317	515.12
405.541	568.12
405.765	513.12
405.988	480.12
406.212	489.12
406.436	504.12
406.66	529.12
406.883	490.12
407.107	493.12
407.331	532.12
407.555	578.12
407.778	617.12
408.002	547.12
408.226	508.12
408.449	497.12
408.673	499.12
408.896	501.12
409.12	566.12
409.344	531.12
409.567	473.12
409.791	443.12
410.014	458.12
410.238	436.12
410.461	427.12
410.685	439.12
410.908	447.12
411.132	506.12
411.355	543.12
411.578	504.12
411.802	456.12
412.025	427.12
412.249	445.12
412.472	487.12
412.695	527.12
412.919	519.12
413.142	473.12
413.365	469.12
413.589	435.12
413.812	433.12
414.035	431.12
414.258	436.12
414.482	399.12
414.705	416.12
414.928	403.12
415.151	409.12
415.374	410.12
415.597	414.12
415.821	408.12
416.044	410.12
416.267	439.12
416.49	446.12
416.713	425.12
416.936	420.12
417.159	414.12
417.382	446.12
417.605	452.12
417.828	443.12
418.051	472.12
418.274	434.12
418.497	433.12
418.72	422.12
418.943	422.12
419.166	431.12
419.389	443.12
419.611	443.12
419.834	445.12
420.057	449.12
420.28	451.12
420.503	463.12
420.726	471.12
420.948	470.12
421.171	504.12
421.394	551.12
421.617	465.12
421.839	448.12
422.062	473.12
422.285	471.12
422.507	519.12
422.73	597.12
422.953	584.12
423.175	510.12
423.398	483.12
423.621	470.12
423.843	509.12
424.066	512.12
424.288	501.12
424.511	508.12
424.733	551.12
424.956	629.12
425.178	603.12
425.401	600.12
425.623	645.12
425.846	574.12
426.068	506.12
426.291	490.12
426.513	499.12
426.735	529.12
426.958	555.12
427.18	625.12
427.402	724.12
427.625	833.12
427.847	768.12
428.069	646.12
428.292	566.12
428.514	534.12
428.736	500.12
428.958	476.12
429.181	482.12
429.403	454.12
429.625	481.12
429.847	527.12
430.069	587.12
430.292	573.12
430.514	506.12
430.736	480.12
430.958	463.12
431.18	422.12
431.402	425.12
431.624	450.12
431.846	410.12
432.068	421.12
432.29	452.12
432.512	452.12
432.734	440.12
432.956	439.12
433.178	460.12
433.4	458.12
433.622	454.12
433.844	415.12
434.066	437.12
434.287	432.12
434.509	433.12
434.731	441.12
434.953	436.12
435.175	475.12
435.397	523.12
435.618	522.12
435.84	544.12
436.062	639.12
436.284	693.12
436.505	594.12
436.727	534.12
436.949	484.12
437.17	471.12
437.392	479.12
437.614	480.12
437.835	554.12
438.057	630.12
438.278	699.12
438.5	698.12
438.721	746.12
438.943	744.12
439.165	624.12
439.386	554.12
439.608	525.12
439.829	531.12
440.05	569.12
440.272	597.12
440.493	574.12
440.715	511.12
440.936	472.12
441.158	475.12
441.379	476.12
441.6	475.12
441.822	510.12
442.043	564.12
442.264	633.12
442.486	659.12
442.707	566.12
442.928	541.12
443.149	569.12
443.371	558.12
443.592	589.12
443.813	665.12
444.034	729.12
444.255	610.12
444.476	534.12
444.698	508.12
444.919	535.12
445.14	588.12
445.361	581.12
445.582	546.12
445.803	608.12
446.024	704.12
446.245	715.12
446.466	646.12
446.687	552.12
446.908	503.12
447.129	482.12
447.35	488.12
447.571	453.12
447.792	494.12
448.013	468.12
448.234	512.12
448.455	559.12
448.675	647.12
448.896	751.12
449.117	631.12
449.338	633.12
449.559	718.12
449.779	786.12
450	657.12
450.221	560.12
450.442	466.12
450.662	487.12
450.883	513.12
451.104	514.12
451.324	500.12
451.545	454.12
451.766	450.12
451.986	437.12
452.207	411.12
452.428	439.12
452.648	451.12
452.869	434.12
453.089	422.12
453.31	452.12
453.53	432.12
453.751	435.12
453.971	442.12
454.192	452.12
454.412	459.12
454.633	416.12
454.853	406.12
455.073	412.12
455.294	446.12
455.514	508.12
455.734	510.12
455.955	426.12
456.175	424.12
456.395	403.12
456.616	399.12
456.836	383.12
457.056	388.12
457.276	385.12
457.497	387.12
457.717	379.12
457.937	379.12
458.157	395.12
458.377	406.12
458.598	432.12
458.818	495.12
459.038	609.12
459.258	612.12
459.478	503.12
459.698	464.12
459.918	423.12
460.138	424.12
460.358	403.12
460.578	427.12
460.798	423.12
461.018	414.12
461.238	423.12
461.458	425.12
461.678	414.12
461.898	425.12
462.118	436.12
462.338	419.12
462.558	440.12
462.777	449.12
462.997	416.12
463.217	415.12
463.437	418.12
463.657	444.12
463.876	413.12
464.096	427.12
464.316	454.12
464.536	445.12
464.755	455.12
464.975	483.12
465.195	517.12
465.414	613.12
465.634	539.12
465.854	502.12
466.073	449.12
466.293	423.12
466.512	442.12
466.732	414.12
466.951	408.12
467.171	420.12
467.391	432.12
467.61	448.12
467.829	455.12
468.049	423.12
468.268	425.12
468.488	444.12
468.707	421.12
468.927	400.12
469.146	393.12
469.365	427.12
469.585	423.12
469.804	419.12
470.023	451.12
470.243	448.12
470.462	406.12
470.681	471.12
470.901	443.12
471.12	431.12
471.339	428.12
471.558	438.12
471.777	451.12
471.997	422.12
472.216	427.12
472.435	477.12
472.654	453.12
472.873	421.12
473.092	426.12
473.311	435.12
473.53	434.12
473.749	425.12
473.968	478.12
474.187	619.12
474.406	624.12
474.625	512.12
474.844	462.12
475.063	427.12
475.282	435.12
475.501	417.12
475.72	454.12
475.939	436.12
476.158	434.12
476.377	437.12
476.596	431.12
476.814	443.12
477.033	467.12
477.252	451.12
477.471	442.12
477.69	472.12
477.908	467.12
478.127	452.12
478.346	451.12
478.564	451.12
478.783	466.12
479.002	456.12
479.22	462.12
479.439	508.12
479.658	526.12
479.876	519.12
480.095	519.12
480.313	520.12
480.532	533.12
480.751	515.12
480.969	544.12
481.188	580.12
481.406	653.12
481.624	574.12
481.843	544.12
482.061	526.12
482.28	518.12
482.498	519.12
482.717	503.12
482.935	500.12
483.153	487.12
483.372	506.12
483.59	506.12
483.808	495.12
484.027	506.12
484.245	510.12
484.463	514.12
484.681	516.12
484.9	517.12
485.118	508.12
485.336	514.12
485.554	509.12
485.772	510.12
485.99	546.12
486.209	535.12
486.427	514.12
486.645	545.12
486.863	556.12
487.081	569.12
487.299	570.12
487.517	571.12
487.735	545.12
487.953	560.12
488.171	562.12
488.389	539.12
488.607	544.12
488.825	558.12
489.043	571.12
489.261	558.12
489.479	578.12
489.696	582.12
489.914	577.12
490.132	569.12
490.35	559.12
490.568	579.12
490.786	585.12
491.003	609.12
491.221	602.12
491.439	643.12
491.657	638.12
491.874	655.12
492.092	636.12
492.31	638.12
492.527	627.12
492.745	632.12
492.963	658.12
493.18	645.12
493.398	674.12
493.615	676.12
493.833	673.12
494.05	659.12
494.268	680.12
494.485	651.12
494.703	674.12
494.92	651.12
495.138	652.12
495.355	674.12
495.573	669.12
495.79	651.12
496.008	650.12
496.225	652.12
496.442	681.12
496.66	637.12
496.877	666.12
497.094	674.12
497.312	677.12
497.529	671.12
497.746	675.12
497.963	666.12
498.181	706.12
498.398	716.12
498.615	717.12
498.832	707.12
499.049	721.12
499.267	711.12
499.484	710.12
499.701	736.12
499.918	778.12
500.135	784.12
500.352	830.12
500.569	808.12
500.786	796.12
501.003	779.12
501.22	801.12
501.437	789.12
501.654	787.12
501.871	770.12
