Data from 1980.PennyLincolnUp.Lamp.En5.5.200Scan.071819.P1_HRD10591_16-38-26-958.txt Node
Date: Thu Jul 18 16:38:26 EDT 2019
User: cochatt
Spectrometer: HR+D1059
Trigger mode: 1
Integration Time (sec): 1.000000E-1
Scans to average: 1
Electric dark correction enabled: true
Nonlinearity correction enabled: false
Boxcar width: 0
XAxis mode: Wavelengths
Number of Pixels in Spectrum: 2048
>>>>>Begin Spectral Data<<<<<
223.165	-7.69
223.4	-7.69
223.635	-7.69
223.869	-23.69
224.104	-14.69
224.338	-22.69
224.573	-10.69
224.808	-16.69
225.042	-0.69
225.277	-14.69
225.511	12.31
225.746	1.31
225.98	12.31
226.215	9.31
226.449	15.31
226.683	11.31
226.918	24.31
227.152	25.31
227.387	30.31
227.621	28.31
227.856	56.31
228.09	37.31
228.324	56.31
228.559	49.31
228.793	56.31
229.027	101.31
229.262	122.31
229.496	108.31
229.73	159.31
229.964	165.31
230.199	141.31
230.433	127.31
230.667	132.31
230.901	111.31
231.136	114.31
231.37	105.31
231.604	108.31
231.838	120.31
232.072	125.31
232.306	108.31
232.541	129.31
232.775	130.31
233.009	100.31
233.243	124.31
233.477	116.31
233.711	122.31
233.945	110.31
234.179	120.31
234.413	107.31
234.647	129.31
234.881	114.31
235.115	120.31
235.349	125.31
235.583	109.31
235.817	119.31
236.051	136.31
236.285	124.31
236.519	123.31
236.753	141.31
236.987	149.31
237.221	191.31
237.455	238.31
237.689	205.31
237.922	153.31
238.156	141.31
238.39	140.31
238.624	133.31
238.858	116.31
239.091	122.31
239.325	128.31
239.559	124.31
239.793	122.31
240.027	154.31
240.26	160.31
240.494	178.31
240.728	172.31
240.961	150.31
241.195	155.31
241.429	145.31
241.662	154.31
241.896	143.31
242.13	141.31
242.363	137.31
242.597	140.31
242.83	141.31
243.064	148.31
243.298	146.31
243.531	142.31
243.765	146.31
243.998	153.31
244.232	143.31
244.465	150.31
244.699	163.31
244.932	152.31
245.166	159.31
245.399	154.31
245.633	165.31
245.866	163.31
246.099	155.31
246.333	162.31
246.566	155.31
246.8	138.31
247.033	142.31
247.266	176.31
247.5	172.31
247.733	181.31
247.966	190.31
248.2	184.31
248.433	169.31
248.666	181.31
248.899	187.31
249.133	226.31
249.366	224.31
249.599	205.31
249.832	171.31
250.066	181.31
250.299	184.31
250.532	199.31
250.765	221.31
250.998	231.31
251.231	240.31
251.465	237.31
251.698	225.31
251.931	218.31
252.164	205.31
252.397	203.31
252.63	211.31
252.863	212.31
253.096	240.31
253.329	234.31
253.562	229.31
253.795	223.31
254.028	234.31
254.261	230.31
254.494	245.31
254.727	281.31
254.96	288.31
255.193	304.31
255.426	259.31
255.659	257.31
255.892	243.31
256.124	257.31
256.357	264.31
256.59	246.31
256.823	216.31
257.056	211.31
257.289	221.31
257.521	212.31
257.754	209.31
257.987	227.31
258.22	220.31
258.452	217.31
258.685	216.31
258.918	197.31
259.151	223.31
259.383	236.31
259.616	230.31
259.849	230.31
260.081	269.31
260.314	269.31
260.547	267.31
260.779	275.31
261.012	255.31
261.244	247.31
261.477	243.31
261.71	240.31
261.942	245.31
262.175	263.31
262.407	233.31
262.64	217.31
262.872	220.31
263.105	218.31
263.337	242.31
263.57	212.31
263.802	227.31
264.035	205.31
264.267	229.31
264.499	219.31
264.732	225.31
264.964	210.31
265.197	218.31
265.429	215.31
265.661	209.31
265.894	223.31
266.126	224.31
266.358	224.31
266.591	240.31
266.823	219.31
267.055	217.31
267.287	229.31
267.52	217.31
267.752	226.31
267.984	221.31
268.216	220.31
268.448	240.31
268.681	242.31
268.913	255.31
269.145	260.31
269.377	277.31
269.609	276.31
269.841	276.31
270.073	284.31
270.306	284.31
270.538	304.31
270.77	329.31
271.002	329.31
271.234	297.31
271.466	299.31
271.698	319.31
271.93	342.31
272.162	345.31
272.394	339.31
272.626	304.31
272.858	311.31
273.09	286.31
273.322	287.31
273.553	258.31
273.785	275.31
274.017	252.31
274.249	273.31
274.481	254.31
274.713	265.31
274.945	281.31
275.176	276.31
275.408	277.31
275.64	277.31
275.872	262.31
276.104	266.31
276.335	267.31
276.567	273.31
276.799	298.31
277.031	338.31
277.262	335.31
277.494	344.31
277.726	315.31
277.957	294.31
278.189	273.31
278.421	273.31
278.652	272.31
278.884	271.31
279.115	266.31
279.347	256.31
279.579	249.31
279.81	252.31
280.042	261.31
280.273	261.31
280.505	252.31
280.736	277.31
280.968	261.31
281.199	243.31
281.431	261.31
281.662	265.31
281.894	269.31
282.125	258.31
282.356	294.31
282.588	323.31
282.819	336.31
283.051	281.31
283.282	257.31
283.513	265.31
283.745	273.31
283.976	293.31
284.207	274.31
284.439	287.31
284.67	262.31
284.901	268.31
285.132	264.31
285.364	276.31
285.595	267.31
285.826	261.31
286.057	267.31
286.288	266.31
286.52	287.31
286.751	279.31
286.982	272.31
287.213	275.31
287.444	268.31
287.675	270.31
287.906	283.31
288.138	301.31
288.369	294.31
288.6	304.31
288.831	283.31
289.062	282.31
289.293	289.31
289.524	277.31
289.755	293.31
289.986	279.31
290.217	282.31
290.448	304.31
290.679	270.31
290.91	279.31
291.141	276.31
291.371	283.31
291.602	274.31
291.833	275.31
292.064	261.31
292.295	256.31
292.526	276.31
292.757	266.31
292.987	285.31
293.218	273.31
293.449	300.31
293.68	298.31
293.91	289.31
294.141	269.31
294.372	261.31
294.603	262.31
294.833	261.31
295.064	282.31
295.295	275.31
295.525	284.31
295.756	292.31
295.987	287.31
296.217	315.31
296.448	339.31
296.679	302.31
296.909	267.31
297.14	277.31
297.37	287.31
297.601	298.31
297.831	302.31
298.062	289.31
298.292	289.31
298.523	280.31
298.753	294.31
298.984	301.31
299.214	292.31
299.445	301.31
299.675	300.31
299.905	292.31
300.136	263.31
300.366	293.31
300.597	291.31
300.827	309.31
301.057	290.31
301.288	331.31
301.518	297.31
301.748	309.31
301.979	306.31
302.209	318.31
302.439	311.31
302.669	312.31
302.9	318.31
303.13	312.31
303.36	309.31
303.59	315.31
303.82	312.31
304.051	345.31
304.281	313.31
304.511	314.31
304.741	319.31
304.971	284.31
305.201	311.31
305.431	312.31
305.661	311.31
305.891	330.31
306.121	321.31
306.352	317.31
306.582	321.31
306.812	311.31
307.042	316.31
307.272	308.31
307.502	313.31
307.731	307.31
307.961	325.31
308.191	311.31
308.421	308.31
308.651	316.31
308.881	319.31
309.111	341.31
309.341	331.31
309.571	335.31
309.8	347.31
310.03	350.31
310.26	372.31
310.49	361.31
310.72	375.31
310.949	392.31
311.179	406.31
311.409	367.31
311.639	376.31
311.868	376.31
312.098	380.31
312.328	390.31
312.557	409.31
312.787	409.31
313.017	436.31
313.246	401.31
313.476	367.31
313.706	374.31
313.935	397.31
314.165	412.31
314.394	411.31
314.624	376.31
314.853	397.31
315.083	386.31
315.312	352.31
315.542	354.31
315.771	368.31
316.001	364.31
316.23	352.31
316.46	349.31
316.689	361.31
316.919	363.31
317.148	384.31
317.377	398.31
317.607	380.31
317.836	365.31
318.065	381.31
318.295	372.31
318.524	357.31
318.753	363.31
318.983	347.31
319.212	364.31
319.441	375.31
319.67	390.31
319.9	358.31
320.129	356.31
320.358	373.31
320.587	387.31
320.816	394.31
321.046	406.31
321.275	413.31
321.504	380.31
321.733	388.31
321.962	400.31
322.191	414.31
322.42	428.31
322.649	474.31
322.878	471.31
323.108	476.31
323.337	527.31
323.566	555.31
323.795	564.31
324.024	633.31
324.253	773.31
324.482	1158.31
324.71	1743.31
324.939	2547.31
325.168	2279.31
325.397	1183.31
325.626	781.31
325.855	615.31
326.084	555.31
326.313	561.31
326.542	561.31
326.77	601.31
326.999	737.31
327.228	1048.31
327.457	1575.31
327.686	1930.31
327.914	1312.31
328.143	833.31
328.372	727.31
328.6	642.31
328.829	612.31
329.058	649.31
329.287	645.31
329.515	592.31
329.744	563.31
329.972	578.31
330.201	560.31
330.43	646.31
330.658	661.31
330.887	676.31
331.115	652.31
331.344	570.31
331.572	520.31
331.801	513.31
332.03	491.31
332.258	482.31
332.486	474.31
332.715	459.31
332.943	459.31
333.172	447.31
333.4	444.31
333.629	467.31
333.857	476.31
334.085	474.31
334.314	472.31
334.542	535.31
334.771	577.31
334.999	511.31
335.227	473.31
335.455	443.31
335.684	444.31
335.912	437.31
336.14	413.31
336.369	416.31
336.597	451.31
336.825	453.31
337.053	412.31
337.281	421.31
337.51	408.31
337.738	419.31
337.966	392.31
338.194	442.31
338.422	443.31
338.65	424.31
338.878	426.31
339.106	396.31
339.334	420.31
339.562	408.31
339.79	419.31
340.018	409.31
340.246	420.31
340.474	435.31
340.702	416.31
340.93	419.31
341.158	407.31
341.386	417.31
341.614	424.31
341.842	414.31
342.07	419.31
342.298	405.31
342.526	398.31
342.754	385.31
342.981	371.31
343.209	410.31
343.437	388.31
343.665	407.31
343.893	401.31
344.12	407.31
344.348	400.31
344.576	417.31
344.804	412.31
345.031	417.31
345.259	455.31
345.487	447.31
345.714	416.31
345.942	410.31
346.17	410.31
346.397	386.31
346.625	398.31
346.853	395.31
347.08	403.31
347.308	409.31
347.535	433.31
347.763	436.31
347.99	423.31
348.218	432.31
348.445	440.31
348.673	411.31
348.9	422.31
349.128	401.31
349.355	386.31
349.583	387.31
349.81	387.31
350.037	391.31
350.265	380.31
350.492	402.31
350.72	394.31
350.947	381.31
351.174	410.31
351.402	416.31
351.629	421.31
351.856	401.31
352.083	424.31
352.311	417.31
352.538	428.31
352.765	446.31
352.992	423.31
353.22	380.31
353.447	415.31
353.674	396.31
353.901	375.31
354.128	376.31
354.355	363.31
354.583	362.31
354.81	360.31
355.037	373.31
355.264	361.31
355.491	356.31
355.718	369.31
355.945	359.31
356.172	356.31
356.399	378.31
356.626	345.31
356.853	362.31
357.08	353.31
357.307	372.31
357.534	371.31
357.761	366.31
357.988	361.31
358.215	355.31
358.441	377.31
358.668	388.31
358.895	383.31
359.122	385.31
359.349	391.31
359.576	419.31
359.802	431.31
360.029	464.31
360.256	479.31
360.483	452.31
360.709	414.31
360.936	427.31
361.163	407.31
361.39	398.31
361.616	419.31
361.843	418.31
362.07	424.31
362.296	408.31
362.523	400.31
362.749	400.31
362.976	391.31
363.203	396.31
363.429	404.31
363.656	391.31
363.882	389.31
364.109	387.31
364.335	379.31
364.562	361.31
364.788	383.31
365.015	393.31
365.241	415.31
365.468	393.31
365.694	398.31
365.92	412.31
366.147	398.31
366.373	381.31
366.599	375.31
366.826	378.31
367.052	372.31
367.278	363.31
367.505	373.31
367.731	367.31
367.957	375.31
368.184	351.31
368.41	391.31
368.636	394.31
368.862	385.31
369.089	375.31
369.315	385.31
369.541	376.31
369.767	365.31
369.993	354.31
370.219	373.31
370.445	392.31
370.672	385.31
370.898	350.31
371.124	354.31
371.35	370.31
371.576	372.31
371.802	365.31
372.028	365.31
372.254	386.31
372.48	373.31
372.706	363.31
372.932	360.31
373.158	358.31
373.384	385.31
373.61	380.31
373.835	362.31
374.061	363.31
374.287	375.31
374.513	364.31
374.739	371.31
374.965	361.31
375.191	385.31
375.416	357.31
375.642	359.31
375.868	357.31
376.094	369.31
376.319	367.31
376.545	359.31
376.771	379.31
376.997	374.31
377.222	382.31
377.448	347.31
377.674	371.31
377.899	355.31
378.125	362.31
378.35	340.31
378.576	363.31
378.802	364.31
379.027	372.31
379.253	363.31
379.478	347.31
379.704	355.31
379.929	354.31
380.155	383.31
380.38	363.31
380.606	383.31
380.831	361.31
381.057	375.31
381.282	359.31
381.507	377.31
381.733	353.31
381.958	376.31
382.184	362.31
382.409	373.31
382.634	364.31
382.86	381.31
383.085	368.31
383.31	375.31
383.535	379.31
383.761	378.31
383.986	372.31
384.211	379.31
384.436	377.31
384.662	381.31
384.887	373.31
385.112	388.31
385.337	395.31
385.562	387.31
385.787	380.31
386.013	406.31
386.238	418.31
386.463	386.31
386.688	405.31
386.913	377.31
387.138	403.31
387.363	390.31
387.588	388.31
387.813	380.31
388.038	388.31
388.263	381.31
388.488	395.31
388.713	385.31
388.938	387.31
389.163	413.31
389.387	391.31
389.612	374.31
389.837	383.31
390.062	382.31
390.287	389.31
390.512	385.31
390.736	379.31
390.961	364.31
391.186	373.31
391.411	382.31
391.636	369.31
391.86	380.31
392.085	397.31
392.31	400.31
392.534	376.31
392.759	375.31
392.984	399.31
393.208	403.31
393.433	395.31
393.658	386.31
393.882	381.31
394.107	387.31
394.331	398.31
394.556	387.31
394.78	392.31
395.005	399.31
395.229	375.31
395.454	384.31
395.678	403.31
395.903	400.31
396.127	424.31
396.352	434.31
396.576	402.31
396.801	413.31
397.025	388.31
397.249	415.31
397.474	383.31
397.698	392.31
397.922	413.31
398.147	429.31
398.371	441.31
398.595	424.31
398.82	415.31
399.044	435.31
399.268	439.31
399.492	465.31
399.717	484.31
399.941	493.31
400.165	519.31
400.389	517.31
400.613	517.31
400.837	472.31
401.062	456.31
401.286	445.31
401.51	450.31
401.734	437.31
401.958	433.31
402.182	435.31
402.406	457.31
402.63	461.31
402.854	448.31
403.078	464.31
403.302	473.31
403.526	443.31
403.75	473.31
403.974	449.31
404.198	456.31
404.422	461.31
404.645	492.31
404.869	474.31
405.093	496.31
405.317	552.31
405.541	568.31
405.765	539.31
405.988	510.31
406.212	511.31
406.436	523.31
406.66	547.31
406.883	501.31
407.107	552.31
407.331	569.31
407.555	617.31
407.778	613.31
408.002	567.31
408.226	520.31
408.449	499.31
408.673	510.31
408.896	523.31
409.12	572.31
409.344	521.31
409.567	488.31
409.791	483.31
410.014	472.31
410.238	475.31
410.461	474.31
410.685	464.31
410.908	496.31
411.132	519.31
411.355	569.31
411.578	538.31
411.802	469.31
412.025	450.31
412.249	467.31
412.472	509.31
412.695	546.31
412.919	533.31
413.142	492.31
413.365	436.31
413.589	445.31
413.812	452.31
414.035	438.31
414.258	451.31
414.482	428.31
414.705	438.31
414.928	431.31
415.151	448.31
415.374	444.31
415.597	447.31
415.821	427.31
416.044	413.31
416.267	439.31
416.49	444.31
416.713	433.31
416.936	447.31
417.159	437.31
417.382	439.31
417.605	448.31
417.828	469.31
418.051	477.31
418.274	459.31
418.497	450.31
418.72	449.31
418.943	426.31
419.166	454.31
419.389	502.31
419.611	467.31
419.834	461.31
420.057	470.31
420.28	481.31
420.503	482.31
420.726	461.31
420.948	471.31
421.171	500.31
421.394	558.31
421.617	487.31
421.839	485.31
422.062	456.31
422.285	456.31
422.507	549.31
422.73	617.31
422.953	621.31
423.175	516.31
423.398	514.31
423.621	488.31
423.843	519.31
424.066	543.31
424.288	519.31
424.511	536.31
424.733	595.31
424.956	661.31
425.178	659.31
425.401	641.31
425.623	658.31
425.846	571.31
426.068	529.31
426.291	516.31
426.513	531.31
426.735	526.31
426.958	578.31
427.18	689.31
427.402	787.31
427.625	863.31
427.847	794.31
428.069	684.31
428.292	591.31
428.514	540.31
428.736	520.31
428.958	496.31
429.181	501.31
429.403	509.31
429.625	489.31
429.847	548.31
430.069	620.31
430.292	592.31
430.514	498.31
430.736	474.31
430.958	483.31
431.18	452.31
431.402	445.31
431.624	441.31
431.846	445.31
432.068	445.31
432.29	462.31
432.512	443.31
432.734	480.31
432.956	454.31
433.178	460.31
433.4	479.31
433.622	472.31
433.844	444.31
434.066	443.31
434.287	447.31
434.509	446.31
434.731	470.31
434.953	463.31
435.175	479.31
435.397	508.31
435.618	543.31
435.84	556.31
436.062	653.31
436.284	695.31
436.505	613.31
436.727	550.31
436.949	491.31
437.17	511.31
437.392	490.31
437.614	517.31
437.835	563.31
438.057	658.31
438.278	772.31
438.5	763.31
438.721	813.31
438.943	794.31
439.165	627.31
439.386	565.31
439.608	561.31
439.829	549.31
440.05	560.31
440.272	626.31
440.493	611.31
440.715	542.31
440.936	501.31
441.158	500.31
441.379	500.31
441.6	497.31
441.822	535.31
442.043	567.31
442.264	635.31
442.486	709.31
442.707	591.31
442.928	527.31
443.149	535.31
443.371	589.31
443.592	635.31
443.813	708.31
444.034	753.31
444.255	643.31
444.476	549.31
444.698	521.31
444.919	514.31
445.14	599.31
445.361	568.31
445.582	590.31
445.803	633.31
446.024	751.31
446.245	763.31
446.466	695.31
446.687	580.31
446.908	549.31
447.129	524.31
447.35	489.31
447.571	511.31
447.792	509.31
448.013	504.31
448.234	522.31
448.455	581.31
448.675	673.31
448.896	773.31
449.117	668.31
449.338	656.31
449.559	729.31
449.779	810.31
450	675.31
450.221	570.31
450.442	526.31
450.662	520.31
450.883	513.31
451.104	533.31
451.324	507.31
451.545	476.31
451.766	459.31
451.986	441.31
452.207	435.31
452.428	444.31
452.648	441.31
452.869	439.31
453.089	457.31
453.31	484.31
453.53	468.31
453.751	457.31
453.971	456.31
454.192	469.31
454.412	465.31
454.633	431.31
454.853	460.31
455.073	443.31
455.294	469.31
455.514	556.31
455.734	549.31
455.955	465.31
456.175	415.31
456.395	401.31
456.616	417.31
456.836	415.31
457.056	431.31
457.276	394.31
457.497	416.31
457.717	405.31
457.937	403.31
458.157	412.31
458.377	415.31
458.598	452.31
458.818	516.31
459.038	621.31
459.258	635.31
459.478	531.31
459.698	473.31
459.918	425.31
460.138	431.31
460.358	445.31
460.578	442.31
460.798	453.31
461.018	469.31
461.238	432.31
461.458	430.31
461.678	443.31
461.898	435.31
462.118	441.31
462.338	441.31
462.558	435.31
462.777	442.31
462.997	448.31
463.217	452.31
463.437	477.31
463.657	466.31
463.876	458.31
464.096	461.31
464.316	452.31
464.536	454.31
464.755	471.31
464.975	486.31
465.195	552.31
465.414	630.31
465.634	583.31
465.854	495.31
466.073	484.31
466.293	451.31
466.512	447.31
466.732	413.31
466.951	450.31
467.171	424.31
467.391	443.31
467.61	461.31
467.829	475.31
468.049	449.31
468.268	463.31
468.488	446.31
468.707	431.31
468.927	417.31
469.146	418.31
469.365	440.31
469.585	416.31
469.804	436.31
470.023	443.31
470.243	455.31
470.462	437.31
470.681	474.31
470.901	483.31
471.12	444.31
471.339	426.31
471.558	455.31
471.777	452.31
471.997	436.31
472.216	442.31
472.435	502.31
472.654	466.31
472.873	450.31
473.092	437.31
473.311	437.31
473.53	441.31
473.749	452.31
473.968	531.31
474.187	617.31
474.406	641.31
474.625	541.31
474.844	462.31
475.063	453.31
475.282	469.31
475.501	470.31
475.72	467.31
475.939	450.31
476.158	463.31
476.377	461.31
476.596	463.31
476.814	481.31
477.033	444.31
477.252	467.31
477.471	491.31
477.69	472.31
477.908	483.31
478.127	464.31
478.346	480.31
478.564	510.31
478.783	455.31
479.002	496.31
479.22	498.31
479.439	500.31
479.658	552.31
479.876	548.31
480.095	551.31
480.313	589.31
480.532	561.31
480.751	531.31
480.969	579.31
481.188	640.31
481.406	696.31
481.624	612.31
481.843	529.31
482.061	567.31
482.28	550.31
482.498	522.31
482.717	526.31
482.935	530.31
483.153	518.31
483.372	527.31
483.59	521.31
483.808	525.31
484.027	529.31
484.245	555.31
484.463	541.31
484.681	548.31
484.9	540.31
485.118	565.31
485.336	555.31
485.554	561.31
485.772	548.31
485.99	535.31
486.209	517.31
486.427	554.31
486.645	587.31
486.863	584.31
487.081	591.31
487.299	575.31
487.517	558.31
487.735	576.31
487.953	577.31
488.171	587.31
488.389	570.31
488.607	565.31
488.825	576.31
489.043	580.31
489.261	565.31
489.479	587.31
489.696	605.31
489.914	599.31
490.132	566.31
490.35	622.31
490.568	609.31
490.786	630.31
491.003	639.31
491.221	631.31
491.439	652.31
491.657	654.31
491.874	683.31
492.092	691.31
492.31	677.31
492.527	653.31
492.745	665.31
492.963	677.31
493.18	676.31
493.398	688.31
493.615	693.31
493.833	665.31
494.05	683.31
494.268	710.31
494.485	698.31
494.703	673.31
494.92	697.31
495.138	704.31
495.355	703.31
495.573	703.31
495.79	673.31
496.008	699.31
496.225	713.31
496.442	696.31
496.66	687.31
496.877	673.31
497.094	680.31
497.312	700.31
497.529	699.31
497.746	706.31
497.963	720.31
498.181	755.31
498.398	751.31
498.615	730.31
498.832	726.31
499.049	757.31
499.267	737.31
499.484	745.31
499.701	788.31
499.918	794.31
500.135	790.31
500.352	834.31
500.569	825.31
500.786	816.31
501.003	839.31
501.22	793.31
501.437	824.31
501.654	829.31
501.871	833.31
