Data from 1980.PennyLincolnUp.Lamp.En5.5.200Scan.071819.P1_HRD10591_16-37-14-956.txt Node
Date: Thu Jul 18 16:37:14 EDT 2019
User: cochatt
Spectrometer: HR+D1059
Trigger mode: 1
Integration Time (sec): 1.000000E-1
Scans to average: 1
Electric dark correction enabled: true
Nonlinearity correction enabled: false
Boxcar width: 0
XAxis mode: Wavelengths
Number of Pixels in Spectrum: 2048
>>>>>Begin Spectral Data<<<<<
223.165	-10.94
223.4	-10.94
223.635	-10.94
223.869	-7.94
224.104	-17.94
224.338	-13.94
224.573	-9.94
224.808	8.06
225.042	-14.94
225.277	-20.94
225.511	-9.94
225.746	4.06
225.98	3.06
226.215	10.06
226.449	20.06
226.683	18.06
226.918	20.06
227.152	23.06
227.387	20.06
227.621	21.06
227.856	37.06
228.09	43.06
228.324	49.06
228.559	65.06
228.793	68.06
229.027	81.06
229.262	100.06
229.496	119.06
229.73	136.06
229.964	170.06
230.199	135.06
230.433	128.06
230.667	118.06
230.901	113.06
231.136	127.06
231.37	128.06
231.604	99.06
231.838	99.06
232.072	106.06
232.306	109.06
232.541	112.06
232.775	114.06
233.009	100.06
233.243	113.06
233.477	108.06
233.711	121.06
233.945	105.06
234.179	94.06
234.413	110.06
234.647	113.06
234.881	104.06
235.115	118.06
235.349	96.06
235.583	124.06
235.817	128.06
236.051	129.06
236.285	107.06
236.519	118.06
236.753	128.06
236.987	136.06
237.221	183.06
237.455	257.06
237.689	193.06
237.922	135.06
238.156	133.06
238.39	135.06
238.624	121.06
238.858	114.06
239.091	134.06
239.325	130.06
239.559	116.06
239.793	132.06
240.027	124.06
240.26	146.06
240.494	156.06
240.728	137.06
240.961	139.06
241.195	132.06
241.429	141.06
241.662	127.06
241.896	128.06
242.13	135.06
242.363	120.06
242.597	126.06
242.83	129.06
243.064	135.06
243.298	139.06
243.531	129.06
243.765	129.06
243.998	132.06
244.232	149.06
244.465	138.06
244.699	139.06
244.932	147.06
245.166	136.06
245.399	152.06
245.633	140.06
245.866	135.06
246.099	150.06
246.333	156.06
246.566	132.06
246.8	145.06
247.033	153.06
247.266	153.06
247.5	150.06
247.733	161.06
247.966	163.06
248.2	163.06
248.433	170.06
248.666	181.06
248.899	182.06
249.133	191.06
249.366	203.06
249.599	196.06
249.832	187.06
250.066	186.06
250.299	188.06
250.532	187.06
250.765	205.06
250.998	238.06
251.231	242.06
251.465	218.06
251.698	221.06
251.931	200.06
252.164	211.06
252.397	202.06
252.63	206.06
252.863	207.06
253.096	229.06
253.329	225.06
253.562	240.06
253.795	223.06
254.028	221.06
254.261	224.06
254.494	225.06
254.727	259.06
254.96	281.06
255.193	260.06
255.426	276.06
255.659	246.06
255.892	225.06
256.124	236.06
256.357	233.06
256.59	244.06
256.823	220.06
257.056	208.06
257.289	202.06
257.521	204.06
257.754	193.06
257.987	217.06
258.22	196.06
258.452	220.06
258.685	216.06
258.918	215.06
259.151	204.06
259.383	203.06
259.616	225.06
259.849	228.06
260.081	226.06
260.314	256.06
260.547	245.06
260.779	248.06
261.012	228.06
261.244	220.06
261.477	224.06
261.71	226.06
261.942	229.06
262.175	248.06
262.407	219.06
262.64	198.06
262.872	211.06
263.105	191.06
263.337	220.06
263.57	206.06
263.802	194.06
264.035	192.06
264.267	195.06
264.499	204.06
264.732	207.06
264.964	200.06
265.197	199.06
265.429	191.06
265.661	191.06
265.894	190.06
266.126	193.06
266.358	209.06
266.591	208.06
266.823	208.06
267.055	218.06
267.287	215.06
267.52	211.06
267.752	230.06
267.984	216.06
268.216	230.06
268.448	217.06
268.681	240.06
268.913	238.06
269.145	241.06
269.377	276.06
269.609	277.06
269.841	275.06
270.073	292.06
270.306	278.06
270.538	297.06
270.77	313.06
271.002	310.06
271.234	289.06
271.466	299.06
271.698	290.06
271.93	316.06
272.162	315.06
272.394	316.06
272.626	305.06
272.858	296.06
273.09	275.06
273.322	249.06
273.553	256.06
273.785	257.06
274.017	255.06
274.249	267.06
274.481	248.06
274.713	257.06
274.945	278.06
275.176	263.06
275.408	258.06
275.64	258.06
275.872	265.06
276.104	243.06
276.335	242.06
276.567	278.06
276.799	269.06
277.031	315.06
277.262	314.06
277.494	309.06
277.726	300.06
277.957	277.06
278.189	281.06
278.421	263.06
278.652	273.06
278.884	257.06
279.115	252.06
279.347	245.06
279.579	265.06
279.81	260.06
280.042	258.06
280.273	251.06
280.505	265.06
280.736	247.06
280.968	241.06
281.199	231.06
281.431	251.06
281.662	241.06
281.894	235.06
282.125	232.06
282.356	251.06
282.588	267.06
282.819	292.06
283.051	262.06
283.282	241.06
283.513	242.06
283.745	258.06
283.976	259.06
284.207	256.06
284.439	238.06
284.67	260.06
284.901	243.06
285.132	232.06
285.364	232.06
285.595	229.06
285.826	256.06
286.057	264.06
286.288	274.06
286.52	259.06
286.751	260.06
286.982	267.06
287.213	257.06
287.444	280.06
287.675	260.06
287.906	274.06
288.138	274.06
288.369	271.06
288.6	262.06
288.831	284.06
289.062	273.06
289.293	248.06
289.524	258.06
289.755	244.06
289.986	259.06
290.217	270.06
290.448	254.06
290.679	268.06
290.91	259.06
291.141	268.06
291.371	247.06
291.602	254.06
291.833	249.06
292.064	258.06
292.295	260.06
292.526	257.06
292.757	253.06
292.987	253.06
293.218	254.06
293.449	247.06
293.68	265.06
293.91	249.06
294.141	264.06
294.372	251.06
294.603	268.06
294.833	269.06
295.064	282.06
295.295	265.06
295.525	256.06
295.756	276.06
295.987	272.06
296.217	315.06
296.448	302.06
296.679	274.06
296.909	263.06
297.14	275.06
297.37	268.06
297.601	261.06
297.831	259.06
298.062	270.06
298.292	264.06
298.523	263.06
298.753	256.06
298.984	275.06
299.214	262.06
299.445	276.06
299.675	276.06
299.905	269.06
300.136	293.06
300.366	281.06
300.597	267.06
300.827	301.06
301.057	293.06
301.288	289.06
301.518	292.06
301.748	273.06
301.979	277.06
302.209	299.06
302.439	300.06
302.669	283.06
302.9	286.06
303.13	292.06
303.36	292.06
303.59	303.06
303.82	299.06
304.051	290.06
304.281	298.06
304.511	294.06
304.741	276.06
304.971	310.06
305.201	274.06
305.431	278.06
305.661	278.06
305.891	284.06
306.121	293.06
306.352	300.06
306.582	300.06
306.812	279.06
307.042	302.06
307.272	297.06
307.502	308.06
307.731	297.06
307.961	320.06
308.191	277.06
308.421	295.06
308.651	312.06
308.881	286.06
309.111	314.06
309.341	297.06
309.571	320.06
309.8	314.06
310.03	342.06
310.26	353.06
310.49	365.06
310.72	352.06
310.949	384.06
311.179	394.06
311.409	356.06
311.639	338.06
311.868	355.06
312.098	356.06
312.328	341.06
312.557	380.06
312.787	386.06
313.017	388.06
313.246	352.06
313.476	344.06
313.706	332.06
313.935	361.06
314.165	378.06
314.394	371.06
314.624	379.06
314.853	343.06
315.083	344.06
315.312	343.06
315.542	321.06
315.771	340.06
316.001	319.06
316.23	355.06
316.46	332.06
316.689	346.06
316.919	346.06
317.148	345.06
317.377	345.06
317.607	348.06
317.836	366.06
318.065	352.06
318.295	349.06
318.524	319.06
318.753	337.06
318.983	341.06
319.212	354.06
319.441	343.06
319.67	362.06
319.9	352.06
320.129	346.06
320.358	339.06
320.587	355.06
320.816	354.06
321.046	363.06
321.275	387.06
321.504	362.06
321.733	375.06
321.962	388.06
322.191	395.06
322.42	422.06
322.649	439.06
322.878	424.06
323.108	431.06
323.337	458.06
323.566	478.06
323.795	534.06
324.024	594.06
324.253	689.06
324.482	1003.06
324.71	1554.06
324.939	2285.06
325.168	2051.06
325.397	1080.06
325.626	692.06
325.855	557.06
326.084	506.06
326.313	492.06
326.542	506.06
326.77	562.06
326.999	630.06
327.228	902.06
327.457	1382.06
327.686	1720.06
327.914	1178.06
328.143	772.06
328.372	669.06
328.6	610.06
328.829	584.06
329.058	611.06
329.287	583.06
329.515	548.06
329.744	501.06
329.972	474.06
330.201	514.06
330.43	562.06
330.658	596.06
330.887	637.06
331.115	602.06
331.344	500.06
331.572	463.06
331.801	483.06
332.03	442.06
332.258	432.06
332.486	445.06
332.715	399.06
332.943	380.06
333.172	428.06
333.4	425.06
333.629	425.06
333.857	436.06
334.085	455.06
334.314	461.06
334.542	494.06
334.771	487.06
334.999	457.06
335.227	408.06
335.455	408.06
335.684	390.06
335.912	390.06
336.14	379.06
336.369	393.06
336.597	397.06
336.825	392.06
337.053	388.06
337.281	384.06
337.51	375.06
337.738	410.06
337.966	397.06
338.194	396.06
338.422	391.06
338.65	404.06
338.878	377.06
339.106	375.06
339.334	394.06
339.562	376.06
339.79	359.06
340.018	388.06
340.246	386.06
340.474	390.06
340.702	396.06
340.93	384.06
341.158	388.06
341.386	396.06
341.614	381.06
341.842	377.06
342.07	375.06
342.298	381.06
342.526	374.06
342.754	373.06
342.981	363.06
343.209	363.06
343.437	358.06
343.665	361.06
343.893	355.06
344.12	385.06
344.348	372.06
344.576	392.06
344.804	414.06
345.031	388.06
345.259	396.06
345.487	401.06
345.714	386.06
345.942	373.06
346.17	390.06
346.397	370.06
346.625	374.06
346.853	378.06
347.08	377.06
347.308	380.06
347.535	377.06
347.763	389.06
347.99	371.06
348.218	393.06
348.445	380.06
348.673	404.06
348.9	382.06
349.128	368.06
349.355	359.06
349.583	378.06
349.81	368.06
350.037	379.06
350.265	367.06
350.492	385.06
350.72	350.06
350.947	380.06
351.174	378.06
351.402	394.06
351.629	394.06
351.856	385.06
352.083	376.06
352.311	400.06
352.538	386.06
352.765	399.06
352.992	401.06
353.22	386.06
353.447	377.06
353.674	380.06
353.901	355.06
354.128	376.06
354.355	358.06
354.583	350.06
354.81	349.06
355.037	372.06
355.264	330.06
355.491	333.06
355.718	343.06
355.945	339.06
356.172	342.06
356.399	366.06
356.626	348.06
356.853	368.06
357.08	343.06
357.307	341.06
357.534	316.06
357.761	324.06
357.988	353.06
358.215	363.06
358.441	348.06
358.668	339.06
358.895	352.06
359.122	355.06
359.349	364.06
359.576	390.06
359.802	417.06
360.029	448.06
360.256	430.06
360.483	434.06
360.709	386.06
360.936	377.06
361.163	378.06
361.39	379.06
361.616	386.06
361.843	386.06
362.07	381.06
362.296	378.06
362.523	379.06
362.749	368.06
362.976	370.06
363.203	368.06
363.429	344.06
363.656	363.06
363.882	360.06
364.109	375.06
364.335	360.06
364.562	368.06
364.788	357.06
365.015	356.06
365.241	351.06
365.468	357.06
365.694	374.06
365.92	391.06
366.147	336.06
366.373	370.06
366.599	356.06
366.826	345.06
367.052	355.06
367.278	355.06
367.505	356.06
367.731	357.06
367.957	374.06
368.184	367.06
368.41	341.06
368.636	364.06
368.862	367.06
369.089	362.06
369.315	358.06
369.541	350.06
369.767	354.06
369.993	349.06
370.219	358.06
370.445	361.06
370.672	355.06
370.898	370.06
371.124	344.06
371.35	373.06
371.576	364.06
371.802	333.06
372.028	356.06
372.254	338.06
372.48	345.06
372.706	333.06
372.932	331.06
373.158	321.06
373.384	363.06
373.61	350.06
373.835	342.06
374.061	339.06
374.287	333.06
374.513	368.06
374.739	360.06
374.965	347.06
375.191	359.06
375.416	340.06
375.642	338.06
375.868	334.06
376.094	339.06
376.319	353.06
376.545	342.06
376.771	349.06
376.997	338.06
377.222	337.06
377.448	338.06
377.674	344.06
377.899	329.06
378.125	337.06
378.35	342.06
378.576	363.06
378.802	331.06
379.027	349.06
379.253	348.06
379.478	322.06
379.704	339.06
379.929	333.06
380.155	348.06
380.38	353.06
380.606	343.06
380.831	347.06
381.057	356.06
381.282	348.06
381.507	354.06
381.733	352.06
381.958	358.06
382.184	343.06
382.409	347.06
382.634	349.06
382.86	353.06
383.085	365.06
383.31	353.06
383.535	330.06
383.761	356.06
383.986	362.06
384.211	363.06
384.436	340.06
384.662	346.06
384.887	366.06
385.112	350.06
385.337	374.06
385.562	358.06
385.787	352.06
386.013	378.06
386.238	379.06
386.463	369.06
386.688	367.06
386.913	355.06
387.138	357.06
387.363	365.06
387.588	357.06
387.813	360.06
388.038	365.06
388.263	365.06
388.488	361.06
388.713	358.06
388.938	364.06
389.163	373.06
389.387	364.06
389.612	375.06
389.837	349.06
390.062	350.06
390.287	357.06
390.512	351.06
390.736	358.06
390.961	378.06
391.186	351.06
391.411	375.06
391.636	349.06
391.86	388.06
392.085	376.06
392.31	384.06
392.534	385.06
392.759	366.06
392.984	361.06
393.208	362.06
393.433	384.06
393.658	375.06
393.882	353.06
394.107	372.06
394.331	372.06
394.556	375.06
394.78	355.06
395.005	347.06
395.229	347.06
395.454	348.06
395.678	394.06
395.903	380.06
396.127	398.06
396.352	390.06
396.576	379.06
396.801	380.06
397.025	383.06
397.249	391.06
397.474	385.06
397.698	387.06
397.922	403.06
398.147	412.06
398.371	437.06
398.595	410.06
398.82	400.06
399.044	390.06
399.268	425.06
399.492	420.06
399.717	448.06
399.941	474.06
400.165	497.06
400.389	531.06
400.613	458.06
400.837	436.06
401.062	423.06
401.286	396.06
401.51	420.06
401.734	434.06
401.958	422.06
402.182	433.06
402.406	427.06
402.63	440.06
402.854	429.06
403.078	438.06
403.302	446.06
403.526	454.06
403.75	423.06
403.974	430.06
404.198	414.06
404.422	422.06
404.645	436.06
404.869	450.06
405.093	477.06
405.317	518.06
405.541	535.06
405.765	512.06
405.988	473.06
406.212	470.06
406.436	516.06
406.66	490.06
406.883	472.06
407.107	490.06
407.331	523.06
407.555	568.06
407.778	598.06
408.002	546.06
408.226	478.06
408.449	465.06
408.673	473.06
408.896	490.06
409.12	548.06
409.344	494.06
409.567	467.06
409.791	444.06
410.014	460.06
410.238	441.06
410.461	449.06
410.685	441.06
410.908	452.06
411.132	489.06
411.355	514.06
411.578	504.06
411.802	426.06
412.025	422.06
412.249	436.06
412.472	441.06
412.695	506.06
412.919	465.06
413.142	432.06
413.365	441.06
413.589	434.06
413.812	421.06
414.035	405.06
414.258	394.06
414.482	418.06
414.705	418.06
414.928	388.06
415.151	390.06
415.374	390.06
415.597	391.06
415.821	392.06
416.044	410.06
416.267	396.06
416.49	414.06
416.713	404.06
416.936	405.06
417.159	427.06
417.382	415.06
417.605	414.06
417.828	428.06
418.051	436.06
418.274	436.06
418.497	396.06
418.72	417.06
418.943	421.06
419.166	410.06
419.389	434.06
419.611	444.06
419.834	436.06
420.057	445.06
420.28	462.06
420.503	447.06
420.726	436.06
420.948	462.06
421.171	508.06
421.394	518.06
421.617	473.06
421.839	461.06
422.062	453.06
422.285	452.06
422.507	501.06
422.73	579.06
422.953	568.06
423.175	492.06
423.398	477.06
423.621	472.06
423.843	505.06
424.066	486.06
424.288	474.06
424.511	506.06
424.733	553.06
424.956	646.06
425.178	622.06
425.401	619.06
425.623	599.06
425.846	537.06
426.068	494.06
426.291	514.06
426.513	472.06
426.735	501.06
426.958	544.06
427.18	614.06
427.402	715.06
427.625	828.06
427.847	740.06
428.069	617.06
428.292	552.06
428.514	502.06
428.736	471.06
428.958	483.06
429.181	448.06
429.403	459.06
429.625	469.06
429.847	491.06
430.069	560.06
430.292	568.06
430.514	485.06
430.736	468.06
430.958	439.06
431.18	434.06
431.402	440.06
431.624	396.06
431.846	427.06
432.068	405.06
432.29	433.06
432.512	413.06
432.734	450.06
432.956	418.06
433.178	434.06
433.4	443.06
433.622	434.06
433.844	424.06
434.066	432.06
434.287	420.06
434.509	436.06
434.731	438.06
434.953	463.06
435.175	455.06
435.397	470.06
435.618	490.06
435.84	533.06
436.062	649.06
436.284	678.06
436.505	576.06
436.727	525.06
436.949	477.06
437.17	470.06
437.392	465.06
437.614	493.06
437.835	526.06
438.057	626.06
438.278	685.06
438.5	696.06
438.721	752.06
438.943	721.06
439.165	584.06
439.386	526.06
439.608	498.06
439.829	516.06
440.05	553.06
440.272	600.06
440.493	553.06
440.715	484.06
440.936	490.06
441.158	460.06
441.379	466.06
441.6	485.06
441.822	508.06
442.043	533.06
442.264	619.06
442.486	650.06
442.707	572.06
442.928	542.06
443.149	512.06
443.371	538.06
443.592	583.06
443.813	655.06
444.034	699.06
444.255	565.06
444.476	511.06
444.698	472.06
444.919	512.06
445.14	596.06
445.361	544.06
445.582	543.06
445.803	616.06
446.024	713.06
446.245	721.06
446.466	655.06
446.687	562.06
446.908	493.06
447.129	485.06
447.35	462.06
447.571	477.06
447.792	460.06
448.013	472.06
448.234	471.06
448.455	556.06
448.675	635.06
448.896	733.06
449.117	625.06
449.338	624.06
449.559	697.06
449.779	790.06
450	615.06
450.221	498.06
450.442	468.06
450.662	468.06
450.883	473.06
451.104	469.06
451.324	475.06
451.545	461.06
451.766	421.06
451.986	405.06
452.207	415.06
452.428	404.06
452.648	394.06
452.869	414.06
453.089	419.06
453.31	433.06
453.53	442.06
453.751	414.06
453.971	436.06
454.192	459.06
454.412	425.06
454.633	425.06
454.853	405.06
455.073	421.06
455.294	429.06
455.514	517.06
455.734	500.06
455.955	427.06
456.175	428.06
456.395	388.06
456.616	380.06
456.836	405.06
457.056	383.06
457.276	361.06
457.497	393.06
457.717	401.06
457.937	395.06
458.157	398.06
458.377	381.06
458.598	427.06
458.818	497.06
459.038	586.06
459.258	614.06
459.478	513.06
459.698	445.06
459.918	390.06
460.138	398.06
460.358	408.06
460.578	417.06
460.798	412.06
461.018	429.06
461.238	380.06
461.458	406.06
461.678	403.06
461.898	395.06
462.118	410.06
462.338	405.06
462.558	418.06
462.777	416.06
462.997	428.06
463.217	430.06
463.437	443.06
463.657	434.06
463.876	418.06
464.096	432.06
464.316	432.06
464.536	450.06
464.755	455.06
464.975	442.06
465.195	492.06
465.414	590.06
465.634	528.06
465.854	463.06
466.073	444.06
466.293	457.06
466.512	426.06
466.732	412.06
466.951	403.06
467.171	444.06
467.391	422.06
467.61	435.06
467.829	450.06
468.049	437.06
468.268	419.06
468.488	388.06
468.707	398.06
468.927	409.06
469.146	400.06
469.365	402.06
469.585	392.06
469.804	412.06
470.023	442.06
470.243	427.06
470.462	402.06
470.681	444.06
470.901	458.06
471.12	441.06
471.339	405.06
471.558	437.06
471.777	426.06
471.997	418.06
472.216	427.06
472.435	467.06
472.654	446.06
472.873	433.06
473.092	406.06
473.311	420.06
473.53	420.06
473.749	416.06
473.968	473.06
474.187	604.06
474.406	631.06
474.625	475.06
474.844	449.06
475.063	448.06
475.282	426.06
475.501	442.06
475.72	435.06
475.939	438.06
476.158	445.06
476.377	443.06
476.596	424.06
476.814	424.06
477.033	442.06
477.252	436.06
477.471	442.06
477.69	449.06
477.908	446.06
478.127	453.06
478.346	448.06
478.564	469.06
478.783	449.06
479.002	485.06
479.22	472.06
479.439	471.06
479.658	510.06
479.876	488.06
480.095	531.06
480.313	551.06
480.532	527.06
480.751	511.06
480.969	521.06
481.188	605.06
481.406	628.06
481.624	556.06
481.843	538.06
482.061	516.06
482.28	507.06
482.498	499.06
482.717	489.06
482.935	498.06
483.153	488.06
483.372	523.06
483.59	487.06
483.808	485.06
484.027	499.06
484.245	486.06
484.463	498.06
484.681	509.06
484.9	492.06
485.118	497.06
485.336	493.06
485.554	526.06
485.772	519.06
485.99	515.06
486.209	512.06
486.427	522.06
486.645	538.06
486.863	562.06
487.081	549.06
487.299	542.06
487.517	542.06
487.735	533.06
487.953	524.06
488.171	546.06
488.389	545.06
488.607	542.06
488.825	549.06
489.043	541.06
489.261	550.06
489.479	549.06
489.696	562.06
489.914	552.06
490.132	552.06
490.35	577.06
490.568	576.06
490.786	563.06
491.003	582.06
491.221	584.06
491.439	624.06
491.657	624.06
491.874	635.06
492.092	634.06
492.31	604.06
492.527	638.06
492.745	637.06
492.963	626.06
493.18	647.06
493.398	659.06
493.615	633.06
493.833	663.06
494.05	629.06
494.268	647.06
494.485	634.06
494.703	634.06
494.92	641.06
495.138	656.06
495.355	651.06
495.573	654.06
495.79	660.06
496.008	642.06
496.225	628.06
496.442	656.06
496.66	657.06
496.877	658.06
497.094	632.06
497.312	657.06
497.529	662.06
497.746	668.06
497.963	648.06
498.181	674.06
498.398	697.06
498.615	688.06
498.832	694.06
499.049	682.06
499.267	726.06
499.484	700.06
499.701	732.06
499.918	725.06
500.135	752.06
500.352	768.06
500.569	768.06
500.786	780.06
501.003	775.06
501.22	745.06
501.437	772.06
501.654	778.06
501.871	752.06
502.088	777.06
